LabVIEW Measurement	
Writer_Version	2
Reader_Version	2
Separator	Tab
Decimal_Separator	.
Multi_Headings	No
X_Columns	One
Time_Pref	Absolute
Operator	admin
Description	Clolumns are: time, Current, Voltage, Power, Battery Temp, and Chamber Temp
Date	2024/07/01
Time	15:14:43.4765954017639160157
***End_of_Header***	
	
Channels	6						
Samples	1	1	1	1	1	1	
Date	2024/07/10	2024/07/10	2024/07/10	2024/07/10	2024/07/10	2024/07/10	
Time	17:14:46.2275705337524414063	17:14:46.2325711250305175781	17:14:46.2385735511779785156	17:14:46.2106337547302246094	17:14:46.2106337547302246094	17:14:46.2106337547302246094	
X_Dimension	Time	Time	Time	Time	Time	Time	
X0	0.0000000000000000E+0	0.0000000000000000E+0	0.0000000000000000E+0	0.0000000000000000E+0	0.0000000000000000E+0	0.0000000000000000E+0	
Delta_X	1.000000	1.000000	1.000000	1.000000	1.000000	1.000000	
***End_of_Header***							
X_Value	Untitled	Untitled 1	Untitled 2	Untitled 3	Untitled 4	Untitled 5	Comment
0.000000	0.011221	4.130600	0.046288	20.976166	0.000780	20.760440
0.999710	-3.012100	4.013400	-12.086000	20.974669	0.000784	20.745191
2.001445	-3.004500	4.006800	-12.038000	20.970479	0.000781	20.757122
3.000902	-3.010200	4.000900	-12.042000	20.998174	0.000778	20.760640
4.000465	-3.004800	3.996500	-12.008000	20.999623	0.000778	20.759719
5.006144	-3.003200	3.992900	-11.990000	20.988346	0.000778	20.764086
6.004421	-2.995900	3.990100	-11.952000	20.994357	0.000777	20.755399
7.005844	-3.001900	3.988300	-11.970000	20.984029	0.000778	20.767355
8.002119	-2.984400	3.987000	-11.897000	21.010326	0.000776	20.748612
9.004178	-3.004400	3.984300	-11.969000	20.982580	0.000776	20.772070
10.005382	-2.970200	3.983500	-11.831000	21.006933	0.000774	20.753753
11.003796	-3.022700	3.979900	-12.028000	20.997577	0.000774	20.757672
12.004766	-2.999700	3.979400	-11.936000	20.995906	0.000775	20.764535
13.008530	-3.007100	3.978000	-11.961000	21.001269	0.000773	20.761839
14.004180	-2.997900	3.976600	-11.919000	20.998324	0.000770	20.779757
15.005160	-2.995100	3.974600	-11.903000	21.019684	0.000771	20.786896
16.007705	-2.995600	3.973000	-11.899000	21.015942	0.000770	20.763238
17.006516	-2.997400	3.972100	-11.905000	21.020133	0.000770	20.782130
18.009831	-2.978800	3.970800	-11.827000	21.001595	0.000768	20.783502
19.007329	-3.008400	3.968000	-11.936000	21.023003	0.000769	20.778835
20.008660	-2.991800	3.967500	-11.869000	21.016541	0.000766	20.776166
21.011683	-2.995700	3.965700	-11.878000	21.024001	0.000766	20.784101
22.010190	-2.992000	3.965300	-11.863000	21.016890	0.000767	20.763712
23.012809	-3.005500	3.963700	-11.911000	21.042264	0.000764	20.782453
24.012430	-3.000600	3.962900	-11.890000	21.035876	0.000764	20.758520
25.009231	-2.986300	3.962300	-11.832000	21.036799	0.000765	20.778884
26.012305	-3.002100	3.961000	-11.889000	21.038394	0.000765	20.789015
27.013829	-2.986400	3.961400	-11.830000	21.034452	0.000765	20.777011
28.010135	-2.992200	3.959700	-11.847000	21.053763	0.000763	20.768825
29.009098	-2.994300	3.957900	-11.851000	21.048972	0.000762	20.773042
30.010218	-2.983000	3.958700	-11.808000	21.059425	0.000759	20.787764
31.009433	-2.990600	3.956100	-11.829000	21.068058	0.000761	20.795451
32.013713	-2.978400	3.956300	-11.781000	21.075717	0.000761	20.778456
33.012636	-2.998000	3.954900	-11.856000	21.060797	0.000762	20.764006
34.015996	-3.016800	3.953300	-11.925000	21.062641	0.000760	20.772015
35.009818	-2.987800	3.954300	-11.814000	21.053235	0.000760	20.795324
36.011529	-3.006200	3.953200	-11.883000	21.076165	0.000761	20.769895
37.017416	-3.007300	3.952300	-11.885000	21.088213	0.000758	20.812766
38.011828	-3.006100	3.952700	-11.882000	21.083674	0.000759	20.802536
39.014055	-3.003800	3.951600	-11.869000	21.083998	0.000756	20.772988
40.014471	-3.022300	3.950100	-11.937000	21.075016	0.000756	20.791506
41.011934	-2.998900	3.950800	-11.847000	21.101609	0.000758	20.794397
42.012037	-2.977000	3.950600	-11.760000	21.084843	0.000758	20.794696
43.014919	-2.998900	3.948300	-11.840000	21.104904	0.000755	20.784417
44.010524	-3.001500	3.949500	-11.853000	21.106172	0.000754	20.788531
45.014350	-3.007600	3.947300	-11.870000	21.112012	0.000753	20.791053
46.014294	-3.012900	3.947000	-11.891000	21.112113	0.000754	20.785938
47.012840	-3.005800	3.947300	-11.863000	21.122591	0.000751	20.790729
48.017251	-3.015700	3.944200	-11.894000	21.143298	0.000751	20.817132
49.015270	-2.993700	3.945300	-11.810000	21.122441	0.000753	20.793898
50.016964	-2.988800	3.945200	-11.791000	21.127180	0.000752	20.806699
51.013803	-2.979300	3.944100	-11.749000	21.130671	0.000754	20.778897
52.016589	-2.989800	3.944500	-11.792000	21.138606	0.000751	20.780670
53.015902	-3.018000	3.941800	-11.896000	21.128079	0.000749	20.812340
54.013522	-2.995600	3.943900	-11.813000	21.149458	0.000749	20.774930
55.015778	-2.992700	3.942000	-11.796000	21.162655	0.000749	20.787657
56.014432	-2.989200	3.942200	-11.783000	21.179396	0.000748	20.805351
57.016197	-2.981800	3.941300	-11.750000	21.164326	0.000748	20.804976
58.014764	-3.010000	3.940600	-11.860000	21.163478	0.000748	20.812662
59.016782	-2.995100	3.941700	-11.804000	21.161954	0.000749	20.799284
60.018400	-3.005700	3.939500	-11.839000	21.179592	0.000748	20.799384
61.021636	-3.011800	3.938900	-11.862000	21.178145	0.000747	20.818799
62.014183	-3.017300	3.938200	-11.881000	21.184159	0.000747	20.812487
63.014221	-2.982700	3.938100	-11.746000	21.206685	0.000747	20.816055
64.019964	-3.004100	3.936800	-11.825000	21.206959	0.000744	20.794518
65.015952	-3.002500	3.936700	-11.819000	21.202469	0.000748	20.794294
66.016574	-3.005900	3.936700	-11.832000	21.224920	0.000746	20.807270
67.014691	-2.990600	3.938900	-11.778000	21.224171	0.000746	20.793244
68.017253	-2.998200	3.937100	-11.804000	21.220579	0.000743	20.803401
69.016268	-3.010300	3.935400	-11.845000	21.227938	0.000746	20.815030
70.018633	-3.035400	3.934200	-11.941000	21.231504	0.000743	20.818123
71.015883	-3.015700	3.935300	-11.867000	21.254079	0.000743	20.822215
72.017497	-2.994100	3.935800	-11.783000	21.221102	0.000746	20.813881
73.017469	-2.998600	3.935800	-11.800000	21.246272	0.000745	20.817724
74.015055	-3.008300	3.933100	-11.831000	21.237641	0.000743	20.838486
75.017647	-3.014100	3.933200	-11.854000	21.248217	0.000743	20.824885
76.018373	-2.974500	3.934800	-11.703000	21.240211	0.000742	20.806919
77.017658	-3.005400	3.934100	-11.821000	21.267701	0.000741	20.817350
78.019075	-2.995700	3.932700	-11.780000	21.269919	0.000744	20.801551
79.019775	-3.007500	3.933400	-11.827000	21.262360	0.000742	20.809163
80.017767	-3.024500	3.930600	-11.887000	21.271117	0.000738	20.828354
81.019295	-2.993000	3.932000	-11.766000	21.275356	0.000740	20.834491
82.024655	-3.001800	3.932500	-11.802000	21.278225	0.000741	20.813180
83.021521	-3.012600	3.930000	-11.838000	21.281244	0.000740	20.825683
84.021258	-3.020600	3.931000	-11.873000	21.267674	0.000741	20.819694
85.021904	-3.016100	3.931300	-11.855000	21.308384	0.000738	20.842403
86.022875	-3.017200	3.930800	-11.858000	21.320657	0.000740	20.816275
87.020261	-3.006300	3.931200	-11.818000	21.306812	0.000741	20.833244
88.020557	-3.026400	3.930600	-11.895000	21.300375	0.000742	20.828701
89.020254	-3.006500	3.929400	-11.812000	21.326768	0.000739	20.829975
90.025940	-3.003600	3.929000	-11.800000	21.335297	0.000737	20.828077
91.020892	-3.004300	3.929800	-11.805000	21.339562	0.000739	20.814801
92.024930	-2.997900	3.928300	-11.776000	21.335047	0.000737	20.827827
93.021749	-2.991300	3.929100	-11.752000	21.336568	0.000737	20.827453
94.023317	-3.012200	3.927400	-11.829000	21.351983	0.000737	20.829124
95.022833	-3.005800	3.927600	-11.804000	21.331255	0.000736	20.816447
96.020630	-2.999700	3.927400	-11.780000	21.348342	0.000735	20.834964
97.025280	-3.008200	3.927800	-11.815000	21.338538	0.000737	20.812828
98.024295	-2.994800	3.926800	-11.758000	21.349613	0.000739	20.819641
99.024891	-3.011600	3.926900	-11.824000	21.371536	0.000736	20.818815
100.022695	-3.029700	3.926400	-11.894000	21.355075	0.000738	20.817519
101.023140	-3.008500	3.926500	-11.812000	21.354601	0.000738	20.836959
102.022395	-3.019600	3.925900	-11.853000	21.359115	0.000739	20.835785
103.025353	-3.001500	3.926200	-11.783000	21.359466	0.000738	20.825230
104.022761	-3.034700	3.924300	-11.909000	21.355674	0.000738	20.812429
105.022662	-3.031500	3.923900	-11.895000	21.370518	0.000736	20.821589
106.026331	-3.019200	3.924400	-11.847000	21.377374	0.000738	20.833191
107.022866	-2.996000	3.925200	-11.759000	21.373835	0.000736	20.819693
108.022930	-3.010700	3.925100	-11.816000	21.363284	0.000739	20.805343
109.023558	-2.998100	3.924300	-11.765000	21.408629	0.000734	20.822262
110.026556	-2.988400	3.923100	-11.723000	21.405412	0.000736	20.813828
111.027899	-2.980100	3.924200	-11.693000	21.393915	0.000738	20.805169
112.023626	-2.991100	3.923600	-11.735000	21.379350	0.000733	20.822840
113.025863	-2.996700	3.924400	-11.760000	21.402396	0.000737	20.805121
114.023296	-3.007400	3.922700	-11.796000	21.401248	0.000736	20.807766
115.024004	-3.015800	3.922800	-11.829000	21.398879	0.000734	20.811559
116.025805	-3.003300	3.922600	-11.779000	21.423373	0.000738	20.809039
117.026210	-3.008000	3.921800	-11.796000	21.426691	0.000733	20.821841
118.027542	-2.992100	3.922300	-11.735000	21.428039	0.000734	20.814656
119.026474	-3.003400	3.921600	-11.777000	21.417214	0.000736	20.804300
120.024116	-3.004500	3.921600	-11.781000	21.416592	0.000735	20.789452
121.026638	-2.984000	3.921900	-11.702000	21.428241	0.000734	20.809642
122.027096	-3.000700	3.921200	-11.765000	21.439416	0.000734	20.804702
123.028141	-2.979900	3.921400	-11.684000	21.423926	0.000735	20.816230
124.030479	-3.004100	3.920900	-11.778000	21.419836	0.000734	20.801707
125.029945	-2.996200	3.921200	-11.748000	21.434526	0.000735	20.808345
126.029538	-3.001800	3.920500	-11.767000	21.465728	0.000734	20.810166
127.034467	-2.996300	3.922000	-11.751000	21.450515	0.000732	20.815333
128.030677	-2.988000	3.920600	-11.713000	21.457774	0.000736	20.790354
129.031312	-2.991100	3.921800	-11.730000	21.448521	0.000735	20.768294
130.031614	-3.003900	3.919100	-11.772000	21.463911	0.000737	20.806926
131.033177	-3.000900	3.919600	-11.762000	21.474636	0.000734	20.799166
132.034578	-2.991500	3.919800	-11.725000	21.468428	0.000733	20.793427
133.036349	-2.991900	3.920300	-11.728000	21.495338	0.000733	20.799491
134.035641	-3.016300	3.917900	-11.815000	21.490026	0.000736	20.799391
135.035686	-3.016100	3.916500	-11.811000	21.501300	0.000733	20.783171
136.035213	-2.989700	3.917600	-11.711000	21.499927	0.000733	20.784642
137.040040	-2.993300	3.917900	-11.726000	21.487508	0.000733	20.785492
138.034897	-3.005100	3.917800	-11.772000	21.483642	0.000733	20.781624
139.035990	-3.011800	3.916800	-11.796000	21.496611	0.000732	20.781799
140.038412	-3.008500	3.917700	-11.785000	21.505218	0.000735	20.773815
141.036232	-3.012200	3.917100	-11.798000	21.505692	0.000732	20.792307
142.036210	-3.027600	3.916100	-11.855000	21.525418	0.000733	20.782175
143.039172	-3.011800	3.917200	-11.797000	21.543575	0.000733	20.788963
144.037853	-2.995500	3.917900	-11.735000	21.535096	0.000732	20.791384
145.038948	-2.982000	3.916700	-11.678000	21.523450	0.000732	20.795377
146.038368	-2.996600	3.915600	-11.732000	21.528138	0.000730	20.796276
147.038674	-2.990700	3.916100	-11.711000	21.551881	0.000734	20.778308
148.044882	-2.986500	3.916400	-11.695000	21.524821	0.000732	20.789163
149.040107	-3.012800	3.914800	-11.794000	21.545746	0.000732	20.785445
150.044497	-3.015200	3.916900	-11.809000	21.553127	0.000733	20.766278
151.042001	-3.002400	3.914200	-11.751000	21.524374	0.000732	20.754102
152.042191	-3.007500	3.915100	-11.773000	21.550186	0.000733	20.787517
153.045616	-2.982800	3.915600	-11.677000	21.552204	0.000732	20.778158
154.046859	-2.993400	3.913500	-11.713000	21.570584	0.000731	20.798920
155.044130	-3.020900	3.913200	-11.820000	21.561633	0.000733	20.788066
156.042840	-3.005300	3.914900	-11.765000	21.559911	0.000733	20.754574
157.045266	-2.984200	3.914700	-11.680000	21.569987	0.000733	20.776985
158.045354	-3.013600	3.913900	-11.794000	21.581058	0.000732	20.781901
159.045685	-2.998200	3.913300	-11.732000	21.580037	0.000732	20.758593
160.043343	-3.019100	3.913000	-11.812000	21.588042	0.000733	20.778932
161.042933	-3.005400	3.914300	-11.763000	21.578916	0.000733	20.785447
162.043782	-3.011700	3.913400	-11.786000	21.580338	0.000731	20.784499
163.044554	-3.000700	3.915200	-11.747000	21.578716	0.000735	20.783824
164.047886	-3.016700	3.911900	-11.800000	21.588168	0.000733	20.781902
165.044868	-3.012300	3.911400	-11.781000	21.596847	0.000732	20.757396
166.045133	-2.997100	3.912500	-11.724000	21.602708	0.000735	20.762313
167.047634	-3.000900	3.911900	-11.739000	21.587120	0.000734	20.762836
168.044146	-2.996900	3.912200	-11.723000	21.612508	0.000732	20.750309
169.047660	-3.001100	3.911000	-11.735000	21.624854	0.000734	20.775466
170.045626	-3.004700	3.912400	-11.755000	21.581160	0.000732	20.788167
171.047739	-2.989500	3.912900	-11.696000	21.616050	0.000734	20.763811
172.048594	-3.015900	3.911900	-11.797000	21.623981	0.000734	20.784550
173.048277	-3.005900	3.911000	-11.755000	21.604827	0.000736	20.774391
174.049364	-3.019500	3.910000	-11.805000	21.631287	0.000730	20.767205
175.049670	-3.009900	3.910600	-11.770000	21.645151	0.000732	20.777760
176.046342	-3.003900	3.910100	-11.744000	21.634053	0.000735	20.749584
177.049777	-2.997200	3.910400	-11.719000	21.650463	0.000735	20.766955
178.051580	-3.022200	3.909800	-11.814000	21.664927	0.000735	20.770050
179.051819	-3.012600	3.910000	-11.778000	21.664028	0.000736	20.780056
180.053459	-2.986800	3.910700	-11.680000	21.669041	0.000736	20.754252
181.053712	-3.014500	3.909800	-11.785000	21.670337	0.000734	20.756024
182.053265	-3.014000	3.909200	-11.781000	21.676321	0.000733	20.743520
183.051972	-2.998500	3.909800	-11.722000	21.673055	0.000733	20.749734
184.050685	-2.999500	3.908300	-11.721000	21.694649	0.000736	20.736731
185.055241	-2.988800	3.909600	-11.684000	21.676396	0.000736	20.755449
186.054122	-2.990800	3.909600	-11.692000	21.660811	0.000735	20.779208
187.055243	-3.005400	3.907600	-11.743000	21.641933	0.000737	20.762685
188.053216	-2.999900	3.907600	-11.721000	21.651584	0.000735	20.769499
189.053653	-3.004600	3.909200	-11.745000	21.668889	0.000734	20.754100
190.052530	-2.996100	3.907700	-11.707000	21.653204	0.000735	20.750731
191.056706	-3.022000	3.909200	-11.811000	21.690035	0.000737	20.754399
192.053936	-3.010000	3.908800	-11.765000	21.694848	0.000735	20.754474
193.057330	-2.989200	3.909300	-11.685000	21.693453	0.000736	20.774416
194.051893	-2.986400	3.905800	-11.663000	21.691581	0.000736	20.760214
195.057673	-2.985600	3.908100	-11.665000	21.728661	0.000734	20.736157
196.059185	-2.987100	3.908400	-11.673000	21.713150	0.000736	20.744816
197.057787	-2.985300	3.908400	-11.667000	21.719409	0.000737	20.746812
198.060477	-2.997300	3.908200	-11.712000	21.730679	0.000735	20.747661
199.058121	-3.010900	3.906300	-11.760000	21.723873	0.000736	20.745116
200.054534	-3.000200	3.906100	-11.719000	21.729807	0.000738	20.736355
201.056634	-3.001800	3.906300	-11.725000	21.744717	0.000735	20.754598
202.060441	-2.994800	3.906300	-11.698000	21.729955	0.000737	20.745039
203.057649	-3.006200	3.906800	-11.742000	21.738036	0.000738	20.733686
204.058042	-2.995500	3.907000	-11.702000	21.751997	0.000737	20.760936
205.057716	-3.012100	3.905800	-11.764000	21.746264	0.000740	20.765155
206.061764	-2.998500	3.904900	-11.708000	21.754441	0.000735	20.736828
207.059491	-2.992100	3.905800	-11.686000	21.758905	0.000740	20.739873
208.060711	-3.011100	3.904400	-11.755000	21.746737	0.000735	20.749981
209.061109	-2.994500	3.904900	-11.692000	21.773890	0.000738	20.759613
210.062093	-2.999300	3.905600	-11.712000	21.754042	0.000739	20.750180
211.067142	-3.009300	3.903900	-11.746000	21.751025	0.000738	20.741944
212.064367	-3.019400	3.904200	-11.787000	21.758381	0.000743	20.723227
213.066754	-3.005500	3.903600	-11.731000	21.766308	0.000737	20.756292
214.062160	-3.014800	3.905200	-11.772000	21.777507	0.000739	20.737154
215.066335	-2.991700	3.903800	-11.678000	21.783042	0.000739	20.740797
216.068722	-2.997700	3.904900	-11.704000	21.786530	0.000741	20.749030
217.063985	-2.993900	3.902900	-11.684000	21.780971	0.000741	20.742518
218.061650	-3.014100	3.901700	-11.758000	21.776681	0.000740	20.747707
219.065206	-2.988500	3.904400	-11.668000	21.786606	0.000742	20.728717
220.064771	-2.996400	3.902300	-11.691000	21.802837	0.000739	20.738324
221.064911	-3.009700	3.902200	-11.742000	21.788276	0.000741	20.720430
222.066589	-2.987800	3.904100	-11.662000	21.779375	0.000740	20.747085
223.063385	-2.996200	3.901900	-11.689000	21.807775	0.000740	20.725247
224.065941	-3.000100	3.901800	-11.706000	21.795532	0.000740	20.718684
225.063186	-3.011600	3.902300	-11.752000	21.790396	0.000742	20.718285
226.063456	-3.002400	3.901600	-11.714000	21.772194	0.000740	20.716662
227.065724	-3.018000	3.901500	-11.774000	21.801543	0.000743	20.729916
228.064255	-2.995900	3.903000	-11.692000	21.802640	0.000742	20.726272
229.065289	-3.020100	3.901300	-11.781000	21.814060	0.000742	20.716365
230.066769	-2.996100	3.900900	-11.687000	21.828424	0.000743	20.720784
231.066537	-2.998000	3.900700	-11.694000	21.833785	0.000741	20.728522
232.071610	-3.001000	3.900600	-11.704000	21.855775	0.000741	20.731565
233.066320	-2.986000	3.901500	-11.649000	21.851611	0.000743	20.707482
234.069734	-2.994600	3.900000	-11.678000	21.865501	0.000742	20.718540
235.066576	-2.997700	3.900600	-11.691000	21.846926	0.000743	20.735511
236.066428	-2.985200	3.900100	-11.641000	21.865848	0.000743	20.705610
237.067587	-2.995500	3.902000	-11.687000	21.856874	0.000743	20.714647
238.068579	-2.992100	3.900600	-11.669000	21.861288	0.000743	20.729022
239.069423	-2.977700	3.901200	-11.616000	21.854133	0.000745	20.698626
240.069951	-2.996100	3.899800	-11.683000	21.850544	0.000744	20.726329
241.069233	-3.012800	3.900200	-11.750000	21.848249	0.000745	20.727351
242.068251	-2.999500	3.900400	-11.698000	21.853486	0.000744	20.706040
243.072524	-3.002000	3.900400	-11.708000	21.861840	0.000744	20.736214
244.070493	-3.035000	3.898200	-11.830000	21.867201	0.000745	20.699378
245.072361	-3.004100	3.899000	-11.711000	21.870615	0.000746	20.705166
246.072036	-3.021300	3.899200	-11.780000	21.859223	0.000745	20.729326
247.072175	-3.010200	3.898900	-11.736000	21.868572	0.000747	20.708811
248.077113	-3.019800	3.897700	-11.769000	21.860917	0.000748	20.709210
249.072591	-3.005300	3.897700	-11.713000	21.873509	0.000747	20.686725
250.074449	-3.010600	3.899700	-11.739000	21.889964	0.000747	20.725483
251.072678	-3.008200	3.896700	-11.721000	21.873883	0.000747	20.703695
252.072060	-2.996900	3.898400	-11.682000	21.888941	0.000749	20.709285
253.078809	-3.022900	3.896500	-11.778000	21.885627	0.000746	20.709287
254.077585	-2.980800	3.898200	-11.618000	21.868672	0.000746	20.722189
255.075028	-2.994300	3.897900	-11.670000	21.877547	0.000750	20.713528
256.078160	-3.014300	3.896500	-11.744000	21.878745	0.000747	20.706192
257.075703	-3.008500	3.897800	-11.725000	21.868695	0.000749	20.708935
258.078822	-2.997300	3.896000	-11.675000	21.881909	0.000749	20.725955
259.080195	-2.993000	3.897200	-11.663000	21.882208	0.000744	20.720090
260.078552	-3.020400	3.895500	-11.765000	21.894052	0.000752	20.719143
261.077329	-3.026000	3.895300	-11.786000	21.889138	0.000749	20.718018
262.080452	-3.011500	3.896600	-11.734000	21.906490	0.000749	20.695555
263.077297	-3.023200	3.895600	-11.776000	21.921846	0.000751	20.710928
264.079458	-3.001900	3.895700	-11.693000	21.930598	0.000749	20.720637
265.080042	-3.016900	3.896100	-11.752000	21.947225	0.000751	20.703615
266.079995	-3.010500	3.894800	-11.724000	21.951113	0.000749	20.694230
267.078186	-3.023800	3.895000	-11.776000	21.969438	0.000750	20.691236
268.079329	-2.988300	3.895100	-11.638000	21.963952	0.000751	20.695702
269.078846	-3.008500	3.895100	-11.717000	21.968414	0.000753	20.703014
270.080026	-2.982900	3.896000	-11.621000	21.983024	0.000750	20.684921
271.082176	-3.011800	3.895500	-11.732000	21.987085	0.000751	20.691832
272.080150	-2.990600	3.895300	-11.648000	21.959066	0.000753	20.710726
273.080190	-3.002400	3.893500	-11.689000	21.969410	0.000754	20.705433
274.084974	-2.999400	3.894300	-11.680000	21.986810	0.000755	20.707679
275.084940	-2.994500	3.894300	-11.660000	21.983918	0.000752	20.689135
276.082753	-2.979800	3.894000	-11.603000	21.995733	0.000754	20.693376
277.085770	-2.979400	3.896000	-11.607000	21.974543	0.000754	20.706779
278.083761	-3.021100	3.893300	-11.761000	21.972198	0.000754	20.695896
279.081618	-3.018500	3.894400	-11.753000	21.991072	0.000754	20.700090
280.086162	-2.988800	3.893400	-11.636000	22.004582	0.000753	20.684216
281.083241	-2.968800	3.895400	-11.563000	22.018867	0.000754	20.669591
282.083055	-3.001300	3.894300	-11.686000	21.997403	0.000757	20.688409
283.086246	-3.015100	3.892200	-11.733000	21.995907	0.000756	20.688334
284.086326	-2.991500	3.893700	-11.647000	21.996654	0.000756	20.694772
285.089717	-2.985100	3.892000	-11.617000	22.003759	0.000756	20.681495
286.089205	-2.993900	3.893000	-11.655000	21.993612	0.000755	20.701685
287.089587	-2.999100	3.892200	-11.673000	21.997052	0.000757	20.710345
288.086918	-2.972500	3.894000	-11.574000	21.994958	0.000756	20.678848
289.089140	-2.965800	3.893100	-11.545000	21.997201	0.000762	20.700536
290.087274	-2.983000	3.891700	-11.608000	21.989048	0.000759	20.680520
291.088122	-2.976600	3.892300	-11.585000	21.977380	0.000761	20.675951
292.089113	-2.983400	3.893500	-11.614000	21.980921	0.000758	20.695145
293.089965	-3.009200	3.892600	-11.712000	21.992437	0.000757	20.689129
294.088676	-2.990700	3.891700	-11.638000	22.027166	0.000759	20.675529
295.094205	-3.003700	3.892100	-11.690000	22.017044	0.000760	20.686734
296.089549	-3.002100	3.892400	-11.685000	22.021305	0.000762	20.684362
297.095734	-2.993500	3.891200	-11.648000	22.018440	0.000763	20.687183
298.088244	-2.981300	3.891500	-11.601000	22.052467	0.000761	20.685686
299.088962	-3.007800	3.890800	-11.702000	22.030954	0.000760	20.670311
300.094987	-2.984100	3.891400	-11.611000	22.037186	0.000763	20.676077
301.091385	-2.978500	3.890900	-11.588000	22.054861	0.000764	20.674330
302.092078	-2.990400	3.890800	-11.633000	22.018812	0.000762	20.680917
303.091767	-2.995000	3.889800	-11.649000	22.021057	0.000759	20.667990
304.088670	-2.965000	3.891700	-11.537000	22.035840	0.000765	20.673306
305.090226	-2.996100	3.890000	-11.654000	22.010662	0.000763	20.694096
306.093359	-3.008200	3.889600	-11.699000	22.034768	0.000764	20.675552
307.089854	-2.975400	3.891600	-11.578000	22.010587	0.000764	20.682640
308.090848	-2.992700	3.889000	-11.637000	22.027263	0.000768	20.689852
309.093844	-2.997400	3.889500	-11.658000	22.025643	0.000765	20.679221
310.092753	-3.021000	3.888200	-11.746000	22.025245	0.000765	20.690677
311.097035	-2.999500	3.889600	-11.666000	22.048728	0.000766	20.705178
312.095693	-2.999100	3.889400	-11.664000	22.029608	0.000765	20.694570
313.094883	-2.995900	3.888600	-11.649000	22.048603	0.000768	20.672807
314.093913	-2.983700	3.888000	-11.599000	22.051719	0.000768	20.689678
315.093753	-3.001600	3.888700	-11.672000	22.055608	0.000767	20.663697
316.098055	-2.982400	3.887700	-11.593000	22.090183	0.000767	20.674604
317.093811	-2.996200	3.888100	-11.648000	22.075350	0.000767	20.661176
318.096739	-2.985400	3.887200	-11.604000	22.064557	0.000770	20.675502
319.095714	-2.998500	3.887800	-11.656000	22.074530	0.000769	20.658932
320.094531	-2.999100	3.887000	-11.657000	22.082456	0.000770	20.680620
321.097494	-2.985600	3.886700	-11.603000	22.105390	0.000769	20.669914
322.095119	-3.011500	3.886400	-11.702000	22.113963	0.000769	20.699362
323.094306	-2.994000	3.887800	-11.638000	22.121941	0.000772	20.686486
324.094910	-2.979400	3.886600	-11.577000	22.146245	0.000770	20.680471
325.097205	-3.007200	3.886500	-11.687000	22.144774	0.000772	20.674257
326.098810	-3.017700	3.886100	-11.727000	22.164465	0.000772	20.675005
327.100349	-2.999000	3.885800	-11.652000	22.169726	0.000771	20.675531
328.098858	-2.974100	3.887700	-11.561000	22.166558	0.000774	20.676626
329.100380	-2.998600	3.886500	-11.653000	22.174387	0.000771	20.692527
330.101132	-3.012000	3.885300	-11.702000	22.159955	0.000772	20.671436
331.101680	-3.009500	3.886800	-11.696000	22.156913	0.000773	20.682617
332.100889	-3.012800	3.884800	-11.704000	22.176430	0.000774	20.669439
333.098571	-2.994900	3.884800	-11.633000	22.156963	0.000774	20.667018
334.099999	-2.995900	3.884700	-11.638000	22.141434	0.000773	20.666644
335.098672	-2.988100	3.884100	-11.604000	22.167233	0.000776	20.672560
336.104114	-2.999200	3.885800	-11.653000	22.163518	0.000777	20.665995
337.098093	-2.996600	3.883300	-11.636000	22.162919	0.000777	20.703805
338.099538	-2.996100	3.884500	-11.637000	22.189839	0.000778	20.673382
339.102713	-3.002900	3.885000	-11.666000	22.177352	0.000776	20.660879
340.100348	-2.995400	3.884200	-11.634000	22.200583	0.000781	20.675130
341.103114	-3.008800	3.884600	-11.687000	22.197391	0.000777	20.683315
342.102403	-2.977800	3.884900	-11.567000	22.209656	0.000779	20.684215
343.103116	-3.007400	3.883400	-11.677000	22.208607	0.000777	20.698813
344.101299	-2.994400	3.883800	-11.629000	22.229892	0.000779	20.682191
345.100433	-2.987000	3.882800	-11.597000	22.230441	0.000780	20.691750
346.100489	-2.960900	3.883800	-11.498000	22.235250	0.000779	20.681391
347.103745	-2.996700	3.882500	-11.634000	22.238688	0.000781	20.688154
348.099917	-2.998400	3.883100	-11.642000	22.251174	0.000781	20.687379
349.105414	-2.998200	3.883200	-11.641000	22.243224	0.000782	20.683685
350.103532	-2.993700	3.882500	-11.621000	22.235670	0.000782	20.681812
351.101684	-3.009500	3.882700	-11.684000	22.267822	0.000782	20.695988
352.105421	-2.996100	3.881300	-11.628000	22.257453	0.000784	20.678018
353.109007	-3.004700	3.883200	-11.667000	22.256980	0.000784	20.687502
354.107373	-2.987400	3.882300	-11.597000	22.258176	0.000783	20.664990
355.107194	-2.981200	3.882200	-11.573000	22.236465	0.000785	20.687825
356.103094	-3.035000	3.880700	-11.776000	22.242121	0.000786	20.681633
357.104385	-3.001800	3.880700	-11.648000	22.260317	0.000785	20.669979
358.108658	-3.010800	3.880500	-11.682000	22.268890	0.000787	20.671926
359.104522	-3.011300	3.882000	-11.689000	22.283047	0.000786	20.683731
360.103903	-3.027100	3.879000	-11.741000	22.273127	0.000787	20.695136
361.106817	-2.986600	3.879800	-11.586000	22.287108	0.000785	20.677366
362.107591	-3.009500	3.878700	-11.672000	22.283642	0.000786	20.673420
363.105383	-3.019400	3.879500	-11.713000	22.298098	0.000787	20.687422
364.104681	-3.016000	3.879600	-11.700000	22.285213	0.000788	20.697754
365.109527	-3.008900	3.877600	-11.665000	22.289971	0.000789	20.695881
366.106367	-3.018700	3.878800	-11.707000	22.291444	0.000788	20.690717
367.104897	-3.011600	3.878000	-11.678000	22.305226	0.000790	20.699776
368.111953	-2.984600	3.878300	-11.574000	22.293038	0.000793	20.689468
369.107780	-3.011700	3.878200	-11.679000	22.283342	0.000792	20.675965
370.110563	-3.018300	3.878700	-11.706000	22.277261	0.000792	20.699750
371.107212	-3.002300	3.879700	-11.647000	22.287255	0.000791	20.694584
372.110857	-2.998400	3.877700	-11.626000	22.291939	0.000792	20.683151
373.110154	-3.005200	3.879000	-11.656000	22.301810	0.000793	20.688768
374.113986	-3.003600	3.877100	-11.644000	22.309386	0.000792	20.692088
375.108040	-3.003900	3.877300	-11.647000	22.308364	0.000793	20.710506
376.116935	-3.015300	3.877800	-11.691000	22.339067	0.000794	20.683400
377.109653	-2.995800	3.876700	-11.612000	22.307816	0.000795	20.697628
378.109361	-3.005600	3.877100	-11.652000	22.339692	0.000794	20.686871
379.112305	-3.000200	3.876700	-11.630000	22.340214	0.000795	20.689765
380.108289	-2.990900	3.878200	-11.598000	22.340414	0.000796	20.696604
381.109452	-2.964300	3.876500	-11.490000	22.338595	0.000795	20.686247
382.111979	-3.010600	3.875200	-11.665000	22.357037	0.000797	20.694283
383.114058	-3.002100	3.877500	-11.639000	22.378194	0.000796	20.698401
384.112966	-3.024200	3.874700	-11.717000	22.373184	0.000798	20.700970
385.114772	-3.009800	3.877200	-11.668000	22.374206	0.000800	20.660264
386.114922	-3.011400	3.875100	-11.669000	22.367554	0.000800	20.690590
387.114546	-3.020000	3.874300	-11.700000	22.369023	0.000798	20.684948
388.113444	-3.004500	3.875600	-11.643000	22.366357	0.000801	20.703617
389.117454	-2.996100	3.875300	-11.610000	22.359479	0.000800	20.711903
390.116929	-3.036000	3.874700	-11.761000	22.373436	0.000801	20.712129
391.113282	-3.005200	3.873100	-11.638000	22.399452	0.000801	20.707360
392.115994	-3.005800	3.874200	-11.643000	22.392152	0.000803	20.717121
393.113572	-3.004200	3.874600	-11.639000	22.394170	0.000803	20.704916
394.117598	-2.989400	3.875600	-11.585000	22.397361	0.000802	20.710008
395.117633	-2.994000	3.873500	-11.596000	22.416847	0.000804	20.694908
396.117857	-3.007300	3.874200	-11.650000	22.427290	0.000803	20.712954
397.114629	-2.966300	3.874400	-11.492000	22.426742	0.000802	20.701972
398.115014	-2.997300	3.873900	-11.610000	22.430105	0.000803	20.711979
399.119663	-2.995700	3.873200	-11.602000	22.416400	0.000805	20.726705
400.118923	-2.986100	3.874100	-11.568000	22.453033	0.000804	20.717871
401.119294	-2.992500	3.873000	-11.589000	22.451039	0.000805	20.752860
402.117267	-2.973900	3.873900	-11.520000	22.455352	0.000805	20.714029
403.118113	-2.985400	3.873400	-11.562000	22.452660	0.000805	20.705168
404.123173	-3.008800	3.872800	-11.651000	22.434171	0.000809	20.717473
405.119493	-3.000900	3.871400	-11.617000	22.412264	0.000807	20.710234
406.127798	-3.003400	3.871200	-11.626000	22.418221	0.000808	20.710035
407.121651	-3.020200	3.870300	-11.688000	22.413886	0.000807	20.709013
408.122014	-3.011200	3.871700	-11.657000	22.413388	0.000810	20.709936
409.122547	-3.006500	3.872900	-11.642000	22.431828	0.000810	20.710386
410.120556	-3.009000	3.871100	-11.647000	22.422361	0.000810	20.723190
411.119837	-3.017400	3.871600	-11.681000	22.445934	0.000810	20.709339
412.123218	-3.033800	3.869700	-11.739000	22.480747	0.000813	20.721918
413.123468	-2.992100	3.870000	-11.578000	22.472425	0.000810	20.726386
414.124308	-2.984000	3.870600	-11.549000	22.477832	0.000810	20.729430
415.128671	-2.988000	3.868900	-11.559000	22.467640	0.000812	20.703101
416.123637	-3.001200	3.870600	-11.615000	22.473297	0.000814	20.723940
417.124281	-2.991600	3.870100	-11.575000	22.494978	0.000808	20.715780
418.123330	-2.998700	3.868500	-11.600000	22.505268	0.000815	20.714707
419.121742	-3.000200	3.869300	-11.608000	22.514314	0.000813	20.735147
420.129034	-2.984900	3.869400	-11.549000	22.511325	0.000814	20.727885
421.123874	-2.987100	3.870200	-11.560000	22.515387	0.000816	20.708245
422.127028	-3.007000	3.867300	-11.628000	22.509931	0.000814	20.716532
423.122768	-2.976700	3.870000	-11.518000	22.520097	0.000815	20.726239
424.126487	-3.009700	3.867700	-11.640000	22.511775	0.000817	20.729284
425.131863	-3.007300	3.866300	-11.626000	22.533528	0.000817	20.735424
426.129542	-2.988600	3.867300	-11.556000	22.500289	0.000815	20.721574
427.129532	-3.004300	3.866300	-11.615000	22.502058	0.000817	20.734252
428.130523	-2.985600	3.869000	-11.550000	22.490046	0.000815	20.725541
429.128006	-2.991300	3.866700	-11.565000	22.484190	0.000818	20.711614
430.129039	-3.001100	3.866500	-11.602000	22.490396	0.000818	20.732056
431.131698	-2.968000	3.865400	-11.470000	22.500937	0.000818	20.726965
432.130724	-2.994200	3.867300	-11.579000	22.509608	0.000818	20.737072
433.132046	-3.011600	3.867300	-11.646000	22.506194	0.000820	20.735549
434.129020	-2.986700	3.865100	-11.543000	22.505845	0.000817	20.754167
435.131526	-2.969700	3.867000	-11.483000	22.495429	0.000821	20.732829
436.134656	-3.001400	3.866400	-11.603000	22.534203	0.000819	20.724245
437.134052	-3.020200	3.865400	-11.674000	22.531088	0.000821	20.728238
438.136096	-2.992200	3.864600	-11.563000	22.563256	0.000822	20.755241
439.131679	-3.003100	3.864800	-11.604000	22.566321	0.000818	20.737922
440.132778	-2.982800	3.865800	-11.529000	22.581196	0.000823	20.727214
441.135502	-3.001500	3.864400	-11.598000	22.566196	0.000820	20.741116
442.133178	-3.028700	3.864300	-11.702000	22.569139	0.000822	20.743588
443.134057	-2.999200	3.864200	-11.588000	22.578979	0.000824	20.731632
444.131235	-3.017600	3.862400	-11.653000	22.575641	0.000823	20.733031
445.134434	-3.014200	3.863700	-11.645000	22.569487	0.000823	20.760059
446.134345	-2.992800	3.864400	-11.564000	22.558100	0.000825	20.741541
447.136687	-2.993200	3.863000	-11.562000	22.572678	0.000828	20.753771
448.134118	-2.987100	3.863200	-11.538000	22.578434	0.000826	20.738199
449.137516	-2.990800	3.862400	-11.551000	22.557678	0.000825	20.737326
450.133326	-2.998300	3.863500	-11.582000	22.592064	0.000825	20.773663
451.132758	-2.971700	3.864300	-11.483000	22.586283	0.000827	20.734207
452.133595	-3.012400	3.862400	-11.634000	22.588104	0.000828	20.745039
453.131763	-2.995600	3.862700	-11.570000	22.603753	0.000828	20.761188
454.132559	-2.998000	3.860600	-11.573000	22.593313	0.000829	20.754999
455.132032	-2.983900	3.863300	-11.527000	22.593164	0.000830	20.755324
456.133405	-3.002600	3.860600	-11.591000	22.579037	0.000827	20.771521
457.135754	-3.001200	3.860600	-11.585000	22.576520	0.000829	20.758568
458.133790	-2.981800	3.863600	-11.518000	22.574728	0.000828	20.752506
459.137563	-3.029400	3.858900	-11.690000	22.586763	0.000832	20.759345
460.135595	-3.018900	3.860200	-11.652000	22.621895	0.000831	20.767031
461.135362	-3.015000	3.860100	-11.637000	22.611207	0.000832	20.745894
462.136487	-3.008400	3.859000	-11.608000	22.620577	0.000829	20.770452
463.139368	-2.999000	3.860000	-11.575000	22.620727	0.000829	20.773922
464.136094	-2.987400	3.860900	-11.533000	22.617388	0.000830	20.748766
465.136763	-3.023900	3.857200	-11.662000	22.622422	0.000830	20.758076
466.138399	-3.006200	3.858400	-11.597000	22.630097	0.000831	20.771453
467.141715	-3.001300	3.859400	-11.582000	22.611959	0.000832	20.786477
468.135823	-2.998600	3.859000	-11.570000	22.643128	0.000832	20.779290
469.136516	-3.003900	3.857800	-11.586000	22.630272	0.000832	20.778740
470.139195	-3.001500	3.857600	-11.578000	22.624866	0.000831	20.753411
471.140593	-2.983100	3.858700	-11.509000	22.645895	0.000831	20.772578
472.144751	-3.009900	3.858400	-11.612000	22.644402	0.000832	20.769185
473.136965	-2.991000	3.857400	-11.536000	22.667946	0.000833	20.767164
474.139720	-3.011900	3.855600	-11.611000	22.680754	0.000835	20.749172
475.139301	-2.997800	3.858200	-11.564000	22.657882	0.000836	20.752341
476.139441	-3.003500	3.855700	-11.579000	22.675422	0.000835	20.765643
477.137928	-3.022000	3.855600	-11.650000	22.656712	0.000835	20.784834
478.139696	-2.976900	3.855700	-11.476000	22.697920	0.000834	20.774902
479.141682	-2.994400	3.854600	-11.541000	22.708732	0.000835	20.791423
480.135653	-3.001600	3.854900	-11.569000	22.703052	0.000836	20.768663
481.138798	-2.986600	3.854500	-11.511000	22.717603	0.000834	20.773755
482.140125	-2.982000	3.855300	-11.495000	22.708411	0.000837	20.777824
483.143586	-3.004300	3.854900	-11.581000	22.701659	0.000837	20.769164
484.140412	-2.982600	3.855800	-11.499000	22.711973	0.000838	20.786608
485.142300	-2.999800	3.853900	-11.560000	22.709956	0.000838	20.762302
486.139343	-2.990100	3.854400	-11.523000	22.706567	0.000837	20.787831
487.144042	-2.994200	3.854600	-11.541000	22.717505	0.000836	20.782192
488.147090	-2.992800	3.853900	-11.534000	22.731880	0.000840	20.793273
489.141467	-2.999100	3.853400	-11.555000	22.724580	0.000839	20.776477
490.147748	-2.990900	3.853400	-11.523000	22.702307	0.000837	20.784986
491.142560	-3.001200	3.853700	-11.564000	22.709483	0.000837	20.787907
492.145305	-2.997500	3.852100	-11.546000	22.700140	0.000837	20.798463
493.147106	-2.993000	3.853100	-11.530000	22.698445	0.000841	20.783963
494.140663	-3.009700	3.853200	-11.596000	22.711476	0.000840	20.794645
495.140943	-3.003100	3.852400	-11.568000	22.691845	0.000840	20.791102
496.141818	-2.996200	3.851800	-11.540000	22.725902	0.000841	20.790129
497.145869	-2.985600	3.852700	-11.502000	22.744986	0.000840	20.787908
498.145024	-3.017600	3.850400	-11.618000	22.756321	0.000840	20.796418
499.149612	-2.993200	3.850700	-11.525000	22.731955	0.000842	20.788606
500.143813	-3.000000	3.848800	-11.544000	22.735121	0.000841	20.785139
501.145267	-2.992000	3.849800	-11.517000	22.724557	0.000839	20.802532
502.146800	-2.987400	3.851000	-11.503000	22.732405	0.000840	20.818928
503.147301	-2.976300	3.852500	-11.465000	22.733577	0.000842	20.790231
504.147647	-2.994900	3.849800	-11.528000	22.737216	0.000843	20.799565
505.145306	-3.018300	3.848200	-11.614000	22.740602	0.000843	20.777353
506.145998	-2.979600	3.850200	-11.470000	22.736194	0.000844	20.795697
507.143714	-2.982600	3.848800	-11.478000	22.764918	0.000844	20.796969
508.144045	-2.994200	3.848500	-11.522000	22.767136	0.000842	20.804407
509.143779	-2.986600	3.849400	-11.496000	22.779568	0.000844	20.791256
510.146209	-2.961700	3.848700	-11.397000	22.788661	0.000844	20.807951
511.150206	-3.033600	3.846100	-11.666000	22.791078	0.000845	20.795199
512.145403	-2.995500	3.848000	-11.525000	22.803084	0.000845	20.805330
513.145706	-2.995600	3.846600	-11.522000	22.791478	0.000847	20.792755
514.151827	-2.996200	3.845900	-11.522000	22.818407	0.000844	20.797921
515.148388	-3.001300	3.846900	-11.545000	22.808094	0.000849	20.800866
516.148266	-3.006400	3.846500	-11.563000	22.801916	0.000848	20.811272
517.150182	-2.987100	3.846900	-11.490000	22.826754	0.000847	20.820506
518.150514	-3.012700	3.846000	-11.586000	22.808094	0.000848	20.814142
519.154380	-3.009400	3.845800	-11.573000	22.828599	0.000848	20.806234
520.155486	-2.998700	3.846300	-11.533000	22.823292	0.000848	20.819884
521.154080	-2.992600	3.845300	-11.506000	22.826630	0.000847	20.815642
522.153082	-2.988900	3.846000	-11.495000	22.863423	0.000847	20.824051
523.152977	-2.996800	3.844500	-11.520000	22.846061	0.000849	20.803339
524.153272	-3.001400	3.845100	-11.539000	22.869154	0.000847	20.809878
525.153362	-2.998800	3.845000	-11.528000	22.898075	0.000847	20.827946
526.154270	-3.001200	3.845200	-11.540000	22.876179	0.000848	20.799846
527.155642	-3.030000	3.844000	-11.646000	22.899966	0.000848	20.819410
528.156335	-3.027700	3.842000	-11.630000	22.925050	0.000851	20.825574
529.156292	-3.000300	3.843600	-11.531000	22.914463	0.000850	20.834881
530.160994	-2.983500	3.844000	-11.467000	22.928961	0.000850	20.818587
531.160256	-3.032800	3.841800	-11.649000	22.916506	0.000847	20.826971
532.160417	-3.008900	3.842400	-11.561000	22.925323	0.000849	20.833434
533.160335	-3.007300	3.841500	-11.551000	22.891670	0.000851	20.811573
534.160380	-3.033200	3.840300	-11.648000	22.907587	0.000849	20.825148
535.161221	-2.999700	3.842300	-11.525000	22.894858	0.000850	20.810499
536.161576	-2.973300	3.842500	-11.424000	22.889927	0.000849	20.822154
537.163987	-2.997500	3.840900	-11.511000	22.887659	0.000849	20.828417
538.163240	-3.013500	3.840500	-11.572000	22.881108	0.000851	20.827069
539.161094	-3.009700	3.840100	-11.556000	22.897821	0.000850	20.828166
540.162742	-3.006400	3.840800	-11.547000	22.894608	0.000849	20.846758
541.159121	-2.995600	3.841300	-11.505000	22.866434	0.000851	20.825171
542.167534	-2.988300	3.839700	-11.473000	22.900063	0.000851	20.816187
543.160862	-3.033900	3.839700	-11.647000	22.900113	0.000850	20.820979
544.160714	-3.003800	3.840400	-11.535000	22.902129	0.000852	20.830585
545.170354	-3.011900	3.840700	-11.566000	22.931920	0.000851	20.831034
546.163603	-2.991000	3.838800	-11.481000	22.928557	0.000853	20.838570
547.164120	-3.010800	3.838700	-11.556000	22.937748	0.000853	20.848726
548.164035	-3.013400	3.838400	-11.566000	22.959916	0.000854	20.809297
549.160789	-3.019600	3.837800	-11.588000	22.944847	0.000854	20.826441
550.164712	-3.003400	3.837700	-11.525000	22.971297	0.000854	20.829709
551.171309	-2.975400	3.839200	-11.422000	22.968733	0.000853	20.841363
552.162614	-3.003600	3.836800	-11.524000	22.984350	0.000854	20.855113
553.163549	-2.992200	3.836500	-11.479000	22.973240	0.000856	20.836397
554.163782	-2.985800	3.835900	-11.451000	22.961009	0.000856	20.848797
555.167684	-2.987700	3.836400	-11.461000	22.977001	0.000855	20.843009
556.165624	-2.989300	3.836200	-11.467000	22.965793	0.000854	20.844582
557.169175	-3.000800	3.835500	-11.507000	22.963302	0.000857	20.847302
558.167605	-2.992100	3.837300	-11.479000	22.940787	0.000854	20.839918
559.163761	-2.992100	3.836200	-11.477000	22.929076	0.000855	20.851891
560.172767	-2.992500	3.836000	-11.478000	22.955532	0.000856	20.841413
561.164875	-3.010500	3.834500	-11.544000	22.950824	0.000857	20.851395
562.166658	-2.983600	3.834400	-11.439000	22.959043	0.000857	20.851095
563.171988	-3.005900	3.834400	-11.524000	22.955283	0.000855	20.844958
564.172751	-3.008100	3.833500	-11.530000	22.978671	0.000856	20.866492
565.174685	-2.988800	3.833500	-11.457000	22.997651	0.000856	20.847103
566.176518	-3.007800	3.833700	-11.530000	22.995085	0.000857	20.870609
567.173562	-2.989900	3.833900	-11.462000	23.012221	0.000855	20.812865
568.173564	-3.006500	3.833100	-11.524000	23.022061	0.000856	20.859706
569.171941	-2.981400	3.834000	-11.430000	23.030477	0.000857	20.854863
570.172750	-3.004100	3.832100	-11.512000	23.031224	0.000859	20.841387
571.175007	-2.987800	3.832900	-11.450000	23.026643	0.000859	20.832056
572.174110	-3.010700	3.830500	-11.531000	23.044300	0.000855	20.846903
573.177184	-2.991800	3.831400	-11.461000	23.044824	0.000858	20.859280
574.175279	-3.008700	3.830100	-11.523000	23.038697	0.000859	20.852667
575.177364	-3.005400	3.830300	-11.509000	23.048859	0.000856	20.855738
576.178549	-3.014800	3.828800	-11.542000	23.067811	0.000858	20.844382
577.179035	-3.000200	3.830800	-11.493000	23.034638	0.000857	20.835325
578.178673	-3.000300	3.830300	-11.490000	23.041661	0.000859	20.843310
579.177812	-2.987200	3.830100	-11.440000	23.031448	0.000859	20.841612
580.181384	-3.011800	3.828900	-11.531000	23.016878	0.000857	20.858307
581.182695	-3.007700	3.829400	-11.517000	23.041138	0.000858	20.839941
582.180206	-3.004000	3.828700	-11.500000	23.039270	0.000858	20.846604
583.185619	-2.992500	3.828900	-11.457000	23.061884	0.000859	20.839392
584.183980	-3.008200	3.828300	-11.515000	23.046320	0.000859	20.857461
585.189055	-2.988000	3.828600	-11.439000	23.025545	0.000860	20.827637
586.187790	-3.004700	3.828000	-11.501000	23.044949	0.000861	20.838069
587.185044	-3.005600	3.828500	-11.506000	23.035982	0.000860	20.829560
588.191129	-3.007400	3.826800	-11.508000	23.035211	0.000860	20.842063
589.185746	-3.010700	3.826200	-11.518000	23.032347	0.000858	20.843460
590.183482	-3.006300	3.826200	-11.501000	23.054140	0.000861	20.827839
591.191009	-2.995200	3.826400	-11.459000	23.049333	0.000861	20.827764
592.187284	-2.990900	3.825500	-11.441000	23.027939	0.000860	20.856587
593.188339	-3.000600	3.826100	-11.479000	23.011948	0.000859	20.817332
594.188868	-2.988700	3.825700	-11.433000	23.016880	0.000859	20.827964
595.185992	-2.989800	3.825500	-11.437000	23.026520	0.000860	20.818656
596.188051	-2.970100	3.826400	-11.363000	23.032648	0.000862	20.831435
597.193836	-2.997700	3.823300	-11.460000	23.031131	0.000860	20.820905
598.188959	-3.012700	3.823300	-11.517000	23.016435	0.000862	20.829889
599.187743	-3.012800	3.823500	-11.518000	22.995936	0.000861	20.842066
600.186856	-3.026100	3.823500	-11.569000	23.040568	0.000861	20.813292
601.187624	-3.007800	3.822900	-11.496000	23.027345	0.000861	20.828018
602.189898	-3.003300	3.822900	-11.481000	23.013821	0.000861	20.830115
603.192318	-2.993600	3.822600	-11.442000	23.010458	0.000860	20.844763
604.192308	-2.995100	3.821900	-11.446000	23.010085	0.000864	20.850552
605.189818	-2.998000	3.821400	-11.456000	23.011657	0.000859	20.827472
606.194726	-3.008800	3.822200	-11.498000	23.023886	0.000861	20.830716
607.194061	-3.011400	3.821500	-11.507000	23.045802	0.000860	20.824226
608.192652	-2.996800	3.821700	-11.451000	23.029016	0.000860	20.814520
609.193738	-3.013800	3.821600	-11.516000	23.046452	0.000861	20.827248
610.190298	-3.012300	3.820200	-11.507000	23.044134	0.000861	20.812124
611.193190	-3.013100	3.821000	-11.513000	23.062765	0.000861	20.817515
612.197339	-2.999500	3.820800	-11.458000	23.066849	0.000860	20.830615
613.194580	-3.011700	3.819300	-11.502000	23.084482	0.000858	20.827422
614.196471	-3.016400	3.819900	-11.520000	23.096487	0.000861	20.811002
615.190881	-2.995300	3.819700	-11.440000	23.087748	0.000859	20.831168
616.192922	-2.985400	3.820700	-11.405000	23.085330	0.000859	20.833961
617.197340	-3.017700	3.818300	-11.519000	23.105828	0.000861	20.818465
618.191953	-3.006700	3.817100	-11.476000	23.081073	0.000860	20.816420
619.195906	-3.002300	3.818700	-11.464000	23.093701	0.000862	20.804892
620.196216	-2.996900	3.817900	-11.441000	23.125505	0.000859	20.833915
621.193398	-2.992300	3.818000	-11.423000	23.110813	0.000861	20.820616
622.198164	-2.989800	3.817600	-11.413000	23.119704	0.000864	20.803920
623.200983	-2.998800	3.816300	-11.443000	23.125257	0.000861	20.823709
624.194898	-3.005400	3.815300	-11.465000	23.137088	0.000860	20.799529
625.198435	-3.020700	3.815500	-11.524000	23.147400	0.000860	20.838311
626.199260	-2.995500	3.816400	-11.431000	23.134301	0.000859	20.816176
627.198745	-3.015900	3.814900	-11.503000	23.153626	0.000858	20.811834
628.202595	-2.988900	3.814400	-11.400000	23.138958	0.000860	20.802351
629.197041	-2.983000	3.816500	-11.383000	23.154225	0.000859	20.802950
630.198056	-3.019600	3.812700	-11.512000	23.154673	0.000861	20.820943
631.195406	-2.999500	3.813700	-11.438000	23.148821	0.000857	20.809864
632.195686	-2.998400	3.814300	-11.436000	23.170287	0.000861	20.801029
633.198849	-3.028600	3.814000	-11.549000	23.180001	0.000861	20.815030
634.197309	-2.996500	3.813200	-11.425000	23.174946	0.000861	20.794791
635.198261	-2.984300	3.813300	-11.379000	23.147800	0.000860	20.796039
636.197525	-3.007000	3.812200	-11.463000	23.173999	0.000860	20.807593
637.198820	-2.997500	3.811700	-11.424000	23.150687	0.000861	20.810785
638.198836	-3.005500	3.812000	-11.456000	23.133653	0.000860	20.793716
639.201932	-2.998700	3.812300	-11.430000	23.134973	0.000859	20.794090
640.199721	-2.995100	3.812800	-11.419000	23.163113	0.000859	20.797159
641.203376	-3.009600	3.811900	-11.471000	23.171157	0.000860	20.806167
642.201439	-3.004700	3.811200	-11.451000	23.144509	0.000859	20.812181
643.203413	-3.008700	3.810500	-11.464000	23.147872	0.000860	20.807016
644.206363	-2.983900	3.810500	-11.369000	23.145804	0.000860	20.798780
645.201479	-2.999600	3.809100	-11.425000	23.156933	0.000862	20.803294
646.204589	-3.002000	3.809900	-11.435000	23.172373	0.000862	20.808808
647.203834	-3.019400	3.808600	-11.498000	23.175137	0.000861	20.798776
648.205369	-3.003900	3.808900	-11.441000	23.176183	0.000862	20.805514
649.205177	-2.992800	3.807700	-11.395000	23.217944	0.000863	20.781456
650.201941	-3.001800	3.809800	-11.435000	23.216225	0.000859	20.790164
651.209232	-3.005600	3.808100	-11.445000	23.200561	0.000859	20.774467
652.203818	-2.978700	3.808600	-11.344000	23.230169	0.000861	20.798923
653.206283	-3.009200	3.806700	-11.453000	23.212189	0.000862	20.798923
654.209528	-3.003500	3.806900	-11.433000	23.244238	0.000862	20.779357
655.205634	-3.012100	3.807300	-11.465000	23.229942	0.000863	20.807705
656.204422	-2.999000	3.805900	-11.413000	23.232781	0.000862	20.787316
657.208937	-3.012900	3.806400	-11.468000	23.233479	0.000860	20.782800
658.208966	-2.962500	3.807500	-11.278000	23.247721	0.000861	20.803237
659.209693	-3.000900	3.804900	-11.416000	23.225907	0.000860	20.786591
660.212060	-3.004400	3.804000	-11.428000	23.216344	0.000860	20.807828
661.210936	-3.013300	3.806000	-11.467000	23.237336	0.000862	20.790458
662.211154	-3.012600	3.805100	-11.462000	23.239375	0.000859	20.804355
663.207937	-2.994000	3.806000	-11.393000	23.231360	0.000860	20.784469
664.211719	-3.005700	3.803900	-11.433000	23.230635	0.000861	20.771889
665.216770	-2.991800	3.803900	-11.379000	23.257056	0.000859	20.793625
666.214232	-2.962300	3.804000	-11.267000	23.229266	0.000860	20.783793
667.215591	-3.027600	3.804300	-11.516000	23.262906	0.000858	20.776255
668.215253	-3.007900	3.801400	-11.433000	23.224882	0.000860	20.786038
669.211851	-3.005000	3.802100	-11.424000	23.251228	0.000859	20.784466
670.212614	-3.000700	3.803300	-11.411000	23.247443	0.000859	20.777353
671.213982	-3.022200	3.801800	-11.488000	23.271821	0.000860	20.781869
672.216424	-3.022800	3.802900	-11.494000	23.259668	0.000859	20.784389
673.215455	-3.007000	3.801700	-11.430000	23.256108	0.000859	20.785563
674.216265	-3.014200	3.800200	-11.453000	23.274285	0.000860	20.772485
675.212749	-3.017400	3.801600	-11.470000	23.272815	0.000858	20.769115
676.214287	-2.999900	3.800900	-11.401000	23.274708	0.000859	20.787134
677.216561	-3.006600	3.800000	-11.424000	23.277596	0.000859	20.780545
678.219167	-2.996800	3.800100	-11.386000	23.257300	0.000858	20.799086
679.217653	-3.015300	3.798200	-11.451000	23.244874	0.000860	20.771460
680.214212	-2.994900	3.800300	-11.381000	23.236282	0.000860	20.765220
681.221861	-3.015200	3.798200	-11.451000	23.261060	0.000859	20.766818
682.216400	-3.022100	3.798300	-11.478000	23.230630	0.000860	20.771409
683.219513	-2.982800	3.800200	-11.334000	23.254535	0.000857	20.778296
684.217660	-3.000700	3.797900	-11.395000	23.242010	0.000857	20.778073
685.217980	-3.007600	3.795700	-11.414000	23.275004	0.000859	20.775577
686.222372	-3.004800	3.797200	-11.409000	23.258295	0.000861	20.770685
687.225389	-3.022500	3.796400	-11.473000	23.246840	0.000858	20.758730
688.226010	-2.996100	3.795700	-11.371000	23.256127	0.000859	20.775625
689.220940	-3.014700	3.797100	-11.446000	23.282947	0.000862	20.762200
690.221985	-3.015300	3.795500	-11.444000	23.274904	0.000858	20.761726
691.223781	-3.001900	3.795200	-11.391000	23.274356	0.000859	20.786307
692.225883	-2.991800	3.794900	-11.352000	23.277593	0.000862	20.783387
693.222980	-3.020900	3.795500	-11.465000	23.269675	0.000858	20.764072
694.220060	-2.993500	3.794900	-11.359000	23.314048	0.000860	20.772506
695.223200	-3.008400	3.794400	-11.414000	23.293081	0.000859	20.756709
696.224485	-3.008100	3.794400	-11.413000	23.277343	0.000859	20.764644
697.223880	-3.009400	3.793600	-11.416000	23.261405	0.000858	20.751516
698.223319	-3.006800	3.795000	-11.409000	23.263774	0.000855	20.757209
699.220829	-2.993900	3.793700	-11.357000	23.254683	0.000859	20.759004
700.223131	-2.990000	3.792400	-11.337000	23.258841	0.000858	20.767913
701.222627	-3.010700	3.792600	-11.418000	23.240689	0.000857	20.772481
702.224252	-2.974800	3.793300	-11.283000	23.225050	0.000857	20.768663
703.220871	-3.014200	3.791000	-11.426000	23.242780	0.000859	20.759403
704.227681	-2.974700	3.792700	-11.280000	23.242803	0.000858	20.749469
705.226080	-3.005500	3.791100	-11.392000	23.245345	0.000858	20.763871
706.227516	-3.005300	3.792000	-11.394000	23.255927	0.000859	20.743181
707.230860	-3.017300	3.791900	-11.440000	23.240637	0.000856	20.749669
708.229341	-2.997900	3.792000	-11.366000	23.236779	0.000857	20.755286
709.228694	-3.006600	3.790600	-11.396000	23.246140	0.000859	20.740959
710.228804	-3.015500	3.789000	-11.424000	23.247063	0.000857	20.750419
711.228996	-2.997900	3.789500	-11.360000	23.237274	0.000856	20.742505
712.226492	-2.991000	3.792100	-11.341000	23.253337	0.000857	20.755758
713.229385	-2.994900	3.789200	-11.347000	23.269173	0.000857	20.748395
714.230600	-3.012000	3.787800	-11.408000	23.282944	0.000855	20.749394
715.229941	-3.008500	3.788300	-11.396000	23.279109	0.000857	20.753137
716.226914	-3.010500	3.788800	-11.405000	23.284859	0.000854	20.725708
717.234114	-2.990800	3.787600	-11.327000	23.304953	0.000855	20.753434
718.232622	-2.990900	3.788400	-11.329000	23.324301	0.000854	20.748168
719.232060	-2.997700	3.788400	-11.355000	23.325545	0.000853	20.746096
720.233630	-3.020800	3.787600	-11.439000	23.322160	0.000851	20.746971
721.232452	-3.018600	3.786300	-11.428000	23.323205	0.000858	20.738534
722.239048	-3.001100	3.786200	-11.361000	23.301615	0.000852	20.759572
723.235477	-2.996800	3.787300	-11.349000	23.310852	0.000852	20.726628
724.233055	-2.986400	3.785000	-11.303000	23.288991	0.000853	20.761144
725.234330	-2.994100	3.785500	-11.333000	23.294692	0.000856	20.747417
726.235548	-3.019500	3.783500	-11.423000	23.334607	0.000855	20.746170
727.234496	-3.021700	3.783000	-11.429000	23.316853	0.000852	20.753980
728.236201	-3.021400	3.784200	-11.432000	23.293620	0.000853	20.741602
729.231681	-2.993900	3.785100	-11.331000	23.305346	0.000853	20.744345
730.233540	-3.008200	3.783000	-11.378000	23.278804	0.000851	20.740503
731.233449	-2.975700	3.784200	-11.259000	23.298401	0.000853	20.736436
732.233957	-3.001600	3.782600	-11.353000	23.287070	0.000853	20.732666
733.235279	-2.995900	3.783400	-11.334000	23.297728	0.000851	20.722958
734.233869	-2.991700	3.782600	-11.315000	23.313041	0.000854	20.745892
735.233893	-3.007700	3.782000	-11.373000	23.326934	0.000849	20.730892
736.234349	-2.983700	3.782100	-11.284000	23.329400	0.000853	20.749011
737.239720	-2.998200	3.780600	-11.333000	23.368641	0.000851	20.730968
738.234183	-2.993500	3.781600	-11.319000	23.369163	0.000850	20.735284
739.235536	-2.989200	3.781300	-11.302000	23.379072	0.000853	20.716291
740.236845	-2.989400	3.779900	-11.299000	23.384574	0.000851	20.751205
741.235903	-3.015400	3.779800	-11.396000	23.395805	0.000849	20.743495
742.237665	-3.004600	3.779100	-11.353000	23.426802	0.000849	20.745640
743.234596	-3.007200	3.780200	-11.366000	23.421525	0.000852	20.747938
744.239571	-3.012600	3.778900	-11.384000	23.423144	0.000851	20.739129
745.239594	-2.975100	3.780200	-11.245000	23.422594	0.000853	20.744742
746.234521	-3.029200	3.777300	-11.441000	23.404918	0.000848	20.717066
747.239686	-3.004700	3.778700	-11.353000	23.395482	0.000851	20.748387
748.235949	-3.028200	3.777800	-11.439000	23.393291	0.000850	20.706360
749.237766	-2.996700	3.777700	-11.320000	23.384028	0.000849	20.716991
750.241600	-3.000200	3.777200	-11.332000	23.401856	0.000850	20.701668
751.239201	-2.998300	3.777200	-11.324000	23.414358	0.000850	20.729373
752.238278	-2.998900	3.777300	-11.327000	23.400291	0.000849	20.721437
753.241186	-2.997800	3.776500	-11.320000	23.416150	0.000852	20.715522
754.240583	-2.999900	3.776400	-11.327000	23.415404	0.000848	20.730896
755.242733	-2.990500	3.776800	-11.293000	23.430168	0.000849	20.726728
756.237735	-3.005900	3.775000	-11.347000	23.431165	0.000849	20.733417
757.241915	-2.998000	3.775500	-11.318000	23.423324	0.000847	20.711332
758.238456	-2.978700	3.776700	-11.249000	23.416800	0.000848	20.727079
759.241200	-3.009100	3.776400	-11.363000	23.392075	0.000847	20.733592
760.241006	-3.007000	3.775700	-11.351000	23.388069	0.000846	20.724835
761.242539	-2.993100	3.774300	-11.296000	23.421955	0.000846	20.720866
762.241261	-2.988200	3.774400	-11.277000	23.420861	0.000843	20.734943
763.242047	-2.998000	3.773600	-11.313000	23.418270	0.000845	20.716225
764.248146	-3.012700	3.774200	-11.369000	23.420563	0.000849	20.717574
765.244561	-2.990400	3.773200	-11.283000	23.440529	0.000845	20.715775
766.247446	-3.004100	3.772200	-11.331000	23.440058	0.000848	20.721467
767.246639	-3.010200	3.773200	-11.357000	23.424920	0.000846	20.732848
768.242888	-3.020800	3.770200	-11.388000	23.416132	0.000845	20.716452
769.245517	-2.999000	3.771300	-11.310000	23.399849	0.000846	20.703924
770.247640	-3.020100	3.772300	-11.393000	23.384859	0.000846	20.712608
771.246089	-2.997700	3.771900	-11.306000	23.395365	0.000844	20.713655
772.245453	-2.979300	3.772200	-11.238000	23.398230	0.000845	20.701827
773.245910	-3.005300	3.769900	-11.328000	23.419045	0.000844	20.707517
774.245344	-2.999400	3.770200	-11.307000	23.408863	0.000843	20.712010
775.248625	-2.984500	3.770600	-11.253000	23.431171	0.000843	20.695963
776.245865	-3.009000	3.769400	-11.341000	23.406372	0.000843	20.705721
777.247010	-3.023300	3.768800	-11.393000	23.397236	0.000844	20.707469
778.244085	-2.999200	3.768400	-11.301000	23.382372	0.000844	20.707745
779.245388	-2.981900	3.770500	-11.242000	23.352343	0.000841	20.710838
780.246066	-2.983700	3.770700	-11.249000	23.367209	0.000843	20.706771
781.243484	-3.006300	3.767100	-11.324000	23.364171	0.000842	20.708467
782.248992	-3.023200	3.767800	-11.390000	23.374828	0.000842	20.694966
783.246184	-3.010700	3.768100	-11.343000	23.377865	0.000842	20.709865
784.250124	-2.985100	3.769000	-11.249000	23.377790	0.000842	20.691296
785.249442	-2.979700	3.768600	-11.228000	23.417106	0.000841	20.706997
786.249704	-3.004500	3.767100	-11.316000	23.424277	0.000840	20.711814
787.251052	-2.980000	3.767700	-11.228000	23.420989	0.000841	20.721321
788.251284	-2.969400	3.767000	-11.185000	23.443274	0.000841	20.720898
789.247543	-2.973400	3.767100	-11.200000	23.450420	0.000841	20.704352
790.249943	-2.995100	3.765600	-11.276000	23.460104	0.000837	20.715008
791.253597	-2.976000	3.766300	-11.207000	23.456570	0.000840	20.692971
792.249722	-2.988300	3.766600	-11.255000	23.468619	0.000840	20.683711
793.252590	-3.022600	3.764600	-11.378000	23.470115	0.000840	20.732629
794.249166	-2.995500	3.763900	-11.274000	23.470188	0.000840	20.693345
795.257863	-3.014300	3.763200	-11.343000	23.455077	0.000838	20.702382
796.255222	-3.015100	3.765000	-11.350000	23.461625	0.000837	20.699935
797.254721	-3.000100	3.765600	-11.296000	23.457892	0.000839	20.705203
798.255747	-2.986700	3.764200	-11.240000	23.495935	0.000836	20.694972
799.256254	-2.997100	3.764200	-11.281000	23.493147	0.000837	20.706876
800.252832	-3.008900	3.763500	-11.323000	23.507462	0.000837	20.689457
801.253548	-3.004500	3.763000	-11.304000	23.507562	0.000837	20.688608
802.254586	-3.011200	3.762500	-11.328000	23.505324	0.000837	20.697271
803.253063	-3.003800	3.761700	-11.298000	23.521980	0.000836	20.689310
804.255156	-3.017200	3.760700	-11.346000	23.512594	0.000836	20.698395
805.257114	-3.003600	3.762000	-11.297000	23.512919	0.000836	20.702040
806.258611	-2.981900	3.761500	-11.215000	23.504007	0.000836	20.704486
807.261137	-2.994400	3.760400	-11.258000	23.501816	0.000835	20.698022
808.256535	-2.984800	3.761700	-11.227000	23.484912	0.000836	20.681077
809.254140	-2.993700	3.761300	-11.258000	23.476050	0.000835	20.707283
810.261732	-2.994700	3.760100	-11.259000	23.482920	0.000833	20.679554
811.259252	-3.004700	3.759500	-11.295000	23.506200	0.000836	20.691511
812.257106	-3.018100	3.760300	-11.348000	23.480482	0.000833	20.685645
813.258669	-2.961700	3.760500	-11.136000	23.524723	0.000835	20.683524
814.259249	-3.006800	3.758200	-11.299000	23.508565	0.000835	20.690562
815.259334	-3.000000	3.758300	-11.274000	23.505081	0.000834	20.693708
816.261559	-2.988300	3.757900	-11.229000	23.507896	0.000834	20.691788
817.259925	-3.004500	3.757800	-11.290000	23.506652	0.000836	20.715673
818.257486	-2.985700	3.758300	-11.220000	23.508642	0.000833	20.696330
819.258086	-3.000800	3.757500	-11.275000	23.533314	0.000832	20.701147
820.259459	-3.000400	3.757600	-11.273000	23.547131	0.000834	20.705989
821.260627	-2.995600	3.756600	-11.252000	23.549846	0.000832	20.696381
822.260530	-3.001000	3.756900	-11.273000	23.555770	0.000831	20.694259
823.262005	-3.001000	3.756500	-11.273000	23.569112	0.000833	20.695306
824.261350	-2.999700	3.755900	-11.266000	23.582208	0.000831	20.687096
825.259771	-3.002300	3.754300	-11.270000	23.586738	0.000831	20.704915
826.261192	-3.011000	3.755800	-11.308000	23.588480	0.000834	20.698600
827.262825	-3.003500	3.755100	-11.276000	23.574390	0.000831	20.704391
828.263414	-3.033100	3.753600	-11.384000	23.600704	0.000830	20.710382
829.264157	-3.024900	3.753100	-11.351000	23.570756	0.000831	20.692686
830.262541	-3.004600	3.754600	-11.280000	23.549694	0.000830	20.685323
831.260446	-2.996400	3.755200	-11.251000	23.534583	0.000830	20.705264
832.262532	-3.002300	3.754800	-11.273000	23.510536	0.000830	20.687796
833.263361	-3.007400	3.753100	-11.285000	23.492959	0.000830	20.686298
834.261478	-3.013900	3.753400	-11.310000	23.521041	0.000830	20.684575
835.263930	-3.016300	3.753100	-11.320000	23.516684	0.000828	20.681629
836.263510	-3.008900	3.751100	-11.286000	23.523279	0.000829	20.682551
837.268476	-2.991300	3.754300	-11.229000	23.516758	0.000830	20.673169
838.262232	-2.996600	3.752000	-11.243000	23.529630	0.000829	20.700298
839.267119	-2.994600	3.750900	-11.232000	23.507721	0.000828	20.706313
840.265772	-2.997000	3.750200	-11.237000	23.511057	0.000828	20.695905
841.264654	-3.001600	3.752400	-11.262000	23.514070	0.000827	20.696081
842.267009	-3.023500	3.750200	-11.337000	23.472917	0.000828	20.708884
843.263294	-2.978100	3.751000	-11.170000	23.472319	0.000828	20.690265
844.265055	-3.000800	3.749100	-11.249000	23.492834	0.000823	20.691389
845.263053	-3.006100	3.749400	-11.270000	23.495251	0.000826	20.686699
846.262373	-3.008400	3.748300	-11.275000	23.507077	0.000825	20.692389
847.268373	-3.006200	3.748800	-11.269000	23.524030	0.000828	20.680933
848.264236	-2.991000	3.749400	-11.213000	23.551665	0.000824	20.720018
849.266045	-2.984400	3.750000	-11.190000	23.544795	0.000824	20.705543
850.265237	-2.971600	3.749300	-11.140000	23.549325	0.000823	20.684478
851.265733	-3.020300	3.747800	-11.319000	23.541882	0.000826	20.700252
852.264655	-2.992000	3.748300	-11.214000	23.541684	0.000826	20.697208
853.266406	-3.006600	3.749000	-11.271000	23.540912	0.000825	20.714929
854.271487	-2.968500	3.750500	-11.132000	23.562173	0.000824	20.703523
855.269468	-2.991900	3.748900	-11.216000	23.521146	0.000823	20.691319
856.270228	-3.018200	3.746500	-11.306000	23.517189	0.000823	20.699681
857.271607	-3.001100	3.747000	-11.242000	23.498666	0.000823	20.699132
858.268695	-2.999200	3.745900	-11.233000	23.489205	0.000823	20.719996
859.266874	-2.979200	3.747700	-11.164000	23.478900	0.000822	20.711089
860.269605	-2.993700	3.746500	-11.215000	23.487863	0.000823	20.711538
861.267781	-3.006700	3.744900	-11.259000	23.461250	0.000820	20.724691
862.272405	-3.008600	3.746300	-11.271000	23.487044	0.000823	20.696491
863.272029	-2.977000	3.745800	-11.150000	23.487867	0.000823	20.712015
864.273329	-2.996800	3.745800	-11.225000	23.507336	0.000823	20.712091
865.275609	-2.981800	3.745100	-11.165000	23.506789	0.000823	20.702533
866.275497	-3.002500	3.745000	-11.244000	23.514856	0.000820	20.690229
867.277931	-3.003200	3.744900	-11.246000	23.490881	0.000819	20.726418
868.274851	-2.997700	3.744000	-11.222000	23.484261	0.000819	20.702236
869.274898	-3.000300	3.744400	-11.233000	23.489016	0.000820	20.703684
870.273184	-2.994500	3.743700	-11.209000	23.465664	0.000818	20.713943
871.277179	-2.998200	3.743800	-11.224000	23.518892	0.000820	20.700914
872.278197	-3.011700	3.742200	-11.270000	23.487722	0.000818	20.700016
873.279538	-3.007100	3.743700	-11.257000	23.503307	0.000819	20.698568
874.279760	-3.004500	3.741500	-11.239000	23.493327	0.000819	20.729344
875.279363	-3.011700	3.742300	-11.269000	23.471218	0.000819	20.718561
876.279276	-2.994100	3.743600	-11.208000	23.466289	0.000818	20.713621
877.281232	-2.998100	3.742000	-11.217000	23.455284	0.000818	20.721557
878.280223	-3.002100	3.740200	-11.228000	23.459145	0.000818	20.717840
879.279518	-3.006700	3.739900	-11.244000	23.466537	0.000817	20.718611
880.281137	-3.017200	3.740100	-11.283000	23.464770	0.000818	20.702140
881.277674	-2.991500	3.740900	-11.190000	23.451427	0.000817	20.739502
882.282866	-2.981200	3.740700	-11.150000	23.450656	0.000816	20.700794
883.281977	-3.001800	3.740500	-11.227000	23.435666	0.000814	20.702840
884.281287	-2.996400	3.740800	-11.207000	23.437408	0.000815	20.710751
885.281675	-2.985200	3.740000	-11.163000	23.457676	0.000817	20.722532
886.281099	-3.004000	3.738800	-11.230000	23.447667	0.000816	20.729095
887.283556	-3.007200	3.738500	-11.240000	23.472192	0.000814	20.702467
888.279378	-3.007600	3.738300	-11.242000	23.479884	0.000814	20.728197
889.283625	-3.005300	3.738000	-11.233000	23.471369	0.000812	20.742422
890.279538	-3.004100	3.738100	-11.229000	23.462905	0.000812	20.703115
891.277819	-2.991400	3.738100	-11.181000	23.489468	0.000815	20.724527
892.285352	-3.008200	3.737300	-11.242000	23.497186	0.000813	20.725626
893.284137	-3.000100	3.736800	-11.209000	23.501145	0.000814	20.712524
894.283392	-2.996600	3.738800	-11.202000	23.533511	0.000812	20.715095
895.283284	-2.972600	3.738400	-11.111000	23.516555	0.000811	20.725126
896.283923	-2.983400	3.736500	-11.146000	23.524646	0.000810	20.722331
897.281529	-2.995600	3.736900	-11.192000	23.556836	0.000811	20.715718
898.289775	-2.996700	3.736500	-11.196000	23.564704	0.000815	20.722183
899.285672	-2.992500	3.736200	-11.180000	23.564654	0.000810	20.747264
900.288718	-3.020500	3.735200	-11.281000	23.562462	0.000812	20.727522
901.284114	-3.015600	3.735200	-11.263000	23.569061	0.000812	20.731767
902.285090	-2.986800	3.736400	-11.159000	23.585566	0.000810	20.727923
903.288661	-3.015300	3.735400	-11.263000	23.595571	0.000807	20.728471
904.284455	-3.008600	3.733900	-11.233000	23.610036	0.000809	20.714047
905.286810	-2.971900	3.736100	-11.102000	23.633734	0.000809	20.732116
906.285100	-3.006100	3.734200	-11.223000	23.624100	0.000806	20.734311
907.287326	-3.006600	3.734500	-11.227000	23.628953	0.000804	20.740599
908.285981	-3.009600	3.734600	-11.238000	23.614889	0.000809	20.726973
909.288345	-2.996800	3.734500	-11.190000	23.612897	0.000808	20.730192
910.287553	-2.989100	3.733300	-11.158000	23.639183	0.000807	20.742320
911.287985	-3.009300	3.733500	-11.234000	23.618048	0.000805	20.727769
912.289138	-3.011700	3.732500	-11.240000	23.595719	0.000806	20.728619
913.293031	-2.992000	3.733300	-11.169000	23.586160	0.000806	20.739899
914.291496	-3.003600	3.731100	-11.206000	23.572291	0.000804	20.720306
915.287407	-2.995200	3.732800	-11.179000	23.541248	0.000806	20.714317
916.291044	-2.969500	3.732800	-11.083000	23.565296	0.000805	20.733209
917.287039	-3.025600	3.730900	-11.287000	23.563802	0.000805	20.742617
918.291073	-2.996200	3.731900	-11.180000	23.558101	0.000804	20.725996
919.292901	-3.002200	3.731100	-11.200000	23.554840	0.000803	20.732685
920.287405	-3.012900	3.730000	-11.238000	23.549935	0.000805	20.730612
921.293501	-2.989700	3.731300	-11.155000	23.570249	0.000803	20.729165
922.291328	-2.985300	3.732200	-11.141000	23.579336	0.000803	20.735904
923.292858	-3.007900	3.731200	-11.222000	23.571145	0.000802	20.747608
924.295794	-3.021200	3.730300	-11.270000	23.606295	0.000801	20.739695
925.289909	-3.004400	3.729600	-11.204000	23.614735	0.000802	20.737251
926.295194	-2.997000	3.729000	-11.174000	23.613787	0.000803	20.745784
927.291736	-2.984600	3.729100	-11.129000	23.615281	0.000802	20.741592
928.291520	-2.974000	3.730000	-11.092000	23.586925	0.000802	20.730235
929.292711	-2.985700	3.728600	-11.132000	23.605998	0.000802	20.737027
930.293572	-2.982100	3.729200	-11.120000	23.603309	0.000799	20.753298
931.292889	-3.008300	3.727300	-11.212000	23.606916	0.000800	20.741740
932.293178	-2.984900	3.729000	-11.130000	23.630268	0.000801	20.754720
933.290090	-3.000100	3.728200	-11.183000	23.629320	0.000798	20.737648
934.293094	-2.992600	3.728600	-11.157000	23.626659	0.000799	20.744938
935.294945	-2.993300	3.727800	-11.157000	23.606420	0.000796	20.742666
936.293607	-2.984600	3.727200	-11.123000	23.605449	0.000796	20.750227
937.295620	-2.994200	3.727300	-11.159000	23.636019	0.000797	20.766650
938.294766	-3.024000	3.727200	-11.270000	23.630741	0.000798	20.739073
939.291133	-2.992200	3.727200	-11.150000	23.654239	0.000797	20.757889
940.296938	-3.023500	3.725700	-11.262000	23.656131	0.000796	20.754096
941.294908	-3.010000	3.726400	-11.216000	23.648962	0.000797	20.769194
942.291400	-2.993700	3.726800	-11.156000	23.664769	0.000795	20.754221
943.296044	-2.994000	3.726800	-11.157000	23.676816	0.000796	20.751600
944.295958	-2.990900	3.725800	-11.143000	23.662901	0.000796	20.758038
945.296409	-3.003700	3.725200	-11.189000	23.668228	0.000795	20.763853
946.294849	-3.006100	3.725000	-11.197000	23.661259	0.000795	20.761607
947.294821	-3.028600	3.724400	-11.278000	23.665390	0.000795	20.746783
948.298858	-2.998000	3.724200	-11.165000	23.666658	0.000794	20.751372
949.295928	-3.003000	3.725200	-11.186000	23.627054	0.000794	20.759084
950.297767	-3.005000	3.725000	-11.191000	23.615179	0.000795	20.755241
951.295367	-3.012600	3.725200	-11.221000	23.628098	0.000794	20.752070
952.295677	-2.993400	3.724000	-11.147000	23.643381	0.000792	20.759331
953.301039	-3.014700	3.723700	-11.225000	23.658591	0.000794	20.760355
954.297475	-3.029300	3.723500	-11.278000	23.694835	0.000793	20.755440
955.297639	-3.023400	3.723200	-11.256000	23.707006	0.000792	20.762901
956.298262	-3.004400	3.723000	-11.184000	23.713752	0.000793	20.754017
957.297887	-3.020000	3.721900	-11.239000	23.721763	0.000790	20.783861
958.299870	-2.983200	3.722400	-11.104000	23.696648	0.000791	20.769586
959.298973	-2.993300	3.722100	-11.141000	23.694531	0.000792	20.785482
960.297493	-2.981600	3.722700	-11.098000	23.696696	0.000790	20.754935
961.299397	-3.005800	3.722300	-11.187000	23.698911	0.000791	20.761897
962.299390	-3.005500	3.720800	-11.182000	23.688081	0.000792	20.773325
963.300265	-3.006300	3.721000	-11.185000	23.713199	0.000790	20.760575
964.300808	-2.975500	3.722000	-11.074000	23.716832	0.000790	20.760899
965.301220	-2.998900	3.721300	-11.159000	23.753294	0.000790	20.754307
966.302621	-3.003900	3.721800	-11.179000	23.758773	0.000788	20.765490
967.300544	-3.002000	3.720100	-11.167000	23.746425	0.000787	20.762593
968.305773	-3.005600	3.718400	-11.175000	23.767083	0.000789	20.769081
969.300573	-2.990200	3.719700	-11.122000	23.763723	0.000788	20.765238
970.306163	-3.018700	3.718800	-11.225000	23.766511	0.000785	20.786525
971.306428	-3.008600	3.719600	-11.190000	23.776415	0.000788	20.777963
972.310120	-2.994500	3.719500	-11.137000	23.737488	0.000788	20.757426
973.301921	-3.008600	3.718600	-11.187000	23.748388	0.000789	20.767406
974.304659	-2.999400	3.718400	-11.152000	23.763748	0.000786	20.771901
975.301732	-2.989700	3.719600	-11.119000	23.733007	0.000788	20.748665
976.303194	-2.993400	3.717800	-11.128000	23.760411	0.000786	20.753856
977.306922	-3.007300	3.717100	-11.177000	23.768026	0.000787	20.769078
978.302933	-3.016300	3.717200	-11.211000	23.772532	0.000786	20.754155
979.306547	-3.011200	3.717800	-11.194000	23.771138	0.000787	20.767931
980.303141	-3.023500	3.716000	-11.234000	23.773526	0.000785	20.776489
981.303522	-2.999000	3.716900	-11.146000	23.746595	0.000783	20.800696
982.306846	-2.990300	3.716300	-11.111000	23.753738	0.000783	20.787470
983.302889	-3.017400	3.717100	-11.214000	23.778230	0.000782	20.775516
984.302226	-2.988900	3.716800	-11.108000	23.792217	0.000783	20.785747
985.305406	-2.973900	3.717400	-11.053000	23.773176	0.000781	20.785147
986.305863	-2.994300	3.716200	-11.126000	23.773501	0.000779	20.789740
987.301793	-2.995700	3.714700	-11.126000	23.772880	0.000780	20.781531
988.309703	-2.994300	3.715700	-11.124000	23.774370	0.000779	20.767378
989.305707	-2.978200	3.716100	-11.066000	23.770140	0.000784	20.788268
990.305834	-2.977000	3.716500	-11.063000	23.739799	0.000781	20.765433
991.305916	-3.006300	3.713600	-11.163000	23.714236	0.000780	20.766830
992.307928	-3.004200	3.713800	-11.156000	23.709705	0.000779	20.776512
993.310343	-2.981500	3.713500	-11.071000	23.702311	0.000779	20.786643
994.305982	-2.978000	3.715100	-11.063000	23.716299	0.000779	20.782649
995.305207	-2.993000	3.713800	-11.114000	23.694071	0.000777	20.779805
996.303683	-2.978300	3.714100	-11.061000	23.695591	0.000779	20.782751
997.306587	-2.966000	3.713200	-11.013000	23.716199	0.000779	20.771644
998.310609	-3.019700	3.712000	-11.208000	23.695340	0.000782	20.779180
999.308965	-2.992400	3.713600	-11.111000	23.705819	0.000779	20.790635
1000.309009	-2.991700	3.713400	-11.109000	23.730785	0.000776	20.786267
1001.309132	-3.001700	3.713200	-11.145000	23.753681	0.000777	20.799741
1002.310269	-2.991500	3.712300	-11.105000	23.753633	0.000777	20.775036
1003.308665	-3.001400	3.711700	-11.138000	23.747412	0.000777	20.786343
1004.308733	-3.002900	3.711700	-11.145000	23.771977	0.000777	20.790109
1005.306818	-3.009600	3.710600	-11.166000	23.754231	0.000778	20.796973
1006.310813	-3.021800	3.710400	-11.210000	23.742381	0.000776	20.804532
1007.313993	-2.997900	3.709600	-11.120000	23.719879	0.000778	20.794300
1008.313436	-3.003100	3.711000	-11.144000	23.696507	0.000775	20.788885
1009.312122	-3.017100	3.710700	-11.194000	23.704074	0.000776	20.789359
1010.311222	-2.996200	3.709900	-11.114000	23.701857	0.000773	20.786663
1011.309560	-3.011900	3.709300	-11.170000	23.674950	0.000777	20.795248
1012.310290	-2.994600	3.709200	-11.106000	23.718582	0.000774	20.792525
1013.310616	-2.997500	3.709900	-11.119000	23.718157	0.000776	20.781667
1014.313307	-3.018100	3.708000	-11.190000	23.708798	0.000775	20.795992
1015.313523	-2.994400	3.710200	-11.109000	23.699587	0.000775	20.793396
1016.309984	-2.988600	3.708600	-11.082000	23.697098	0.000774	20.797538
1017.313459	-2.994900	3.708800	-11.106000	23.705236	0.000774	20.782938
1018.320288	-3.004100	3.708300	-11.139000	23.702771	0.000774	20.796588
1019.315812	-2.998800	3.708700	-11.121000	23.695376	0.000774	20.819993
1020.314701	-2.981400	3.708500	-11.056000	23.713024	0.000775	20.799755
1021.313674	-2.995400	3.707500	-11.104000	23.730721	0.000771	20.805170
1022.317478	-2.973900	3.708600	-11.028000	23.766711	0.000771	20.825606
1023.318341	-2.994800	3.706400	-11.099000	23.753694	0.000772	20.806392
1024.321858	-3.005000	3.707800	-11.141000	23.782290	0.000770	20.823209
1025.318622	-2.996700	3.707200	-11.108000	23.783734	0.000774	20.826553
1026.320636	-3.020200	3.706400	-11.193000	23.813875	0.000769	20.802246
1027.320604	-3.010700	3.705400	-11.154000	23.807800	0.000769	20.802320
1028.315689	-3.012000	3.707500	-11.166000	23.826939	0.000772	20.820561
1029.324205	-3.001100	3.705100	-11.119000	23.836546	0.000768	20.812176
1030.318296	-3.017900	3.706200	-11.183000	23.854239	0.000771	20.821382
1031.321642	-3.002400	3.705800	-11.126000	23.832562	0.000771	20.791112
1032.322586	-3.013900	3.704500	-11.165000	23.818648	0.000769	20.818412
1033.320957	-3.015900	3.704200	-11.171000	23.812128	0.000770	20.832262
1034.326570	-3.010400	3.703900	-11.149000	23.789254	0.000768	20.803638
1035.322474	-3.012100	3.704600	-11.158000	23.792787	0.000770	20.807181
1036.322865	-3.003900	3.705000	-11.129000	23.794108	0.000768	20.833161
1037.323267	-3.018600	3.704200	-11.180000	23.793633	0.000768	20.810400
1038.323194	-2.983100	3.704900	-11.051000	23.796719	0.000766	20.822977
1039.319612	-2.986500	3.703300	-11.059000	23.804535	0.000766	20.828917
1040.322325	-2.970500	3.705000	-11.004000	23.803737	0.000763	20.814841
1041.321901	-3.033300	3.700500	-11.223000	23.809960	0.000765	20.842416
1042.321025	-3.036300	3.701900	-11.239000	23.805504	0.000764	20.837000
1043.322790	-2.993100	3.704700	-11.087000	23.795946	0.000765	20.823624
1044.324265	-2.982300	3.702600	-11.042000	23.828949	0.000766	20.834429
1045.330919	-3.000500	3.702600	-11.109000	23.818047	0.000762	20.823025
1046.326127	-3.000800	3.702200	-11.109000	23.854236	0.000765	20.839870
1047.327857	-2.999300	3.700800	-11.097000	23.857992	0.000762	20.824671
1048.323033	-2.995400	3.701800	-11.088000	23.867773	0.000764	20.836848
1049.327685	-3.020900	3.702100	-11.182000	23.851249	0.000763	20.842565
1050.332121	-2.996300	3.700300	-11.085000	23.867600	0.000764	20.832882
1051.322910	-2.982100	3.701900	-11.039000	23.849456	0.000761	20.837448
1052.332487	-2.993300	3.700300	-11.075000	23.848112	0.000763	20.825669
1053.329376	-2.986800	3.700200	-11.051000	23.827503	0.000762	20.839618
1054.329795	-2.978200	3.702000	-11.024000	23.789547	0.000763	20.827639
1055.331373	-2.996400	3.699700	-11.085000	23.817300	0.000764	20.834129
1056.332513	-3.002600	3.699400	-11.108000	23.803934	0.000763	20.835900
1057.330353	-3.008000	3.699400	-11.127000	23.828572	0.000761	20.846854
1058.334420	-3.009100	3.699300	-11.131000	23.852068	0.000762	20.845283
1059.330378	-3.012500	3.698800	-11.142000	23.847812	0.000761	20.828688
1060.331602	-2.998300	3.699200	-11.090000	23.857618	0.000760	20.822873
1061.334898	-3.012800	3.698700	-11.142000	23.871158	0.000761	20.826493
1062.334141	-3.007300	3.698000	-11.120000	23.859286	0.000759	20.842563
1063.340574	-2.991600	3.697600	-11.061000	23.891516	0.000759	20.820354
1064.332533	-2.993600	3.698900	-11.072000	23.878597	0.000758	20.851021
1065.337797	-2.993700	3.698100	-11.070000	23.874093	0.000757	20.833703
1066.341653	-3.021400	3.697700	-11.171000	23.857693	0.000760	20.821526
1067.334557	-3.005800	3.697200	-11.112000	23.861725	0.000759	20.842164
1068.336845	-3.008700	3.697900	-11.125000	23.898507	0.000760	20.855812
1069.336574	-3.005000	3.697100	-11.109000	23.879543	0.000758	20.836323
1070.338181	-2.986500	3.696900	-11.039000	23.885738	0.000756	20.843009
1071.342453	-2.995500	3.696600	-11.072000	23.902861	0.000753	20.831730
1072.334266	-2.985800	3.696500	-11.036000	23.901193	0.000757	20.821048
1073.336860	-3.011400	3.695200	-11.127000	23.926029	0.000756	20.835521
1074.336020	-3.005100	3.695500	-11.104000	23.931378	0.000754	20.819549
1075.335493	-3.030600	3.693800	-11.194000	23.905545	0.000755	20.832050
1076.338145	-2.984600	3.695800	-11.029000	23.932547	0.000752	20.830204
1077.337401	-2.982400	3.696500	-11.024000	23.918858	0.000753	20.835917
1078.337437	-3.012900	3.695400	-11.133000	23.905493	0.000753	20.834843
1079.339862	-2.991200	3.694200	-11.049000	23.890485	0.000753	20.825010
1080.342400	-3.000400	3.694600	-11.084000	23.895786	0.000753	20.816101
1081.341782	-2.988800	3.696000	-11.045000	23.911962	0.000753	20.824260
1082.338299	-2.965100	3.695800	-10.957000	23.914249	0.000755	20.823235
1083.345858	-2.999400	3.693500	-11.077000	23.918030	0.000753	20.822760
1084.342890	-3.000800	3.692800	-11.081000	23.927213	0.000752	20.832915
1085.343052	-2.995600	3.694200	-11.065000	23.919995	0.000754	20.828523
1086.347049	-2.987100	3.693300	-11.031000	23.890254	0.000749	20.822407
1087.346001	-2.988200	3.693900	-11.037000	23.914692	0.000751	20.805662
1088.343170	-3.009300	3.692700	-11.111000	23.918723	0.000751	20.812549
1089.340637	-3.002300	3.693700	-11.088000	23.926662	0.000751	20.801543
1090.345869	-2.994600	3.692300	-11.054000	23.912997	0.000749	20.803963
1091.343255	-2.996000	3.691500	-11.059000	23.900752	0.000752	20.785993
1092.350540	-3.000200	3.690400	-11.070000	23.901847	0.000749	20.796101
1093.342718	-2.983800	3.693100	-11.018000	23.910532	0.000751	20.796748
1094.348149	-2.996300	3.691100	-11.059000	23.925240	0.000750	20.799643
1095.348503	-3.015400	3.690200	-11.127000	23.932780	0.000750	20.784445
1096.348984	-3.003100	3.690000	-11.080000	23.936636	0.000747	20.786416
1097.351735	-2.995900	3.691600	-11.058000	23.968466	0.000748	20.808377
1098.345250	-2.974900	3.689900	-10.976000	23.937409	0.000749	20.795725
1099.348120	-2.999200	3.689900	-11.066000	23.946491	0.000748	20.807203
1100.345094	-3.011000	3.689500	-11.109000	23.936610	0.000747	20.808200
1101.349509	-3.003700	3.688300	-11.078000	23.936537	0.000750	20.798169
1102.350265	-3.004900	3.688700	-11.083000	23.937757	0.000748	20.788013
1103.353521	-3.007700	3.687600	-11.089000	23.951244	0.000746	20.795849
1104.352870	-2.985700	3.689900	-11.016000	23.919837	0.000747	20.788536
1105.352901	-3.045700	3.687600	-11.230000	23.894951	0.000746	20.773064
1106.353607	-3.006500	3.689100	-11.089000	23.938528	0.000742	20.782148
1107.354676	-2.989200	3.686700	-11.019000	23.926457	0.000746	20.792329
1108.361318	-2.982100	3.687800	-10.997000	23.947037	0.000746	20.795897
1109.355455	-3.025900	3.686800	-11.155000	23.968340	0.000744	20.790232
1110.355169	-2.999500	3.688900	-11.063000	23.976877	0.000744	20.786940
1111.351691	-3.010100	3.686900	-11.098000	23.959382	0.000742	20.778405
1112.356934	-2.991800	3.685100	-11.024000	23.970481	0.000744	20.780525
1113.357726	-3.014600	3.685900	-11.111000	23.970456	0.000743	20.780500
1114.356232	-2.996000	3.687000	-11.045000	23.960676	0.000743	20.791556
1115.353296	-3.008200	3.685900	-11.087000	23.955798	0.000743	20.770543
1116.357185	-3.013100	3.685000	-11.102000	23.960276	0.000741	20.778827
1117.358402	-2.999700	3.685900	-11.055000	23.966000	0.000742	20.781722
1118.358828	-2.988700	3.685700	-11.015000	23.958087	0.000741	20.784693
1119.359544	-3.001600	3.684300	-11.057000	23.954801	0.000743	20.784242
1120.361960	-2.984900	3.685600	-11.000000	23.971151	0.000742	20.775034
1121.362980	-3.015600	3.683400	-11.106000	23.937156	0.000740	20.784092
1122.360732	-2.995100	3.683500	-11.032000	23.955845	0.000739	20.779125
1123.368459	-3.007500	3.684100	-11.079000	23.956542	0.000739	20.781247
1124.362935	-3.029300	3.682300	-11.154000	23.970602	0.000739	20.770690
1125.360522	-2.993400	3.684500	-11.027000	23.970950	0.000739	20.770091
1126.362185	-3.036900	3.682500	-11.182000	23.963858	0.000739	20.772461
1127.368738	-2.979800	3.683700	-10.975000	23.998771	0.000740	20.765748
1128.365357	-3.000500	3.683500	-11.051000	24.018852	0.000739	20.764075
1129.368649	-3.013800	3.681900	-11.095000	24.008028	0.000736	20.770763
1130.367236	-3.016800	3.684200	-11.113000	24.013900	0.000738	20.766695
1131.361255	-2.991900	3.682200	-11.016000	24.029677	0.000739	20.777776
1132.369894	-3.014100	3.681400	-11.095000	24.022161	0.000737	20.752219
1133.362486	-2.998900	3.681300	-11.038000	24.010440	0.000736	20.769389
1134.367050	-3.001800	3.681000	-11.049000	24.029277	0.000736	20.772634
1135.367278	-3.013100	3.680800	-11.089000	24.035823	0.000737	20.757861
1136.367195	-3.036100	3.678700	-11.168000	24.041197	0.000734	20.777475
1137.366036	-3.014400	3.680800	-11.095000	24.042689	0.000734	20.765221
1138.371012	-3.023100	3.680600	-11.126000	24.053665	0.000735	20.761529
1139.367072	-3.017500	3.680500	-11.105000	24.048639	0.000736	20.756014
1140.366556	-2.967600	3.680100	-10.920000	24.027734	0.000735	20.776302
1141.367297	-3.007300	3.679000	-11.063000	24.025895	0.000735	20.777776
1142.363122	-3.016800	3.679200	-11.099000	24.011661	0.000737	20.773458
1143.371068	-3.005100	3.678800	-11.054000	23.970599	0.000734	20.746504
1144.366505	-3.019800	3.679200	-11.109000	23.971546	0.000734	20.770214
1145.367831	-3.017300	3.677700	-11.096000	23.975127	0.000733	20.753891
1146.362437	-3.011400	3.677800	-11.074000	23.992648	0.000732	20.771461
1147.364906	-3.004600	3.678400	-11.051000	23.977095	0.000731	20.770563
1148.367174	-3.021000	3.677000	-11.108000	23.930310	0.000733	20.760631
1149.366872	-3.000100	3.678100	-11.033000	23.903806	0.000730	20.761554
1150.362207	-2.990800	3.678000	-10.999000	23.916398	0.000733	20.749050
1151.365973	-2.993700	3.677200	-11.007000	23.894325	0.000729	20.779549
1152.368423	-3.006200	3.675900	-11.050000	23.880662	0.000731	20.765374
1153.368147	-2.984000	3.678000	-10.974000	23.854778	0.000730	20.751273
1154.374372	-2.974000	3.677500	-10.935000	23.843527	0.000728	20.749000
1155.369264	-2.970000	3.678300	-10.924000	23.872672	0.000731	20.776802
1156.369637	-2.971100	3.676500	-10.923000	23.867199	0.000727	20.750451
1157.370658	-2.982500	3.676400	-10.963000	23.859656	0.000729	20.737198
1158.370773	-3.021800	3.673300	-11.098000	23.876158	0.000725	20.753745
1159.374730	-2.983000	3.675500	-10.963000	23.895745	0.000727	20.740669
1160.372287	-2.984700	3.675800	-10.970000	23.904528	0.000728	20.738096
1161.374912	-3.005000	3.676400	-11.047000	23.901643	0.000729	20.747531
1162.372763	-3.011200	3.675600	-11.067000	23.916999	0.000725	20.730212
1163.371939	-2.992200	3.673200	-10.989000	23.918515	0.000727	20.767296
1164.371950	-2.990300	3.673900	-10.985000	23.931682	0.000727	20.744936
1165.375174	-2.999200	3.673900	-11.018000	23.940790	0.000725	20.742216
1166.370152	-3.009200	3.674200	-11.054000	23.928622	0.000726	20.735703
1167.372526	-2.976400	3.673700	-10.933000	23.932927	0.000724	20.752823
1168.373665	-3.006800	3.673900	-11.046000	23.939570	0.000724	20.771814
1169.372975	-2.989600	3.673900	-10.983000	23.928124	0.000724	20.746584
1170.375430	-2.998600	3.672300	-11.011000	23.940990	0.000721	20.762332
1171.373226	-3.014400	3.672200	-11.069000	23.944475	0.000725	20.756817
1172.375942	-2.990600	3.672100	-10.980000	23.946789	0.000725	20.739697
1173.373317	-3.017700	3.672300	-11.080000	23.949055	0.000721	20.746711
1174.372776	-2.989700	3.673400	-10.982000	23.963563	0.000723	20.734232
1175.376914	-2.994500	3.670800	-10.991000	23.983372	0.000724	20.743191
1176.372746	-3.010100	3.670700	-11.048000	23.976802	0.000722	20.752251
1177.374393	-2.999300	3.671400	-11.010000	23.957964	0.000721	20.742842
1178.375487	-3.016300	3.670700	-11.070000	23.964061	0.000723	20.737102
1179.375915	-2.996900	3.672700	-11.006000	23.979291	0.000722	20.740996
1180.377465	-3.008600	3.671400	-11.044000	23.977275	0.000719	20.747983
1181.381077	-3.024600	3.670800	-11.102000	23.974738	0.000719	20.746861
1182.378955	-3.017000	3.669700	-11.070000	23.986335	0.000720	20.731938
1183.378201	-2.987200	3.670100	-10.961000	23.966973	0.000720	20.730539
1184.375808	-2.995800	3.670200	-10.995000	23.933277	0.000719	20.735630
1185.376780	-3.003000	3.669000	-11.017000	23.929720	0.000720	20.749133
1186.382490	-3.011600	3.668900	-11.049000	23.930093	0.000716	20.734334
1187.376587	-2.998600	3.669300	-11.001000	23.919641	0.000716	20.741396
1188.381848	-2.998900	3.668100	-10.999000	23.944949	0.000717	20.731687
1189.379689	-3.021900	3.667700	-11.082000	23.964983	0.000717	20.736130
1190.379825	-3.012100	3.668400	-11.049000	23.991536	0.000715	20.749008
1191.381052	-3.006900	3.667300	-11.026000	23.999276	0.000717	20.729742
1192.380200	-3.018400	3.666600	-11.066000	23.977328	0.000716	20.721957
1193.378196	-2.974400	3.668100	-10.908000	23.969313	0.000715	20.738102
1194.381282	-3.007500	3.667200	-11.028000	23.939052	0.000713	20.744741
1195.381715	-3.011200	3.666700	-11.041000	23.927308	0.000716	20.712099
1196.381252	-3.012900	3.666600	-11.045000	23.955528	0.000715	20.734235
1197.382694	-3.005500	3.666300	-11.018000	23.946967	0.000714	20.748410
1198.381152	-3.010600	3.666500	-11.037000	23.961375	0.000714	20.713071
1199.382817	-3.009200	3.664300	-11.024000	23.968045	0.000714	20.731140
1200.377699	-3.001200	3.665400	-11.000000	23.974889	0.000713	20.739900
1201.381037	-3.000700	3.664800	-10.995000	23.939751	0.000715	20.717939
1202.383906	-3.002200	3.664100	-10.999000	23.926237	0.000712	20.714819
1203.381351	-3.008200	3.663800	-11.021000	23.956301	0.000712	20.724578
1204.382776	-2.990100	3.664700	-10.957000	23.947715	0.000713	20.734461
1205.381360	-2.987200	3.664100	-10.945000	23.956026	0.000712	20.727148
1206.380842	-3.001300	3.664600	-10.996000	23.947092	0.000711	20.700643
1207.383417	-2.997300	3.663600	-10.979000	23.930991	0.000711	20.739501
1208.387266	-2.970400	3.663600	-10.881000	23.952068	0.000709	20.728869
1209.382993	-2.978900	3.661500	-10.906000	23.943882	0.000710	20.721133
1210.384479	-3.002800	3.661800	-10.995000	23.980440	0.000710	20.732664
1211.379492	-2.980800	3.662900	-10.917000	23.990519	0.000709	20.719537
1212.384933	-3.004500	3.662300	-11.003000	24.003930	0.000709	20.722556
1213.384361	-2.994500	3.662400	-10.967000	24.040065	0.000706	20.730345
1214.382774	-2.998400	3.662000	-10.980000	24.032948	0.000708	20.717517
1215.383760	-2.994100	3.661500	-10.962000	24.043126	0.000707	20.709706
1216.382219	-2.985900	3.660800	-10.930000	24.045314	0.000707	20.730393
1217.382985	-2.999700	3.659900	-10.978000	24.033447	0.000708	20.720863
1218.385172	-3.002500	3.659200	-10.985000	24.031233	0.000704	20.713900
1219.386411	-3.017500	3.660900	-11.046000	24.004756	0.000705	20.727178
1220.390362	-2.984300	3.661400	-10.926000	24.000076	0.000705	20.731019
1221.385726	-2.998800	3.658800	-10.970000	24.040341	0.000706	20.697903
1222.386005	-3.024100	3.658000	-11.060000	24.027078	0.000704	20.714001
1223.390496	-3.010800	3.659000	-11.015000	24.051615	0.000704	20.732445
1224.387456	-2.998600	3.658800	-10.970000	24.058334	0.000705	20.723536
1225.390808	-3.027300	3.657500	-11.072000	24.039149	0.000705	20.709511
1226.389423	-3.002400	3.658000	-10.982000	24.052287	0.000702	20.707514
1227.389196	-3.003100	3.658600	-10.987000	24.038303	0.000702	20.724785
1228.391253	-3.015100	3.659200	-11.032000	24.030838	0.000701	20.713505
1229.388375	-2.995800	3.658600	-10.959000	24.029447	0.000703	20.731076
1230.389894	-2.999000	3.658200	-10.970000	24.037461	0.000702	20.731527
1231.388234	-2.978000	3.658300	-10.893000	24.012178	0.000699	20.726085
1232.387852	-2.998700	3.657800	-10.968000	24.004962	0.000700	20.706046
1233.387966	-3.000600	3.657200	-10.973000	23.980626	0.000700	20.719100
1234.389083	-2.992000	3.655800	-10.937000	23.958478	0.000701	20.715855
1235.390834	-2.994200	3.657400	-10.950000	23.974083	0.000699	20.724867
1236.390215	-3.000000	3.655300	-10.964000	23.989311	0.000697	20.692720
1237.389730	-2.995500	3.655600	-10.949000	24.004293	0.000700	20.711065
1238.388913	-3.029000	3.654600	-11.069000	24.016263	0.000697	20.725441
1239.390302	-3.006400	3.654500	-10.985000	24.023455	0.000698	20.700883
1240.396679	-3.003100	3.655800	-10.977000	24.019225	0.000701	20.716557
1241.391268	-2.991300	3.656000	-10.934000	24.036843	0.000699	20.704353
1242.391502	-3.007300	3.653400	-10.986000	24.041946	0.000697	20.681493
1243.389748	-3.010400	3.652900	-10.996000	24.052097	0.000695	20.714910
1244.390471	-3.014900	3.654400	-11.017000	24.063744	0.000696	20.717108
1245.388738	-2.998300	3.653100	-10.952000	24.037118	0.000697	20.714112
1246.393482	-3.026200	3.652800	-11.053000	24.020547	0.000694	20.704605
1247.392981	-3.007400	3.653400	-10.986000	24.031844	0.000697	20.704555
1248.392926	-3.003300	3.653000	-10.970000	24.006412	0.000692	20.691378
1249.397466	-2.994100	3.652900	-10.935000	24.003228	0.000696	20.681545
1250.395442	-2.984200	3.652200	-10.897000	23.978243	0.000694	20.723823
1251.396913	-2.984700	3.653100	-10.902000	23.974909	0.000693	20.688708
1252.395898	-2.998300	3.652100	-10.948000	23.962192	0.000692	20.692552
1253.396008	-3.010600	3.650400	-10.989000	23.954179	0.000690	20.711070
1254.394210	-3.004900	3.651700	-10.973000	23.981353	0.000692	20.707975
1255.397746	-3.001800	3.650900	-10.959000	24.006263	0.000694	20.716834
1256.396470	-2.982700	3.650900	-10.889000	24.043913	0.000693	20.702909
1257.398002	-2.988600	3.649700	-10.907000	24.039931	0.000692	20.700337
1258.396537	-2.983300	3.651300	-10.892000	24.037517	0.000690	20.704081
1259.404280	-2.961800	3.650200	-10.810000	24.037492	0.000691	20.715436
1260.398114	-3.033600	3.647400	-11.064000	23.966894	0.000692	20.683515
1261.397706	-2.984700	3.650100	-10.893000	23.958033	0.000688	20.678897
1262.399821	-2.987800	3.648200	-10.899000	23.961545	0.000688	20.702809
1263.398038	-2.998900	3.647100	-10.935000	23.964057	0.000690	20.679247
1264.401406	-2.987400	3.646400	-10.893000	23.958210	0.000687	20.702309
1265.404677	-3.016400	3.647300	-11.001000	23.930063	0.000689	20.695420
1266.402153	-2.998800	3.647800	-10.939000	23.974632	0.000689	20.683215
1267.402399	-3.028100	3.646800	-11.043000	23.990810	0.000688	20.698491
1268.399394	-2.985600	3.647700	-10.890000	23.988096	0.000688	20.684388
1269.399015	-2.993700	3.647000	-10.916000	24.005567	0.000688	20.674407
1270.404160	-3.012500	3.645800	-10.983000	24.003203	0.000686	20.696220
1271.401537	-3.014700	3.646200	-10.991000	23.992899	0.000686	20.689680
1272.400634	-3.020900	3.644600	-11.010000	23.999941	0.000686	20.703855
1273.405107	-2.987000	3.645100	-10.886000	23.981903	0.000687	20.677703
1274.402091	-3.003300	3.644000	-10.943000	23.992030	0.000684	20.698292
1275.406029	-2.986900	3.646900	-10.891000	23.995538	0.000685	20.692800
1276.402877	-2.990600	3.646200	-10.903000	23.994394	0.000684	20.691653
1277.399839	-2.975000	3.645600	-10.845000	24.030775	0.000684	20.688783
1278.399973	-2.988600	3.645300	-10.894000	24.054488	0.000681	20.698340
1279.403799	-2.989800	3.644300	-10.894000	24.050233	0.000681	20.698340
1280.404747	-3.013900	3.644800	-10.983000	24.091115	0.000681	20.674854
1281.403171	-2.971600	3.644500	-10.830000	24.085170	0.000681	20.683592
1282.404408	-2.987900	3.645300	-10.890000	24.081711	0.000680	20.686287
1283.402554	-2.982100	3.643600	-10.865000	24.057749	0.000681	20.682644
1284.405480	-3.022800	3.642700	-11.010000	24.030575	0.000683	20.698067
1285.406173	-3.015700	3.642600	-10.984000	24.027912	0.000679	20.699663
1286.408022	-2.987000	3.642600	-10.879000	24.024777	0.000683	20.686086
1287.404594	-2.992000	3.642100	-10.896000	24.026145	0.000683	20.686511
1288.406966	-3.001200	3.640200	-10.923000	24.019003	0.000677	20.684090
1289.407357	-2.987000	3.642100	-10.877000	24.010941	0.000679	20.680745
1290.404946	-2.989100	3.641400	-10.884000	24.017287	0.000679	20.691378
1291.406521	-3.007200	3.640900	-10.948000	24.042097	0.000680	20.686861
1292.404113	-2.996300	3.640900	-10.909000	24.070216	0.000676	20.704158
1293.404357	-2.991900	3.641000	-10.893000	24.054390	0.000678	20.683068
1294.405277	-2.980100	3.641400	-10.851000	24.059043	0.000677	20.685363
1295.406133	-3.012000	3.638300	-10.956000	24.037045	0.000676	20.695545
1296.408805	-3.004000	3.639000	-10.930000	23.998997	0.000676	20.715238
1297.406737	-2.991300	3.640200	-10.888000	23.993821	0.000674	20.696769
1298.407706	-2.991500	3.638300	-10.882000	24.014077	0.000677	20.691478
1299.407607	-2.980700	3.638500	-10.845000	24.030326	0.000675	20.701610
1300.413216	-2.990500	3.637600	-10.876000	24.056504	0.000675	20.700837
1301.409975	-3.019900	3.637700	-10.984000	24.041771	0.000673	20.676576
1302.412841	-3.023600	3.636100	-10.994000	24.028732	0.000674	20.688157
1303.413363	-3.006200	3.637100	-10.933000	24.036520	0.000671	20.699761
1304.412433	-2.999500	3.636900	-10.908000	24.019698	0.000672	20.707073
1305.414289	-3.007800	3.637300	-10.939000	24.036991	0.000672	20.697863
1306.412788	-2.991700	3.636600	-10.878000	24.046572	0.000672	20.685185
1307.411382	-2.996500	3.636600	-10.896000	24.083920	0.000671	20.686132
1308.420662	-3.004700	3.636300	-10.925000	24.083371	0.000672	20.691271
1309.415993	-2.990600	3.636700	-10.874000	24.108379	0.000670	20.687903
1310.411557	-2.980900	3.636500	-10.839000	24.131718	0.000670	20.682386
1311.421638	-3.009100	3.635400	-10.938000	24.114026	0.000669	20.687876
1312.416986	-2.984600	3.635500	-10.850000	24.125595	0.000667	20.707542
1313.412093	-3.001200	3.635000	-10.909000	24.089640	0.000668	20.680014
1314.417282	-3.007000	3.634000	-10.926000	24.100835	0.000666	20.703097
1315.417977	-2.988200	3.634100	-10.859000	24.118030	0.000668	20.701376
1316.418977	-2.987600	3.633200	-10.853000	24.102127	0.000665	20.695384
1317.420482	-2.993500	3.634500	-10.879000	24.087023	0.000667	20.688296
1318.418993	-2.998900	3.633000	-10.894000	24.065449	0.000666	20.716447
1319.416727	-2.996600	3.634000	-10.889000	24.061640	0.000667	20.707410
1320.416114	-3.008000	3.632600	-10.926000	24.076371	0.000664	20.688044
1321.419205	-3.013200	3.631800	-10.942000	24.074603	0.000663	20.710454
1322.424458	-3.017200	3.631100	-10.955000	24.074055	0.000665	20.691411
1323.421740	-2.995300	3.631400	-10.876000	24.109487	0.000662	20.703714
1324.424498	-3.003500	3.630700	-10.904000	24.131532	0.000663	20.688364
1325.422750	-2.996300	3.630800	-10.878000	24.142728	0.000664	20.687266
1326.423460	-3.005500	3.629300	-10.906000	24.148150	0.000663	20.699817
1327.423597	-2.997600	3.631000	-10.882000	24.156782	0.000662	20.696621
1328.420442	-2.993900	3.631200	-10.869000	24.185692	0.000662	20.712343
1329.421154	-3.008400	3.630300	-10.920000	24.185641	0.000661	20.683365
1330.422286	-3.005900	3.628300	-10.905000	24.192734	0.000662	20.691903
1331.422463	-3.003300	3.629200	-10.898000	24.193701	0.000661	20.710418
1332.424389	-2.987600	3.628900	-10.841000	24.180163	0.000661	20.723867
1333.423854	-2.993700	3.628300	-10.860000	24.111242	0.000662	20.700258
1334.423974	-2.985600	3.627900	-10.830000	24.099919	0.000657	20.699807
1335.426911	-3.015700	3.627400	-10.939000	24.089343	0.000658	20.717177
1336.429382	-3.004300	3.628000	-10.898000	24.097229	0.000661	20.722715
1337.429467	-2.985300	3.628300	-10.830000	24.113201	0.000659	20.715975
1338.424334	-2.984000	3.626300	-10.818000	24.083665	0.000657	20.711008
1339.427063	-2.997800	3.627700	-10.874000	24.124546	0.000659	20.722138
1340.428909	-3.009400	3.625500	-10.909000	24.070599	0.000658	20.704067
1341.428634	-2.986900	3.627800	-10.834000	24.046385	0.000658	20.714398
1342.431651	-3.015400	3.626500	-10.934000	24.032625	0.000656	20.694431
1343.430111	-3.025400	3.623900	-10.962000	24.027173	0.000656	20.695602
1344.432697	-2.988900	3.626600	-10.837000	24.009406	0.000655	20.708606
1345.427790	-2.984000	3.626800	-10.821000	24.007811	0.000653	20.690884
1346.426473	-2.989700	3.623900	-10.834000	23.993377	0.000655	20.708653
1347.431611	-3.021600	3.622700	-10.944000	24.018684	0.000654	20.705582
1348.427327	-2.995000	3.624300	-10.853000	24.028089	0.000654	20.705056
1349.428980	-2.980200	3.623700	-10.798000	24.012436	0.000653	20.700739
1350.427567	-3.005700	3.623200	-10.889000	24.024728	0.000654	20.701685
1351.428776	-2.993900	3.623200	-10.847000	24.004372	0.000652	20.721576
1352.429324	-2.980700	3.623900	-10.801000	24.007507	0.000653	20.724720
1353.434608	-3.007900	3.622000	-10.893000	24.043738	0.000650	20.684713
1354.431266	-2.984900	3.623900	-10.816000	24.019052	0.000653	20.714487
1355.430777	-2.999900	3.621700	-10.863000	24.043537	0.000651	20.700634
1356.434862	-3.020900	3.619900	-10.934000	24.028284	0.000651	20.715210
1357.433343	-2.995900	3.621800	-10.849000	23.985904	0.000651	20.694994
1358.433498	-2.996900	3.620900	-10.849000	24.014994	0.000652	20.709468
1359.436125	-2.986100	3.622500	-10.816000	24.042541	0.000648	20.714809
1360.436531	-3.012400	3.621100	-10.906000	24.072698	0.000649	20.701431
1361.435830	-2.993400	3.619900	-10.835000	24.095316	0.000650	20.725539
1362.433763	-3.024900	3.619700	-10.948000	24.113007	0.000650	20.722893
1363.441268	-3.011000	3.619600	-10.897000	24.100590	0.000648	20.707119
1364.434194	-2.991400	3.621300	-10.832000	24.121267	0.000648	20.718375
1365.436780	-2.982500	3.619000	-10.792000	24.100242	0.000647	20.704399
1366.439343	-3.014500	3.618200	-10.906000	24.090014	0.000645	20.694615
1367.439040	-3.003500	3.618800	-10.869000	24.099818	0.000647	20.720570
1368.443081	-2.997700	3.619200	-10.848000	24.073492	0.000648	20.715979
1369.439142	-3.031600	3.615900	-10.960000	24.084166	0.000647	20.700130
1370.438348	-3.004400	3.617900	-10.869000	24.095663	0.000646	20.715454
1371.437372	-3.041700	3.616700	-10.999000	24.090089	0.000648	20.730728
1372.439508	-2.988400	3.617800	-10.810000	24.096808	0.000645	20.717551
1373.441488	-3.023300	3.616300	-10.932000	24.102656	0.000646	20.708243
1374.444054	-3.035200	3.615600	-10.972000	24.116740	0.000644	20.707196
1375.442750	-3.033500	3.613800	-10.960000	24.144831	0.000644	20.722569
1376.443054	-3.008400	3.617100	-10.880000	24.144558	0.000643	20.726088
1377.440911	-3.005400	3.615400	-10.864000	24.148165	0.000645	20.724965
1378.443955	-2.998400	3.616400	-10.843000	24.149560	0.000645	20.726364
1379.446145	-3.017300	3.615700	-10.908000	24.140230	0.000640	20.737869
1380.441131	-3.006000	3.615000	-10.866000	24.140405	0.000643	20.739467
1381.446501	-3.006200	3.615300	-10.868000	24.153667	0.000641	20.726215
1382.446665	-3.016500	3.614600	-10.903000	24.170312	0.000641	20.700709
1383.445086	-3.002900	3.614300	-10.852000	24.156729	0.000643	20.722648
1384.449587	-2.977900	3.614800	-10.764000	24.197111	0.000641	20.722849
1385.445005	-3.019600	3.612000	-10.906000	24.201764	0.000640	20.743163
1386.447629	-3.038800	3.613700	-10.980000	24.249533	0.000638	20.720428
1387.448660	-3.001300	3.612400	-10.840000	24.239779	0.000641	20.726292
1388.444514	-3.008300	3.611600	-10.864000	24.227515	0.000641	20.728689
1389.445632	-3.011700	3.612600	-10.878000	24.200645	0.000641	20.719280
1390.448082	-3.002500	3.610800	-10.841000	24.177556	0.000635	20.747806
1391.446794	-3.022300	3.610200	-10.910000	24.182432	0.000637	20.749378
1392.446957	-3.005500	3.612900	-10.858000	24.187136	0.000638	20.741767
1393.444656	-3.010900	3.610800	-10.870000	24.149964	0.000633	20.731036
1394.445949	-3.000700	3.611200	-10.836000	24.136354	0.000636	20.733982
1395.448216	-3.002500	3.610400	-10.839000	24.104878	0.000636	20.718058
1396.447272	-3.001600	3.610300	-10.835000	24.132770	0.000636	20.729439
1397.449281	-3.009600	3.609800	-10.862000	24.158026	0.000635	20.748132
1398.447375	-3.012600	3.609600	-10.873000	24.162480	0.000635	20.737900
1399.446799	-3.006900	3.609700	-10.852000	24.169398	0.000635	20.748158
1400.449847	-3.007600	3.609600	-10.855000	24.162355	0.000633	20.751526
1401.449847	-3.021900	3.608700	-10.904000	24.181986	0.000632	20.750827
1402.452503	-2.994000	3.608800	-10.804000	24.212465	0.000634	20.730662
1403.449507	-2.983900	3.609000	-10.768000	24.218212	0.000633	20.737376
1404.448882	-3.021500	3.608600	-10.901000	24.214530	0.000633	20.752650
1405.448954	-2.996000	3.606200	-10.803000	24.248441	0.000631	20.738773
1406.448932	-2.998600	3.607500	-10.815000	24.241823	0.000629	20.736403
