LabVIEW Measurement	
Writer_Version	2
Reader_Version	2
Separator	Tab
Decimal_Separator	.
Multi_Headings	No
X_Columns	One
Time_Pref	Absolute
Operator	admin
Description	Clolumns are: time, Current, Voltage, Power, Battery Temp, and Chamber Temp
Date	2024/08/16
Time	13:06:06.104549407958984375
***End_of_Header***	
	
Channels	6						
Samples	1	1	1	1	1	1	
Date	2024/08/27	2024/08/27	2024/08/27	2024/08/27	2024/08/27	2024/08/27	
Time	23:18:46.9903402328491210938	23:18:46.9973297119140625	23:18:47.0053248405456542969	23:18:46.9737520217895507813	23:18:46.9737520217895507813	23:18:46.9737520217895507813	
X_Dimension	Time	Time	Time	Time	Time	Time	
X0	0.0000000000000000E+0	0.0000000000000000E+0	0.0000000000000000E+0	0.0000000000000000E+0	0.0000000000000000E+0	0.0000000000000000E+0	
Delta_X	1.000000	1.000000	1.000000	1.000000	1.000000	1.000000	
***End_of_Header***							
X_Value	Untitled	Untitled 1	Untitled 2	Untitled 3	Untitled 4	Untitled 5	Comment
0.000000	0.013281	4.104600	0.054404	20.998960	0.000963	20.864316
1.002718	-2.998300	3.944700	-11.826000	20.980046	0.000963	20.901821
2.002154	-2.994800	3.938400	-11.794000	20.995117	0.000962	20.896505
3.002920	-3.005400	3.932600	-11.818000	21.003949	0.000962	20.891115
3.999800	-2.991300	3.928600	-11.750000	20.999058	0.000962	20.890965
5.001685	-2.990000	3.926100	-11.737000	21.015475	0.000960	20.890790
5.999052	-2.993600	3.922600	-11.742000	21.006717	0.000960	20.909529
7.003351	-3.010000	3.918900	-11.795000	21.006018	0.000958	20.887021
8.005407	-2.977900	3.918300	-11.668000	21.002151	0.000958	20.896428
9.000843	-3.004300	3.914100	-11.758000	21.019117	0.000957	20.893009
10.007220	-2.991500	3.912700	-11.703000	21.010933	0.000956	20.896203
11.003910	-3.006300	3.911300	-11.758000	21.023832	0.000956	20.902466
12.002644	-3.008600	3.909500	-11.761000	21.018967	0.000953	20.895704
13.006246	-2.989800	3.909700	-11.687000	21.027624	0.000953	20.884449
14.003212	-2.980300	3.907900	-11.646000	21.010707	0.000952	20.907831
15.003767	-3.004800	3.906400	-11.736000	21.034011	0.000952	20.900319
16.008101	-2.999900	3.904800	-11.712000	21.038702	0.000952	20.918760
17.004219	-3.016800	3.903600	-11.775000	21.057913	0.000949	20.904312
18.007739	-3.002800	3.902500	-11.717000	21.050204	0.000950	20.914617
19.008383	-2.999900	3.902400	-11.706000	21.068192	0.000950	20.912696
20.011537	-2.986500	3.902700	-11.655000	21.047808	0.000951	20.896576
21.007252	-2.988100	3.899600	-11.651000	21.066945	0.000950	20.898173
22.006263	-3.002600	3.900700	-11.712000	21.065248	0.000948	20.892209
23.016121	-3.008500	3.899500	-11.730000	21.057813	0.000949	20.905160
24.007470	-2.998600	3.898800	-11.691000	21.074181	0.000948	20.892135
25.008157	-3.000900	3.896600	-11.692000	21.097408	0.000947	20.912047
26.008296	-2.998500	3.897100	-11.684000	21.077624	0.000946	20.914069
27.005816	-3.006400	3.895200	-11.709000	21.069316	0.000946	20.901493
28.007259	-3.015000	3.895500	-11.744000	21.102174	0.000946	20.892160
29.015954	-2.985500	3.895100	-11.628000	21.081941	0.000946	20.909852
30.008994	-2.996200	3.893200	-11.663000	21.093792	0.000945	20.894207
31.008211	-3.011800	3.893100	-11.724000	21.094341	0.000943	20.894756
32.008190	-2.996600	3.892800	-11.664000	21.100678	0.000942	20.904413
33.014162	-3.004600	3.892500	-11.694000	21.115822	0.000943	20.898225
34.017709	-2.999500	3.891600	-11.671000	21.122484	0.000943	20.899673
35.009479	-2.998100	3.891700	-11.666000	21.136879	0.000942	20.905537
36.018426	-3.006400	3.889800	-11.693000	21.144838	0.000943	20.898326
37.010221	-3.010000	3.889200	-11.706000	21.149903	0.000944	20.902918
38.020948	-3.002800	3.889600	-11.679000	21.154020	0.000942	20.910354
39.021595	-2.981800	3.889600	-11.597000	21.166743	0.000940	20.904590
40.011377	-3.012300	3.888400	-11.713000	21.175201	0.000940	20.927747
41.011164	-3.004600	3.888000	-11.679000	21.172133	0.000941	20.920412
42.011353	-3.002000	3.887100	-11.668000	21.179094	0.000941	20.904143
43.021106	-3.005100	3.885600	-11.676000	21.175801	0.000941	20.917917
44.018679	-3.018500	3.884400	-11.724000	21.180891	0.000939	20.927749
45.019012	-2.993400	3.888200	-11.638000	21.180368	0.000940	20.900202
46.010905	-2.976000	3.886300	-11.564000	21.203245	0.000942	20.906490
47.019633	-2.979000	3.886700	-11.577000	21.213124	0.000938	20.912106
48.017160	-3.010100	3.884300	-11.691000	21.224525	0.000939	20.912131
49.009808	-2.994000	3.884100	-11.628000	21.218639	0.000938	20.919518
50.016717	-3.004100	3.883400	-11.664000	21.241739	0.000937	20.914178
51.013234	-3.008100	3.883400	-11.680000	21.238896	0.000939	20.908016
52.024031	-3.009400	3.882100	-11.682000	21.248326	0.000937	20.911285
53.015735	-2.986600	3.883600	-11.597000	21.243637	0.000936	20.931722
54.013381	-2.986300	3.883400	-11.596000	21.233510	0.000938	20.908791
55.023338	-2.978200	3.882400	-11.562000	21.270231	0.000936	20.932248
56.021244	-2.984400	3.883600	-11.590000	21.261675	0.000938	20.917526
57.014103	-2.997700	3.882600	-11.637000	21.287095	0.000937	20.938213
58.017026	-2.990900	3.881300	-11.607000	21.294130	0.000938	20.906847
59.014069	-2.993200	3.881000	-11.614000	21.305231	0.000936	20.938339
60.018736	-2.999900	3.881000	-11.641000	21.296576	0.000935	20.931577
61.022202	-3.010800	3.879500	-11.679000	21.305906	0.000936	20.924791
62.020437	-3.012500	3.881000	-11.691000	21.307029	0.000938	20.923070
63.022025	-3.010700	3.879000	-11.677000	21.308676	0.000935	20.917606
64.021389	-2.996700	3.880700	-11.628000	21.319229	0.000936	20.938592
65.015390	-3.001500	3.880100	-11.645000	21.340681	0.000933	20.915961
66.020276	-3.013700	3.878700	-11.688000	21.334595	0.000934	20.931207
67.018426	-3.015900	3.878500	-11.694000	21.338313	0.000935	20.915014
68.016219	-2.997800	3.877400	-11.622000	21.360639	0.000934	20.939719
69.019598	-3.009500	3.877000	-11.667000	21.374109	0.000935	20.914791
70.015241	-2.981400	3.878900	-11.563000	21.363185	0.000935	20.937050
71.016389	-3.008600	3.878600	-11.669000	21.409530	0.000935	20.927470
72.019989	-2.981500	3.877300	-11.559000	21.388355	0.000934	20.927621
73.016786	-3.006200	3.876300	-11.652000	21.385263	0.000935	20.940647
74.017324	-2.999600	3.877700	-11.630000	21.402299	0.000934	20.916444
75.018565	-3.011800	3.876400	-11.674000	21.420283	0.000935	20.919264
76.017171	-2.985200	3.877300	-11.573000	21.409535	0.000935	20.929846
77.019828	-3.004900	3.876800	-11.649000	21.409037	0.000934	20.932192
78.025623	-3.017000	3.873500	-11.684000	21.415024	0.000935	20.912106
79.021068	-3.018000	3.874900	-11.692000	21.414003	0.000934	20.925307
80.023545	-3.001300	3.875300	-11.629000	21.441788	0.000933	20.932719
81.021293	-2.983400	3.875100	-11.560000	21.457553	0.000934	20.931897
82.025704	-2.982400	3.876200	-11.559000	21.455234	0.000934	20.928629
83.025131	-2.994500	3.873700	-11.599000	21.464214	0.000934	20.929554
84.024584	-2.991300	3.872900	-11.584000	21.476487	0.000933	20.928557
85.024252	-2.985500	3.874000	-11.565000	21.470078	0.000933	20.931627
86.022830	-3.007200	3.872100	-11.644000	21.471202	0.000932	20.916158
87.024995	-3.015400	3.872700	-11.676000	21.498239	0.000932	20.938941
88.023741	-2.998200	3.873900	-11.614000	21.490807	0.000933	20.943358
89.023016	-3.003800	3.872200	-11.631000	21.499462	0.000933	20.929261
90.024981	-2.995600	3.872300	-11.598000	21.491233	0.000933	20.940466
91.022267	-3.013400	3.872900	-11.669000	21.518145	0.000934	20.932307
92.022922	-2.980000	3.873700	-11.543000	21.536577	0.000933	20.949327
93.027913	-2.984600	3.873600	-11.561000	21.544110	0.000934	20.944063
94.025148	-2.989400	3.873000	-11.577000	21.559149	0.000933	20.948680
95.024228	-3.006700	3.870600	-11.637000	21.543090	0.000931	20.934035
96.025127	-2.989400	3.871600	-11.572000	21.544314	0.000934	20.950904
97.024021	-3.014700	3.869600	-11.664000	21.547706	0.000934	20.952876
98.027629	-2.998900	3.870800	-11.608000	21.542820	0.000933	20.937083
99.026455	-2.986700	3.869700	-11.556000	21.554442	0.000935	20.945866
100.024056	-2.999700	3.869900	-11.607000	21.573622	0.000932	20.956050
101.023029	-3.015100	3.870100	-11.668000	21.578311	0.000934	20.940355
102.027588	-3.006100	3.870400	-11.632000	21.559634	0.000931	20.963388
103.028156	-2.988400	3.868700	-11.560000	21.563128	0.000934	20.944127
104.026451	-2.982900	3.871100	-11.546000	21.584202	0.000933	20.955257
105.028267	-3.000000	3.869500	-11.608000	21.580862	0.000933	20.950018
106.025107	-2.983200	3.868500	-11.540000	21.589068	0.000933	20.943058
107.025997	-2.989300	3.869500	-11.566000	21.587598	0.000935	20.942061
108.028096	-2.982500	3.867500	-11.534000	21.610193	0.000933	20.935750
109.027375	-3.028800	3.866900	-11.710000	21.618324	0.000931	20.961427
110.025086	-2.994200	3.869100	-11.584000	21.620271	0.000934	20.954841
111.027091	-2.990700	3.868400	-11.568000	21.633041	0.000933	20.942491
112.026327	-3.013300	3.869000	-11.657000	21.643865	0.000934	20.945737
113.028079	-2.999700	3.868000	-11.601000	21.660774	0.000934	20.964552
114.030558	-3.019000	3.867200	-11.674000	21.676860	0.000935	20.950306
115.025421	-2.998300	3.867900	-11.596000	21.657759	0.000934	20.963432
116.026301	-2.992200	3.867300	-11.570000	21.683869	0.000934	20.959217
117.028156	-2.984700	3.868200	-11.545000	21.689780	0.000935	20.959917
118.028295	-2.979800	3.867600	-11.523000	21.684645	0.000934	20.961889
119.030674	-3.007500	3.866600	-11.627000	21.687689	0.000933	20.969202
120.029181	-2.981200	3.865400	-11.522000	21.730855	0.000935	20.958824
121.030086	-3.007000	3.866600	-11.626000	21.725320	0.000935	20.970827
122.029330	-3.008800	3.865600	-11.630000	21.734648	0.000935	20.982057
123.029122	-3.006700	3.864900	-11.620000	21.750833	0.000935	20.967437
124.030131	-2.985900	3.865400	-11.541000	21.750385	0.000936	20.966989
125.031281	-3.021500	3.864700	-11.676000	21.709643	0.000936	20.962725
126.031106	-3.012400	3.864800	-11.639000	21.744204	0.000937	20.966967
127.031092	-2.990200	3.864700	-11.555000	21.737473	0.000936	20.973980
128.030275	-2.993900	3.865400	-11.572000	21.766972	0.000937	20.977899
129.032530	-2.988100	3.864100	-11.545000	21.754932	0.000937	20.963954
130.034008	-2.976900	3.865800	-11.508000	21.768422	0.000937	20.963231
131.030408	-3.005700	3.862600	-11.609000	21.769371	0.000937	20.982670
132.034369	-3.018700	3.862900	-11.659000	21.794207	0.000937	20.964856
133.035942	-3.015000	3.863000	-11.646000	21.771020	0.000938	20.992380
134.030238	-2.986300	3.862800	-11.535000	21.793763	0.000938	20.980530
135.033199	-3.009300	3.864400	-11.627000	21.795759	0.000938	20.988690
136.031650	-3.005600	3.862600	-11.608000	21.799799	0.000939	20.964289
137.031297	-2.982800	3.863500	-11.522000	21.802419	0.000938	20.969755
138.031054	-2.990200	3.863200	-11.550000	21.816833	0.000937	20.969009
139.031169	-2.985600	3.863000	-11.532000	21.797037	0.000939	20.988548
140.034077	-2.984800	3.862100	-11.527000	21.810703	0.000939	20.962875
141.031231	-3.006400	3.862500	-11.610000	21.822324	0.000940	20.981141
142.033246	-2.985800	3.863100	-11.534000	21.812551	0.000937	20.985110
143.033295	-3.007100	3.861300	-11.608000	21.834720	0.000939	20.959887
144.032699	-3.014900	3.860800	-11.638000	21.849582	0.000941	20.979026
145.034118	-2.999300	3.861200	-11.578000	21.852500	0.000940	20.970569
146.034402	-2.995600	3.860700	-11.563000	21.848763	0.000941	20.978207
147.040498	-3.006400	3.861600	-11.609000	21.886238	0.000940	20.980155
148.036184	-2.990800	3.861300	-11.548000	21.885093	0.000942	21.002239
149.036205	-3.002800	3.860500	-11.591000	21.918328	0.000940	20.982404
150.042853	-3.008500	3.859700	-11.610000	21.915888	0.000940	20.988496
151.036207	-3.012500	3.860700	-11.630000	21.910754	0.000941	20.970557
152.037187	-3.004900	3.859400	-11.596000	21.937880	0.000941	20.991068
153.037577	-3.011800	3.858400	-11.620000	21.944116	0.000942	20.972183
154.039686	-2.992800	3.859700	-11.549000	21.930855	0.000942	20.973133
155.039598	-3.004500	3.859000	-11.594000	21.946314	0.000945	20.990976
156.043219	-3.003400	3.859400	-11.590000	21.940657	0.000942	20.994322
157.042774	-3.007800	3.858100	-11.604000	21.965913	0.000943	20.989258
158.040189	-2.985900	3.860000	-11.523000	21.976435	0.000944	21.001685
159.041914	-3.018500	3.857000	-11.642000	21.971851	0.000943	20.989986
160.041449	-2.995100	3.858600	-11.556000	21.977563	0.000943	20.983851
161.045007	-3.006400	3.859000	-11.601000	21.981231	0.000945	21.012174
162.041589	-2.991300	3.860100	-11.546000	21.974477	0.000945	20.980763
163.043845	-3.008500	3.857100	-11.603000	21.988116	0.000945	21.000576
164.039816	-2.998900	3.856900	-11.564000	21.986945	0.000947	20.999878
165.041899	-2.981000	3.858600	-11.502000	22.009907	0.000945	20.985883
166.042408	-2.982900	3.857000	-11.504000	22.013774	0.000947	21.001605
167.040913	-3.017500	3.856000	-11.633000	22.017416	0.000948	20.988657
168.040874	-3.011100	3.855900	-11.610000	22.044343	0.000946	20.981475
169.040493	-3.023400	3.855200	-11.654000	22.035718	0.000949	21.003184
170.040836	-3.009100	3.856400	-11.603000	22.029689	0.000947	21.014215
171.038819	-3.028000	3.854900	-11.672000	22.055617	0.000949	21.000345
172.044582	-2.993100	3.856400	-11.541000	22.039791	0.000948	21.014845
173.041437	-3.015600	3.854900	-11.624000	22.039869	0.000949	21.012078
174.042101	-3.018500	3.854900	-11.635000	22.063352	0.000949	21.007139
175.042640	-3.023500	3.855300	-11.655000	22.094417	0.000948	21.002204
176.040747	-3.009000	3.853500	-11.593000	22.069890	0.000948	21.012261
177.048869	-2.978900	3.857100	-11.488000	22.095518	0.000951	21.012787
178.047828	-2.981000	3.854700	-11.489000	22.103323	0.000949	21.024866
179.045918	-3.021000	3.852800	-11.638000	22.117385	0.000951	21.017609
180.049468	-3.010400	3.854100	-11.602000	22.119956	0.000952	21.017812
181.046453	-3.005100	3.854500	-11.582000	22.093660	0.000951	21.001447
182.048884	-3.002400	3.854600	-11.572000	22.114055	0.000953	21.014276
183.053208	-2.992700	3.853700	-11.532000	22.093568	0.000952	21.017472
184.046802	-3.021400	3.852500	-11.639000	22.115856	0.000952	21.022715
185.048591	-3.011100	3.851800	-11.597000	22.161349	0.000953	21.022269
186.048141	-3.008500	3.853800	-11.593000	22.128873	0.000953	21.021522
187.049990	-3.024900	3.851600	-11.649000	22.137824	0.000952	21.018157
188.054127	-2.986400	3.852600	-11.504000	22.165247	0.000955	21.035178
189.048969	-2.993200	3.853800	-11.534000	22.152587	0.000954	21.025823
190.050292	-3.017400	3.851600	-11.620000	22.171909	0.000956	21.023832
191.050105	-3.008900	3.851000	-11.586000	22.181584	0.000955	21.023561
192.049977	-3.011600	3.850100	-11.594000	22.188465	0.000955	21.019072
193.066968	-2.990400	3.852500	-11.519000	22.189739	0.000956	21.026984
194.049829	-2.989900	3.851300	-11.515000	22.193806	0.000956	21.039588
195.055207	-3.003900	3.851500	-11.568000	22.218584	0.000957	21.017933
196.050647	-2.998400	3.851500	-11.547000	22.204680	0.000958	21.026296
197.052107	-2.998700	3.849800	-11.543000	22.219114	0.000956	21.062077
198.051729	-3.000800	3.849300	-11.549000	22.228365	0.000959	21.044317
199.053473	-2.989800	3.851100	-11.513000	22.225702	0.000959	21.044969
200.054600	-3.006700	3.850500	-11.576000	22.244497	0.000959	21.032023
201.054758	-2.989100	3.851300	-11.510000	22.223888	0.000959	21.029406
202.054792	-3.005600	3.848800	-11.567000	22.240094	0.000961	21.061272
203.055877	-3.014200	3.848700	-11.599000	22.243062	0.000960	21.059029
204.057062	-3.012400	3.848700	-11.591000	22.238205	0.000959	21.038523
205.055940	-3.008600	3.849400	-11.579000	22.263607	0.000961	21.049256
206.057514	-3.005500	3.848800	-11.567000	22.241153	0.000959	21.033890
207.057117	-3.000600	3.848900	-11.548000	22.259325	0.000962	21.044496
208.058649	-3.017000	3.848700	-11.610000	22.237321	0.000963	21.040009
209.060229	-3.013500	3.848000	-11.595000	22.274660	0.000961	21.034723
210.059457	-3.010300	3.848100	-11.582000	22.299511	0.000962	21.046327
211.061157	-3.005500	3.846800	-11.560000	22.287153	0.000963	21.010726
212.056633	-3.013600	3.846100	-11.590000	22.305774	0.000962	21.023680
213.061053	-2.987800	3.847700	-11.495000	22.310115	0.000963	21.026603
214.061578	-3.015600	3.847000	-11.600000	22.287712	0.000962	21.059640
215.061616	-3.001900	3.846100	-11.544000	22.311042	0.000965	21.005250
216.059193	-2.997000	3.847700	-11.531000	22.320766	0.000965	21.030156
217.060129	-3.004400	3.846700	-11.556000	22.328720	0.000966	21.040488
218.058833	-3.005200	3.847400	-11.561000	22.309906	0.000966	21.050097
219.061807	-2.985600	3.845700	-11.481000	22.321524	0.000965	21.032337
220.062994	-2.964500	3.847800	-11.405000	22.309438	0.000966	21.024503
221.062630	-2.984100	3.847300	-11.478000	22.325466	0.000967	21.031069
222.066148	-2.957500	3.847800	-11.379000	22.335266	0.000967	21.016228
223.061922	-2.986100	3.847000	-11.486000	22.321387	0.000968	21.014185
224.061334	-2.993500	3.845300	-11.510000	22.346861	0.000967	21.013615
225.067919	-3.006700	3.846500	-11.564000	22.332311	0.000969	21.020381
226.064001	-2.988800	3.845900	-11.494000	22.360325	0.000969	21.004339
227.064054	-3.011000	3.843600	-11.572000	22.369325	0.000970	21.027572
228.063073	-2.994700	3.846300	-11.517000	22.373190	0.000970	20.998731
229.065195	-2.998800	3.845100	-11.530000	22.374888	0.000970	21.021290
230.064120	-3.003400	3.844800	-11.546000	22.377410	0.000971	21.018126
231.067983	-2.991000	3.844100	-11.495000	22.377612	0.000971	21.011691
232.064724	-2.989700	3.844000	-11.491000	22.392019	0.000972	21.027064
233.064689	-3.002000	3.843200	-11.535000	22.389407	0.000973	21.017812
234.064208	-2.997100	3.843400	-11.519000	22.401298	0.000974	20.992740
235.066655	-3.000100	3.842300	-11.527000	22.392777	0.000971	21.003646
236.068582	-3.019300	3.842400	-11.600000	22.391486	0.000973	21.000457
237.065033	-2.981500	3.843700	-11.459000	22.393803	0.000975	21.002303
238.064935	-3.007300	3.842400	-11.554000	22.427873	0.000975	20.996119
239.066554	-3.021800	3.842600	-11.611000	22.412451	0.000975	21.018128
240.070362	-3.016200	3.841000	-11.584000	22.410187	0.000975	20.997374
241.067823	-2.996300	3.841200	-11.507000	22.433540	0.000977	21.009378
242.076841	-2.990500	3.842000	-11.488000	22.444334	0.000978	21.006437
243.067783	-3.007700	3.840000	-11.547000	22.452360	0.000978	21.005940
244.070889	-2.998600	3.841600	-11.517000	22.472846	0.000978	21.001327
245.069016	-2.987300	3.840200	-11.471000	22.465723	0.000977	20.999410
246.072487	-2.989400	3.840200	-11.477000	22.461763	0.000977	20.997340
247.070188	-3.001500	3.840600	-11.527000	22.471933	0.000980	20.984293
248.070523	-2.992600	3.841800	-11.496000	22.454222	0.000978	20.991212
249.069852	-2.988400	3.840200	-11.475000	22.446173	0.000979	21.008753
250.072291	-2.998300	3.838500	-11.508000	22.466560	0.000980	20.987447
251.074291	-2.989000	3.840000	-11.477000	22.467511	0.000977	20.983184
252.072998	-2.960500	3.840800	-11.370000	22.486701	0.000980	20.987704
253.073140	-2.991000	3.838400	-11.480000	22.496921	0.000981	20.987982
254.073949	-2.991300	3.839200	-11.483000	22.511375	0.000982	20.964528
255.074388	-2.994300	3.839700	-11.496000	22.488331	0.000981	20.998816
256.076022	-3.009000	3.839600	-11.551000	22.483002	0.000983	20.999644
257.074827	-3.013600	3.837100	-11.563000	22.517766	0.000984	20.993683
258.073946	-2.994200	3.839000	-11.494000	22.501546	0.000984	20.985501
259.074003	-2.998300	3.836800	-11.503000	22.542614	0.000984	20.974002
260.076138	-2.995300	3.839300	-11.498000	22.530534	0.000985	20.998410
261.081710	-2.987800	3.838400	-11.467000	22.511847	0.000984	21.009564
262.076165	-3.008100	3.835500	-11.537000	22.525706	0.000986	20.988835
263.077224	-3.022900	3.836300	-11.596000	22.510185	0.000985	20.973292
264.078533	-3.010300	3.836100	-11.547000	22.504358	0.000986	20.989739
265.075216	-3.016700	3.835400	-11.570000	22.524345	0.000988	20.986049
266.076291	-3.002400	3.835700	-11.515000	22.526739	0.000989	20.985602
267.081656	-2.978200	3.837300	-11.426000	22.530183	0.000988	20.982887
268.077322	-3.010300	3.835700	-11.546000	22.541475	0.000988	20.989454
269.078439	-3.007000	3.837000	-11.537000	22.561561	0.000988	20.962634
270.076656	-3.000200	3.836000	-11.508000	22.551874	0.000991	20.980904
271.076642	-3.003900	3.835300	-11.520000	22.565508	0.000989	21.006883
272.076109	-3.015400	3.834400	-11.561000	22.540068	0.000992	20.961022
273.079459	-2.999200	3.834600	-11.500000	22.531676	0.000990	20.992916
274.077401	-3.004600	3.835000	-11.521000	22.522410	0.000990	20.976526
275.077072	-3.005800	3.835400	-11.527000	22.510382	0.000991	20.992453
276.077597	-3.012600	3.835000	-11.550000	22.533759	0.000992	20.963712
277.078249	-3.002600	3.833300	-11.509000	22.567249	0.000992	20.980656
278.079062	-3.023300	3.832300	-11.585000	22.549962	0.000993	20.965241
279.084882	-3.023400	3.832400	-11.586000	22.557189	0.000993	20.980063
280.079208	-3.005400	3.832400	-11.517000	22.578898	0.000995	20.969091
281.080219	-3.003800	3.833600	-11.514000	22.592830	0.000993	20.983517
282.080338	-2.975900	3.833800	-11.408000	22.593533	0.000997	20.988014
283.082378	-2.995100	3.833100	-11.480000	22.616384	0.000996	20.995727
284.080126	-2.973800	3.833500	-11.398000	22.616662	0.000995	20.973249
285.085926	-3.001000	3.832800	-11.501000	22.609343	0.000995	20.985356
286.081890	-2.985400	3.831200	-11.437000	22.615524	0.000997	20.965947
287.082454	-2.984200	3.831800	-11.433000	22.619567	0.000999	20.952928
288.084592	-2.979500	3.831500	-11.414000	22.614284	0.000998	20.975609
289.085918	-2.983600	3.832100	-11.432000	22.606940	0.000998	20.962565
290.085322	-2.990300	3.831000	-11.455000	22.627153	0.000999	20.974748
291.082122	-2.996400	3.831400	-11.478000	22.609039	0.001001	20.971304
292.082207	-2.970200	3.831200	-11.379000	22.667073	0.000999	20.966844
293.083127	-3.020300	3.829900	-11.566000	22.669768	0.001001	20.955320
294.082853	-2.989700	3.831700	-11.455000	22.656493	0.001001	20.963359
295.082880	-2.985900	3.829900	-11.435000	22.682233	0.001002	20.977760
296.083856	-2.976500	3.830900	-11.401000	22.685251	0.001001	20.982679
297.080692	-2.999000	3.829800	-11.485000	22.681121	0.001002	20.957208
298.083062	-2.996900	3.829200	-11.475000	22.696647	0.001003	20.966595
299.085881	-3.002700	3.829200	-11.496000	22.704897	0.001005	20.962057
300.085028	-2.994900	3.828300	-11.464000	22.698074	0.001003	20.978454
301.088688	-2.976900	3.828900	-11.398000	22.708145	0.001003	20.953458
302.084365	-2.980700	3.829100	-11.411000	22.716220	0.001004	20.966286
303.083476	-2.979300	3.828900	-11.407000	22.700676	0.001007	20.960675
304.087162	-3.000600	3.827200	-11.483000	22.698114	0.001005	20.959531
305.086110	-2.987500	3.826900	-11.432000	22.724377	0.001006	20.961182
306.084741	-2.986300	3.828400	-11.431000	22.742122	0.001006	20.961887
307.085888	-2.971500	3.828700	-11.376000	22.746287	0.001007	20.974118
308.085862	-2.970500	3.827400	-11.368000	22.764076	0.001008	20.942156
309.085671	-2.986300	3.827700	-11.430000	22.745646	0.001010	20.967787
310.088920	-2.988700	3.826100	-11.434000	22.750407	0.001009	20.969711
311.087847	-2.974000	3.828000	-11.384000	22.759227	0.001007	20.954367
312.085796	-2.991600	3.825700	-11.443000	22.748771	0.001011	20.952428
313.085197	-2.996600	3.825400	-11.462000	22.764472	0.001008	20.968627
314.088390	-2.979000	3.825800	-11.396000	22.769105	0.001011	20.953356
315.088760	-3.017500	3.823500	-11.537000	22.788319	0.001012	20.949845
316.086690	-2.996600	3.825900	-11.463000	22.774247	0.001011	20.962773
317.088420	-2.998200	3.825500	-11.468000	22.773178	0.001010	20.945109
318.086782	-3.014200	3.823900	-11.524000	22.779988	0.001012	20.932492
319.086572	-3.023500	3.824700	-11.563000	22.792347	0.001013	20.944871
320.091055	-3.004600	3.825000	-11.491000	22.781636	0.001014	20.942202
321.088625	-3.004900	3.822900	-11.487000	22.781221	0.001013	20.940364
322.090526	-2.980600	3.825000	-11.399000	22.811691	0.001015	20.941017
323.088839	-3.021300	3.822100	-11.546000	22.815183	0.001015	20.935980
324.088102	-3.003200	3.823600	-11.482000	22.806643	0.001015	20.957768
325.091525	-3.024300	3.822600	-11.559000	22.797603	0.001014	20.933068
326.087728	-3.010900	3.822100	-11.507000	22.803338	0.001016	20.966784
327.090230	-3.004000	3.822800	-11.482000	22.807453	0.001017	20.939616
328.088212	-3.005900	3.821400	-11.485000	22.827513	0.001017	20.957338
329.090380	-3.029200	3.821500	-11.574000	22.820689	0.001016	20.936280
330.087951	-3.012800	3.822200	-11.514000	22.802085	0.001018	20.960314
331.089789	-2.986700	3.822200	-11.414000	22.799698	0.001020	20.941805
332.091295	-3.019100	3.820500	-11.533000	22.787172	0.001020	20.933051
333.090817	-3.002700	3.821100	-11.472000	22.789021	0.001021	20.950547
334.090190	-3.019100	3.821200	-11.534000	22.812069	0.001020	20.927172
335.090126	-3.024300	3.821000	-11.555000	22.804251	0.001018	20.932615
336.092692	-2.989700	3.820000	-11.420000	22.805902	0.001020	20.946122
337.090566	-2.995100	3.821700	-11.445000	22.826730	0.001021	20.957028
338.092188	-3.001200	3.819300	-11.462000	22.849182	0.001021	20.931634
339.090893	-3.004100	3.819000	-11.472000	22.858848	0.001023	20.938946
340.090685	-3.019400	3.819300	-11.531000	22.848341	0.001023	20.929369
341.094132	-2.995800	3.818900	-11.440000	22.898766	0.001023	20.939108
342.094450	-3.001300	3.820100	-11.464000	22.874308	0.001023	20.942580
343.094452	-2.993000	3.818900	-11.429000	22.915289	0.001024	20.953763
344.093149	-2.999500	3.817700	-11.450000	22.917809	0.001025	20.936375
345.093416	-2.997700	3.818800	-11.447000	22.940206	0.001026	20.945062
346.095217	-3.001000	3.817600	-11.454000	22.943126	0.001026	20.935187
347.096617	-2.992700	3.818800	-11.427000	22.937377	0.001024	20.938436
348.094155	-3.007700	3.817100	-11.478000	22.955865	0.001026	20.942260
349.096906	-2.989700	3.817600	-11.412000	22.970141	0.001026	20.936649
350.097425	-2.988000	3.817900	-11.407000	22.967332	0.001029	20.933361
351.097812	-2.998100	3.816800	-11.441000	22.970125	0.001027	20.915772
352.097999	-2.982900	3.817500	-11.386000	22.987518	0.001029	20.938886
353.095093	-2.977100	3.816300	-11.359000	23.008616	0.001028	20.944378
354.096459	-2.996400	3.815500	-11.431000	23.001173	0.001028	20.936446
355.096604	-3.021500	3.813800	-11.522000	23.019190	0.001028	20.938377
356.096957	-3.002700	3.815800	-11.456000	23.015231	0.001032	20.943419
357.102237	-2.993600	3.814300	-11.417000	23.030158	0.001030	20.938461
358.098747	-2.984000	3.815600	-11.384000	23.030509	0.001031	20.932175
359.099433	-2.989400	3.815100	-11.404000	23.012755	0.001031	20.913914
360.097389	-2.999400	3.815300	-11.441000	23.039161	0.001031	20.923776
361.100154	-2.971100	3.816100	-11.337000	23.017098	0.001031	20.932488
362.100333	-3.007100	3.812800	-11.464000	23.046046	0.001031	20.923562
363.098985	-2.993100	3.814000	-11.412000	23.039599	0.001034	20.931800
364.097081	-3.020400	3.814300	-11.519000	23.053303	0.001032	20.912343
365.098010	-2.990500	3.814500	-11.406000	23.027182	0.001034	20.916516
366.096180	-2.997000	3.814500	-11.431000	23.014436	0.001033	20.920814
367.095916	-2.986100	3.813900	-11.388000	23.002931	0.001036	20.931096
368.099850	-3.000400	3.811700	-11.436000	22.998781	0.001035	20.932154
369.100687	-3.007500	3.813200	-11.466000	23.012953	0.001035	20.940663
370.103652	-3.004300	3.813200	-11.454000	23.033684	0.001035	20.933934
371.099272	-3.003200	3.812100	-11.448000	23.043130	0.001035	20.933441
372.098151	-2.998400	3.811400	-11.427000	23.040619	0.001037	20.925711
373.103090	-3.004300	3.811200	-11.449000	23.057683	0.001036	20.939014
374.099300	-2.995300	3.810600	-11.413000	23.068796	0.001038	20.923598
375.100174	-2.977400	3.812400	-11.349000	23.085038	0.001038	20.912847
376.099219	-2.994400	3.809900	-11.407000	23.100437	0.001035	20.928750
377.100790	-2.981100	3.811900	-11.363000	23.094640	0.001039	20.908244
378.101177	-2.995700	3.811400	-11.417000	23.081719	0.001038	20.926116
379.102499	-2.992800	3.810400	-11.403000	23.061575	0.001040	20.917786
380.101717	-2.994100	3.809700	-11.404000	23.042850	0.001040	20.906137
381.101316	-2.994200	3.808600	-11.403000	23.050654	0.001039	20.912533
382.101881	-2.993900	3.809600	-11.405000	23.077185	0.001039	20.920624
383.103479	-3.013900	3.807700	-11.475000	23.072230	0.001041	20.913290
384.103810	-2.994600	3.808600	-11.403000	23.102894	0.001039	20.932634
385.104220	-3.003400	3.807300	-11.434000	23.134576	0.001042	20.921233
386.104206	-2.989100	3.807700	-11.380000	23.107611	0.001040	20.925507
387.102736	-3.000800	3.807500	-11.424000	23.114016	0.001043	20.912012
388.103984	-2.989500	3.808500	-11.384000	23.131903	0.001042	20.917133
389.105247	-3.019100	3.805700	-11.489000	23.132455	0.001042	20.929064
390.104341	-2.973200	3.807700	-11.320000	23.135150	0.001043	20.909008
391.103822	-2.985700	3.806600	-11.363000	23.154930	0.001043	20.914129
392.103065	-3.004600	3.805700	-11.433000	23.149681	0.001044	20.935894
393.102967	-2.992600	3.806800	-11.390000	23.141070	0.001041	20.908776
394.102944	-3.007200	3.805400	-11.441000	23.144762	0.001042	20.907260
395.104573	-3.002500	3.805800	-11.426000	23.168524	0.001042	20.897881
396.104600	-3.002500	3.804300	-11.422000	23.167036	0.001047	20.923888
397.106177	-3.016200	3.804300	-11.473000	23.173889	0.001044	20.909420
398.106058	-3.005300	3.805400	-11.436000	23.194216	0.001046	20.921729
399.106209	-3.016000	3.802900	-11.468000	23.155922	0.001047	20.919390
400.106935	-3.005100	3.804600	-11.432000	23.180705	0.001049	20.911035
401.106652	-2.965600	3.805300	-11.284000	23.196025	0.001047	20.917852
402.108510	-2.997000	3.803600	-11.398000	23.201885	0.001045	20.891958
403.107379	-3.005100	3.802700	-11.427000	23.197308	0.001046	20.918663
404.111701	-3.005600	3.803700	-11.430000	23.208942	0.001048	20.899978
405.110194	-2.986500	3.803000	-11.356000	23.186087	0.001050	20.907420
406.111006	-2.995300	3.803500	-11.391000	23.157177	0.001047	20.905951
407.107829	-3.012500	3.802700	-11.454000	23.149165	0.001049	20.893656
408.108821	-3.009500	3.802100	-11.441000	23.142049	0.001049	20.921610
409.109605	-3.007200	3.801700	-11.431000	23.118917	0.001048	20.899380
410.109804	-3.002700	3.801500	-11.413000	23.135732	0.001049	20.897738
411.113062	-2.994600	3.802300	-11.384000	23.170804	0.001049	20.885943
412.109661	-2.989200	3.801600	-11.361000	23.174919	0.001046	20.908082
413.110788	-3.008300	3.799900	-11.430000	23.180052	0.001050	20.891416
414.111436	-2.990300	3.801400	-11.365000	23.174550	0.001050	20.888273
415.111777	-3.000700	3.801800	-11.408000	23.210993	0.001049	20.895869
416.109972	-3.007900	3.800900	-11.432000	23.209803	0.001052	20.891832
417.110572	-3.004600	3.800200	-11.417000	23.224477	0.001050	20.891365
418.117904	-3.000000	3.799500	-11.397000	23.215813	0.001053	20.893114
419.109964	-3.024400	3.797900	-11.485000	23.233599	0.001055	20.906195
420.111215	-2.999200	3.799100	-11.393000	23.234301	0.001051	20.899787
421.115923	-3.000500	3.797800	-11.394000	23.262922	0.001053	20.918036
422.111777	-2.976700	3.799200	-11.306000	23.271793	0.001053	20.893738
423.116991	-3.020200	3.798100	-11.469000	23.263280	0.001055	20.904172
424.115880	-3.000400	3.797400	-11.392000	23.254670	0.001054	20.909293
425.113798	-2.994600	3.798700	-11.375000	23.234082	0.001053	20.884395
426.112841	-3.003900	3.797800	-11.407000	23.235928	0.001054	20.905684
427.115079	-3.012300	3.797000	-11.437000	23.245125	0.001055	20.898780
428.114298	-3.007700	3.796000	-11.415000	23.251107	0.001054	20.895292
429.114445	-3.010000	3.797500	-11.429000	23.245060	0.001054	20.907249
430.113812	-3.019600	3.795300	-11.458000	23.243196	0.001053	20.896373
431.113561	-2.977700	3.798200	-11.309000	23.212051	0.001057	20.901671
432.117600	-2.994500	3.795500	-11.363000	23.228819	0.001056	20.900457
433.111588	-2.994600	3.795700	-11.365000	23.224439	0.001056	20.895120
434.116224	-2.981600	3.796800	-11.319000	23.226887	0.001057	20.903262
435.117821	-3.021000	3.794500	-11.463000	23.225095	0.001056	20.895303
436.115423	-2.984800	3.796100	-11.329000	23.233095	0.001056	20.888622
437.116630	-2.998200	3.794000	-11.375000	23.233103	0.001057	20.888155
438.116086	-2.982100	3.794800	-11.316000	23.243917	0.001056	20.900888
439.116805	-3.013100	3.795500	-11.435000	23.256175	0.001056	20.913172
440.120039	-2.995500	3.795100	-11.367000	23.301301	0.001059	20.906240
441.119184	-3.020700	3.791900	-11.453000	23.291545	0.001059	20.887929
442.126216	-2.982700	3.793200	-11.312000	23.302183	0.001061	20.900486
443.118116	-2.983500	3.792600	-11.314000	23.308914	0.001059	20.902490
444.121089	-2.980400	3.793300	-11.305000	23.331153	0.001060	20.905339
445.117057	-2.992700	3.793000	-11.350000	23.339225	0.001058	20.910583
446.119134	-2.980800	3.793100	-11.306000	23.348171	0.001060	20.893946
447.129253	-3.010400	3.792200	-11.415000	23.353529	0.001058	20.903583
448.122577	-2.995000	3.792600	-11.358000	23.359984	0.001060	20.894880
449.120996	-3.011400	3.791700	-11.418000	23.395199	0.001057	20.900778
450.122130	-3.012200	3.790400	-11.415000	23.350734	0.001058	20.883713
451.121434	-2.984800	3.790900	-11.314000	23.353429	0.001060	20.910594
452.121342	-2.979400	3.791700	-11.295000	23.383936	0.001062	20.902291
453.123689	-2.998000	3.790100	-11.362000	23.370099	0.001062	20.905491
454.122175	-3.007300	3.789500	-11.394000	23.381804	0.001059	20.903473
455.127538	-2.990600	3.790700	-11.336000	23.354347	0.001062	20.904403
456.123024	-3.020400	3.789600	-11.444000	23.353953	0.001063	20.905905
457.127209	-3.007600	3.787800	-11.392000	23.371917	0.001063	20.892142
458.124461	-3.009600	3.788000	-11.399000	23.369476	0.001062	20.896807
459.124514	-3.001500	3.788300	-11.370000	23.374763	0.001065	20.911588
460.125111	-3.010800	3.786800	-11.399000	23.373620	0.001064	20.890055
461.123860	-2.997400	3.787600	-11.353000	23.367452	0.001063	20.900468
462.124153	-3.015700	3.787700	-11.422000	23.376892	0.001064	20.935056
463.125306	-3.006200	3.787100	-11.384000	23.382476	0.001063	20.900828
464.127930	-3.016800	3.787300	-11.425000	23.368840	0.001065	20.905652
465.125834	-3.009300	3.785600	-11.391000	23.391300	0.001063	20.919153
466.125220	-3.011100	3.786000	-11.399000	23.408933	0.001064	20.916438
467.123270	-3.005000	3.786000	-11.376000	23.406672	0.001067	20.897578
468.125206	-2.984300	3.787400	-11.302000	23.417033	0.001067	20.903695
469.126914	-2.983400	3.785300	-11.292000	23.419800	0.001065	20.912632
470.124168	-3.015100	3.783900	-11.408000	23.411439	0.001066	20.903779
471.125998	-3.012400	3.784500	-11.400000	23.427606	0.001067	20.910973
472.125737	-2.998200	3.784600	-11.345000	23.424148	0.001066	20.899922
473.126457	-3.007000	3.783600	-11.376000	23.426990	0.001065	20.924105
474.128279	-2.993500	3.784800	-11.328000	23.426994	0.001067	20.909412
475.127053	-3.021500	3.783000	-11.428000	23.440068	0.001067	20.885534
476.124425	-3.005600	3.783000	-11.369000	23.464896	0.001066	20.904729
477.126637	-3.004800	3.782900	-11.365000	23.465724	0.001066	20.905559
478.130681	-3.000800	3.783100	-11.352000	23.487886	0.001067	20.922555
479.126057	-2.988600	3.784300	-11.308000	23.458407	0.001068	20.919559
480.127414	-3.012400	3.781300	-11.390000	23.466205	0.001068	20.901774
481.128872	-3.013700	3.781000	-11.394000	23.499397	0.001069	20.915602
482.128722	-2.990700	3.781800	-11.309000	23.502440	0.001069	20.898739
483.128976	-2.998900	3.781400	-11.339000	23.476749	0.001067	20.910445
484.129456	-3.020400	3.781000	-11.420000	23.441622	0.001068	20.920280
485.131238	-2.997400	3.781600	-11.333000	23.445285	0.001068	20.924899
486.128508	-3.003600	3.779600	-11.351000	23.459158	0.001066	20.919364
487.127993	-2.994100	3.780200	-11.317000	23.505624	0.001069	20.909991
488.128815	-3.013700	3.778800	-11.387000	23.518295	0.001068	20.914157
489.128492	-2.987300	3.780700	-11.292000	23.526687	0.001068	20.898864
490.129580	-2.990100	3.779800	-11.300000	23.537575	0.001071	20.912147
491.131103	-2.997600	3.779100	-11.328000	23.551518	0.001070	20.915218
492.128756	-2.966900	3.780200	-11.214000	23.559094	0.001070	20.941775
493.135582	-2.982400	3.778800	-11.268000	23.581299	0.001072	20.908563
494.127456	-2.990600	3.778700	-11.299000	23.575154	0.001067	20.914730
495.131017	-2.993800	3.778400	-11.311000	23.620217	0.001070	20.909645
496.137740	-3.015000	3.776900	-11.386000	23.596501	0.001068	20.931860
497.131253	-3.001100	3.776900	-11.334000	23.642308	0.001068	20.900024
498.132373	-3.017600	3.775800	-11.393000	23.636160	0.001069	20.927522
499.138987	-3.012800	3.777800	-11.380000	23.616973	0.001072	20.926305
500.131124	-3.012500	3.776600	-11.376000	23.593331	0.001070	20.893125
501.133377	-3.016700	3.775600	-11.388000	23.612602	0.001070	20.918131
502.131771	-3.027600	3.775800	-11.431000	23.606035	0.001071	20.911548
503.132638	-3.019400	3.774200	-11.395000	23.612589	0.001072	20.916222
504.132890	-3.005800	3.775200	-11.346000	23.622898	0.001073	20.909014
505.135374	-3.002200	3.773600	-11.327000	23.623576	0.001072	20.913012
506.136878	-3.025900	3.773600	-11.418000	23.623777	0.001072	20.913687
507.136111	-3.002200	3.774100	-11.329000	23.624283	0.001075	20.913246
508.139407	-3.041400	3.771500	-11.469000	23.623889	0.001072	20.937031
509.137514	-2.992900	3.774400	-11.295000	23.600818	0.001074	20.911060
510.137389	-3.006900	3.774000	-11.347000	23.592760	0.001071	20.930481
511.135124	-3.020000	3.772300	-11.390000	23.569584	0.001072	20.919577
512.147744	-3.010700	3.772400	-11.356000	23.593739	0.001073	20.937152
513.137201	-3.006400	3.772700	-11.341000	23.602981	0.001075	20.923185
514.140216	-3.004100	3.772600	-11.331000	23.628924	0.001071	20.930699
515.137271	-2.996100	3.772400	-11.302000	23.625270	0.001076	20.929407
516.138016	-2.998900	3.771200	-11.308000	23.616266	0.001072	20.925123
517.138750	-2.995500	3.772100	-11.298000	23.610992	0.001074	20.935956
518.140797	-2.992200	3.772200	-11.286000	23.631489	0.001074	20.918099
519.139100	-2.969900	3.770900	-11.197000	23.596790	0.001074	20.924564
520.139709	-2.971600	3.771300	-11.206000	23.603047	0.001074	20.932259
521.139647	-3.008000	3.769300	-11.338000	23.601934	0.001074	20.943943
522.138573	-2.993000	3.769900	-11.281000	23.590712	0.001075	20.939332
523.145564	-2.991200	3.768300	-11.270000	23.597438	0.001075	20.929481
524.140563	-3.009000	3.769000	-11.340000	23.618203	0.001075	20.942710
525.139404	-2.996800	3.769000	-11.294000	23.616023	0.001073	20.927249
526.139646	-2.992300	3.769300	-11.278000	23.589515	0.001074	20.924384
527.141013	-2.998300	3.768000	-11.297000	23.598091	0.001075	20.943410
528.141893	-2.968500	3.768200	-11.184000	23.602922	0.001076	20.937348
529.138386	-2.992400	3.768000	-11.274000	23.577238	0.001075	20.941472
530.142260	-3.022700	3.766500	-11.384000	23.563751	0.001074	20.920368
531.141318	-2.993100	3.767600	-11.276000	23.569356	0.001074	20.955380
532.141356	-2.992000	3.767000	-11.270000	23.609970	0.001076	20.935405
533.143305	-2.990900	3.767100	-11.266000	23.633799	0.001077	20.947438
534.143155	-3.001500	3.766200	-11.303000	23.624047	0.001076	20.937663
535.142612	-2.983200	3.767400	-11.237000	23.654547	0.001073	20.962546
536.142977	-3.002900	3.766600	-11.310000	23.656121	0.001075	20.953694
537.144830	-3.003800	3.766000	-11.310000	23.653342	0.001076	20.949960
538.141572	-3.018200	3.765100	-11.363000	23.636771	0.001075	20.943780
539.143981	-2.998900	3.765400	-11.290000	23.646858	0.001075	20.951995
540.143528	-3.006800	3.764800	-11.318000	23.660110	0.001075	20.952004
541.145507	-3.008100	3.764900	-11.324000	23.688391	0.001077	20.954278
542.142867	-2.989600	3.764100	-11.252000	23.698034	0.001076	20.964893
543.146142	-2.995500	3.763900	-11.274000	23.741774	0.001076	20.947108
544.146209	-3.003500	3.764900	-11.306000	23.740636	0.001076	20.933641
545.144387	-3.011700	3.763800	-11.335000	23.770338	0.001077	20.949668
546.144829	-3.010500	3.763000	-11.328000	23.749588	0.001074	20.958735
547.146487	-2.987900	3.762300	-11.240000	23.783270	0.001077	20.957891
548.146218	-2.995700	3.762800	-11.272000	23.766702	0.001074	20.940808
549.151185	-2.990400	3.762300	-11.249000	23.749757	0.001077	20.967437
550.147026	-3.014800	3.760200	-11.335000	23.745559	0.001075	20.974133
551.151228	-2.994700	3.761800	-11.263000	23.742676	0.001077	20.962235
552.149644	-3.000900	3.761300	-11.287000	23.760162	0.001079	20.953689
553.150914	-2.996300	3.760100	-11.266000	23.734402	0.001074	20.967690
554.154294	-2.987000	3.761200	-11.233000	23.750717	0.001078	20.971244
555.152302	-3.020200	3.759800	-11.354000	23.780565	0.001076	20.952335
556.155897	-2.985600	3.760600	-11.227000	23.756083	0.001076	20.986578
557.154917	-3.002900	3.758100	-11.283000	23.760666	0.001077	20.961306
558.152884	-3.000600	3.758200	-11.276000	23.736581	0.001076	20.942376
559.155975	-2.998500	3.759300	-11.271000	23.747316	0.001077	20.970205
560.154663	-2.994400	3.758500	-11.253000	23.726441	0.001078	20.968242
561.154743	-3.009800	3.758400	-11.312000	23.724282	0.001076	20.966078
562.155507	-2.996500	3.758500	-11.262000	23.740516	0.001076	20.960070
563.154922	-3.010100	3.757000	-11.307000	23.753541	0.001078	20.997779
564.156488	-2.996500	3.758500	-11.261000	23.791282	0.001077	20.971139
565.155745	-3.001400	3.757300	-11.276000	23.791609	0.001079	20.973836
566.155996	-3.003900	3.757200	-11.285000	23.800850	0.001078	20.969826
567.154485	-3.003200	3.757600	-11.283000	23.796401	0.001077	20.969634
568.155850	-2.981800	3.756800	-11.201000	23.821398	0.001077	20.979049
569.154452	-2.995700	3.754500	-11.247000	23.817394	0.001078	20.990678
570.159663	-2.978900	3.757500	-11.191000	23.798316	0.001076	20.978664
571.156069	-3.014600	3.755000	-11.319000	23.783489	0.001077	20.987030
572.161667	-3.001800	3.755400	-11.272000	23.802953	0.001075	20.970513
573.159101	-2.995400	3.754700	-11.246000	23.811721	0.001081	20.989258
574.158692	-3.005900	3.754300	-11.284000	23.841990	0.001077	20.984048
575.158960	-2.994900	3.754400	-11.243000	23.833935	0.001076	20.982135
576.157142	-3.004100	3.753500	-11.275000	23.829337	0.001077	20.987955
577.156157	-2.970800	3.755500	-11.156000	23.829492	0.001076	20.999014
578.156363	-3.010500	3.752800	-11.297000	23.829899	0.001076	21.010326
579.155873	-2.988400	3.753400	-11.215000	23.825647	0.001079	20.993738
580.156056	-3.007000	3.753100	-11.284000	23.825601	0.001077	20.995588
581.158986	-2.996000	3.752500	-11.242000	23.843651	0.001076	21.004676
582.159644	-3.016500	3.751000	-11.314000	23.879477	0.001078	21.001245
583.160612	-3.000100	3.751500	-11.253000	23.890625	0.001077	20.989666
584.158196	-3.014100	3.750700	-11.304000	23.890835	0.001078	21.001254
585.158661	-3.021000	3.750200	-11.329000	23.886584	0.001078	20.987985
586.160952	-3.002400	3.750400	-11.258000	23.860656	0.001078	20.993754
587.158009	-3.007300	3.751600	-11.279000	23.876764	0.001076	20.960598
588.157121	-3.000400	3.750600	-11.253000	23.908002	0.001078	20.987651
589.157228	-3.009000	3.749700	-11.282000	23.906940	0.001079	21.003653
590.156585	-3.006700	3.748000	-11.268000	23.884474	0.001078	20.988240
591.165728	-2.997900	3.749100	-11.239000	23.910440	0.001077	21.005265
592.159489	-3.001600	3.749700	-11.254000	23.908850	0.001077	20.996560
593.161993	-2.991900	3.748200	-11.213000	23.902763	0.001078	20.983346
594.159585	-2.989000	3.749900	-11.208000	23.908764	0.001078	21.017807
595.161809	-3.012300	3.747600	-11.288000	23.907254	0.001079	21.002071
596.162304	-3.022200	3.747100	-11.323000	23.919829	0.001080	21.018945
597.160851	-3.002500	3.747100	-11.249000	23.890069	0.001076	20.995272
598.158394	-2.995900	3.746100	-11.222000	23.908339	0.001078	21.012641
599.159425	-2.994200	3.746900	-11.218000	23.938143	0.001075	20.998907
600.161577	-2.987500	3.746200	-11.190000	23.926347	0.001078	21.000354
601.161339	-2.997000	3.747400	-11.229000	23.945667	0.001075	21.014984
602.161033	-3.011100	3.746000	-11.277000	23.941291	0.001077	21.007278
603.161766	-2.991100	3.746700	-11.205000	23.944434	0.001078	21.020859
604.163807	-3.007400	3.744300	-11.259000	23.925450	0.001076	21.006566
605.163304	-3.006600	3.744600	-11.257000	23.949499	0.001078	20.996070
606.166038	-2.974100	3.746500	-11.141000	23.950198	0.001077	20.998193
607.168158	-2.996400	3.744600	-11.219000	23.976887	0.001079	21.029693
608.165370	-3.005400	3.744200	-11.252000	23.981891	0.001077	21.013378
609.165287	-3.001800	3.743400	-11.237000	23.975252	0.001078	21.025683
610.163821	-2.989700	3.743200	-11.189000	24.012860	0.001077	21.025466
611.163504	-2.987800	3.744000	-11.186000	24.044019	0.001078	21.003139
612.164639	-2.997100	3.743800	-11.219000	24.039995	0.001076	21.030393
613.165725	-2.988200	3.741800	-11.180000	24.029050	0.001074	21.031270
614.164950	-3.010300	3.741900	-11.264000	24.029628	0.001074	21.011465
615.164088	-2.980400	3.743500	-11.156000	24.026997	0.001077	21.018782
616.161509	-2.998300	3.742100	-11.219000	24.002693	0.001076	21.035183
617.162128	-3.019100	3.740200	-11.290000	24.003870	0.001078	21.022615
618.162668	-2.982400	3.743000	-11.161000	24.008824	0.001075	21.027108
619.163908	-3.019300	3.740900	-11.294000	24.009950	0.001076	21.028237
620.163238	-3.011500	3.741300	-11.266000	23.994232	0.001075	21.025751
621.164641	-3.009600	3.739300	-11.253000	23.995755	0.001075	21.031071
622.163975	-3.000900	3.741400	-11.226000	24.019003	0.001076	21.015034
623.163122	-2.993800	3.739600	-11.194000	24.022494	0.001078	21.010948
624.165782	-2.997700	3.739300	-11.208000	24.037658	0.001075	21.020939
625.160841	-2.998600	3.739000	-11.209000	24.066252	0.001077	21.030647
626.162932	-2.998700	3.739800	-11.213000	24.064240	0.001075	21.014882
627.162837	-2.996500	3.738100	-11.200000	24.081893	0.001074	21.040168
628.163851	-3.000500	3.739000	-11.218000	24.060970	0.001074	21.015870
629.164468	-2.982200	3.739500	-11.151000	24.061770	0.001076	21.035634
630.162836	-2.996300	3.737100	-11.197000	24.046253	0.001074	21.044252
631.163423	-3.013200	3.736000	-11.256000	24.045383	0.001076	21.046698
632.160910	-3.021500	3.736400	-11.288000	24.035368	0.001075	21.021487
633.162823	-2.993900	3.737100	-11.188000	24.047736	0.001075	21.031992
634.164538	-3.006200	3.736800	-11.232000	24.034478	0.001076	21.031024
635.164580	-2.998200	3.736900	-11.203000	24.029911	0.001075	21.053939
636.162096	-3.013400	3.735000	-11.254000	24.035187	0.001074	21.042638
637.163240	-3.017800	3.734900	-11.270000	24.019444	0.001074	21.068569
638.163632	-3.004600	3.735300	-11.223000	24.027984	0.001074	21.038734
639.165896	-2.989900	3.734700	-11.165000	24.069419	0.001073	21.034770
640.164935	-2.981800	3.735600	-11.138000	24.070148	0.001074	21.051619
641.163086	-2.987200	3.735000	-11.157000	24.076867	0.001074	21.047928
642.167730	-2.999900	3.733800	-11.200000	24.082500	0.001074	21.064953
643.165216	-2.988000	3.733400	-11.154000	24.115745	0.001078	21.047564
644.166544	-3.023200	3.732800	-11.284000	24.123792	0.001076	21.066062
645.168965	-3.018700	3.733700	-11.270000	24.132256	0.001075	21.060328
646.165833	-3.005000	3.732200	-11.214000	24.131713	0.001075	21.052199
647.168537	-2.994500	3.733700	-11.180000	24.144985	0.001075	21.055552
648.167937	-2.997600	3.733000	-11.188000	24.167777	0.001074	21.051861
649.168314	-2.974000	3.733400	-11.102000	24.160621	0.001074	21.052269
650.168341	-2.999700	3.732300	-11.195000	24.146439	0.001075	21.044211
651.170759	-3.005200	3.733500	-11.217000	24.120694	0.001074	21.035935
652.168701	-3.018000	3.731300	-11.260000	24.127946	0.001070	21.033726
653.170737	-3.021100	3.730500	-11.269000	24.123616	0.001075	21.048346
654.172793	-3.011100	3.730800	-11.233000	24.132457	0.001072	21.031139
655.168825	-2.999000	3.730500	-11.187000	24.137537	0.001073	21.062305
656.172666	-2.978800	3.731600	-11.115000	24.115498	0.001074	21.044947
657.168989	-2.999700	3.730500	-11.190000	24.103388	0.001074	21.050343
658.171762	-2.991700	3.729600	-11.157000	24.106757	0.001072	21.028123
659.167614	-2.987700	3.729200	-11.140000	24.112184	0.001073	21.025032
660.169265	-3.001000	3.730200	-11.193000	24.136853	0.001074	21.050716
661.173776	-2.980300	3.729100	-11.113000	24.143824	0.001072	21.061025
662.171151	-2.976100	3.729100	-11.096000	24.107351	0.001072	21.033459
663.169597	-3.014000	3.727700	-11.234000	24.146741	0.001073	21.051624
664.171844	-2.984500	3.727900	-11.125000	24.138583	0.001073	21.025904
665.171346	-2.987500	3.727300	-11.134000	24.154496	0.001074	21.021003
666.171586	-2.975600	3.728600	-11.094000	24.172737	0.001073	21.014169
667.175843	-3.024600	3.726900	-11.271000	24.212135	0.001071	21.019545
668.173097	-2.993500	3.726600	-11.155000	24.225874	0.001072	21.020050
669.174181	-2.994400	3.727600	-11.161000	24.195821	0.001071	21.007926
670.173181	-3.017200	3.727100	-11.244000	24.208665	0.001070	21.022229
671.173637	-3.016300	3.726200	-11.238000	24.227760	0.001072	21.020519
672.174120	-3.014600	3.725400	-11.229000	24.225155	0.001072	21.022174
673.171696	-2.988500	3.726000	-11.133000	24.220680	0.001073	21.036648
674.174796	-3.009300	3.723500	-11.204000	24.248353	0.001070	21.001350
675.176558	-2.991900	3.724400	-11.141000	24.276469	0.001072	21.012955
676.175369	-2.976800	3.725200	-11.088000	24.258839	0.001071	21.013762
677.177158	-2.982600	3.724100	-11.106000	24.264270	0.001071	21.001195
678.177447	-3.006000	3.723600	-11.192000	24.274378	0.001070	21.007539
679.175088	-2.991100	3.723400	-11.136000	24.282595	0.001070	21.014358
680.177850	-2.986400	3.724800	-11.123000	24.285833	0.001071	21.022821
681.179313	-3.006200	3.723100	-11.192000	24.256159	0.001071	20.990690
682.176334	-3.011600	3.723500	-11.213000	24.257879	0.001072	21.000474
683.177666	-3.014300	3.723000	-11.221000	24.240998	0.001069	21.018626
684.177285	-2.996000	3.722900	-11.153000	24.266258	0.001068	21.005559
685.179368	-3.001100	3.722000	-11.170000	24.251735	0.001072	21.014223
686.180569	-2.994000	3.721700	-11.142000	24.228256	0.001068	20.988306
687.179865	-2.994500	3.720600	-11.141000	24.225948	0.001071	21.016806
688.180243	-3.020700	3.720200	-11.237000	24.247477	0.001069	21.013271
689.177179	-3.010800	3.721200	-11.203000	24.246884	0.001070	21.011728
690.176237	-2.989800	3.720400	-11.123000	24.282844	0.001070	21.008445
691.178310	-2.990200	3.719600	-11.122000	24.262177	0.001070	21.001940
692.180702	-2.996600	3.720200	-11.147000	24.226930	0.001069	20.992191
693.181598	-3.000700	3.720200	-11.163000	24.248660	0.001068	21.016354
694.182405	-3.007200	3.718800	-11.182000	24.283424	0.001067	21.009975
695.180203	-2.981900	3.719600	-11.090000	24.292934	0.001069	20.993438
696.181474	-2.998400	3.718500	-11.147000	24.304786	0.001068	21.017178
697.181386	-3.001100	3.718800	-11.160000	24.326017	0.001068	20.997227
698.181741	-3.018600	3.715900	-11.216000	24.313305	0.001069	21.018137
699.183551	-2.991400	3.718700	-11.123000	24.323021	0.001067	20.987585
700.183299	-3.000300	3.717100	-11.151000	24.315066	0.001069	21.007577
701.183861	-2.995200	3.716900	-11.132000	24.286616	0.001069	20.988524
702.183602	-3.008700	3.717900	-11.186000	24.318019	0.001066	21.002005
703.182793	-3.012600	3.717000	-11.197000	24.264863	0.001068	21.009848
704.183841	-2.996200	3.716300	-11.134000	24.231703	0.001065	21.001245
705.184501	-3.010800	3.716000	-11.187000	24.241093	0.001067	20.999758
706.188137	-2.991200	3.715100	-11.112000	24.242798	0.001066	20.993409
707.184005	-2.985300	3.714900	-11.089000	24.227873	0.001067	20.992663
708.184846	-2.971700	3.717000	-11.044000	24.242739	0.001066	21.006150
709.192097	-2.996300	3.716300	-11.134000	24.254090	0.001066	21.001888
710.184022	-2.987500	3.714100	-11.095000	24.292489	0.001067	21.005793
711.186966	-2.985000	3.715900	-11.091000	24.304482	0.001069	21.001229
712.183393	-2.999100	3.715800	-11.143000	24.306851	0.001066	20.991279
713.187135	-3.000700	3.713900	-11.143000	24.312559	0.001067	20.998900
714.189010	-2.983400	3.713800	-11.078000	24.301567	0.001064	20.990720
715.190192	-2.989400	3.715000	-11.105000	24.328666	0.001064	21.005977
716.188610	-2.984300	3.713900	-11.082000	24.332906	0.001065	20.991337
717.188760	-2.982400	3.712600	-11.071000	24.344351	0.001065	21.002341
718.187751	-2.994900	3.712700	-11.119000	24.356304	0.001064	20.988256
719.185571	-2.993800	3.711200	-11.109000	24.360191	0.001063	20.985044
720.194160	-3.011800	3.712200	-11.180000	24.362294	0.001066	20.988102
721.187664	-3.019100	3.710300	-11.201000	24.375579	0.001066	20.988152
722.190317	-3.013800	3.711100	-11.183000	24.354125	0.001062	20.996500
723.192160	-2.980200	3.712400	-11.062000	24.327088	0.001065	20.989768
724.189648	-3.005700	3.710800	-11.152000	24.330125	0.001063	20.987125
725.195784	-3.018300	3.710300	-11.198000	24.345810	0.001062	20.979627
726.194466	-2.998800	3.711100	-11.127000	24.343729	0.001063	20.980384
727.195893	-3.029300	3.708300	-11.233000	24.362414	0.001063	20.981111
728.192454	-2.995800	3.711100	-11.117000	24.338862	0.001063	20.988777
729.193095	-2.996700	3.709500	-11.115000	24.346537	0.001061	20.984623
730.193063	-2.999200	3.708200	-11.121000	24.356292	0.001061	20.988244
731.202923	-3.010900	3.708100	-11.164000	24.351671	0.001061	20.976499
732.197193	-2.987100	3.709100	-11.078000	24.346181	0.001062	20.970044
733.195267	-2.998300	3.709700	-11.122000	24.365988	0.001062	20.976636
734.199503	-2.997800	3.707700	-11.112000	24.391743	0.001063	21.011476
735.196541	-3.009600	3.708400	-11.160000	24.379617	0.001061	20.974661
736.200279	-2.995800	3.707300	-11.104000	24.413155	0.001060	20.964212
737.198776	-3.001700	3.707500	-11.128000	24.392571	0.001060	20.990499
738.200497	-3.004700	3.706100	-11.135000	24.407570	0.001058	20.997958
739.197690	-2.995900	3.706300	-11.103000	24.383275	0.001061	20.975012
740.200490	-2.996600	3.706800	-11.107000	24.362559	0.001059	20.965612
741.200222	-2.998100	3.707100	-11.113000	24.352469	0.001059	20.992469
742.202851	-3.001700	3.706200	-11.123000	24.355934	0.001055	20.988359
743.203515	-3.006200	3.704800	-11.136000	24.341810	0.001059	20.968978
744.202537	-3.007500	3.705400	-11.143000	24.296414	0.001057	20.987448
745.204435	-3.011100	3.704900	-11.154000	24.286935	0.001058	20.981734
746.204064	-2.986700	3.704900	-11.064000	24.301549	0.001060	20.976005
747.205292	-2.990200	3.704500	-11.076000	24.261502	0.001059	20.968552
748.202302	-2.982600	3.704500	-11.047000	24.268498	0.001058	20.963242
749.210141	-3.013100	3.704000	-11.160000	24.264747	0.001057	20.955213
750.201920	-2.979500	3.704800	-11.037000	24.296272	0.001058	20.972609
751.202018	-2.997100	3.703100	-11.096000	24.318619	0.001058	20.981748
752.206172	-2.984700	3.704300	-11.055000	24.346342	0.001058	20.974946
753.201699	-3.001800	3.702900	-11.115000	24.358114	0.001057	20.983434
754.202488	-3.006100	3.702500	-11.129000	24.361769	0.001057	20.956759
755.201569	-3.014800	3.701900	-11.159000	24.375910	0.001057	20.969521
756.201957	-3.009900	3.702100	-11.143000	24.371340	0.001055	20.976789
757.203310	-2.999700	3.701700	-11.103000	24.408553	0.001055	20.970974
758.206508	-3.001100	3.701500	-11.107000	24.432864	0.001055	20.974026
759.206564	-2.991000	3.701400	-11.070000	24.448271	0.001056	20.966724
760.204005	-2.985700	3.702900	-11.055000	24.443469	0.001057	20.972338
761.205468	-3.009100	3.700300	-11.133000	24.456764	0.001054	20.948695
762.208014	-2.996400	3.699900	-11.084000	24.448509	0.001056	20.977393
763.211131	-3.000900	3.699800	-11.102000	24.431872	0.001053	20.977298
764.208224	-2.998800	3.699800	-11.094000	24.442673	0.001054	20.984339
765.208721	-2.980400	3.700700	-11.028000	24.420415	0.001054	20.960116
766.205056	-2.983100	3.699800	-11.036000	24.420496	0.001054	20.961146
767.208977	-3.002600	3.697900	-11.102000	24.437446	0.001054	20.967245
768.207775	-2.991100	3.698600	-11.062000	24.444782	0.001052	20.954217
769.211571	-2.996000	3.698300	-11.079000	24.444939	0.001052	20.962908
770.206432	-2.990300	3.698400	-11.058000	24.443129	0.001052	20.979108
771.208775	-3.002900	3.697800	-11.103000	24.431395	0.001052	20.966390
772.209617	-2.981000	3.697500	-11.022000	24.418142	0.001052	20.963052
773.205931	-3.009100	3.696200	-11.121000	24.446159	0.001052	20.981199
774.209111	-2.991700	3.696300	-11.057000	24.440222	0.001051	20.967184
775.207429	-3.003800	3.697000	-11.103000	24.400275	0.001050	20.974997
776.212477	-3.007300	3.696200	-11.113000	24.397861	0.001050	20.958353
777.207383	-2.997700	3.696300	-11.079000	24.384930	0.001050	20.960079
778.207425	-2.986300	3.696100	-11.037000	24.413344	0.001051	20.957291
779.208922	-3.011100	3.696600	-11.129000	24.416538	0.001049	20.944376
780.207451	-3.012800	3.694500	-11.129000	24.410791	0.001050	20.957100
781.208117	-2.983100	3.696400	-11.026000	24.434479	0.001048	20.958579
782.207851	-2.993400	3.694700	-11.059000	24.434806	0.001047	20.947529
783.208152	-3.016300	3.693100	-11.138000	24.448020	0.001050	20.933287
784.208115	-3.002200	3.693400	-11.088000	24.489767	0.001048	20.950986
785.212864	-2.987300	3.693600	-11.033000	24.471934	0.001048	20.967705
786.209641	-3.016600	3.694000	-11.143000	24.496716	0.001049	20.955113
787.210829	-2.998100	3.694500	-11.075000	24.488341	0.001046	20.957141
788.209287	-2.981700	3.692800	-11.009000	24.494958	0.001046	20.956667
789.216821	-3.014800	3.693700	-11.134000	24.522078	0.001047	20.936464
790.215016	-2.988200	3.693000	-11.035000	24.484597	0.001046	20.954334
791.215220	-2.982200	3.692400	-11.011000	24.473960	0.001046	20.937500
792.215213	-2.976100	3.691600	-10.986000	24.453417	0.001044	20.953871
793.212076	-2.993900	3.691300	-11.050000	24.383096	0.001045	20.957291
794.211658	-2.990500	3.692100	-11.040000	24.372684	0.001046	20.936418
795.211577	-2.995900	3.690600	-11.055000	24.360653	0.001045	20.945210
796.217100	-2.979500	3.691200	-10.997000	24.376446	0.001044	20.935450
797.213463	-3.003200	3.690800	-11.083000	24.399838	0.001044	20.949906
798.213365	-2.982900	3.691400	-11.010000	24.404816	0.001044	20.949211
799.214044	-3.029900	3.689800	-11.178000	24.431214	0.001044	20.951511
800.213504	-2.998100	3.690500	-11.064000	24.452040	0.001045	20.934475
801.214500	-3.007500	3.689700	-11.097000	24.467195	0.001044	20.961055
802.216212	-3.007600	3.689200	-11.094000	24.474089	0.001043	20.945214
803.228754	-3.015700	3.690000	-11.127000	24.438283	0.001043	20.941534
804.213853	-3.002200	3.688600	-11.073000	24.426839	0.001041	20.943804
805.219705	-2.990700	3.689300	-11.033000	24.429529	0.001042	20.936073
806.218430	-2.995500	3.689800	-11.051000	24.393042	0.001043	20.936452
807.216041	-2.987200	3.690000	-11.021000	24.380929	0.001042	20.943740
808.215013	-3.006800	3.688900	-11.091000	24.393375	0.001042	20.925882
809.217134	-2.999900	3.687100	-11.060000	24.389650	0.001042	20.925464
810.215928	-2.991800	3.687000	-11.029000	24.420302	0.001041	20.950047
811.218349	-2.998500	3.688200	-11.058000	24.460456	0.001041	20.932013
812.217246	-2.982400	3.687300	-10.995000	24.465906	0.001039	20.943644
813.221416	-2.985700	3.688200	-11.011000	24.445123	0.001040	20.930381
814.219656	-2.982900	3.687600	-10.998000	24.465024	0.001043	20.948447
815.216656	-3.013200	3.686400	-11.106000	24.438890	0.001040	20.917965
816.222328	-2.980600	3.686400	-10.987000	24.447574	0.001040	20.929995
817.216899	-3.001600	3.686300	-11.064000	24.444353	0.001038	20.925816
818.219264	-2.995200	3.685900	-11.038000	24.473706	0.001039	20.929185
819.219515	-3.005300	3.686100	-11.077000	24.493189	0.001038	20.941618
820.218513	-2.986300	3.685600	-11.005000	24.511607	0.001038	20.934968
821.222682	-2.989600	3.685800	-11.017000	24.511834	0.001040	20.945151
822.221471	-2.989300	3.684700	-11.014000	24.516717	0.001039	20.932508
823.221579	-2.982900	3.683900	-10.988000	24.534202	0.001038	20.921130
824.218255	-2.983600	3.683800	-10.989000	24.497372	0.001037	20.918791
825.221834	-2.975800	3.684500	-10.963000	24.479967	0.001038	20.910813
826.222943	-3.012700	3.682600	-11.093000	24.446890	0.001037	20.924568
827.221923	-3.003100	3.682200	-11.058000	24.447174	0.001036	20.931963
828.221709	-3.011900	3.681600	-11.088000	24.458793	0.001035	20.931767
829.219245	-3.004500	3.682100	-11.062000	24.476582	0.001036	20.928278
830.222799	-3.008400	3.682800	-11.079000	24.479525	0.001037	20.919851
831.221284	-3.007300	3.682200	-11.072000	24.478630	0.001035	20.914687
832.223700	-2.997600	3.681800	-11.035000	24.460355	0.001034	20.942816
833.222164	-3.000600	3.682800	-11.049000	24.490577	0.001035	20.916241
834.222243	-2.995100	3.680700	-11.023000	24.500936	0.001035	20.909091
835.220937	-3.032200	3.678900	-11.154000	24.513702	0.001034	20.899141
836.223096	-3.008200	3.680200	-11.070000	24.510129	0.001035	20.922107
837.221601	-3.006900	3.679900	-11.063000	24.516896	0.001036	20.906613
838.220714	-3.000300	3.680700	-11.042000	24.503172	0.001034	20.917024
839.224916	-3.001800	3.681800	-11.051000	24.543550	0.001034	20.908224
840.224789	-3.000300	3.679600	-11.039000	24.539151	0.001035	20.926569
841.226382	-3.000600	3.678400	-11.036000	24.564159	0.001033	20.923212
842.224634	-2.996400	3.679800	-11.024000	24.528577	0.001033	20.912642
843.226336	-3.023000	3.679200	-11.121000	24.515074	0.001033	20.937498
844.228852	-2.987500	3.679900	-10.992000	24.538911	0.001031	20.913053
845.224176	-3.006100	3.679300	-11.058000	24.575557	0.001032	20.915682
846.226662	-3.008700	3.679000	-11.068000	24.575361	0.001030	20.920701
847.227365	-2.998800	3.677400	-11.026000	24.593545	0.001032	20.901016
848.225908	-3.029200	3.676200	-11.134000	24.610299	0.001032	20.898860
849.227702	-2.999000	3.678000	-11.030000	24.595580	0.001032	20.890257
850.227951	-2.995900	3.677300	-11.015000	24.614211	0.001031	20.922698
851.225838	-2.983500	3.677700	-10.972000	24.623649	0.001031	20.913203
852.226373	-3.015500	3.674900	-11.080000	24.639898	0.001028	20.897741
853.228141	-3.001300	3.675400	-11.029000	24.664923	0.001030	20.904359
854.225522	-2.997100	3.676300	-11.018000	24.696046	0.001030	20.919467
855.232523	-2.991200	3.676100	-10.994000	24.672849	0.001029	20.905200
856.226673	-2.991700	3.675200	-10.995000	24.674846	0.001028	20.901514
857.225308	-2.993900	3.676100	-11.004000	24.660525	0.001028	20.906110
858.231756	-2.997200	3.674700	-11.013000	24.655012	0.001029	20.897734
859.226908	-3.005400	3.674500	-11.043000	24.642783	0.001027	20.908221
860.227041	-2.995000	3.674800	-11.005000	24.663984	0.001027	20.914795
861.232156	-3.002500	3.674800	-11.031000	24.648995	0.001029	20.910661
862.227498	-2.981400	3.674200	-10.954000	24.662062	0.001029	20.901014
863.227257	-3.018700	3.673800	-11.089000	24.634365	0.001027	20.897405
864.235221	-3.010900	3.672400	-11.057000	24.605200	0.001026	20.915553
865.227815	-3.010700	3.673100	-11.056000	24.628487	0.001026	20.892455
866.231568	-2.998500	3.673400	-11.014000	24.615092	0.001026	20.890394
867.228218	-2.998100	3.672500	-11.008000	24.647230	0.001025	20.888978
868.229334	-3.026500	3.672000	-11.113000	24.629312	0.001026	20.889016
869.228500	-2.999500	3.671800	-11.012000	24.625015	0.001025	20.888497
870.228505	-3.029000	3.671900	-11.120000	24.638826	0.001026	20.910414
871.229875	-2.995500	3.671200	-10.995000	24.648491	0.001024	20.895932
872.228882	-3.016000	3.670300	-11.069000	24.658817	0.001026	20.910085
873.232902	-2.985200	3.671700	-10.960000	24.665294	0.001025	20.898568
874.231205	-2.978100	3.670300	-10.929000	24.666119	0.001025	20.893232
875.233208	-3.016800	3.668700	-11.067000	24.652202	0.001023	20.897759
876.230967	-2.994100	3.669300	-10.985000	24.612219	0.001025	20.889882
877.229954	-2.943000	3.670900	-10.802000	24.610505	0.001025	20.881051
878.231346	-3.004400	3.669300	-11.023000	24.655012	0.001023	20.892992
879.232133	-3.018300	3.667200	-11.068000	24.648434	0.001024	20.894927
880.233631	-3.044700	3.667400	-11.165000	24.667046	0.001022	20.906963
881.230193	-3.024300	3.667400	-11.091000	24.664267	0.001023	20.891374
882.232541	-2.984000	3.668100	-10.944000	24.656612	0.001021	20.884642
883.233049	-3.015600	3.667000	-11.057000	24.668287	0.001022	20.899201
884.232537	-3.026800	3.668600	-11.103000	24.653154	0.001024	20.872638
885.238451	-3.006200	3.667300	-11.023000	24.673384	0.001023	20.901470
886.234089	-3.024400	3.665700	-11.085000	24.649046	0.001022	20.887007
887.232851	-3.003400	3.666500	-11.009000	24.622988	0.001022	20.893575
888.232363	-2.997600	3.666500	-10.989000	24.598082	0.001021	20.879965
889.234892	-3.012100	3.666700	-11.044000	24.629528	0.001020	20.889707
890.231089	-3.013900	3.666600	-11.049000	24.645651	0.001020	20.905410
891.238818	-3.006300	3.667300	-11.024000	24.651454	0.001018	20.891319
892.234121	-3.020900	3.665200	-11.071000	24.677651	0.001020	20.886313
893.235705	-3.012800	3.664900	-11.040000	24.673707	0.001017	20.877141
894.234190	-3.009300	3.664400	-11.026000	24.702292	0.001019	20.904873
895.234557	-3.007300	3.665200	-11.021000	24.726710	0.001019	20.879593
896.239435	-3.015800	3.663300	-11.046000	24.710369	0.001018	20.874101
897.235620	-3.012900	3.664100	-11.038000	24.706589	0.001017	20.901599
898.237773	-2.989300	3.664600	-10.954000	24.685093	0.001016	20.881453
899.236811	-3.012500	3.662600	-11.033000	24.666470	0.001017	20.887895
900.238218	-2.985200	3.664800	-10.939000	24.642932	0.001015	20.867597
901.239292	-2.983100	3.664000	-10.929000	24.598715	0.001017	20.889135
902.237665	-3.017600	3.663100	-11.053000	24.544376	0.001015	20.897675
903.242804	-2.994600	3.663100	-10.969000	24.531132	0.001015	20.905723
904.239825	-2.983700	3.663100	-10.929000	24.557263	0.001012	20.874571
905.240525	-2.974700	3.662900	-10.895000	24.548561	0.001014	20.902348
906.240215	-3.019500	3.661600	-11.055000	24.545487	0.001016	20.885040
907.242154	-2.993500	3.664100	-10.966000	24.577080	0.001011	20.874066
908.241374	-3.001000	3.661200	-10.985000	24.592032	0.001013	20.882904
909.244748	-3.007600	3.660600	-11.009000	24.585108	0.001013	20.895396
910.243985	-2.994800	3.660100	-10.960000	24.597067	0.001014	20.882266
911.246935	-2.987200	3.661200	-10.935000	24.617828	0.001013	20.872278
912.247028	-3.003600	3.660000	-10.992000	24.610054	0.001012	20.877279
913.244687	-3.000300	3.659600	-10.979000	24.630437	0.001009	20.886351
914.246641	-3.010700	3.658900	-11.014000	24.629347	0.001011	20.889999
915.248198	-2.987200	3.660700	-10.933000	24.645596	0.001010	20.885442
916.249590	-3.017600	3.660000	-11.043000	24.660295	0.001011	20.859890
917.254349	-3.007000	3.658000	-10.998000	24.655879	0.001010	20.868260
918.248010	-3.020300	3.658100	-11.048000	24.626375	0.001010	20.876587
919.250731	-3.002900	3.658900	-10.987000	24.666792	0.001012	20.881581
920.250172	-2.982000	3.660800	-10.915000	24.688113	0.001011	20.885431
921.250141	-2.972100	3.659000	-10.873000	24.688794	0.001011	20.890381
922.252786	-2.986100	3.658100	-10.922000	24.681889	0.001009	20.917115
923.251561	-2.991600	3.658800	-10.944000	24.696871	0.001009	20.886634
924.247981	-3.002100	3.658100	-10.981000	24.676019	0.001008	20.884201
925.248564	-3.011500	3.657400	-11.012000	24.656060	0.001008	20.885984
926.250444	-3.009800	3.657500	-11.007000	24.659223	0.001006	20.867348
927.248513	-2.995100	3.655800	-10.947000	24.656571	0.001009	20.878911
928.250509	-2.986700	3.657600	-10.923000	24.674912	0.001007	20.876453
929.249373	-3.011500	3.655000	-11.005000	24.683720	0.001007	20.910418
930.251725	-2.996600	3.656100	-10.954000	24.692610	0.001007	20.893263
931.250597	-2.990800	3.655700	-10.933000	24.709205	0.001007	20.899958
932.253001	-3.001900	3.655200	-10.971000	24.691711	0.001005	20.878611
933.256671	-2.991700	3.655000	-10.934000	24.700349	0.001007	20.888700
934.253458	-3.007400	3.654400	-10.989000	24.694490	0.001005	20.892778
935.256005	-3.003200	3.653900	-10.973000	24.703752	0.001005	20.903020
936.251653	-3.002100	3.653700	-10.967000	24.686326	0.001004	20.910189
937.254202	-3.018700	3.652700	-11.025000	24.715207	0.001004	20.901713
938.256599	-2.992300	3.654800	-10.936000	24.730453	0.001004	20.879082
939.257931	-3.019100	3.652600	-11.026000	24.724179	0.001003	20.878950
940.254842	-3.043300	3.651800	-11.113000	24.749600	0.001006	20.887390
941.255307	-3.033500	3.653000	-11.081000	24.755132	0.001001	20.891044
942.255207	-2.980300	3.652900	-10.885000	24.773565	0.001002	20.887732
943.255111	-3.004100	3.652500	-10.971000	24.768393	0.001002	20.897714
944.257909	-3.002400	3.651300	-10.962000	24.741079	0.001001	20.897804
945.255963	-2.994700	3.651300	-10.933000	24.756753	0.001001	20.901679
946.259129	-3.008100	3.651600	-10.982000	24.759469	0.001000	20.897293
947.255107	-3.008700	3.651300	-10.984000	24.743562	0.001001	20.890340
948.258030	-3.008700	3.652100	-10.986000	24.756528	0.001001	20.893868
949.262232	-2.990000	3.651800	-10.918000	24.771806	0.001000	20.908724
950.256851	-2.981700	3.652200	-10.888000	24.770590	0.000999	20.893755
951.257406	-2.999400	3.649400	-10.945000	24.764430	0.000999	20.896581
952.259180	-3.002700	3.650500	-10.960000	24.752202	0.000999	20.899958
953.259655	-2.990600	3.649800	-10.913000	24.770636	0.000998	20.909921
954.258559	-2.997000	3.648000	-10.932000	24.753255	0.000998	20.906229
955.262451	-3.018900	3.647300	-11.009000	24.759058	0.000997	20.906363
956.260207	-2.976200	3.650000	-10.862000	24.811988	0.000998	20.897843
957.261959	-2.993800	3.648600	-10.922000	24.793588	0.000997	20.909247
958.263844	-2.962600	3.648300	-10.807000	24.812266	0.000997	20.905233
959.260509	-3.002800	3.647400	-10.951000	24.803126	0.000995	20.897484
960.262265	-2.993600	3.648000	-10.918000	24.782143	0.000995	20.901555
961.261631	-3.014000	3.647000	-10.991000	24.787372	0.000997	20.905854
962.262618	-3.006900	3.647700	-10.967000	24.778781	0.000997	20.903870
963.260340	-3.000100	3.647100	-10.940000	24.786618	0.000994	20.899882
964.261226	-3.004900	3.646500	-10.957000	24.769861	0.000995	20.913884
965.263559	-2.993500	3.647100	-10.915000	24.778152	0.000994	20.919834
966.264687	-2.985300	3.645600	-10.881000	24.803294	0.000993	20.928469
967.261316	-2.990600	3.645700	-10.902000	24.778739	0.000993	20.916156
968.265372	-2.995600	3.645300	-10.919000	24.757813	0.000993	20.895631
969.262881	-2.973500	3.646500	-10.842000	24.756244	0.000995	20.912547
970.264596	-2.993600	3.646700	-10.916000	24.735519	0.000993	20.913560
971.266197	-2.993500	3.646200	-10.913000	24.746790	0.000992	20.876510
972.262914	-3.010500	3.645300	-10.972000	24.743760	0.000992	20.891012
973.266258	-3.000300	3.645600	-10.937000	24.732258	0.000989	20.896538
974.263383	-3.005000	3.644800	-10.951000	24.752903	0.000992	20.912987
975.265616	-2.986400	3.644200	-10.882000	24.750717	0.000991	20.929284
976.270506	-2.994900	3.643600	-10.910000	24.745483	0.000987	20.906490
977.268475	-2.999900	3.642700	-10.927000	24.762279	0.000990	20.920974
978.267209	-2.999300	3.642000	-10.922000	24.751892	0.000989	20.918136
979.265929	-3.012100	3.643700	-10.975000	24.738499	0.000990	20.925559
980.267086	-2.977700	3.642900	-10.846000	24.729183	0.000991	20.918581
981.270525	-3.003900	3.642700	-10.941000	24.735685	0.000990	20.916572
982.269573	-2.990700	3.642700	-10.892000	24.710372	0.000989	20.905396
983.266318	-2.988000	3.642600	-10.882000	24.701358	0.000987	20.905833
984.266233	-2.985200	3.641900	-10.870000	24.699053	0.000990	20.883608
985.268348	-3.025000	3.640100	-11.011000	24.678472	0.000988	20.920324
986.267926	-2.991400	3.641700	-10.892000	24.673552	0.000988	20.927240
987.272933	-2.993800	3.641900	-10.901000	24.649485	0.000989	20.926324
988.269510	-2.986500	3.640200	-10.871000	24.681259	0.000987	20.927862
989.269126	-2.969500	3.640200	-10.808000	24.704300	0.000988	20.915897
990.269008	-2.987300	3.640100	-10.873000	24.736463	0.000986	20.920670
991.269125	-2.993000	3.639500	-10.892000	24.780663	0.000986	20.920931
992.269206	-3.009900	3.638800	-10.951000	24.765111	0.000985	20.926660
993.273524	-2.998400	3.638900	-10.909000	24.773395	0.000986	20.926439
994.271550	-3.007000	3.639800	-10.943000	24.771646	0.000985	20.898607
995.270810	-2.997100	3.638500	-10.903000	24.774672	0.000984	20.930090
996.269768	-2.993200	3.638300	-10.889000	24.766344	0.000984	20.929319
997.270413	-3.001500	3.637900	-10.917000	24.806046	0.000983	20.920325
998.272034	-2.991500	3.636300	-10.877000	24.838930	0.000987	20.911603
999.268684	-3.018600	3.636500	-10.976000	24.837790	0.000983	20.923734
1000.272333	-3.019800	3.636900	-10.982000	24.846308	0.000984	20.942239
1001.270717	-2.991200	3.638600	-10.881000	24.874593	0.000982	20.941703
1002.273954	-2.973900	3.637000	-10.815000	24.892257	0.000983	20.941887
1003.279113	-3.003200	3.636500	-10.921000	24.887792	0.000983	20.933140
1004.273843	-3.002600	3.634700	-10.913000	24.883404	0.000982	20.926365
1005.276128	-3.004500	3.635400	-10.921000	24.870529	0.000982	20.935254
1006.273422	-2.996900	3.636600	-10.897000	24.877006	0.000981	20.928479
1007.274108	-3.000700	3.634100	-10.904000	24.878456	0.000983	20.944156
1008.285545	-3.006800	3.635200	-10.929000	24.873147	0.000979	20.942622
1009.277112	-2.991100	3.633600	-10.868000	24.877237	0.000980	20.936770
1010.273969	-2.990100	3.635000	-10.868000	24.895265	0.000980	20.948698
1011.274065	-2.994200	3.635100	-10.883000	24.894479	0.000980	20.940798
1012.273919	-3.019900	3.631500	-10.965000	24.949091	0.000979	20.947247
1013.272773	-2.989600	3.632700	-10.859000	24.933137	0.000979	20.920806
1014.278758	-2.992200	3.634500	-10.873000	24.898337	0.000980	20.925707
1015.275927	-3.013400	3.632700	-10.946000	24.902243	0.000978	20.939582
1016.275996	-3.000300	3.634700	-10.904000	24.898402	0.000976	20.934780
1017.273828	-3.003400	3.633600	-10.911000	24.922647	0.000978	20.949155
1018.276361	-2.992500	3.632100	-10.867000	24.935114	0.000975	20.946021
1019.276449	-2.973400	3.631900	-10.797000	24.961110	0.000976	20.934183
1020.276116	-3.003600	3.631700	-10.907000	24.982916	0.000975	20.952748
1021.278556	-2.999200	3.631400	-10.890000	25.008187	0.000975	20.960095
1022.277792	-3.013700	3.631200	-10.942000	24.990759	0.000974	20.953034
1023.277802	-3.010400	3.631000	-10.929000	24.975160	0.000974	20.962506
1024.284738	-3.004400	3.629600	-10.904000	24.962903	0.000973	20.955894
1025.280642	-3.000900	3.629900	-10.891000	24.960573	0.000975	20.943126
1026.277618	-3.006700	3.630100	-10.913000	24.954371	0.000973	20.925049
1027.278577	-2.990000	3.630600	-10.854000	24.942165	0.000973	20.952148
1028.277120	-3.000400	3.628300	-10.885000	24.933322	0.000972	20.956549
1029.283717	-3.021500	3.629000	-10.965000	24.943369	0.000969	20.949090
1030.284777	-3.014600	3.627800	-10.935000	24.956157	0.000971	20.958605
1031.280609	-3.012800	3.629200	-10.933000	24.939410	0.000970	20.965503
1032.282287	-2.997200	3.630100	-10.879000	24.951649	0.000969	20.953607
1033.280664	-3.006600	3.626900	-10.903000	24.930384	0.000971	20.958815
1034.281716	-3.001000	3.626100	-10.880000	24.946662	0.000970	20.947654
1035.282690	-2.996100	3.628500	-10.871000	24.968450	0.000969	20.967624
1036.280876	-3.010400	3.626400	-10.916000	24.964823	0.000969	20.954502
1037.288152	-2.998600	3.627200	-10.876000	24.984299	0.000968	20.960774
1038.283611	-3.001700	3.627700	-10.889000	25.006779	0.000967	20.966741
1039.282629	-3.006700	3.626400	-10.902000	25.021235	0.000969	20.957072
1040.286452	-2.999400	3.626000	-10.875000	25.019320	0.000968	20.971743
1041.283985	-2.982300	3.626100	-10.813000	25.033109	0.000966	20.963774
1042.283633	-2.990400	3.625100	-10.839000	25.054466	0.000966	20.965772
1043.284948	-2.998100	3.625700	-10.870000	25.031876	0.000966	20.965856
1044.284495	-3.007800	3.623800	-10.898000	25.084466	0.000964	20.960326
1045.284822	-3.014000	3.623700	-10.921000	25.097050	0.000964	20.984808
1046.289582	-2.992800	3.623300	-10.843000	25.101276	0.000967	20.979568
1047.285170	-3.011800	3.621800	-10.907000	25.108992	0.000965	20.962661
1048.289410	-2.981900	3.624100	-10.805000	25.127309	0.000965	20.987208
1049.292849	-3.017500	3.622200	-10.929000	25.128650	0.000965	20.963428
1050.287330	-3.011900	3.622500	-10.909000	25.091614	0.000964	20.984567
1051.288249	-3.019300	3.623200	-10.938000	25.075832	0.000965	20.968727
1052.288615	-3.000000	3.622300	-10.865000	25.046283	0.000964	20.971781
1053.297298	-2.985000	3.623700	-10.816000	25.045937	0.000963	20.994190
1054.288715	-3.019200	3.623200	-10.936000	25.048407	0.000964	20.960639
1055.295186	-3.010800	3.621200	-10.900000	25.073179	0.000962	20.971753
1056.290788	-2.996700	3.622100	-10.852000	25.081353	0.000960	20.971424
1057.290844	-3.002000	3.621800	-10.872000	25.071946	0.000962	20.969568
1058.288676	-3.001300	3.621200	-10.867000	25.058299	0.000961	20.978152
1059.289467	-2.994400	3.620700	-10.840000	25.066960	0.000961	20.992534
1060.288170	-2.999500	3.620300	-10.856000	25.037184	0.000961	20.965967
1061.290251	-2.993300	3.619400	-10.833000	25.054618	0.000960	20.989628
1062.292163	-3.002800	3.619700	-10.869000	25.057157	0.000961	20.982694
1063.292137	-2.993200	3.619100	-10.831000	25.063456	0.000959	21.001343
1064.299610	-3.003900	3.618500	-10.868000	25.102423	0.000959	20.994467
1065.292140	-3.014400	3.618200	-10.906000	25.102996	0.000961	20.996939
1066.293999	-2.992000	3.619400	-10.828000	25.138800	0.000959	20.973616
1067.296590	-3.006800	3.618700	-10.879000	25.126375	0.000958	20.992908
1068.294733	-3.004500	3.616800	-10.865000	25.131950	0.000958	20.994711
1069.292480	-2.997200	3.617300	-10.841000	25.153853	0.000957	20.996784
1070.293127	-2.991400	3.618700	-10.825000	25.141724	0.000958	20.968018
1071.295121	-3.004300	3.616200	-10.862000	25.111680	0.000956	20.995699
1072.293734	-3.042900	3.616100	-11.002000	25.078050	0.000956	20.969531
1073.299377	-3.009200	3.615500	-10.879000	25.102663	0.000956	20.973849
1074.293941	-3.017400	3.616600	-10.912000	25.100258	0.000955	20.996087
1075.293028	-3.009700	3.615300	-10.880000	25.078209	0.000955	20.995765
1076.296440	-2.990700	3.615700	-10.813000	25.085454	0.000956	20.998769
1077.292191	-3.022400	3.614200	-10.923000	25.091180	0.000952	20.997405
1078.297309	-3.002600	3.615100	-10.853000	25.057701	0.000953	20.996041
1079.294677	-3.014900	3.614200	-10.896000	25.029688	0.000955	20.979778
1080.296436	-2.991800	3.615300	-10.815000	25.026010	0.000953	20.986991
1081.294898	-3.004200	3.614900	-10.859000	25.053195	0.000953	20.977770
1082.296725	-3.007300	3.614900	-10.870000	25.085474	0.000952	21.004004
1083.297129	-3.000200	3.614400	-10.842000	25.084208	0.000953	21.005578
1084.295076	-3.001700	3.613600	-10.845000	25.070366	0.000952	21.005434
1085.297104	-2.996000	3.614100	-10.825000	25.059964	0.000952	21.006372
1086.297372	-3.015000	3.613700	-10.895000	25.072617	0.000950	21.002478
1087.294457	-2.983200	3.614700	-10.782000	25.043447	0.000949	21.002120
1088.300001	-2.997500	3.611700	-10.825000	25.007555	0.000950	21.004024
1089.294565	-3.018400	3.612100	-10.901000	25.003066	0.000948	20.988142
1090.301273	-3.012400	3.611200	-10.877000	25.023082	0.000949	21.019608
1091.303543	-2.993500	3.612600	-10.813000	25.035372	0.000948	20.995438
1092.296918	-2.988600	3.611700	-10.793000	25.033785	0.000946	21.024660
1093.299753	-2.998600	3.609600	-10.822000	25.065314	0.000946	21.008897
1094.298626	-3.019000	3.610700	-10.900000	25.043273	0.000947	21.029915
1095.299124	-2.995700	3.610400	-10.814000	25.079407	0.000945	21.027781
1096.296570	-3.009100	3.609500	-10.860000	25.061440	0.000947	21.001690
1097.298419	-3.006500	3.610500	-10.854000	25.069402	0.000944	21.013947
1098.300346	-3.008800	3.608900	-10.857000	25.080349	0.000944	21.023512
1099.302236	-2.997000	3.609900	-10.816000	25.085206	0.000947	21.001365
1100.297085	-2.994800	3.609300	-10.808000	25.052276	0.000944	21.025677
1101.298871	-2.999300	3.607000	-10.818000	25.028463	0.000943	21.029274
1102.297608	-2.983900	3.608000	-10.765000	25.014621	0.000943	21.023441
1103.298050	-3.015400	3.606800	-10.875000	25.015826	0.000943	21.007584
1104.303323	-2.992300	3.608600	-10.797000	25.039156	0.000942	21.022940
1105.296360	-3.002800	3.606100	-10.827000	25.049548	0.000941	21.016777
1106.302903	-2.998500	3.607600	-10.817000	25.079668	0.000942	21.030413
1107.298604	-3.008700	3.605500	-10.847000	25.103613	0.000941	21.040224
1108.298936	-3.001000	3.606800	-10.823000	25.119081	0.000942	21.026831
1109.300406	-3.000700	3.607400	-10.823000	25.135476	0.000940	21.012473
1110.298551	-3.004800	3.605300	-10.831000	25.130213	0.000940	21.034685
1111.296447	-3.010200	3.603800	-10.846000	25.128973	0.000939	21.022063
1112.298953	-2.990900	3.604500	-10.779000	25.146860	0.000939	21.018210
1113.296587	-2.988800	3.605300	-10.775000	25.125538	0.000938	21.029045
1114.299804	-2.995600	3.604800	-10.796000	25.122409	0.000938	21.037756
1115.302082	-2.965900	3.605200	-10.692000	25.126751	0.000937	21.050173
1116.298100	-2.988700	3.604200	-10.770000	25.134290	0.000937	21.038304
1117.299231	-2.995100	3.603500	-10.792000	25.108843	0.000937	21.037888
1118.298194	-2.994700	3.604000	-10.792000	25.085800	0.000936	21.034197
1119.306110	-3.011000	3.601100	-10.842000	25.070043	0.000936	21.041138
1120.301081	-2.989800	3.604200	-10.775000	25.046737	0.000932	21.034814
1121.298149	-2.985800	3.603200	-10.757000	25.038714	0.000936	21.035769
1122.299314	-2.979600	3.602400	-10.732000	25.010329	0.000933	21.035252
1123.301051	-3.000200	3.602200	-10.806000	24.998637	0.000932	21.041532
1124.297470	-3.010700	3.600200	-10.837000	25.001976	0.000933	21.047254
1125.303255	-3.015100	3.601100	-10.857000	25.029871	0.000933	21.038746
1126.299982	-3.014900	3.599900	-10.851000	25.046402	0.000932	21.039693
1127.298569	-2.996500	3.601600	-10.792000	25.084519	0.000931	21.049977
1128.304522	-3.014900	3.600900	-10.855000	25.116292	0.000932	21.048682
1129.301011	-2.999800	3.601700	-10.803000	25.140648	0.000930	21.033782
1130.299155	-3.006100	3.600000	-10.821000	25.136254	0.000929	21.032689
1131.300581	-2.988500	3.599200	-10.755000	25.154977	0.000930	21.044845
1132.300081	-3.015100	3.598400	-10.848000	25.173978	0.000930	21.060124
1133.304677	-3.004900	3.598600	-10.812000	25.162381	0.000927	21.044217
1134.299130	-3.006200	3.598900	-10.818000	25.188736	0.000930	21.063085
1135.303059	-3.000100	3.597700	-10.792000	25.207585	0.000928	21.062568
1136.302481	-2.993600	3.598600	-10.772000	25.213134	0.000928	21.059605
1137.299649	-3.013200	3.597800	-10.839000	25.194546	0.000927	21.047584
1138.298025	-3.002900	3.597500	-10.801000	25.196047	0.000928	21.057149
1139.299641	-3.031000	3.596000	-10.899000	25.179102	0.000925	21.061948
1140.299020	-2.996400	3.595700	-10.773000	25.187940	0.000925	21.062760
1141.304425	-3.021200	3.596000	-10.863000	25.198507	0.000926	21.064360
1142.302827	-3.014100	3.595700	-10.836000	25.252355	0.000926	21.063894
1143.307187	-2.983300	3.596700	-10.728000	25.249716	0.000925	21.071673
1144.301781	-3.004200	3.595300	-10.800000	25.245077	0.000923	21.049951
1145.303672	-2.990200	3.596200	-10.752000	25.292185	0.000923	21.052203
1146.301563	-3.025500	3.594500	-10.873000	25.298155	0.000925	21.057247
1147.304258	-3.011200	3.593900	-10.821000	25.303923	0.000922	21.052608
1148.306520	-3.011700	3.594500	-10.824000	25.300186	0.000921	21.056442
1149.303557	-3.012400	3.594200	-10.826000	25.316462	0.000923	21.057610
1150.300648	-3.017600	3.593800	-10.843000	25.328950	0.000925	21.049763
1151.300851	-3.018800	3.592600	-10.844000	25.340789	0.000921	21.064017
1152.305614	-2.989600	3.595300	-10.748000	25.350984	0.000921	21.056712
1153.303633	-2.984400	3.594800	-10.727000	25.352830	0.000921	21.056195
1154.300465	-3.007300	3.593300	-10.805000	25.345156	0.000921	21.039958
1155.302409	-3.035500	3.592800	-10.905000	25.344017	0.000918	21.065836
1156.301754	-2.990000	3.594000	-10.744000	25.348225	0.000919	21.046357
1157.304227	-3.018700	3.591100	-10.839000	25.334876	0.000919	21.036275
1158.304064	-3.003100	3.592300	-10.786000	25.310825	0.000920	21.041049
1159.301548	-3.020900	3.590500	-10.845000	25.309189	0.000918	21.024237
1160.305361	-3.002600	3.590400	-10.779000	25.286968	0.000919	21.012834
1161.304346	-3.013600	3.590200	-10.819000	25.266778	0.000918	21.049454
1162.304581	-3.018600	3.589900	-10.835000	25.224543	0.000917	21.033133
1163.307194	-3.040600	3.588200	-10.909000	25.202531	0.000916	21.022889
1164.304762	-3.014000	3.590000	-10.819000	25.187561	0.000915	21.030618
1165.304352	-3.003000	3.589600	-10.778000	25.207009	0.000914	21.035443
1166.306010	-2.976100	3.589900	-10.683000	25.180594	0.000913	21.015566
1167.306100	-2.995500	3.588900	-10.749000	25.200455	0.000914	21.050671
1168.308424	-2.990700	3.588500	-10.731000	25.226540	0.000915	21.019493
1169.311502	-3.009500	3.588800	-10.799000	25.261968	0.000912	20.994376
1170.307199	-3.000200	3.588100	-10.763000	25.278599	0.000913	21.036195
1171.306495	-2.992800	3.587300	-10.735000	25.277957	0.000911	21.016115
1172.308735	-2.997600	3.586800	-10.751000	25.336102	0.000913	21.011907
1173.309062	-2.994700	3.588400	-10.746000	25.318359	0.000910	20.998836
1174.310518	-2.971600	3.589100	-10.663000	25.333024	0.000911	21.009291
1175.309962	-2.988100	3.585000	-10.712000	25.324431	0.000909	21.012516
1176.309781	-2.997400	3.587700	-10.753000	25.286533	0.000910	21.022352
1177.310914	-3.016700	3.585500	-10.816000	25.327027	0.000908	21.008011
1178.308737	-2.989100	3.586600	-10.720000	25.351490	0.000909	21.010762
1179.311123	-2.991800	3.586200	-10.728000	25.351026	0.000909	21.018355
1180.309752	-3.000400	3.585800	-10.757000	25.378895	0.000908	21.010304
1181.315252	-2.991400	3.585600	-10.723000	25.393306	0.000907	21.002491
1182.310968	-2.987300	3.584800	-10.707000	25.363792	0.000907	21.015053
1183.311780	-2.987600	3.584500	-10.708000	25.411814	0.000906	21.005428
1184.316069	-3.006700	3.583500	-10.774000	25.404797	0.000906	20.999806
1185.313964	-2.983500	3.584600	-10.694000	25.405961	0.000905	21.018989
1186.313140	-2.985400	3.583700	-10.698000	25.412040	0.000904	20.997596
1187.312204	-2.996800	3.582100	-10.734000	25.438238	0.000906	20.993083
1188.315090	-3.006900	3.582300	-10.771000	25.427082	0.000904	21.019335
1189.317284	-3.006600	3.581000	-10.766000	25.394112	0.000902	20.997612
1190.319155	-2.999700	3.583500	-10.749000	25.352810	0.000903	21.008295
1191.316086	-3.018100	3.581200	-10.807000	25.314972	0.000902	20.995435
1192.312669	-2.975700	3.582100	-10.659000	25.278263	0.000902	21.005517
1193.316179	-2.993700	3.582100	-10.723000	25.251327	0.000902	20.994122
1194.314884	-2.981000	3.580800	-10.673000	25.233346	0.000903	21.002621
1195.320656	-2.990900	3.582500	-10.712000	25.233379	0.000900	21.008818
1196.314506	-2.994400	3.581700	-10.724000	25.206222	0.000900	20.985351
1197.321548	-3.002400	3.579800	-10.746000	25.174730	0.000898	20.988821
1198.319343	-3.009400	3.580300	-10.774000	25.166676	0.000899	20.993063
1199.317507	-3.018200	3.578300	-10.798000	25.140495	0.000901	20.993807
1200.319207	-2.991100	3.580200	-10.707000	25.156284	0.000898	20.980262
1201.321662	-2.980400	3.579100	-10.665000	25.140065	0.000897	20.988159
1202.319165	-3.003100	3.577100	-10.742000	25.141017	0.000897	20.991012
1203.318446	-3.004800	3.578600	-10.752000	25.155735	0.000896	20.981133
1204.318745	-2.997100	3.578700	-10.725000	25.139144	0.000898	21.018524
1205.318935	-3.005900	3.575300	-10.745000	25.116625	0.000896	20.991655
1206.321379	-2.990300	3.576700	-10.694000	25.113082	0.000893	20.983832
1207.321416	-2.994700	3.576600	-10.710000	25.131232	0.000895	20.984035
1208.327369	-2.982800	3.577600	-10.668000	25.164926	0.000895	21.005055
1209.323816	-3.000400	3.575500	-10.728000	25.202718	0.000892	20.995107
1210.322905	-3.014500	3.575600	-10.778000	25.194192	0.000892	20.985127
1211.324797	-3.018500	3.574800	-10.789000	25.176430	0.000892	20.971564
1212.322964	-3.004100	3.574200	-10.737000	25.145662	0.000893	20.973867
1213.324881	-3.006700	3.574400	-10.746000	25.164731	0.000892	20.987318
1214.322440	-3.014800	3.572800	-10.771000	25.175012	0.000894	20.995267
1215.330115	-3.020300	3.573300	-10.791000	25.170778	0.000890	20.994335
1216.323197	-2.984500	3.573800	-10.665000	25.179734	0.000889	20.974881
1217.319584	-2.969100	3.574500	-10.612000	25.208097	0.000891	20.984388
1218.328597	-2.981000	3.572900	-10.651000	25.231947	0.000891	20.972299
1219.322844	-2.995300	3.572300	-10.699000	25.258200	0.000889	20.966415
1220.323223	-2.982500	3.574600	-10.660000	25.292135	0.000890	20.985784
1221.329717	-2.999100	3.571600	-10.711000	25.308950	0.000888	20.977064
1222.323745	-3.001500	3.571200	-10.718000	25.310274	0.000886	20.987401
1223.324465	-3.001700	3.571400	-10.718000	25.349258	0.000885	20.974863
1224.324896	-3.006000	3.570600	-10.733000	25.344544	0.000886	20.972500
1225.323582	-2.974300	3.572200	-10.624000	25.359891	0.000887	20.997389
1226.327690	-3.011500	3.570100	-10.751000	25.367624	0.000887	20.990930
1227.326972	-2.978300	3.572600	-10.639000	25.367936	0.000883	20.969909
1228.326865	-2.986700	3.570000	-10.661000	25.388055	0.000883	20.972567
1229.325852	-2.979900	3.569800	-10.636000	25.383392	0.000883	20.979263
1230.326646	-3.011600	3.568800	-10.746000	25.391680	0.000882	20.987585
1231.324682	-3.001100	3.569300	-10.711000	25.429625	0.000884	20.975428
1232.328498	-2.982700	3.569200	-10.644000	25.422896	0.000882	20.979102
1233.325005	-3.002800	3.569800	-10.718000	25.413722	0.000882	20.981269
1234.328265	-3.016300	3.567000	-10.757000	25.420527	0.000883	20.993790
1235.325724	-2.989600	3.568500	-10.668000	25.439945	0.000882	20.977730
1236.324385	-2.999000	3.568400	-10.701000	25.460139	0.000883	20.953442
1237.328657	-3.018900	3.566700	-10.766000	25.464549	0.000880	20.972566
1238.342379	-2.964100	3.567400	-10.572000	25.448157	0.000881	20.957530
1239.328419	-2.994400	3.567200	-10.680000	25.398037	0.000880	20.978322
1240.326169	-3.002600	3.566000	-10.705000	25.355850	0.000880	20.962517
1241.329598	-2.999300	3.565400	-10.693000	25.307968	0.000879	20.985086
1242.327765	-2.978100	3.566300	-10.620000	25.313568	0.000878	20.966529
1243.332311	-2.976600	3.567100	-10.616000	25.304283	0.000876	20.971431
1244.331155	-2.979800	3.564500	-10.621000	25.302200	0.000877	20.966495
1245.334466	-3.010500	3.564200	-10.728000	25.311358	0.000876	20.961940
1246.328322	-3.007300	3.565600	-10.723000	25.323822	0.000875	20.987253
1247.328043	-2.998800	3.565100	-10.690000	25.345553	0.000876	20.965928
1248.330960	-2.982500	3.564200	-10.630000	25.375362	0.000875	20.956979
1249.329665	-2.993200	3.563300	-10.665000	25.394216	0.000873	20.966427
1250.327892	-3.000100	3.563200	-10.688000	25.381517	0.000874	20.990182
1251.330682	-2.988100	3.564200	-10.648000	25.386678	0.000873	20.967866
1252.329236	-3.002000	3.561600	-10.691000	25.419394	0.000873	20.961838
1253.329057	-3.011000	3.561600	-10.723000	25.408070	0.000872	20.972751
1254.336079	-3.013200	3.562800	-10.734000	25.417995	0.000872	20.969440
1255.330553	-2.995700	3.562300	-10.671000	25.442253	0.000873	20.966300
1256.330780	-2.992200	3.561900	-10.656000	25.483350	0.000872	20.961102
1257.334686	-3.005800	3.561400	-10.704000	25.484496	0.000871	20.985009
1258.332525	-2.975000	3.562200	-10.596000	25.460154	0.000869	20.960568
1259.336020	-3.002300	3.560500	-10.688000	25.470179	0.000869	20.966841
1260.333390	-2.996300	3.560300	-10.666000	25.474370	0.000871	20.979108
1261.335528	-2.989000	3.561100	-10.643000	25.458434	0.000870	20.965004
1262.335004	-3.009400	3.558900	-10.710000	25.465382	0.000868	20.962972
1263.333980	-3.004600	3.559300	-10.693000	25.443788	0.000869	20.966892
1264.333430	-3.000700	3.558800	-10.677000	25.431747	0.000867	20.971396
1265.332570	-2.977300	3.560100	-10.598000	25.457169	0.000868	20.966579
1266.333729	-2.990500	3.558000	-10.639000	25.440306	0.000865	20.964344
1267.332862	-3.016600	3.558000	-10.732000	25.420507	0.000866	20.952052
1268.336298	-2.987600	3.557900	-10.629000	25.397302	0.000867	20.957673
1269.335222	-2.996200	3.557800	-10.659000	25.360023	0.000866	20.954854
1270.334385	-3.009900	3.556500	-10.704000	25.357004	0.000865	20.958460
1271.334656	-3.012800	3.556500	-10.714000	25.334438	0.000864	20.981792
1272.338016	-3.000700	3.557000	-10.673000	25.345325	0.000865	20.963328
1273.335926	-3.014000	3.554300	-10.713000	25.322076	0.000861	20.961322
1274.339500	-3.003000	3.555200	-10.675000	25.303363	0.000863	20.965292
1275.340337	-2.974500	3.555600	-10.574000	25.280678	0.000861	20.965276
1276.336750	-2.986600	3.556100	-10.620000	25.238647	0.000863	20.939201
1277.336412	-3.008000	3.553800	-10.689000	25.221932	0.000861	20.959874
1278.334863	-3.005600	3.554500	-10.683000	25.258777	0.000861	20.962728
1279.343324	-2.994400	3.553300	-10.640000	25.273763	0.000858	20.955489
1280.343914	-2.994600	3.553700	-10.641000	25.284811	0.000860	20.965631
1281.337045	-2.981500	3.553300	-10.594000	25.297663	0.000860	20.948192
1282.337330	-2.983500	3.553800	-10.602000	25.327870	0.000857	20.941063
1283.337583	-3.006000	3.552800	-10.679000	25.329320	0.000859	20.955794
1284.338020	-3.002500	3.551600	-10.661000	25.328426	0.000857	20.952526
1285.343778	-2.989200	3.554800	-10.623000	25.332061	0.000857	20.956175
1286.339791	-2.991500	3.551900	-10.624000	25.334979	0.000855	20.946304
1287.339791	-2.997700	3.552000	-10.647000	25.291490	0.000858	20.956692
1288.340379	-2.996800	3.552200	-10.645000	25.292629	0.000857	20.937923
1289.339333	-2.979200	3.551600	-10.580000	25.304671	0.000855	20.945746
1290.341119	-3.014300	3.550700	-10.702000	25.281953	0.000856	20.958021
1291.339271	-3.002100	3.551100	-10.660000	25.310423	0.000854	20.973327
1292.339855	-3.012000	3.548000	-10.685000	25.345672	0.000854	20.956091
1293.340466	-2.984500	3.550500	-10.595000	25.376172	0.000853	20.952578
1294.340509	-2.996800	3.550700	-10.640000	25.401208	0.000852	20.947846
1295.341362	-2.998200	3.549900	-10.643000	25.403873	0.000853	20.954788
1296.342742	-3.021500	3.547800	-10.718000	25.397784	0.000853	20.942038
1297.345068	-3.012900	3.548500	-10.689000	25.376097	0.000852	20.943968
1298.341596	-3.002800	3.548200	-10.653000	25.395263	0.000850	20.943774
1299.342824	-3.004500	3.546800	-10.656000	25.430434	0.000851	20.945425
1300.341600	-3.029800	3.547100	-10.744000	25.426294	0.000851	20.936053
1301.347719	-3.003900	3.546500	-10.651000	25.441800	0.000848	20.950200
1302.344558	-2.995900	3.546900	-10.625000	25.427728	0.000850	20.948397
1303.343872	-3.016300	3.546400	-10.696000	25.462324	0.000851	20.928612
1304.343874	-2.987300	3.546100	-10.592000	25.466607	0.000848	20.926749
1305.345505	-2.969900	3.547000	-10.532000	25.464676	0.000848	20.932871
1306.346371	-2.999900	3.545100	-10.633000	25.453201	0.000848	20.936994
1307.346400	-2.992900	3.545200	-10.610000	25.425131	0.000848	20.926826
1308.345506	-3.010500	3.544500	-10.669000	25.447704	0.000845	20.939534
1309.349570	-2.990300	3.545400	-10.600000	25.442788	0.000844	20.941236
1310.345321	-3.000800	3.544000	-10.633000	25.445149	0.000844	20.928435
1311.345641	-3.006900	3.542400	-10.650000	25.452890	0.000844	20.947111
1312.346596	-3.015000	3.542900	-10.680000	25.468952	0.000844	20.934319
1313.346298	-2.993800	3.543900	-10.609000	25.464686	0.000844	20.945207
1314.350615	-3.028400	3.541100	-10.723000	25.495824	0.000842	20.923373
1315.347788	-3.001200	3.542700	-10.631000	25.480133	0.000841	20.930849
1316.346369	-2.997700	3.542200	-10.617000	25.453650	0.000840	20.913739
1317.352927	-2.982600	3.542000	-10.563000	25.448683	0.000841	20.936250
1318.348532	-3.008100	3.540400	-10.648000	25.439071	0.000840	20.927073
1319.347498	-3.020500	3.540000	-10.691000	25.429408	0.000840	20.935387
1320.346997	-3.005400	3.540300	-10.639000	25.418455	0.000842	20.916330
1321.349337	-2.976500	3.541500	-10.540000	25.410183	0.000839	20.934575
1322.350626	-2.975400	3.539600	-10.531000	25.424973	0.000840	20.936149
1323.349704	-2.993300	3.541100	-10.599000	25.428507	0.000838	20.933059
1324.351062	-2.998500	3.540900	-10.615000	25.458634	0.000837	20.917795
1325.350765	-2.985400	3.540500	-10.569000	25.460674	0.000836	20.922215
1326.349948	-2.987000	3.538800	-10.568000	25.498178	0.000837	20.924314
1327.349593	-2.980700	3.539100	-10.548000	25.517883	0.000837	20.907594
1328.350259	-3.008900	3.538200	-10.644000	25.541617	0.000836	20.927634
1329.352937	-3.004500	3.539100	-10.632000	25.543759	0.000836	20.944481
1330.350090	-2.996300	3.538800	-10.602000	25.550419	0.000835	20.913716
1331.349700	-3.003000	3.537700	-10.622000	25.553623	0.000834	20.917407
1332.346987	-2.995700	3.538600	-10.598000	25.561987	0.000835	20.925332
1333.348260	-3.022400	3.535100	-10.683000	25.557426	0.000833	20.915063
1334.348449	-3.017200	3.536300	-10.668000	25.555681	0.000832	20.930378
1335.348535	-2.987900	3.536600	-10.566000	25.549248	0.000832	20.910643
1336.347626	-3.017800	3.536600	-10.672000	25.555049	0.000832	20.928795
1337.354470	-2.992500	3.536200	-10.581000	25.535843	0.000833	20.904768
1338.350395	-3.000700	3.536000	-10.609000	25.544974	0.000832	20.913463
1339.350223	-2.981600	3.534700	-10.537000	25.564526	0.000832	20.914606
1340.349893	-2.987800	3.535900	-10.564000	25.603881	0.000833	20.922836
1341.350661	-2.982900	3.535600	-10.545000	25.589759	0.000833	20.897276
1342.348074	-2.988500	3.533900	-10.559000	25.596859	0.000831	20.912939
1343.349633	-2.988400	3.534400	-10.560000	25.584904	0.000830	20.913735
1344.349607	-3.004500	3.532800	-10.614000	25.571322	0.000828	20.920957
1345.351082	-3.002000	3.533100	-10.605000	25.590798	0.000830	20.915861
1346.353182	-3.010700	3.532600	-10.633000	25.562167	0.000826	20.922668
1347.354946	-3.004100	3.533300	-10.613000	25.567841	0.000828	20.906083
1348.356586	-3.005500	3.531500	-10.613000	25.538805	0.000825	20.897786
1349.354917	-2.976100	3.531700	-10.510000	25.519177	0.000827	20.911265
1350.353933	-2.994400	3.531700	-10.575000	25.520476	0.000824	20.921577
1351.352833	-3.010000	3.529400	-10.623000	25.547397	0.000825	20.914000
1352.350271	-3.003700	3.531500	-10.606000	25.567784	0.000825	20.898439
1353.354336	-2.994200	3.529600	-10.566000	25.568930	0.000823	20.909073
1354.352353	-2.977400	3.532200	-10.516000	25.564294	0.000824	20.917218
1355.352602	-2.993100	3.529500	-10.563000	25.569715	0.000823	20.920765
1356.357445	-2.987900	3.531100	-10.550000	25.592436	0.000823	20.903283
1357.357385	-3.009500	3.528400	-10.617000	25.582404	0.000821	20.909328
1358.354115	-2.994500	3.529300	-10.567000	25.561268	0.000820	20.891423
1359.358361	-3.014300	3.527900	-10.633000	25.529821	0.000820	20.897299
1360.354610	-2.990700	3.527900	-10.550000	25.507630	0.000820	20.888291
1361.354351	-3.017100	3.527400	-10.642000	25.513010	0.000819	20.891796
1362.357977	-3.024900	3.526600	-10.666000	25.541389	0.000819	20.906070
1363.355292	-3.013000	3.526600	-10.624000	25.527858	0.000819	20.898172
1364.356277	-3.014500	3.526500	-10.629000	25.533633	0.000815	20.919143
1365.361570	-2.988300	3.528300	-10.541000	25.525506	0.000818	20.890595
1366.357173	-2.969100	3.528000	-10.474000	25.500743	0.000816	20.879953
1367.357003	-2.989100	3.526900	-10.541000	25.499302	0.000818	20.911219
1368.357440	-3.012900	3.525200	-10.620000	25.511621	0.000815	20.902255
1369.358229	-2.974600	3.526800	-10.488000	25.514673	0.000817	20.909586
1370.365952	-2.995600	3.524600	-10.556000	25.498080	0.000815	20.922794
1371.359822	-2.982700	3.524900	-10.513000	25.468444	0.000814	20.893984
1372.360304	-2.988800	3.525100	-10.534000	25.419488	0.000814	20.910256
1373.358537	-2.990900	3.524900	-10.542000	25.416546	0.000813	20.904457
1374.360105	-2.986500	3.524800	-10.525000	25.417744	0.000813	20.881006
1375.360438	-2.998800	3.523200	-10.564000	25.442694	0.000814	20.889464
1376.357351	-2.992400	3.522300	-10.538000	25.430198	0.000811	20.893037
1377.360035	-2.987600	3.522500	-10.523000	25.460722	0.000813	20.906617
1378.359034	-2.993600	3.523400	-10.546000	25.484761	0.000812	20.887136
1379.359036	-3.002700	3.521800	-10.573000	25.513293	0.000811	20.886866
1380.361052	-3.023900	3.522100	-10.649000	25.502037	0.000810	20.871296
1381.362490	-2.968900	3.522300	-10.456000	25.528706	0.000810	20.885274
1382.360960	-2.981900	3.520700	-10.496000	25.539523	0.000809	20.878595
1383.363921	-3.013900	3.520400	-10.609000	25.557287	0.000808	20.888373
1384.360243	-2.976300	3.522100	-10.481000	25.537770	0.000808	20.903859
1385.359728	-2.987600	3.521300	-10.520000	25.543917	0.000807	20.887748
1386.366165	-2.996000	3.520700	-10.547000	25.538799	0.000807	20.870282
1387.360177	-2.988300	3.518700	-10.513000	25.513329	0.000806	20.887850
1388.359072	-2.990400	3.518700	-10.521000	25.522638	0.000807	20.895775
1389.364367	-3.001800	3.519100	-10.562000	25.519678	0.000805	20.881424
1390.363758	-2.988200	3.519200	-10.514000	25.515362	0.000805	20.879460
1391.364872	-2.991600	3.518100	-10.524000	25.533734	0.000805	20.876574
1392.364648	-2.990600	3.518300	-10.521000	25.549289	0.000806	20.886505
1393.361305	-3.006800	3.516700	-10.573000	25.555798	0.000803	20.875024
1394.361208	-2.988300	3.518300	-10.513000	25.525219	0.000802	20.871342
1395.361568	-2.989500	3.517900	-10.515000	25.478062	0.000803	20.885625
1396.364031	-3.000600	3.515500	-10.547000	25.511047	0.000802	20.872757
1397.361873	-2.992300	3.517700	-10.524000	25.507944	0.000801	20.873909
1398.361962	-2.997200	3.516200	-10.538000	25.542512	0.000801	20.893923
1399.361101	-2.983400	3.515800	-10.488000	25.534546	0.000801	20.876915
1400.361556	-2.996400	3.514900	-10.531000	25.567747	0.000801	20.890343
1401.363121	-3.012200	3.515100	-10.587000	25.522953	0.000799	20.878550
1402.363345	-2.995400	3.515300	-10.529000	25.511310	0.000801	20.867806
1403.362464	-2.982300	3.514800	-10.481000	25.456463	0.000799	20.875790
1404.366986	-2.968800	3.515500	-10.434000	25.438057	0.000797	20.896186
1405.364731	-3.023800	3.512100	-10.618000	25.445966	0.000800	20.864776
1406.365870	-3.012400	3.513400	-10.582000	25.449154	0.000797	20.885519
1407.369059	-3.017100	3.512100	-10.595000	25.440191	0.000797	20.880787
1408.366236	-3.007700	3.512600	-10.564000	25.447670	0.000797	20.883082
1409.366863	-3.004600	3.513100	-10.555000	25.428893	0.000796	20.872288
1410.368227	-3.007100	3.511800	-10.560000	25.423388	0.000797	20.876716
1411.366470	-2.991600	3.512000	-10.506000	25.425387	0.000797	20.886309
1412.370378	-2.984700	3.512300	-10.481000	25.416044	0.000795	20.858438
1413.365792	-3.006900	3.509200	-10.550000	25.416627	0.000796	20.882255
1414.369627	-2.997900	3.510800	-10.525000	25.430295	0.000793	20.884126
1415.371289	-3.022700	3.510800	-10.611000	25.464453	0.000795	20.881917
1416.371641	-3.000700	3.509300	-10.529000	25.467885	0.000793	20.866872
1417.369018	-3.005400	3.509200	-10.546000	25.494336	0.000792	20.894380
1418.370965	-3.011700	3.508700	-10.566000	25.537859	0.000793	20.858906
1419.373239	-3.017400	3.508800	-10.586000	25.505955	0.000792	20.880445
1420.370933	-3.004500	3.509300	-10.541000	25.508198	0.000792	20.887913
1421.371746	-2.990200	3.508000	-10.488000	25.480172	0.000790	20.893908
1422.367656	-3.020200	3.507400	-10.592000	25.480476	0.000792	20.880938
1423.370522	-3.003100	3.506200	-10.529000	25.481446	0.000791	20.878118
1424.369739	-2.998900	3.506800	-10.514000	25.510156	0.000789	20.858587
1425.369965	-2.991900	3.506900	-10.492000	25.491253	0.000788	20.869001
1426.369521	-2.994400	3.505600	-10.496000	25.422973	0.000790	20.872033
1427.368400	-2.955300	3.506400	-10.361000	25.398394	0.000789	20.888128
1428.372019	-3.005600	3.504800	-10.533000	25.398875	0.000787	20.887663
1429.371028	-2.998600	3.504700	-10.508000	25.380408	0.000787	20.883819
1430.375111	-2.988200	3.504800	-10.472000	25.385393	0.000787	20.882660
1431.371373	-3.009500	3.505800	-10.550000	25.419391	0.000787	20.887401
1432.371137	-3.012100	3.503300	-10.550000	25.448027	0.000784	20.909041
1433.373334	-3.005000	3.503600	-10.527000	25.487648	0.000784	20.894302
1434.374320	-3.009000	3.504100	-10.543000	25.501375	0.000785	20.861622
1435.373900	-2.986500	3.505200	-10.467000	25.533060	0.000785	20.894862
1436.371433	-3.009600	3.502500	-10.540000	25.545404	0.000783	20.900620
1437.375656	-2.993300	3.501500	-10.481000	25.549635	0.000782	20.879267
1438.370524	-3.021900	3.501200	-10.580000	25.560563	0.000783	20.885499
1439.375199	-2.974000	3.503400	-10.418000	25.598283	0.000784	20.902516
1440.372697	-3.010700	3.500800	-10.539000	25.644710	0.000782	20.888929
1441.383971	-3.010900	3.500800	-10.538000	25.631576	0.000781	20.894230
1442.374699	-2.978200	3.501900	-10.428000	25.658419	0.000783	20.889421
1443.376943	-2.977100	3.501500	-10.424000	25.655216	0.000779	20.901850
1444.379787	-3.006000	3.499700	-10.518000	25.669033	0.000781	20.883961
1445.373687	-2.999800	3.499500	-10.497000	25.648758	0.000779	20.899632
1446.377738	-2.994900	3.500200	-10.482000	25.618148	0.000779	20.907294
1447.372810	-2.998800	3.497000	-10.485000	25.595201	0.000778	20.916489
1448.374030	-2.977000	3.501400	-10.423000	25.625796	0.000777	20.898855
1449.373425	-2.990400	3.498200	-10.460000	25.594477	0.000778	20.903436
1450.374735	-2.978800	3.499200	-10.422000	25.600859	0.000778	20.898940
1451.374393	-2.989000	3.497800	-10.454000	25.591822	0.000778	20.888917
1452.375418	-2.997500	3.497300	-10.483000	25.606264	0.000777	20.882085
1453.372935	-2.954400	3.499100	-10.336000	25.620605	0.000776	20.898383
1454.371217	-2.969300	3.498200	-10.386000	25.580138	0.000776	20.890459
1455.375844	-2.975600	3.497500	-10.406000	25.535513	0.000774	20.903489
1456.374592	-2.990300	3.496600	-10.455000	25.497868	0.000774	20.893660
1457.374886	-3.018100	3.495800	-10.549000	25.485474	0.000772	20.900179
1458.371842	-2.994500	3.496500	-10.470000	25.466571	0.000773	20.903482
1459.375513	-3.003500	3.495600	-10.497000	25.467905	0.000774	20.894865
1460.376130	-3.007800	3.494200	-10.507000	25.491868	0.000773	20.892376
1461.378153	-2.998300	3.496100	-10.481000	25.526335	0.000771	20.913237
1462.375685	-3.001200	3.493500	-10.484000	25.535433	0.000771	20.892029
1463.375345	-2.986100	3.493300	-10.430000	25.538890	0.000769	20.915887
1464.377440	-2.992900	3.493000	-10.453000	25.559606	0.000770	20.899710
1465.378175	-2.980400	3.493300	-10.410000	25.508792	0.000771	20.901310
1466.375853	-2.980900	3.494300	-10.415000	25.474232	0.000770	20.906907
1467.376199	-3.003500	3.492000	-10.486000	25.449957	0.000772	20.919514
1468.377236	-3.009000	3.493200	-10.508000	25.388134	0.000768	20.900110
1469.376150	-2.991900	3.491500	-10.444000	25.408220	0.000768	20.916484
1470.377844	-3.003500	3.491400	-10.486000	25.433753	0.000770	20.907985
1471.377409	-3.001200	3.491700	-10.478000	25.468425	0.000768	20.909136
1472.378897	-3.006000	3.491500	-10.494000	25.493231	0.000767	20.914132
1473.377701	-2.999300	3.490600	-10.469000	25.520305	0.000767	20.924724
1474.376907	-3.024900	3.490500	-10.557000	25.560253	0.000766	20.910316
1475.384070	-3.011700	3.488700	-10.506000	25.575387	0.000767	20.907023
1476.378799	-3.010500	3.489000	-10.503000	25.537296	0.000765	20.913339
1477.381412	-2.989700	3.488700	-10.429000	25.512610	0.000766	20.905145
1478.378570	-3.009000	3.487600	-10.493000	25.474181	0.000763	20.924872
1479.378780	-3.001900	3.487300	-10.468000	25.466221	0.000766	20.902182
1480.381773	-2.979200	3.489700	-10.395000	25.486660	0.000764	20.901370
1481.379023	-2.994900	3.486900	-10.441000	25.482917	0.000763	20.907568
1482.380529	-2.985100	3.487700	-10.410000	25.530783	0.000765	20.908221
1483.379857	-2.997000	3.486900	-10.449000	25.554567	0.000762	20.906028
1484.383981	-2.976100	3.486500	-10.374000	25.568243	0.000760	20.924502
1485.380994	-2.980500	3.485500	-10.387000	25.609124	0.000761	20.928575
1486.381032	-3.014200	3.485400	-10.505000	25.641388	0.000762	20.919729
1487.380538	-2.996500	3.486000	-10.445000	25.644069	0.000760	20.916258
1488.380137	-2.992600	3.485400	-10.429000	25.636575	0.000760	20.919636
1489.399437	-3.007400	3.484900	-10.479000	25.627656	0.000757	20.914946
1490.380646	-3.005700	3.484600	-10.473000	25.606699	0.000758	20.924243
1491.381970	-3.001700	3.484400	-10.458000	25.608099	0.000758	20.919012
1492.383830	-3.003900	3.483600	-10.463000	25.597342	0.000756	20.919588
1493.384689	-2.990300	3.482600	-10.413000	25.638872	0.000756	20.938536
1494.382374	-2.983900	3.482500	-10.390000	25.649840	0.000756	20.926320
1495.382212	-2.988700	3.482700	-10.407000	25.653154	0.000756	20.917796
1496.383667	-2.993400	3.482800	-10.424000	25.677763	0.000756	20.925916
1497.384201	-2.986700	3.482600	-10.401000	25.686438	0.000755	20.932731
1498.389345	-3.012100	3.480800	-10.483000	25.699285	0.000755	20.927618
1499.384994	-3.010300	3.480200	-10.476000	25.662355	0.000756	20.914709
1500.385146	-3.004400	3.480400	-10.456000	25.667582	0.000755	20.928493
1501.385561	-2.999900	3.479900	-10.438000	25.660973	0.000753	20.920433
1502.384947	-3.008800	3.477900	-10.463000	25.636376	0.000752	20.934134
1503.388062	-3.009800	3.478600	-10.468000	25.605655	0.000752	20.924143
1504.385038	-3.000000	3.478600	-10.435000	25.585759	0.000753	20.935454
1505.385033	-2.995800	3.479500	-10.423000	25.571773	0.000750	20.939899
1506.386449	-2.992700	3.479600	-10.412000	25.559136	0.000750	20.930054
1507.384483	-2.992800	3.477400	-10.406000	25.609738	0.000750	20.914495
1508.386344	-3.003100	3.478200	-10.444000	25.590762	0.000751	20.920091
1509.390282	-2.996700	3.478300	-10.422000	25.619839	0.000751	20.943128
1510.388516	-3.027500	3.476400	-10.524000	25.630926	0.000750	20.928186
1511.387199	-3.000800	3.478200	-10.436000	25.650453	0.000748	20.945425
1512.391380	-3.016700	3.474700	-10.481000	25.683179	0.000748	20.949845
1513.388319	-2.983200	3.476700	-10.371000	25.713848	0.000747	20.949829
1514.390203	-2.992900	3.475300	-10.400000	25.732537	0.000749	20.952953
1515.387049	-2.998200	3.475100	-10.417000	25.695944	0.000747	20.965982
1516.388911	-3.013200	3.475000	-10.470000	25.708464	0.000749	20.954852
1517.393395	-3.019200	3.473500	-10.486000	25.647119	0.000748	20.954404
1518.395034	-3.000700	3.474300	-10.424000	25.618457	0.000746	20.964022
1519.393775	-3.011000	3.472700	-10.456000	25.581717	0.000746	20.938033
1520.393064	-3.004300	3.472200	-10.430000	25.563491	0.000745	20.946280
1521.392466	-3.027900	3.471700	-10.510000	25.544834	0.000745	20.954095
1522.392010	-3.014700	3.470300	-10.461000	25.546909	0.000743	20.964712
1523.396338	-2.993600	3.473400	-10.398000	25.577515	0.000743	20.954199
1524.392744	-2.983100	3.472600	-10.358000	25.573738	0.000743	20.950407
1525.397405	-2.998600	3.470300	-10.404000	25.582373	0.000743	20.968085
1526.393816	-2.960700	3.472300	-10.280000	25.571716	0.000741	20.936998
1527.393968	-3.004100	3.470700	-10.425000	25.574695	0.000741	20.966064
1528.398964	-2.997700	3.471600	-10.405000	25.602205	0.000741	20.967139
1529.395772	-2.980000	3.471700	-10.343000	25.616479	0.000741	20.965354
1530.394439	-3.004300	3.468900	-10.421000	25.634875	0.000742	20.958701
1531.398838	-2.991900	3.469500	-10.378000	25.636748	0.000741	20.962004
1532.395069	-2.996200	3.468800	-10.392000	25.629042	0.000738	20.967066
1533.396934	-3.002800	3.468300	-10.414000	25.594217	0.000739	20.966229
1534.398177	-3.007300	3.468200	-10.429000	25.567610	0.000739	20.957527
1535.398917	-3.009600	3.467200	-10.434000	25.534579	0.000737	20.965606
1536.398276	-2.978600	3.467400	-10.327000	25.520449	0.000738	20.964218
1537.398815	-2.983400	3.467600	-10.344000	25.529100	0.000737	20.957734
1538.398365	-2.982700	3.468000	-10.343000	25.546427	0.000738	20.971813
1539.402280	-2.976400	3.467100	-10.318000	25.567641	0.000738	20.967041
1540.397777	-2.987500	3.467400	-10.358000	25.617499	0.000737	20.987712
1541.402211	-3.000400	3.467600	-10.403000	25.637296	0.000735	20.964925
1542.400194	-3.030200	3.464100	-10.495000	25.655920	0.000736	20.965138
1543.401767	-3.004100	3.464800	-10.408000	25.665371	0.000734	20.960881
1544.401716	-3.004400	3.464700	-10.408000	25.664513	0.000732	20.981826
1545.403044	-2.989900	3.463700	-10.354000	25.695502	0.000733	20.977865
1546.405406	-2.996000	3.465800	-10.382000	25.691111	0.000733	20.975826
1547.401077	-3.015700	3.461900	-10.438000	25.671882	0.000735	20.987331
1548.405185	-2.979100	3.464200	-10.319000	25.668023	0.000733	20.970181
1549.402533	-2.975200	3.464000	-10.305000	25.700058	0.000733	20.964426
1550.405165	-3.017600	3.463200	-10.449000	25.710732	0.000732	20.977041
1551.402781	-2.999000	3.462100	-10.382000	25.720250	0.000732	20.994659
1552.406664	-2.982400	3.462100	-10.323000	25.708340	0.000732	20.960891
1553.403830	-2.993600	3.461500	-10.361000	25.683482	0.000730	20.981439
1554.404644	-2.995700	3.461300	-10.368000	25.700537	0.000730	20.994773
1555.407500	-2.996300	3.460100	-10.367000	25.708217	0.000730	20.985419
1556.403189	-2.983000	3.461500	-10.323000	25.704130	0.000728	20.990796
1557.405376	-3.002000	3.460200	-10.386000	25.679449	0.000728	21.006307
1558.404893	-3.008400	3.459100	-10.406000	25.664444	0.000728	20.995505
1559.406236	-3.012900	3.457100	-10.415000	25.662194	0.000728	20.987084
1560.403978	-2.996200	3.459200	-10.364000	25.692636	0.000726	20.981624
1561.410218	-2.997300	3.459200	-10.367000	25.679335	0.000728	20.983438
1562.405238	-2.976100	3.459000	-10.293000	25.680121	0.000726	21.004612
1563.408277	-2.993700	3.457000	-10.349000	25.631480	0.000726	20.983737
1564.407479	-3.000300	3.456800	-10.371000	25.594817	0.000726	21.003811
1565.409509	-3.013300	3.455400	-10.410000	25.539882	0.000725	20.976620
1566.412147	-3.030500	3.456200	-10.472000	25.536917	0.000725	21.018679
1567.406295	-3.024100	3.454500	-10.445000	25.503698	0.000726	21.009029
1568.412709	-3.017100	3.456100	-10.427000	25.473774	0.000725	20.989888
1569.407690	-3.008400	3.455000	-10.393000	25.427941	0.000724	21.020671
1570.409325	-3.010200	3.454900	-10.399000	25.421822	0.000723	20.996039
1571.409043	-3.012600	3.455100	-10.408000	25.435896	0.000722	21.006850
1572.410877	-2.973400	3.454000	-10.269000	25.449599	0.000724	20.996430
1573.409109	-2.990700	3.453900	-10.329000	25.484280	0.000721	20.986214
1574.411028	-3.005600	3.452400	-10.375000	25.537862	0.000722	20.997821
1575.411129	-2.951600	3.454500	-10.195000	25.572962	0.000720	21.014102
1576.413362	-3.013100	3.451800	-10.400000	25.587009	0.000722	21.016829
1577.412448	-2.982600	3.451900	-10.295000	25.649362	0.000719	21.028716
1578.411129	-2.988900	3.452800	-10.319000	25.689129	0.000720	21.011761
1579.413657	-3.004400	3.450000	-10.364000	25.708570	0.000720	21.009477
1580.413776	-2.989300	3.451300	-10.315000	25.720650	0.000719	21.016868
1581.411391	-2.997800	3.451600	-10.346000	25.674463	0.000719	21.003196
1582.414383	-2.970500	3.450800	-10.250000	25.655903	0.000718	21.020588
1583.413215	-2.986400	3.451300	-10.306000	25.652573	0.000718	21.013926
1584.415206	-2.998700	3.451100	-10.347000	25.656005	0.000718	21.019742
1585.414386	-2.982100	3.451000	-10.290000	25.652415	0.000718	21.014715
1586.414976	-2.972500	3.450200	-10.255000	25.648623	0.000717	21.020388
1587.417449	-2.995400	3.448000	-10.328000	25.666664	0.000717	21.038504
1588.417290	-3.022600	3.448000	-10.421000	25.673755	0.000715	21.040884
1589.420883	-3.000500	3.448900	-10.348000	25.713495	0.000715	21.018690
1590.417470	-3.009700	3.447900	-10.377000	25.743412	0.000717	21.036408
1591.416391	-3.011600	3.447800	-10.383000	25.752822	0.000715	21.033059
1592.429517	-3.005000	3.446400	-10.355000	25.753345	0.000714	21.036902
1593.416909	-3.025000	3.445600	-10.422000	25.786169	0.000714	21.013928
1594.415988	-3.005000	3.446800	-10.357000	25.761313	0.000715	21.030682
1595.417127	-3.006500	3.445100	-10.357000	25.709159	0.000714	21.044201
1596.414138	-2.991100	3.445800	-10.306000	25.721645	0.000713	21.041096
1597.416524	-3.006500	3.445100	-10.357000	25.725305	0.000713	21.033394
1598.419340	-3.004100	3.443900	-10.344000	25.733685	0.000711	21.040387
1599.415533	-2.969700	3.445500	-10.230000	25.739349	0.000712	21.027113
1600.417065	-3.002700	3.443500	-10.339000	25.764606	0.000713	21.038256
1601.415020	-2.971500	3.444700	-10.235000	25.792644	0.000710	21.056932
1602.418107	-2.995000	3.444200	-10.314000	25.807251	0.000709	21.050744
1603.458457	-2.999900	3.443500	-10.328000	25.832785	0.000712	21.043204
1604.419218	-3.007500	3.442400	-10.352000	25.864318	0.000710	21.036001
1605.420100	-3.007500	3.441700	-10.349000	25.875570	0.000709	21.040191
1606.419703	-3.007900	3.443100	-10.356000	25.861557	0.000708	21.040339
1607.421390	-2.994500	3.441300	-10.303000	25.889800	0.000709	21.071075
1608.424993	-2.983900	3.442100	-10.270000	25.876721	0.000710	21.048932
1609.422781	-2.995000	3.442000	-10.307000	25.828257	0.000709	21.061410
1610.421172	-3.002900	3.439700	-10.328000	25.819207	0.000707	21.049951
1611.420744	-3.007000	3.440300	-10.343000	25.817293	0.000706	21.052770
1612.421274	-2.986000	3.440600	-10.273000	25.824257	0.000705	21.060711
1613.428336	-3.011500	3.439100	-10.356000	25.848070	0.000705	21.058555
1614.420850	-3.006900	3.437800	-10.335000	25.882998	0.000704	21.046230
1615.424094	-2.998300	3.438900	-10.310000	25.883388	0.000704	21.054206
1616.424937	-2.991500	3.437900	-10.283000	25.866802	0.000703	21.052244
1617.422600	-2.999800	3.437500	-10.311000	25.815480	0.000703	21.053319
1618.423196	-2.988800	3.439000	-10.278000	25.817824	0.000705	21.055674
1619.422869	-3.026700	3.435500	-10.396000	25.756638	0.000703	21.064859
1620.421854	-2.981000	3.438100	-10.248000	25.753495	0.000703	21.067392
1621.424457	-3.001700	3.437000	-10.317000	25.781599	0.000703	21.067647
1622.425133	-3.002600	3.436300	-10.316000	25.789802	0.000703	21.060240
1623.424193	-2.992700	3.435100	-10.279000	25.792628	0.000702	21.064501
1624.429021	-3.032800	3.434900	-10.416000	25.750946	0.000702	21.080002
1625.428413	-3.012100	3.434800	-10.346000	25.740881	0.000700	21.051880
1626.426624	-3.005200	3.435100	-10.322000	25.718780	0.000702	21.057655
1627.426220	-2.993000	3.433500	-10.276000	25.707344	0.000700	21.073665
1628.425929	-3.014200	3.433300	-10.348000	25.747403	0.000698	21.055585
1629.427811	-3.000200	3.434700	-10.303000	25.767356	0.000699	21.083207
1630.425605	-3.000000	3.433700	-10.300000	25.782192	0.000699	21.076774
1631.428352	-3.000000	3.433500	-10.299000	25.762477	0.000698	21.052236
1632.425519	-2.996000	3.431900	-10.280000	25.763903	0.000698	21.067415
1633.427079	-2.992800	3.432700	-10.272000	25.774837	0.000697	21.063699
1634.427206	-2.990200	3.432200	-10.261000	25.767066	0.000698	21.057792
1635.432110	-3.031700	3.429900	-10.397000	25.751995	0.000696	21.060197
1636.426077	-2.998900	3.433400	-10.295000	25.753229	0.000695	21.075183
1637.428219	-3.020000	3.429300	-10.355000	25.750396	0.000696	21.060013
1638.427444	-3.028200	3.429800	-10.385000	25.770308	0.000694	21.069581
1639.425554	-3.010800	3.430800	-10.328000	25.764390	0.000694	21.074066
1640.436348	-2.956400	3.432100	-10.146000	25.769872	0.000694	21.063928
1641.427923	-2.995500	3.429400	-10.272000	25.752096	0.000693	21.074994
1642.428861	-3.016400	3.427900	-10.339000	25.739284	0.000692	21.055491
1643.426255	-3.009800	3.428000	-10.317000	25.731833	0.000695	21.052275
1644.428973	-2.984200	3.428800	-10.232000	25.770703	0.000693	21.058601
1645.430850	-2.993400	3.427800	-10.259000	25.799051	0.000693	21.048197
1646.438827	-3.007700	3.428500	-10.310000	25.804548	0.000691	21.050399
1647.427421	-2.989600	3.427400	-10.245000	25.818094	0.000690	21.045516
1648.429631	-3.000300	3.428500	-10.286000	25.792706	0.000689	21.036136
1649.427976	-2.992300	3.428700	-10.259000	25.769358	0.000689	21.047768
1650.429801	-2.999200	3.427800	-10.280000	25.735827	0.000690	21.050123
1651.437811	-2.993200	3.426100	-10.254000	25.701453	0.000689	21.051158
1652.431570	-2.983100	3.427000	-10.222000	25.678727	0.000689	21.058676
1653.436587	-3.002100	3.427000	-10.287000	25.694787	0.000688	21.050154
1654.431657	-3.011500	3.423100	-10.308000	25.711488	0.000688	21.047488
1655.433614	-2.998800	3.424500	-10.267000	25.697681	0.000688	21.063014
1656.434802	-3.005500	3.424500	-10.291000	25.730685	0.000686	21.037374
1657.433128	-2.990600	3.423700	-10.238000	25.746019	0.000687	21.040448
1658.433041	-2.984800	3.424400	-10.220000	25.779864	0.000686	21.044572
1659.434586	-3.001100	3.423600	-10.273000	25.778768	0.000684	21.035886
1660.440655	-3.001100	3.423700	-10.273000	25.785564	0.000686	21.027067
1661.437765	-2.991900	3.422400	-10.238000	25.828554	0.000686	21.022362
1662.440885	-3.014100	3.421200	-10.310000	25.841704	0.000686	21.044576
1663.437140	-3.020000	3.421700	-10.333000	25.838029	0.000683	21.040886
1664.437402	-3.009300	3.422200	-10.297000	25.872267	0.000683	21.031186
1665.437378	-2.981800	3.422600	-10.205000	25.866705	0.000685	21.052146
1666.436849	-3.001000	3.420000	-10.263000	25.877175	0.000682	21.040855
1667.439637	-2.993700	3.420700	-10.239000	25.853499	0.000682	21.017550
1668.439132	-3.036600	3.419000	-10.382000	25.846581	0.000682	21.030038
1669.441140	-3.003800	3.419900	-10.271000	25.829304	0.000681	21.033545
1670.440348	-3.014300	3.419700	-10.307000	25.840531	0.000681	21.027755
1671.443171	-3.003500	3.418500	-10.267000	25.845637	0.000680	21.027668
1672.442549	-3.009300	3.419000	-10.288000	25.858046	0.000681	21.035391
1673.444348	-3.002600	3.418000	-10.263000	25.868516	0.000679	21.026944
1674.443812	-3.010600	3.417000	-10.286000	25.872531	0.000679	21.010117
1675.444414	-2.997900	3.417400	-10.244000	25.885107	0.000679	21.008527
1676.448087	-3.009300	3.416400	-10.280000	25.901525	0.000679	21.024543
1677.446357	-2.997800	3.417400	-10.242000	25.908666	0.000677	21.014649
1678.449967	-2.974700	3.417200	-10.164000	25.921841	0.000679	21.026934
1679.445704	-3.008400	3.415400	-10.274000	25.943105	0.000677	21.023641
1680.442104	-3.007000	3.415200	-10.268000	25.937096	0.000677	21.027087
1681.445782	-3.007500	3.415800	-10.272000	25.908407	0.000676	21.018656
1682.444031	-2.991000	3.415000	-10.212000	25.926951	0.000676	21.010260
1683.444899	-3.004700	3.414500	-10.259000	25.949682	0.000676	21.035936
1684.444850	-3.009800	3.414200	-10.275000	25.943034	0.000674	21.013614
1685.446154	-2.984900	3.414800	-10.191000	25.939765	0.000675	21.013650
1686.447566	-2.992300	3.413400	-10.212000	25.958365	0.000676	21.008155
1687.449028	-2.989300	3.414200	-10.205000	25.968935	0.000673	21.008343
1688.447229	-3.000200	3.413400	-10.240000	25.944226	0.000672	21.015760
1689.446285	-2.993100	3.413800	-10.218000	25.931392	0.000673	21.041268
1690.444659	-2.988500	3.414300	-10.202000	25.901043	0.000672	21.016474
1691.447024	-2.966100	3.414000	-10.124000	25.879737	0.000671	20.985593
1692.450025	-3.010900	3.411400	-10.269000	25.883589	0.000671	21.017906
1693.448244	-3.000800	3.411500	-10.236000	25.862218	0.000673	21.011611
1694.449308	-2.979300	3.411500	-10.163000	25.856579	0.000671	21.012584
1695.445982	-3.017400	3.410800	-10.292000	25.844611	0.000672	21.005305
1696.447640	-2.997500	3.410800	-10.223000	25.840551	0.000672	20.992694
1697.447787	-3.003000	3.409900	-10.238000	25.851088	0.000670	20.995217
1698.447520	-2.995000	3.409000	-10.209000	25.857721	0.000669	20.982917
1699.450884	-3.005800	3.410100	-10.249000	25.880539	0.000669	21.004887
1700.450353	-3.008000	3.409900	-10.256000	25.882387	0.000669	21.003898
1701.449419	-3.019000	3.408800	-10.290000	25.892425	0.000667	21.002604
1702.450859	-3.036500	3.407100	-10.345000	25.882001	0.000669	21.001615
1703.452041	-3.016500	3.407700	-10.279000	25.879946	0.000668	21.018987
1704.452534	-2.985700	3.407900	-10.174000	25.883554	0.000666	21.009338
1705.453089	-3.018700	3.406100	-10.281000	25.885082	0.000668	21.002813
1706.453222	-2.997400	3.407100	-10.212000	25.874277	0.000667	21.012819
1707.453837	-3.016100	3.406300	-10.273000	25.847535	0.000665	20.994494
1708.456202	-3.020500	3.405000	-10.284000	25.801353	0.000664	20.984140
1709.454592	-2.993600	3.407700	-10.200000	25.752312	0.000664	21.006947
1710.457104	-2.999700	3.405800	-10.215000	25.710538	0.000664	20.999602
1711.461720	-3.013700	3.403700	-10.257000	25.655903	0.000663	20.999255
1712.459249	-2.989300	3.405400	-10.179000	25.671289	0.000663	20.995269
1713.455547	-2.990600	3.405200	-10.182000	25.667294	0.000663	20.991731
1714.457817	-2.988700	3.404600	-10.174000	25.699228	0.000662	20.985400
1715.454784	-2.965800	3.405500	-10.099000	25.693640	0.000661	21.003017
1716.460784	-3.004700	3.403100	-10.224000	25.689797	0.000662	20.963128
1717.461385	-3.004200	3.402900	-10.222000	25.685751	0.000660	20.971866
1718.457597	-2.990200	3.403800	-10.176000	25.704838	0.000660	20.979655
1719.459054	-2.993400	3.404000	-10.188000	25.745521	0.000661	20.993490
1720.459219	-3.012700	3.402900	-10.251000	25.767083	0.000659	20.985752
1721.463017	-3.013900	3.401700	-10.250000	25.787787	0.000659	20.985686
1722.461553	-2.986100	3.401400	-10.156000	25.752191	0.000661	20.989759
1723.466344	-3.011700	3.400700	-10.241000	25.753582	0.000659	20.967451
1724.463681	-2.984200	3.401200	-10.149000	25.756247	0.000658	20.994306
1725.463648	-3.014400	3.400800	-10.250000	25.764089	0.000657	20.996019
1726.463185	-3.015100	3.399400	-10.249000	25.804455	0.000656	20.982515
1727.464838	-2.999600	3.399300	-10.195000	25.795294	0.000657	20.971892
1728.465108	-3.014000	3.399300	-10.245000	25.788848	0.000656	20.984855
1729.466098	-2.989400	3.399900	-10.162000	25.790813	0.000656	20.984932
1730.468641	-2.987700	3.400700	-10.159000	25.773078	0.000657	20.978973
1731.466867	-2.988200	3.400300	-10.160000	25.723498	0.000656	20.987491
1732.466145	-2.998600	3.398400	-10.189000	25.712026	0.000654	20.975496
1733.466716	-3.006000	3.397700	-10.212000	25.679453	0.000652	20.993037
1734.466373	-3.011600	3.396600	-10.228000	25.680615	0.000654	20.985197
1735.470418	-2.980400	3.397600	-10.126000	25.659458	0.000654	20.969639
1736.468346	-2.991500	3.397900	-10.164000	25.674600	0.000653	20.973468
1737.469025	-2.981100	3.397300	-10.126000	25.668311	0.000652	20.986589
1738.469038	-3.007500	3.397000	-10.215000	25.711422	0.000650	20.974890
1739.473015	-3.001900	3.395600	-10.193000	25.727853	0.000650	20.994235
1740.470469	-2.983600	3.396800	-10.134000	25.746695	0.000650	20.976180
1741.466985	-3.007600	3.396500	-10.213000	25.719570	0.000648	20.969324
1742.472736	-2.997600	3.394900	-10.176000	25.728386	0.000650	20.983393
1743.468081	-2.991800	3.397000	-10.161000	25.718382	0.000649	20.954856
1744.470615	-3.002700	3.394100	-10.191000	25.721138	0.000646	20.973269
1745.470492	-3.004600	3.394100	-10.197000	25.715905	0.000645	20.978918
1746.468916	-3.017100	3.393500	-10.237000	25.728534	0.000649	20.984489
1747.472281	-2.964100	3.395600	-10.063000	25.749188	0.000646	20.989113
1748.472261	-2.995400	3.393800	-10.164000	25.770547	0.000646	20.998712
1749.471144	-3.010600	3.391100	-10.208000	25.805472	0.000646	20.970736
1750.470824	-2.979200	3.394300	-10.110000	25.827708	0.000643	20.959409
1751.476004	-2.993900	3.392100	-10.155000	25.823597	0.000644	20.963814
1752.470280	-3.004200	3.390600	-10.185000	25.829515	0.000645	20.983980
1753.470926	-3.002800	3.390800	-10.181000	25.831748	0.000644	20.984801
1754.470656	-3.013300	3.391100	-10.216000	25.825267	0.000642	20.970706
1755.474707	-3.018900	3.390800	-10.236000	25.780983	0.000644	20.958467
1756.472940	-2.995300	3.389600	-10.152000	25.759294	0.000643	20.967026
1757.471757	-2.991000	3.391900	-10.144000	25.774461	0.000641	20.981784
1758.469590	-3.014800	3.389800	-10.218000	25.775684	0.000642	20.976849
1759.472093	-2.962900	3.390600	-10.044000	25.807437	0.000640	20.971288
1760.473643	-2.998400	3.389400	-10.162000	25.807503	0.000640	20.972302
1761.473724	-2.980900	3.389900	-10.104000	25.865490	0.000639	20.972231
1762.473870	-2.981200	3.388700	-10.101000	25.879955	0.000637	20.970641
1763.477293	-2.980900	3.389100	-10.102000	25.887035	0.000638	20.966374
1764.476493	-2.977300	3.388200	-10.087000	25.863649	0.000638	20.970855
1765.473377	-2.988500	3.387400	-10.121000	25.858289	0.000639	20.965472
1766.480299	-2.978500	3.387700	-10.090000	25.852011	0.000638	20.960589
1767.471989	-2.968000	3.388600	-10.056000	25.845632	0.000637	20.977411
1768.474648	-3.009500	3.385800	-10.189000	25.812819	0.000638	20.975270
1769.476839	-3.011300	3.387000	-10.197000	25.831350	0.000637	20.962593
1770.476188	-3.011000	3.385400	-10.191000	25.878500	0.000637	20.973920
1771.475556	-3.012700	3.385400	-10.197000	25.900602	0.000635	20.972891
1772.476997	-3.000600	3.386300	-10.160000	25.908322	0.000634	20.967370
1773.475777	-3.014000	3.386600	-10.205000	25.921431	0.000633	20.952567
1774.476012	-3.002300	3.384000	-10.158000	25.959924	0.000635	20.959469
1775.476470	-2.991900	3.385500	-10.128000	25.991672	0.000634	20.969078
1776.473017	-3.034800	3.383600	-10.267000	25.976032	0.000634	20.962375
1777.477920	-2.985800	3.384300	-10.103000	26.005709	0.000632	20.963268
1778.473827	-2.993300	3.384200	-10.129000	26.005349	0.000632	20.972388
1779.477885	-3.009200	3.382700	-10.178000	26.014377	0.000631	20.975294
1780.475254	-2.990300	3.384200	-10.118000	26.021913	0.000633	20.939248
1781.474410	-2.977400	3.383000	-10.071000	26.029221	0.000631	20.967449
1782.478185	-3.014000	3.382000	-10.192000	26.057126	0.000631	20.957081
1783.477424	-2.998200	3.382600	-10.141000	26.018819	0.000630	20.961266
1784.477201	-3.026700	3.380500	-10.231000	26.051280	0.000630	20.955001
1785.479007	-3.001900	3.382100	-10.152000	26.045932	0.000629	20.980444
1786.476216	-3.004600	3.379400	-10.152000	26.055483	0.000630	20.957327
1787.476263	-3.003100	3.381700	-10.154000	26.035815	0.000627	20.949420
1788.484121	-3.017500	3.378700	-10.194000	26.032263	0.000626	20.965290
1789.477510	-3.002000	3.381700	-10.151000	26.027737	0.000627	20.949365
1790.483218	-3.001900	3.379600	-10.144000	25.972835	0.000628	20.955371
1791.475059	-3.012700	3.378400	-10.177000	25.926709	0.000628	20.946016
1792.480479	-2.976100	3.378600	-10.053000	25.937600	0.000625	20.944630
1793.482824	-2.990000	3.377900	-10.100000	25.917225	0.000626	20.965883
1794.480682	-3.002800	3.378100	-10.143000	25.929522	0.000624	20.970175
1795.478227	-3.002200	3.378100	-10.140000	25.931151	0.000624	20.974657
1796.479306	-3.001100	3.376900	-10.134000	25.974968	0.000623	20.946135
1797.481341	-2.980500	3.377500	-10.066000	25.958652	0.000625	20.967673
1798.480642	-2.991800	3.376100	-10.100000	25.947310	0.000623	20.954384
1799.481511	-2.986800	3.377100	-10.085000	25.947027	0.000624	20.971640
1800.480698	-2.990400	3.376000	-10.095000	25.938622	0.000620	20.947553
1801.481295	-2.985600	3.376600	-10.081000	25.927403	0.000622	20.942920
1802.482129	-3.010600	3.375900	-10.163000	25.913193	0.000621	20.937654
1803.484347	-2.994500	3.376500	-10.110000	25.940004	0.000621	20.963638
1804.486268	-2.993000	3.375800	-10.102000	25.936787	0.000622	20.953295
1805.485220	-2.986400	3.376600	-10.082000	25.946775	0.000621	20.938675
1806.484342	-3.016700	3.373600	-10.176000	25.984044	0.000620	20.964261
1807.483870	-3.020200	3.372800	-10.185000	25.953378	0.000619	20.928240
1808.482762	-3.013000	3.372000	-10.159000	25.941310	0.000619	20.955942
1809.485992	-3.004000	3.373700	-10.134000	25.878166	0.000616	20.944666
1810.485607	-3.000300	3.372500	-10.118000	25.854501	0.000619	20.941755
1811.483780	-3.009200	3.373000	-10.149000	25.838732	0.000616	20.953414
1812.484730	-3.011500	3.372300	-10.155000	25.861424	0.000615	20.934961
1813.486330	-3.000600	3.371700	-10.117000	25.864089	0.000616	20.937637
1814.490108	-2.993700	3.372200	-10.095000	25.887699	0.000616	20.942863
1815.487136	-3.029400	3.370700	-10.210000	25.892967	0.000615	20.964274
1816.488437	-3.020000	3.369200	-10.174000	25.914892	0.000616	20.955481
1817.486300	-2.999400	3.369600	-10.106000	25.915608	0.000613	20.958570
1818.489532	-2.980300	3.370200	-10.043000	25.945327	0.000615	20.920627
1819.485796	-3.005500	3.369400	-10.126000	25.957456	0.000614	20.931389
1820.490257	-3.018500	3.369700	-10.170000	25.980644	0.000613	20.953259
1821.489445	-3.016700	3.368200	-10.160000	26.018896	0.000613	20.933847
1822.490727	-3.011500	3.368400	-10.143000	26.022454	0.000613	20.946902
1823.489956	-3.003200	3.369600	-10.119000	25.992133	0.000612	20.934933
1824.488413	-3.007800	3.368900	-10.133000	25.947679	0.000612	20.958072
1825.492195	-2.991400	3.370100	-10.080000	25.919832	0.000610	20.950961
1826.489779	-3.005100	3.367100	-10.118000	25.921234	0.000611	20.943361
1827.488840	-3.006500	3.367100	-10.123000	25.927841	0.000610	20.937197
1828.488534	-2.999300	3.367900	-10.100000	25.940443	0.000610	20.933262
1829.489100	-3.009300	3.367700	-10.133000	25.929177	0.000610	20.920997
1830.489023	-3.003300	3.367300	-10.112000	25.886698	0.000608	20.939961
1831.493401	-3.026300	3.366900	-10.188000	25.908101	0.000609	20.932540
1832.489465	-2.996400	3.366300	-10.086000	25.926599	0.000609	20.935475
1833.491463	-2.968400	3.367700	-9.995200	25.951508	0.000608	20.937740
1834.493668	-2.978200	3.367400	-10.027000	25.973929	0.000607	20.937980
1835.488669	-2.977500	3.366400	-10.023000	26.011583	0.000606	20.932189
1836.491365	-3.002900	3.366400	-10.108000	26.022219	0.000606	20.923436
1837.489281	-3.010000	3.365300	-10.128000	26.042624	0.000605	20.932557
1838.488394	-2.996300	3.365000	-10.081000	26.053108	0.000605	20.924599
1839.490205	-3.005900	3.364400	-10.112000	26.044665	0.000604	20.923702
1840.490245	-2.992000	3.364900	-10.066000	26.050988	0.000604	20.916780
1841.492298	-3.006400	3.362100	-10.106000	26.041255	0.000604	20.932130
1842.494626	-2.996300	3.364700	-10.080000	25.991089	0.000601	20.931039
1843.492741	-2.995900	3.362700	-10.073000	25.972530	0.000603	20.922352
1844.491087	-3.008600	3.363600	-10.118000	25.953368	0.000602	20.935342
1845.491784	-2.994900	3.361900	-10.066000	25.916900	0.000602	20.917199
1846.494967	-2.992400	3.362100	-10.060000	25.919829	0.000600	20.934365
1847.494913	-3.014600	3.362000	-10.134000	25.922088	0.000599	20.916247
1848.496233	-3.017900	3.360900	-10.142000	25.913374	0.000601	20.917450
1849.497359	-3.002100	3.361400	-10.090000	25.934115	0.000600	20.925958
1850.496210	-3.014800	3.359400	-10.127000	25.939841	0.000599	20.912271
1851.499246	-3.001300	3.358700	-10.079000	25.923002	0.000599	20.902942
1852.497237	-2.972400	3.359600	-9.985000	25.958948	0.000599	20.923405
1853.496150	-3.005600	3.359200	-10.095000	26.002084	0.000597	20.907001
1854.497868	-3.020500	3.357900	-10.141000	26.004825	0.000598	20.914495
1855.499799	-2.994600	3.360300	-10.061000	26.006687	0.000596	20.917789
1856.501293	-3.014300	3.358500	-10.122000	25.947602	0.000597	20.904896
1857.500165	-3.008000	3.358400	-10.101000	25.938021	0.000596	20.897642
1858.500633	-2.995000	3.356900	-10.053000	25.956834	0.000594	20.893784
1859.501552	-2.996700	3.357400	-10.059000	25.960788	0.000593	20.905341
1860.499067	-3.022100	3.357300	-10.145000	25.988273	0.000595	20.923944
1861.500806	-3.003500	3.355900	-10.078000	25.983042	0.000594	20.907784
1862.502191	-3.012100	3.356200	-10.109000	25.998972	0.000593	20.900556
1863.501148	-2.994600	3.356100	-10.049000	25.995196	0.000590	20.899133
1864.498813	-2.974000	3.357300	-9.983900	25.995080	0.000591	20.905654
1865.500227	-2.983400	3.356400	-10.013000	25.996329	0.000591	20.892211
1866.502169	-2.983600	3.357100	-10.015000	25.984094	0.000592	20.904100
1867.503652	-2.989500	3.356300	-10.033000	26.002039	0.000591	20.890836
1868.508947	-3.006300	3.354500	-10.084000	26.029741	0.000591	20.895435
1869.502910	-3.009700	3.354800	-10.096000	26.012995	0.000589	20.907532
1870.504569	-3.003000	3.354400	-10.073000	25.995965	0.000590	20.917448
1871.504568	-3.005600	3.353600	-10.077000	26.002801	0.000589	20.900136
1872.505867	-2.995900	3.353800	-10.047000	26.005161	0.000589	20.872163
1873.506158	-3.009300	3.352700	-10.088000	26.019761	0.000590	20.909588
1874.504568	-3.001200	3.353500	-10.063000	26.036827	0.000589	20.894493
1875.505972	-3.004600	3.352100	-10.071000	26.025639	0.000589	20.918811
1876.507176	-3.001800	3.351800	-10.061000	26.026481	0.000588	20.907805
1877.507597	-3.010300	3.352400	-10.091000	25.989844	0.000586	20.916040
1878.507216	-3.001700	3.352700	-10.063000	25.983262	0.000586	20.892834
1879.508857	-3.009200	3.351300	-10.084000	25.977635	0.000583	20.900456
1880.508082	-2.976300	3.352400	-9.976200	25.962710	0.000587	20.900635
1881.508905	-3.020600	3.351000	-10.121000	25.928805	0.000584	20.882695
1882.508941	-2.998100	3.349300	-10.041000	25.894361	0.000585	20.901670
1883.512395	-2.995900	3.349400	-10.033000	25.913099	0.000584	20.896313
1884.511501	-3.022100	3.348900	-10.119000	25.897854	0.000585	20.883843
1885.513330	-3.016500	3.348800	-10.101000	25.928953	0.000583	20.875258
1886.513795	-2.996900	3.349800	-10.038000	25.929193	0.000582	20.893515
1887.514841	-3.000300	3.348400	-10.044000	25.888806	0.000583	20.882815
1888.515791	-2.982800	3.348900	-9.988300	25.863354	0.000581	20.892808
1889.514955	-2.984100	3.349900	-9.994400	25.891228	0.000579	20.904686
1890.515125	-2.997300	3.346900	-10.031000	25.921089	0.000581	20.897702
1891.514503	-2.984700	3.349000	-9.995300	25.939035	0.000582	20.892024
1892.514993	-3.019600	3.346900	-10.105000	25.932783	0.000578	20.875313
1893.514190	-2.999600	3.347700	-10.040000	25.964086	0.000579	20.881629
1894.515345	-2.999200	3.347300	-10.037000	25.949531	0.000578	20.883128
1895.517044	-2.975800	3.348000	-9.962000	25.997082	0.000578	20.889649
1896.520794	-2.995300	3.345800	-10.021000	26.009824	0.000578	20.893916
1897.518279	-2.994500	3.346000	-10.018000	26.031722	0.000576	20.878460
1898.515952	-2.996100	3.345900	-10.024000	26.025217	0.000578	20.882829
1899.518375	-3.025900	3.342500	-10.112000	26.070035	0.000576	20.882340
1900.521080	-2.989200	3.346100	-10.001000	26.065392	0.000576	20.876254
1901.522396	-2.996200	3.344900	-10.021000	26.124953	0.000575	20.879674
1902.520525	-2.996700	3.345300	-10.024000	26.134554	0.000575	20.867511
1903.516962	-3.006000	3.343900	-10.050000	26.150100	0.000575	20.876020
1904.517151	-3.001300	3.343000	-10.033000	26.133737	0.000574	20.870484
1905.523460	-3.003500	3.342900	-10.039000	26.112208	0.000575	20.881093
1906.518998	-2.992000	3.342900	-10.001000	26.114121	0.000572	20.881119
1907.518103	-2.958000	3.344900	-9.893100	26.098904	0.000573	20.882424
1908.522778	-3.008400	3.342500	-10.055000	26.114019	0.000574	20.872482
1909.521449	-3.007700	3.341500	-10.049000	26.076264	0.000571	20.898081
1910.524018	-3.001400	3.342200	-10.030000	26.058124	0.000571	20.866107
1911.521696	-3.001400	3.341300	-10.028000	25.993049	0.000569	20.886546
1912.523018	-2.971400	3.341200	-9.927000	25.966314	0.000571	20.878179
1913.525521	-2.995700	3.340300	-10.006000	25.925813	0.000570	20.879215
1914.523380	-2.985100	3.339700	-9.968600	25.921550	0.000569	20.888209
1915.526809	-2.999100	3.340400	-10.017000	25.956654	0.000570	20.864207
1916.524342	-3.008100	3.340700	-10.048000	26.010786	0.000568	20.878763
1917.525566	-2.994400	3.339500	-9.999300	26.018297	0.000567	20.872085
1918.523818	-2.990500	3.339700	-9.985900	25.983998	0.000569	20.871764
1919.525879	-3.008000	3.339800	-10.045000	25.992722	0.000569	20.868675
1920.523977	-3.001100	3.338600	-10.017000	25.995848	0.000567	20.874660
1921.527276	-3.014200	3.338500	-10.061000	26.039200	0.000567	20.873172
1922.528962	-3.014900	3.337200	-10.060000	26.081415	0.000565	20.870068
1923.525994	-3.007100	3.338200	-10.036000	26.116717	0.000564	20.883727
1924.528724	-2.998300	3.336700	-10.003000	26.125439	0.000565	20.898180
1925.536653	-2.995600	3.336700	-9.994800	26.138688	0.000564	20.880674
1926.533969	-2.993100	3.337300	-9.987800	26.196165	0.000564	20.869204
1927.530976	-3.017500	3.336000	-10.066000	26.147411	0.000562	20.884697
1928.533104	-3.017700	3.334800	-10.062000	26.176678	0.000563	20.871906
1929.530827	-3.003600	3.335700	-10.018000	26.156181	0.000562	20.888767
1930.531012	-3.021100	3.333300	-10.069000	26.159636	0.000563	20.896980
1931.539932	-3.001900	3.334200	-10.008000	26.188217	0.000562	20.874966
1932.530637	-3.017400	3.334100	-10.059000	26.182576	0.000561	20.889212
1933.531161	-3.021300	3.332700	-10.068000	26.197153	0.000559	20.885842
1934.531754	-3.003100	3.333200	-10.009000	26.168979	0.000559	20.890248
1935.530273	-3.015900	3.331800	-10.047000	26.164515	0.000560	20.898089
1936.533189	-3.009500	3.332200	-10.027000	26.166235	0.000558	20.875638
1937.531751	-2.992200	3.332800	-9.970900	26.170635	0.000557	20.871998
1938.531846	-2.984500	3.333100	-9.945500	26.194594	0.000558	20.881375
1939.532481	-3.004600	3.332100	-10.009000	26.169778	0.000557	20.886783
1940.533752	-2.993200	3.332800	-9.975100	26.167938	0.000558	20.883986
1941.533404	-3.009100	3.333100	-10.029000	26.147136	0.000556	20.903385
1942.537475	-2.969600	3.333400	-9.897600	26.182613	0.000556	20.889249
1943.533459	-2.985600	3.331900	-9.946300	26.189782	0.000555	20.885548
1944.537004	-2.997500	3.331400	-9.984400	26.191934	0.000555	20.890555
1945.535517	-3.005900	3.331000	-10.011000	26.218587	0.000554	20.897897
1946.536265	-2.994100	3.329200	-9.965800	26.216899	0.000553	20.887193
1947.537866	-2.995700	3.328900	-9.971200	26.229360	0.000554	20.888334
1948.534729	-2.988000	3.329200	-9.946800	26.237951	0.000552	20.873261
1949.537491	-3.001500	3.329200	-9.990400	26.233487	0.000553	20.893430
1950.534589	-2.998200	3.328400	-9.978200	26.227505	0.000551	20.903065
1951.539750	-3.017100	3.329000	-10.044000	26.207699	0.000553	20.914455
1952.540476	-2.996600	3.328000	-9.972000	26.195405	0.000551	20.878871
1953.541882	-3.011100	3.326600	-10.016000	26.169348	0.000551	20.904368
1954.538621	-2.993900	3.327800	-9.961900	26.202276	0.000548	20.900472
1955.538379	-3.006400	3.328000	-10.004000	26.192302	0.000550	20.890925
1956.539566	-2.987100	3.326800	-9.935400	26.176844	0.000550	20.881556
1957.536447	-2.971800	3.326100	-9.883200	26.193486	0.000549	20.892588
1958.540355	-3.028000	3.324000	-10.064000	26.202767	0.000549	20.895750
1959.538805	-2.992400	3.324700	-9.948100	26.184619	0.000547	20.909281
1960.540867	-3.001400	3.324900	-9.978400	26.182144	0.000549	20.907268
1961.541830	-3.013600	3.325900	-10.021000	26.214546	0.000545	20.892414
1962.538344	-2.992200	3.324300	-9.946300	26.216702	0.000545	20.907381
1963.545401	-2.999600	3.323600	-9.967000	26.233049	0.000547	20.896783
1964.546275	-3.004200	3.323500	-9.982900	26.217566	0.000546	20.879803
1965.542324	-2.989400	3.324100	-9.935800	26.227689	0.000544	20.906094
1966.538488	-3.004500	3.322500	-9.981300	26.242559	0.000545	20.906813
1967.538337	-2.993400	3.323800	-9.948300	26.245757	0.000541	20.906707
1968.540783	-2.998100	3.322800	-9.961400	26.263520	0.000544	20.914125
1969.542517	-2.990400	3.323500	-9.937700	26.226397	0.000541	20.895314
1970.540259	-3.001400	3.322800	-9.971700	26.211553	0.000541	20.910741
1971.541739	-3.011500	3.323800	-10.009000	26.148730	0.000543	20.888867
1972.539933	-3.013800	3.321700	-10.009000	26.137212	0.000540	20.910483
1973.541749	-3.003200	3.322300	-9.977300	26.149300	0.000543	20.885173
1974.545261	-2.972600	3.322800	-9.876400	26.153765	0.000541	20.883021
1975.541585	-3.000000	3.319900	-9.958000	26.203717	0.000539	20.903816
1976.542540	-2.985100	3.320100	-9.910000	26.222322	0.000540	20.915399
1977.541160	-2.986100	3.319300	-9.911000	26.187990	0.000537	20.907927
1978.544002	-3.009900	3.318900	-9.988600	26.214871	0.000538	20.917395
1979.549405	-3.028600	3.317100	-10.046000	26.240478	0.000538	20.908989
1980.544695	-3.001200	3.319400	-9.961300	26.252615	0.000538	20.910280
1981.549544	-3.004200	3.318400	-9.968800	26.294302	0.000537	20.909974
1982.544598	-3.009000	3.317800	-9.981800	26.282442	0.000536	20.906115
1983.545397	-3.011200	3.317300	-9.988100	26.271782	0.000535	20.922902
1984.547623	-3.002200	3.318000	-9.960000	26.241506	0.000534	20.900539
1985.544133	-2.987600	3.317300	-9.909700	26.246899	0.000534	20.905485
1986.546329	-2.985300	3.316300	-9.898100	26.233420	0.000534	20.909482
1987.549274	-2.998400	3.317100	-9.945300	26.210056	0.000533	20.903548
1988.548376	-3.009500	3.315800	-9.978000	26.192863	0.000532	20.918987
1989.546750	-2.992700	3.316200	-9.923400	26.159782	0.000531	20.935529
1990.551265	-3.009200	3.315000	-9.974600	26.118844	0.000531	20.913837
1991.543291	-2.999700	3.316100	-9.946700	26.128852	0.000532	20.942382
1992.547296	-3.023500	3.315000	-10.022000	26.147078	0.000530	20.910438
1993.543813	-3.028000	3.313400	-10.032000	26.167354	0.000529	20.917062
1994.543576	-3.009500	3.315200	-9.976100	26.204261	0.000527	20.910526
1995.545645	-3.003800	3.312900	-9.949900	26.192247	0.000527	20.911256
1996.547739	-3.009300	3.314500	-9.973300	26.206617	0.000529	20.939443
1997.546404	-2.993000	3.312800	-9.913600	26.165997	0.000527	20.937507
1998.546365	-2.984700	3.313000	-9.887600	26.167732	0.000530	20.925027
1999.545463	-2.983100	3.312700	-9.880900	26.151228	0.000527	20.914608
2000.549234	-2.993200	3.312100	-9.912900	26.145464	0.000526	20.917825
2001.547643	-3.008400	3.311400	-9.961400	26.125747	0.000525	20.926935
2002.547036	-2.976700	3.313200	-9.861300	26.163062	0.000526	20.932661
2003.544754	-2.962100	3.313700	-9.814800	26.218458	0.000524	20.927636
2004.546156	-3.003700	3.311500	-9.946200	26.216124	0.000524	20.922446
2005.550187	-2.996400	3.311400	-9.920900	26.277245	0.000523	20.913694
2006.547556	-3.009300	3.311300	-9.964100	26.284028	0.000524	20.941371
2007.549810	-2.996700	3.311700	-9.923500	26.316888	0.000523	20.926980
2008.549415	-2.995400	3.311400	-9.917800	26.319411	0.000523	20.920507
2009.546542	-2.994400	3.308800	-9.907500	26.310382	0.000523	20.945569
2010.547974	-2.996600	3.310500	-9.918400	26.304720	0.000519	20.934191
2011.549930	-3.006400	3.308000	-9.945000	26.333014	0.000520	20.933702
2012.547867	-3.013100	3.307100	-9.963800	26.343354	0.000520	20.944567
2013.550546	-3.024800	3.307200	-10.003000	26.376201	0.000519	20.911201
2014.547024	-3.005700	3.307300	-9.940500	26.373229	0.000519	20.936186
2015.550313	-3.008800	3.307900	-9.951600	26.316218	0.000519	20.935315
2016.552235	-2.999700	3.306900	-9.918400	26.296004	0.000517	20.951508
2017.551315	-3.012100	3.307400	-9.961500	26.227742	0.000516	20.944076
2018.550952	-3.027100	3.304700	-10.002000	26.241487	0.000517	20.928967
2019.552689	-3.009600	3.304400	-9.944500	26.236258	0.000517	20.954054
2020.555260	-3.019500	3.304600	-9.977100	26.200423	0.000516	20.923264
2021.554233	-2.989600	3.304600	-9.878900	26.226959	0.000518	20.941867
2022.553427	-3.003600	3.306000	-9.929200	26.236190	0.000518	20.954934
2023.552609	-3.002600	3.304400	-9.920200	26.240284	0.000515	20.945299
2024.552752	-2.994400	3.304800	-9.893800	26.261284	0.000514	20.936533
2025.550934	-2.994900	3.305700	-9.899400	26.307534	0.000514	20.939388
2026.556335	-3.006600	3.303400	-9.931000	26.331008	0.000515	20.935005
2027.552588	-2.994100	3.303900	-9.890400	26.377715	0.000514	20.963925
2028.553523	-3.009700	3.303300	-9.941100	26.396125	0.000513	20.950188
2029.558659	-2.983900	3.303800	-9.856500	26.413196	0.000513	20.955965
2030.553322	-2.995800	3.303000	-9.893500	26.416894	0.000512	20.958733
2031.553880	-2.966300	3.302400	-9.795100	26.362536	0.000510	20.941086
2032.555842	-2.995300	3.301200	-9.886300	26.329025	0.000512	20.950554
2033.555314	-2.980700	3.302300	-9.841000	26.321233	0.000510	20.966429
2034.552528	-2.979400	3.302900	-9.839600	26.257128	0.000509	20.970758
2035.555778	-2.989000	3.302400	-9.869300	26.241849	0.000508	20.962517
2036.553365	-2.986000	3.301000	-9.856100	26.246172	0.000509	20.942682
2037.553649	-2.996400	3.300000	-9.887200	26.211459	0.000508	20.949524
2038.558632	-3.016300	3.299900	-9.952600	26.233226	0.000509	20.960016
2039.554718	-3.003700	3.299800	-9.910500	26.218610	0.000506	20.964768
2040.559298	-3.014300	3.299200	-9.943700	26.191356	0.000505	20.981475
2041.558020	-2.995300	3.299400	-9.882700	26.227753	0.000503	20.958784
2042.557715	-3.004200	3.298000	-9.906300	26.281234	0.000504	20.960371
2043.562066	-3.009100	3.298400	-9.924200	26.303432	0.000505	20.949964
2044.557469	-2.994600	3.298300	-9.876200	26.331588	0.000504	20.978256
2045.559628	-2.987000	3.298500	-9.850600	26.368359	0.000505	20.957368
2046.558107	-2.995100	3.298200	-9.876800	26.419437	0.000501	20.963659
2047.557734	-3.004700	3.296100	-9.902200	26.420482	0.000502	20.953805
2048.559821	-3.032900	3.296500	-9.996700	26.415903	0.000500	20.962952
2049.560113	-3.001600	3.296300	-9.892600	26.380507	0.000501	20.956301
2050.560977	-2.997100	3.295900	-9.876800	26.398217	0.000501	20.968408
2051.560101	-2.987500	3.296000	-9.846200	26.393459	0.000501	20.970265
2052.568281	-3.009800	3.294500	-9.913700	26.411220	0.000499	20.969150
2053.560191	-2.984500	3.295100	-9.833300	26.436924	0.000499	20.973172
2054.563908	-2.988500	3.295300	-9.847400	26.404627	0.000499	20.968687
2055.563007	-2.993500	3.294000	-9.859700	26.456596	0.000498	20.971134
2056.563572	-3.012000	3.293000	-9.916400	26.462242	0.000498	20.978705
2057.563971	-3.009900	3.293600	-9.912600	26.478815	0.000497	20.964071
2058.564721	-3.018300	3.291800	-9.933900	26.516107	0.000495	20.987327
2059.570189	-2.995500	3.293600	-9.864700	26.520454	0.000496	20.971310
2060.566157	-3.005400	3.292800	-9.895400	26.527694	0.000496	20.966734
2061.569168	-3.011100	3.291400	-9.908300	26.522070	0.000494	20.994268
2062.564968	-2.991300	3.293300	-9.848700	26.504896	0.000494	20.990756
2063.563200	-2.990300	3.291300	-9.840900	26.495219	0.000493	20.997149
2064.569047	-2.988800	3.291100	-9.835500	26.481895	0.000493	20.993715
2065.568011	-2.986700	3.291200	-9.829000	26.465243	0.000492	20.991677
2066.569523	-2.998200	3.291500	-9.867500	26.459238	0.000492	20.980901
2067.568408	-2.954500	3.291700	-9.724300	26.491621	0.000492	20.989267
2068.567932	-3.031100	3.288900	-9.967100	26.507888	0.000491	20.983334
2069.569791	-2.980200	3.290500	-9.805400	26.542157	0.000490	21.001181
2070.578628	-2.971400	3.291000	-9.778200	26.556740	0.000490	20.989290
2071.578116	-2.985500	3.289100	-9.818700	26.593545	0.000488	21.007318
2072.569728	-2.993400	3.287400	-9.839800	26.594119	0.000487	20.987035
2073.572295	-2.993300	3.288400	-9.840700	26.587476	0.000490	20.988418
2074.572753	-2.988300	3.288400	-9.825100	26.568964	0.000486	20.990198
2075.571029	-2.974300	3.288200	-9.778800	26.591363	0.000487	21.000858
2076.570678	-3.005800	3.287600	-9.880800	26.598551	0.000487	21.000023
2077.571179	-3.011800	3.287000	-9.898400	26.625080	0.000486	20.976436
2078.574610	-2.988600	3.286600	-9.821300	26.641778	0.000486	20.983263
2079.575429	-2.982800	3.286300	-9.799600	26.650242	0.000485	20.998408
2080.576964	-3.016300	3.285500	-9.909200	26.645602	0.000483	20.994692
2081.573606	-3.005600	3.284700	-9.871300	26.665372	0.000483	21.000816
2082.574610	-3.035300	3.284000	-9.966400	26.671490	0.000482	20.989898
2083.575203	-2.977300	3.284900	-9.779000	26.651833	0.000483	20.984363
2084.578337	-2.998400	3.285400	-9.850200	26.601772	0.000481	20.997097
2085.578128	-2.998900	3.282500	-9.841700	26.595230	0.000480	20.988627
2086.580492	-3.009100	3.284200	-9.881800	26.606003	0.000479	20.997557
2087.583318	-2.995100	3.282800	-9.830700	26.599871	0.000481	21.001824
2088.575712	-3.005100	3.283500	-9.866400	26.593725	0.000480	20.990432
2089.577243	-2.987600	3.283500	-9.808200	26.607237	0.000477	20.994532
2090.581621	-3.022700	3.283000	-9.922500	26.597166	0.000478	21.000527
2091.578940	-3.000900	3.281500	-9.845900	26.585628	0.000478	20.994620
2092.577068	-2.990100	3.283000	-9.815000	26.528016	0.000475	20.987918
2093.582205	-2.994100	3.281300	-9.823100	26.490202	0.000476	21.008226
2094.576360	-2.990400	3.280700	-9.809300	26.489705	0.000476	21.010097
2095.577790	-3.004100	3.280700	-9.854300	26.488505	0.000477	21.013631
2096.578350	-2.981900	3.279900	-9.778800	26.475755	0.000474	21.005084
2097.579011	-2.997600	3.279400	-9.827900	26.531214	0.000474	21.021946
2098.575681	-3.005500	3.281200	-9.860400	26.594139	0.000474	21.023559
2099.579420	-2.984700	3.280100	-9.789400	26.601022	0.000474	21.018151
2100.576955	-3.018000	3.277800	-9.891100	26.580751	0.000472	21.002045
2101.581838	-2.996700	3.279200	-9.825800	26.578596	0.000472	21.020738
2102.584813	-2.988200	3.277800	-9.792900	26.562621	0.000471	21.010845
2103.578605	-2.996600	3.278900	-9.823600	26.574490	0.000470	21.025144
2104.578263	-3.024200	3.275900	-9.906500	26.556219	0.000469	21.022425
2105.580522	-2.994400	3.278000	-9.815200	26.542590	0.000468	21.030535
2106.580142	-2.996000	3.277100	-9.817400	26.526030	0.000469	21.026691
2107.579294	-2.997300	3.275700	-9.817600	26.485550	0.000470	21.034839
2108.584750	-3.012900	3.276200	-9.870000	26.496411	0.000468	21.035324
2109.577822	-3.007300	3.275700	-9.849500	26.477706	0.000466	21.029801
2110.579838	-2.996100	3.274200	-9.808900	26.503230	0.000465	21.021319
2111.586174	-3.019000	3.274600	-9.884300	26.534477	0.000466	21.032336
2112.578573	-3.000300	3.274300	-9.822800	26.572213	0.000465	21.030440
2113.580022	-3.007400	3.273800	-9.845000	26.588338	0.000463	21.036691
2114.582856	-3.003900	3.273700	-9.832700	26.643204	0.000464	21.017408
2115.581019	-2.992500	3.273900	-9.794900	26.669157	0.000464	21.034960
2116.582716	-3.023200	3.272700	-9.892700	26.699048	0.000462	21.019495
2117.584496	-2.970700	3.273600	-9.724200	26.681214	0.000463	21.024324
2118.584013	-2.978900	3.274000	-9.751500	26.642333	0.000460	21.039761
2119.582511	-2.985900	3.272200	-9.769600	26.621721	0.000461	21.024733
2120.581448	-2.992800	3.273100	-9.794000	26.628016	0.000463	21.031535
2121.582041	-3.005100	3.270000	-9.825900	26.620789	0.000460	21.040862
2122.584569	-2.986700	3.272000	-9.771900	26.603885	0.000461	21.037147
2123.582106	-2.976400	3.270700	-9.734000	26.605820	0.000458	21.032455
2124.581951	-2.984700	3.271400	-9.762400	26.585295	0.000457	21.044062
2125.583403	-2.987200	3.270300	-9.768500	26.637216	0.000456	21.056425
2126.582023	-2.992100	3.269200	-9.779800	26.669467	0.000457	21.041434
2127.585615	-3.013000	3.270700	-9.853300	26.672921	0.000457	21.056757
2128.584698	-2.989400	3.270200	-9.775000	26.669402	0.000455	21.047058
2129.585558	-3.001000	3.269800	-9.811800	26.658758	0.000454	21.052477
2130.583160	-2.983400	3.270300	-9.754800	26.663232	0.000455	21.059818
2131.586433	-2.995100	3.268400	-9.787200	26.649235	0.000454	21.055231
2132.588679	-2.989100	3.266800	-9.763500	26.657493	0.000452	21.062583
2133.585454	-3.005900	3.267100	-9.818700	26.685281	0.000454	21.058278
2134.585805	-3.003900	3.267900	-9.815500	26.735528	0.000451	21.031038
2135.587916	-2.998600	3.266400	-9.791800	26.733820	0.000453	21.062031
2136.585117	-3.004800	3.266600	-9.814400	26.760256	0.000451	21.049257
2137.588355	-3.011900	3.265300	-9.833400	26.765390	0.000451	21.058211
2138.591395	-3.000200	3.265500	-9.795000	26.799422	0.000448	21.050702
2139.589073	-2.993000	3.264600	-9.770100	26.837939	0.000449	21.078992
2140.588731	-2.978700	3.265800	-9.727000	26.824580	0.000447	21.049445
2141.588569	-2.990900	3.265800	-9.766900	26.786737	0.000447	21.067343
2142.589647	-2.990700	3.264800	-9.762300	26.794308	0.000447	21.053147
2143.590317	-3.005800	3.262100	-9.804000	26.749620	0.000444	21.070327
2144.588876	-3.000100	3.264700	-9.793200	26.727759	0.000444	21.050724
2145.589433	-2.995800	3.262000	-9.771700	26.721131	0.000444	21.066342
2146.588715	-2.974100	3.263400	-9.704700	26.696988	0.000445	21.050608
2147.588693	-2.970900	3.263400	-9.694300	26.696859	0.000445	21.040997
2148.591444	-3.018700	3.260300	-9.840000	26.740299	0.000444	21.073757
2149.590905	-3.004000	3.262800	-9.800800	26.781456	0.000442	21.055872
2150.590521	-3.005600	3.259300	-9.794100	26.784323	0.000442	21.054487
2151.590818	-3.029500	3.261000	-9.877400	26.790860	0.000442	21.045415
2152.590788	-3.001100	3.259600	-9.781400	26.784143	0.000439	21.042929
2153.594813	-2.998600	3.260800	-9.776900	26.766183	0.000440	21.042889
2154.594698	-2.985000	3.260600	-9.732400	26.777589	0.000440	21.051985
2155.595270	-3.022500	3.258400	-9.848000	26.774975	0.000438	21.044142
2156.594230	-2.992800	3.258600	-9.751700	26.807348	0.000437	21.037812
2157.593694	-2.978500	3.258600	-9.704500	26.832278	0.000437	21.053391
2158.593495	-2.993200	3.258400	-9.751800	26.847088	0.000436	21.039836
2159.599033	-2.999100	3.256500	-9.765300	26.803141	0.000437	21.036428
2160.596783	-3.009000	3.257800	-9.801700	26.765476	0.000436	21.034120
2161.598969	-3.001900	3.257400	-9.777600	26.738135	0.000434	21.039821
2162.595840	-2.987000	3.257100	-9.728500	26.743602	0.000434	21.036310
2163.596855	-2.976400	3.258600	-9.698100	26.748279	0.000434	21.034374
2164.600069	-3.000400	3.256500	-9.769200	26.782642	0.000432	21.022458
2165.599041	-2.988700	3.254900	-9.727300	26.793373	0.000433	21.022816
2166.594876	-3.003600	3.255700	-9.777800	26.778231	0.000429	21.040779
2167.597439	-3.007000	3.255900	-9.789500	26.800165	0.000431	21.017318
2168.598417	-2.991600	3.253700	-9.732200	26.830996	0.000431	21.027926
2169.599288	-3.026600	3.253300	-9.846100	26.806793	0.000427	21.029669
2170.601527	-3.010500	3.252400	-9.790000	26.838553	0.000429	21.017509
2171.600279	-2.997300	3.252800	-9.747900	26.868872	0.000428	21.024285
2172.602732	-3.001400	3.253200	-9.763200	26.838921	0.000427	21.027360
2173.598161	-3.001000	3.254300	-9.764500	26.808930	0.000425	21.023284
2174.598085	-3.013800	3.251500	-9.798700	26.768551	0.000427	21.014456
2175.602364	-2.986400	3.251500	-9.708900	26.791072	0.000425	21.022873
2176.599053	-3.001500	3.252200	-9.759300	26.820553	0.000425	21.022169
2177.599543	-3.010800	3.250300	-9.783700	26.825663	0.000423	21.024935
2178.601754	-2.997900	3.250600	-9.744000	26.880491	0.000423	21.021744
2179.602094	-2.994300	3.251000	-9.732400	26.904527	0.000421	21.010353
2180.602253	-2.972400	3.249700	-9.658500	26.927186	0.000422	20.989520
2181.608149	-2.982100	3.250100	-9.691500	26.935036	0.000422	21.010686
2182.600806	-2.989800	3.248600	-9.711100	26.970335	0.000421	21.001614
2183.601883	-2.998500	3.247400	-9.736700	26.943394	0.000419	20.996808
2184.603712	-3.017300	3.246900	-9.795500	26.897808	0.000420	21.027302
2185.599660	-3.009800	3.247900	-9.774400	26.866392	0.000418	20.996192
2186.604329	-2.979100	3.248500	-9.675500	26.820343	0.000418	21.018165
2187.605682	-3.007500	3.246900	-9.763400	26.849874	0.000416	21.008979
2188.607046	-2.996000	3.247100	-9.727000	26.876446	0.000415	21.001085
2189.605240	-3.001400	3.246100	-9.741200	26.908613	0.000416	21.010194
2190.604573	-2.982000	3.247700	-9.683400	26.920591	0.000415	21.000904
2191.606890	-3.006400	3.245300	-9.755300	26.887022	0.000413	21.002710
2192.604526	-2.976100	3.245200	-9.657300	26.881248	0.000413	21.006861
2193.605060	-2.998900	3.244200	-9.727900	26.899523	0.000412	20.997263
2194.605104	-2.989700	3.243500	-9.695800	26.908609	0.000412	20.997865
2195.604364	-2.992100	3.242600	-9.701000	26.947414	0.000412	21.007961
2196.605369	-3.007800	3.244300	-9.755800	26.984588	0.000411	21.003617
2197.604983	-2.988700	3.243400	-9.691900	26.966886	0.000411	20.993404
2198.608983	-3.018600	3.242200	-9.785800	26.960680	0.000410	20.989535
2199.608472	-3.008500	3.242300	-9.753600	26.923110	0.000409	20.993007
2200.606072	-3.021800	3.242300	-9.796300	26.971664	0.000409	20.997260
2201.607967	-2.986100	3.241100	-9.677100	26.934795	0.000408	21.003333
2202.610578	-3.010600	3.240800	-9.755500	26.931991	0.000407	20.995299
2203.609572	-2.999000	3.240500	-9.717900	26.934705	0.000405	21.000398
2204.610601	-3.008300	3.240900	-9.748600	26.891821	0.000406	20.999949
2205.609454	-3.010600	3.238600	-9.748700	26.923643	0.000406	20.977898
2206.609720	-3.004500	3.238200	-9.728400	26.908387	0.000405	20.990531
2207.610220	-3.002000	3.239800	-9.724700	26.879087	0.000403	21.001844
2208.610519	-2.992800	3.239100	-9.693600	26.873440	0.000404	20.995693
2209.610542	-3.002500	3.239100	-9.723900	26.843145	0.000403	21.001266
2210.610205	-2.984500	3.239700	-9.667500	26.867003	0.000401	20.999651
2211.610808	-3.007800	3.237800	-9.737700	26.889982	0.000403	20.992886
2212.608358	-3.004700	3.238400	-9.730300	26.903618	0.000400	20.966299
2213.613192	-2.991400	3.236200	-9.679200	26.904841	0.000400	20.980328
2214.610239	-2.993300	3.236900	-9.688300	26.874100	0.000400	20.994934
2215.613682	-3.002600	3.236000	-9.715700	26.870952	0.000399	20.982762
2216.614491	-3.001000	3.235300	-9.708300	26.907172	0.000400	20.990731
2217.610130	-2.999300	3.235800	-9.704400	26.865509	0.000397	20.989616
2218.612989	-3.015900	3.232800	-9.749000	26.875539	0.000398	20.988321
2219.613917	-2.998600	3.232600	-9.691500	26.845295	0.000397	20.972612
2220.610053	-3.000400	3.232700	-9.698100	26.836564	0.000395	20.972842
2221.611640	-2.992900	3.233000	-9.675500	26.844567	0.000397	20.996533
2222.611264	-2.986400	3.233200	-9.654300	26.860931	0.000393	20.996865
2223.611528	-2.984200	3.233900	-9.649400	26.870298	0.000393	20.956504
2224.613587	-3.026100	3.231300	-9.777300	26.938455	0.000394	20.980938
2225.611327	-2.991400	3.232700	-9.669800	26.970326	0.000392	20.982167
2226.615363	-2.981700	3.231700	-9.634600	27.012251	0.000392	20.979284
2227.618529	-3.009100	3.230000	-9.717800	27.029313	0.000392	20.978899
2228.615320	-3.020300	3.229600	-9.753300	27.059322	0.000391	20.966880
2229.617821	-3.019200	3.227900	-9.744700	27.038845	0.000391	20.971416
2230.615212	-2.999500	3.228700	-9.682400	27.018391	0.000390	20.988302
2231.615613	-3.013500	3.228400	-9.727700	26.988572	0.000389	20.992927
2232.615298	-2.988500	3.228100	-9.646000	27.008807	0.000388	20.993362
2233.613056	-2.999100	3.228000	-9.679800	27.027743	0.000389	20.976372
2234.617301	-3.006900	3.227900	-9.702700	27.030954	0.000387	20.976756
2235.617788	-2.983500	3.226600	-9.625200	27.042499	0.000386	20.988364
2236.616773	-3.002300	3.228200	-9.691400	27.112632	0.000387	20.966914
2237.616650	-3.021400	3.226500	-9.747200	27.113180	0.000385	20.967939
2238.618078	-2.998200	3.226900	-9.673700	27.183130	0.000385	20.992771
2239.621428	-2.984600	3.225000	-9.624400	27.188633	0.000383	20.987401
2240.617612	-2.995400	3.225600	-9.661000	27.201540	0.000384	20.988528
2241.621407	-2.995900	3.224100	-9.658500	27.184287	0.000384	20.982556
2242.620336	-3.005200	3.223000	-9.684500	27.180401	0.000382	20.974855
2243.618319	-2.986200	3.224900	-9.629700	27.211947	0.000381	20.982401
2244.621137	-3.007500	3.223000	-9.691600	27.174564	0.000380	20.986527
2245.619352	-2.991600	3.223100	-9.640400	27.123509	0.000380	20.975007
2246.618456	-2.991200	3.221000	-9.633500	27.128987	0.000380	20.989997
2247.618213	-3.002300	3.220800	-9.668500	27.143091	0.000378	20.985218
2248.619638	-2.979000	3.221300	-9.595200	27.131088	0.000379	20.973147
2249.617966	-3.011300	3.220100	-9.695600	27.139956	0.000379	20.985857
2250.620049	-2.978900	3.221000	-9.594400	27.146263	0.000376	20.959962
2251.620375	-2.992900	3.221100	-9.638700	27.200399	0.000377	20.972210
2252.621707	-2.990600	3.221400	-9.632600	27.143012	0.000377	20.969968
2253.619398	-3.013800	3.219700	-9.702400	27.094389	0.000375	20.964214
2254.620778	-3.018300	3.217500	-9.710000	27.082704	0.000375	20.970480
2255.621581	-2.980700	3.218600	-9.592000	27.076511	0.000375	20.961881
2256.624007	-2.996000	3.216300	-9.634900	27.088335	0.000374	20.967608
2257.627571	-3.017600	3.215500	-9.701500	27.114799	0.000373	20.962457
2258.625035	-2.987800	3.218300	-9.615400	27.146641	0.000370	20.973142
2259.625206	-3.008600	3.215700	-9.673800	27.114149	0.000371	20.974128
2260.625115	-2.991200	3.217200	-9.621800	27.110084	0.000370	20.969567
2261.629582	-3.016200	3.214100	-9.692800	27.050972	0.000370	20.984084
2262.625323	-2.997100	3.214400	-9.633400	27.040854	0.000369	20.951628
2263.626329	-3.026400	3.213400	-9.723800	27.047340	0.000367	20.960520
2264.625483	-3.007200	3.213600	-9.663600	27.075806	0.000368	20.946951
2265.625743	-2.984800	3.214300	-9.592200	27.096868	0.000367	20.969552
2266.629686	-2.999900	3.212700	-9.636900	27.122926	0.000367	20.967310
2267.628298	-2.977900	3.214200	-9.569800	27.122429	0.000366	20.956380
2268.632092	-2.996100	3.213600	-9.627300	27.143732	0.000367	20.960262
2269.628951	-3.025000	3.211300	-9.713300	27.127295	0.000365	20.954636
2270.630860	-3.002800	3.212900	-9.646100	27.066923	0.000366	20.961248
2271.633132	-3.012500	3.210300	-9.669900	27.048649	0.000364	20.970844
2272.631063	-3.002900	3.209400	-9.636600	27.031905	0.000365	20.976289
2273.630370	-3.015700	3.209700	-9.679700	27.061812	0.000363	20.963220
2274.630947	-2.995700	3.208400	-9.611000	27.066131	0.000362	20.976097
2275.630078	-2.980600	3.209800	-9.566300	27.058473	0.000362	20.963181
2276.630872	-3.007400	3.207800	-9.646700	27.063123	0.000360	20.960746
2277.634196	-2.980600	3.208800	-9.563400	27.096585	0.000360	20.957415
2278.633105	-3.009300	3.207800	-9.652000	27.090480	0.000359	20.973558
2279.632943	-2.993900	3.208400	-9.604700	27.070131	0.000360	20.978222
2280.637337	-3.005100	3.205600	-9.632300	27.070206	0.000357	20.966446
2281.636183	-2.995000	3.207400	-9.604800	27.074768	0.000357	20.955388
2282.638040	-3.000700	3.206100	-9.618400	27.080923	0.000357	20.944036
2283.634638	-3.011600	3.204600	-9.649900	27.087688	0.000357	20.938987
2284.638680	-3.008800	3.204900	-9.641700	27.055131	0.000356	20.957451
2285.638859	-2.991800	3.206200	-9.591300	27.024370	0.000356	20.960179
2286.634909	-2.967400	3.205100	-9.508800	27.025542	0.000356	20.939076
2287.639700	-2.996100	3.203600	-9.597800	27.018877	0.000355	20.948493
2288.637561	-2.980800	3.203500	-9.547600	27.053984	0.000354	20.961512
2289.637966	-3.012500	3.203200	-9.648400	27.048338	0.000353	20.944931
2290.636249	-3.002300	3.201500	-9.610800	27.025936	0.000354	20.950376
2291.638403	-2.987400	3.203700	-9.570000	26.956089	0.000352	20.985868
2292.637210	-3.014700	3.200200	-9.647100	26.923362	0.000352	20.948697
2293.636105	-3.008300	3.200300	-9.627300	26.888583	0.000352	20.954502
2294.641402	-2.973300	3.200600	-9.515300	26.892558	0.000352	20.956602
2295.641809	-3.004700	3.199600	-9.613000	26.911892	0.000351	20.950913
2296.644218	-3.002400	3.200300	-9.607500	26.932933	0.000351	20.943622
2297.640135	-3.016500	3.198000	-9.645900	26.926101	0.000348	20.959036
2298.644565	-3.004400	3.199600	-9.611500	26.904907	0.000348	20.959894
2299.642283	-3.008500	3.198300	-9.621500	26.950850	0.000347	20.947888
2300.644152	-2.985800	3.196600	-9.543000	26.971558	0.000346	20.936471
2301.640912	-2.996800	3.197700	-9.581400	26.993285	0.000346	20.921812
2302.640449	-3.000800	3.198400	-9.597000	27.054782	0.000347	20.955203
2303.656161	-2.988000	3.198000	-9.553400	27.080407	0.000345	20.939724
2304.668658	-2.980300	3.197000	-9.526900	27.131502	0.000346	20.933740
2305.668781	-3.002000	3.195400	-9.592300	27.128380	0.000345	20.925385
2306.660066	-2.996200	3.194800	-9.571200	27.155557	0.000343	20.948923
2307.676849	-3.005300	3.193800	-9.597300	27.168617	0.000343	20.965849
2308.663495	-2.989300	3.196200	-9.554000	27.202864	0.000343	20.932073
2309.666261	-2.997800	3.194300	-9.573400	27.247775	0.000342	20.948743
2310.679362	-2.991000	3.193800	-9.552000	27.259470	0.000343	20.952843
2311.673970	-3.008400	3.191600	-9.601400	27.307677	0.000343	20.948307
2312.649342	-2.975600	3.192500	-9.498600	27.311066	0.000342	20.942707
2313.663492	-2.994100	3.193800	-9.562400	27.300301	0.000340	20.949421
2314.680177	-3.005200	3.190800	-9.588900	27.277942	0.000341	20.937364
2315.648924	-2.997300	3.190000	-9.559400	27.328913	0.000339	20.935057
2316.670704	-3.005500	3.190200	-9.587000	27.287115	0.000339	20.930470
2317.669416	-2.994700	3.188800	-9.548200	27.334059	0.000340	20.935492
2318.649386	-2.988100	3.188900	-9.526900	27.364658	0.000338	20.927868
2319.671630	-3.031900	3.186400	-9.660000	27.377384	0.000337	20.935928
2320.664455	-2.990600	3.190300	-9.540100	27.373524	0.000335	20.960016
2321.672285	-2.978400	3.188200	-9.494700	27.334110	0.000338	20.931276
2322.650258	-2.992800	3.187800	-9.538600	27.325307	0.000336	20.931429
2323.671371	-3.021100	3.185700	-9.623300	27.274411	0.000335	20.920063
2324.680293	-3.012200	3.186100	-9.596100	27.252702	0.000335	20.938054
2325.666063	-3.029300	3.184000	-9.643500	27.281277	0.000333	20.942614
2326.653086	-2.996800	3.184600	-9.542500	27.293355	0.000336	20.935324
2327.666781	-3.003500	3.183900	-9.561000	27.302552	0.000334	20.931300
2328.676851	-3.019600	3.183200	-9.611000	27.291468	0.000333	20.930108
2329.652410	-2.988700	3.183300	-9.512800	27.264663	0.000334	20.924482
2330.652306	-2.978100	3.184300	-9.481800	27.298322	0.000333	20.916615
2331.652349	-2.975100	3.183200	-9.469500	27.290296	0.000333	20.921817
2332.652907	-2.988300	3.181600	-9.506200	27.253159	0.000330	20.931401
2333.653527	-3.006900	3.181200	-9.564600	27.216873	0.000330	20.921458
2334.652665	-3.000500	3.180800	-9.543300	27.205611	0.000329	20.913923
2335.656786	-2.979800	3.180300	-9.474800	27.220199	0.000328	20.935232
2336.653241	-2.995200	3.181100	-9.526300	27.231308	0.000328	20.910373
2337.669891	-3.008200	3.178600	-9.560100	27.198131	0.000328	20.930106
2338.669597	-3.002000	3.180700	-9.545800	27.193582	0.000328	20.912731
2339.675601	-2.981900	3.178500	-9.477000	27.205699	0.000327	20.909745
2340.680882	-3.003100	3.177700	-9.541400	27.241423	0.000326	20.903953
2341.674841	-3.000900	3.177200	-9.534200	27.263782	0.000327	20.916485
2342.675429	-3.015100	3.175900	-9.574700	27.268457	0.000326	20.919765
2343.671982	-3.022500	3.175200	-9.595500	27.289656	0.000325	20.915959
2344.685984	-3.015200	3.174800	-9.570600	27.301313	0.000325	20.908245
2345.687542	-2.959600	3.176000	-9.398900	27.306549	0.000325	20.903081
2346.676654	-3.000100	3.177300	-9.531500	27.319212	0.000324	20.927196
2347.660993	-3.005900	3.173000	-9.536800	27.352894	0.000324	20.915086
2348.661617	-2.994300	3.174900	-9.504500	27.379952	0.000324	20.918123
2349.679273	-3.000100	3.173600	-9.519800	27.387556	0.000321	20.925773
2350.681547	-3.027300	3.171900	-9.599900	27.382512	0.000320	20.901260
2351.663801	-3.047000	3.171800	-9.663800	27.402600	0.000323	20.948491
2352.679340	-3.018200	3.171200	-9.570600	27.408549	0.000320	20.920814
2353.662289	-3.023300	3.171500	-9.587000	27.449655	0.000320	20.901004
2354.661654	-3.025900	3.168900	-9.588000	27.477270	0.000321	20.917879
2355.661523	-3.007500	3.169400	-9.530900	27.490224	0.000319	20.897723
2356.663129	-3.017600	3.168900	-9.560000	27.448087	0.000318	20.917917
2357.680538	-2.989600	3.171100	-9.479700	27.431821	0.000315	20.897287
2358.690873	-3.004800	3.167600	-9.516000	27.394128	0.000317	20.922427
2359.690263	-2.999900	3.168800	-9.502800	27.440393	0.000318	20.901169
2360.662142	-2.997600	3.167400	-9.493300	27.452252	0.000316	20.913099
2361.669090	-2.995100	3.167100	-9.484700	27.463283	0.000316	20.910920
2362.691444	-3.001000	3.165500	-9.497800	27.404866	0.000316	20.896248
2363.684220	-2.986600	3.166200	-9.455500	27.441220	0.000313	20.891097
2364.679256	-2.993100	3.165200	-9.471800	27.435055	0.000316	20.901488
2365.665590	-2.996800	3.164400	-9.482000	27.490566	0.000313	20.879577
2366.665485	-2.984700	3.165400	-9.446000	27.481166	0.000313	20.912790
2367.681067	-3.009800	3.164300	-9.521400	27.443042	0.000314	20.910471
2368.696021	-2.994500	3.161900	-9.467500	27.427590	0.000313	20.921952
2369.685606	-3.015200	3.162400	-9.534100	27.369604	0.000312	20.891596
2370.668254	-3.001800	3.161400	-9.488900	27.320673	0.000311	20.906382
2371.667260	-3.011700	3.161200	-9.518700	27.332317	0.000313	20.898656
2372.673080	-3.019100	3.161100	-9.542600	27.375655	0.000309	20.904793
2373.669030	-3.004500	3.160100	-9.492600	27.395208	0.000310	20.915928
2374.688515	-2.995400	3.158400	-9.458900	27.434328	0.000312	20.905498
2375.684954	-2.988300	3.158900	-9.438600	27.445881	0.000308	20.890569
2376.687735	-2.990800	3.160000	-9.450400	27.484221	0.000309	20.882202
2377.692005	-3.008800	3.157300	-9.498200	27.453664	0.000308	20.909777
2378.696929	-2.990500	3.156100	-9.437500	27.438849	0.000307	20.886340
2379.672877	-2.991300	3.156900	-9.441800	27.408659	0.000305	20.892004
2380.667778	-2.981600	3.157400	-9.412900	27.408290	0.000306	20.886891
2381.669652	-3.003800	3.154800	-9.474900	27.425729	0.000309	20.877883
2382.670042	-2.977600	3.155000	-9.393400	27.418812	0.000306	20.887993
2383.670660	-2.987100	3.153600	-9.418600	27.402341	0.000305	20.909828
2384.669930	-3.013800	3.151300	-9.496300	27.357157	0.000303	20.892824
2385.672359	-2.990800	3.152900	-9.429100	27.309359	0.000305	20.893106
2386.685335	-2.999100	3.151300	-9.450100	27.333283	0.000306	20.899154
2387.670446	-3.002600	3.150200	-9.456300	27.373666	0.000306	20.899000
2388.686240	-3.003700	3.151200	-9.464000	27.377207	0.000303	20.885494
2389.684000	-2.993700	3.150000	-9.428800	27.392238	0.000305	20.892080
2390.668786	-3.030200	3.147700	-9.537100	27.376722	0.000303	20.890696
2391.673994	-3.015000	3.147900	-9.489400	27.397741	0.000303	20.894770
2392.672775	-2.999700	3.147500	-9.440400	27.423906	0.000303	20.884584
2393.696393	-3.012600	3.146500	-9.477600	27.453712	0.000302	20.883750
2394.706250	-3.019300	3.144600	-9.492900	27.486040	0.000301	20.880713
2395.674217	-3.007400	3.146600	-9.462100	27.513553	0.000301	20.888953
2396.673589	-3.032600	3.143900	-9.532500	27.536887	0.000300	20.873550
2397.673512	-3.007400	3.145100	-9.457100	27.558539	0.000301	20.882532
2398.672359	-2.992500	3.143200	-9.405000	27.525997	0.000300	20.892463
2399.699589	-3.003200	3.143500	-9.440100	27.476270	0.000300	20.879893
2400.689517	-3.013800	3.141400	-9.467000	27.452833	0.000299	20.880969
2401.676237	-2.995100	3.140800	-9.404900	27.441610	0.000299	20.902868
2402.675139	-2.978600	3.140100	-9.352200	27.465774	0.000297	20.878816
2403.678202	-2.977600	3.140200	-9.349300	27.497898	0.000299	20.907814
2404.677501	-2.972000	3.140600	-9.332500	27.538032	0.000298	20.898882
2405.674639	-2.996300	3.138400	-9.402800	27.547877	0.000297	20.878918
2406.678372	-3.014300	3.137500	-9.455700	27.583336	0.000297	20.881404
2407.674415	-3.005000	3.135500	-9.421200	27.582750	0.000297	20.892193
2408.681741	-3.010600	3.136900	-9.442000	27.548132	0.000297	20.869217
2409.678958	-2.995700	3.136900	-9.396100	27.516010	0.000297	20.870563
2410.676004	-2.999600	3.135000	-9.403000	27.521130	0.000295	20.888989
2411.706685	-3.007000	3.134600	-9.424100	27.570739	0.000296	20.896703
2412.692198	-3.016800	3.132200	-9.448200	27.596173	0.000296	20.874881
2413.700393	-3.014200	3.132600	-9.441200	27.591410	0.000296	20.892372
2414.702178	-3.005900	3.133000	-9.415100	27.626727	0.000295	20.881442
2415.698248	-3.011500	3.130200	-9.425400	27.652822	0.000295	20.889681
2416.703528	-3.008700	3.133900	-9.426700	27.687551	0.000294	20.877687
2417.694643	-3.014100	3.131100	-9.435500	27.719541	0.000293	20.880480
2418.696368	-3.023700	3.128500	-9.458500	27.758533	0.000293	20.877046
2419.698242	-3.000900	3.129000	-9.388300	27.781671	0.000292	20.897959
2420.703812	-3.003000	3.127300	-9.390100	27.822559	0.000292	20.887900
2421.697202	-2.980000	3.127900	-9.320200	27.799371	0.000292	20.878789
2422.697402	-3.017800	3.125400	-9.430600	27.729766	0.000293	20.902148
2423.699455	-3.028900	3.125000	-9.462900	27.664449	0.000291	20.886682
2424.704674	-3.004300	3.125100	-9.387400	27.638277	0.000291	20.897330
2425.699686	-3.001100	3.125200	-9.377700	27.646377	0.000290	20.903109
2426.699060	-3.009400	3.123700	-9.399500	27.633361	0.000292	20.880531
2427.714520	-3.000100	3.123000	-9.369100	27.627617	0.000290	20.900354
2428.696689	-2.965000	3.123300	-9.260100	27.633527	0.000290	20.882594
2429.700749	-2.992300	3.121200	-9.338400	27.660335	0.000290	20.885387
2430.702344	-2.995500	3.120200	-9.345000	27.665875	0.000289	20.886694
2431.704255	-3.003600	3.119700	-9.369900	27.689511	0.000287	20.887719
2432.700263	-3.022300	3.119200	-9.425900	27.649115	0.000288	20.893063
2433.710792	-2.989800	3.117900	-9.321000	27.595904	0.000288	20.899264
2434.696223	-2.997200	3.117800	-9.344200	27.537291	0.000289	20.886758
2435.708245	-3.028900	3.116900	-9.439300	27.532935	0.000287	20.906555
2436.699436	-3.003200	3.115300	-9.353400	27.563720	0.000287	20.891537
2437.701761	-2.981900	3.115500	-9.289300	27.550002	0.000287	20.895279
2438.704352	-2.985500	3.115100	-9.299500	27.551199	0.000288	20.891268
2439.700500	-2.983500	3.113000	-9.286200	27.553441	0.000286	20.906799
2440.714485	-2.989300	3.113600	-9.305800	27.487298	0.000286	20.892883
2441.704664	-2.959500	3.112200	-9.209500	27.451097	0.000287	20.890128
2442.706724	-3.003000	3.112400	-9.344600	27.464701	0.000284	20.903813
2443.705916	-2.978900	3.110700	-9.264000	27.468382	0.000284	20.915102
2444.698926	-2.997000	3.109200	-9.316100	27.475452	0.000283	20.900878
2445.703628	-2.996500	3.107900	-9.312100	27.497576	0.000283	20.879518
2446.720298	-2.992300	3.107800	-9.298200	27.528795	0.000284	20.879633
2447.703208	-2.972200	3.108400	-9.237600	27.577856	0.000282	20.896752
2448.708647	-3.013600	3.105600	-9.357400	27.607251	0.000284	20.895509
2449.710965	-2.993700	3.105100	-9.294400	27.634455	0.000282	20.904863
2450.700696	-2.984600	3.104300	-9.263200	27.657850	0.000281	20.899481
2451.706726	-3.006800	3.102600	-9.328000	27.653291	0.000284	20.897739
2452.719884	-2.999900	3.102600	-9.307200	27.670305	0.000282	20.901109
2453.702580	-3.001800	3.100700	-9.306900	27.694018	0.000283	20.898892
2454.710076	-3.004400	3.101600	-9.317800	27.699392	0.000283	20.907144
2455.707218	-2.994600	3.102700	-9.290600	27.708115	0.000281	20.896009
2456.717172	-3.001200	3.098300	-9.297500	27.726339	0.000282	20.914345
2457.714806	-3.012100	3.098300	-9.331100	27.742677	0.000283	20.910398
2458.715394	-3.006700	3.095400	-9.306200	27.768336	0.000281	20.919150
2459.710743	-2.966200	3.097200	-9.185400	27.712903	0.000281	20.898456
2460.707420	-3.014900	3.095900	-9.332800	27.666421	0.000279	20.895303
2461.708257	-2.995000	3.093700	-9.263800	27.643077	0.000280	20.898840
2462.711575	-2.977900	3.095200	-9.216200	27.659161	0.000280	20.913601
2463.711302	-2.992700	3.092400	-9.253700	27.662014	0.000280	20.913627
2464.708598	-2.999200	3.090800	-9.269400	27.619095	0.000279	20.894150
2465.710510	-2.995100	3.090700	-9.256300	27.611492	0.000281	20.919688
2466.716141	-3.002100	3.091100	-9.278600	27.598654	0.000278	20.908668
2467.715168	-2.992000	3.088800	-9.240400	27.643891	0.000278	20.902505
2468.709054	-2.983600	3.088300	-9.213200	27.627182	0.000280	20.906080
2469.716702	-2.995600	3.086300	-9.244400	27.639268	0.000279	20.928670
2470.715659	-2.979300	3.087100	-9.196600	27.698436	0.000278	20.927042
2471.714644	-3.010700	3.084800	-9.286400	27.720760	0.000279	20.906835
2472.711844	-2.989500	3.084200	-9.219000	27.775938	0.000278	20.915420
2473.716577	-3.007300	3.082500	-9.268500	27.785565	0.000277	20.923211
2474.714351	-3.001100	3.082600	-9.250100	27.765598	0.000276	20.915446
2475.713239	-2.982800	3.083400	-9.195700	27.751526	0.000278	20.924518
2476.714613	-2.997800	3.081700	-9.236900	27.777147	0.000275	20.920431
2477.720852	-2.997100	3.079500	-9.228800	27.786303	0.000276	20.920161
2478.718698	-3.020300	3.079100	-9.299200	27.809300	0.000276	20.914857
2479.714662	-2.971900	3.078300	-9.145800	27.772576	0.000275	20.924838
2480.716177	-2.955500	3.078900	-9.098700	27.798387	0.000277	20.932321
2481.719739	-3.004900	3.077600	-9.247100	27.823078	0.000274	20.917816
2482.716400	-3.024900	3.073700	-9.296000	27.841350	0.000276	20.940945
2483.722444	-2.994100	3.075500	-9.206600	27.840408	0.000276	20.915817
2484.736137	-3.007400	3.073000	-9.241100	27.893758	0.000275	20.912614
2485.720029	-2.999000	3.071500	-9.209800	27.900774	0.000275	20.931053
2486.715962	-3.003800	3.069900	-9.219500	27.926379	0.000275	20.929797
2487.717087	-3.015400	3.070500	-9.257600	27.939874	0.000275	20.928208
2488.718447	-3.030800	3.069000	-9.298700	27.988904	0.000274	20.938203
2489.715709	-2.987300	3.068000	-9.163500	27.996861	0.000274	20.940048
2490.722746	-2.983300	3.067800	-9.151000	27.989706	0.000274	20.944225
2491.724306	-3.026900	3.066000	-9.279400	27.958374	0.000274	20.924543
2492.724108	-2.975300	3.066000	-9.120900	27.935966	0.000276	20.943712
2493.723553	-2.999000	3.064600	-9.190100	27.926327	0.000275	20.939702
2494.718894	-3.002100	3.061800	-9.190400	27.905026	0.000272	20.938177
2495.729441	-3.004500	3.061900	-9.197400	27.920216	0.000274	20.932129
2496.726437	-2.995800	3.060600	-9.167100	27.941606	0.000273	20.941329
2497.722531	-3.003300	3.059000	-9.185400	27.952161	0.000274	20.913549
2498.725284	-2.987100	3.059500	-9.138200	27.950709	0.000275	20.941957
2499.723681	-2.991200	3.060200	-9.152600	27.961098	0.000276	20.938190
2500.735945	-2.992100	3.057100	-9.146300	27.925678	0.000273	20.945211
2501.728777	-3.007700	3.055800	-9.190300	27.883406	0.000273	20.941073
2502.731862	-3.000700	3.054200	-9.164000	27.826503	0.000274	20.938805
2503.726734	-2.996500	3.054200	-9.151500	27.772716	0.000274	20.939676
2504.727465	-2.992900	3.053500	-9.138300	27.811070	0.000273	20.935601
2505.723912	-2.971300	3.052700	-9.069700	27.805505	0.000273	20.937587
2506.725823	-2.986600	3.050200	-9.108500	27.806702	0.000274	20.938318
2507.722963	-3.008600	3.049200	-9.173500	27.845144	0.000273	20.936229
2508.733098	-3.022000	3.047400	-9.208200	27.880580	0.000274	20.939650
2509.729174	-2.986900	3.046100	-9.097300	27.831048	0.000274	20.947172
2510.735514	-3.003500	3.046500	-9.148500	27.789448	0.000275	20.959357
2511.728997	-2.991400	3.044800	-9.107300	27.713654	0.000273	20.959895
2512.725461	-3.009800	3.043100	-9.158400	27.672392	0.000273	20.961049
2513.727305	-2.996100	3.042000	-9.113000	27.604613	0.000273	20.961600
2514.721138	-3.038200	3.040000	-9.235400	27.584694	0.000271	20.944404
2515.725792	-3.000500	3.040900	-9.123500	27.580275	0.000271	20.951810
2516.728912	-3.002200	3.040100	-9.125900	27.546625	0.000272	20.935973
2517.745379	-3.034900	3.038400	-9.219600	27.562622	0.000275	20.953015
2518.727580	-3.009300	3.037300	-9.138100	27.612255	0.000270	20.970710
2519.725900	-3.005200	3.034800	-9.118800	27.621247	0.000271	20.945622
2520.731192	-3.010500	3.034900	-9.135900	27.701136	0.000270	20.949197
2521.738164	-2.979300	3.033200	-9.036200	27.765916	0.000271	20.948479
2522.730052	-2.974400	3.033200	-9.020800	27.767087	0.000272	20.958192
2523.727230	-2.987700	3.032800	-9.060400	27.763178	0.000270	20.973221
2524.728098	-3.016600	3.030000	-9.139700	27.761739	0.000272	20.950914
2525.734560	-2.989900	3.028700	-9.054600	27.760759	0.000272	20.966520
2526.724331	-2.989300	3.027800	-9.048800	27.766222	0.000271	20.964432
2527.730411	-2.977300	3.027500	-9.013700	27.780738	0.000269	20.955334
2528.724628	-3.008700	3.023700	-9.096700	27.789219	0.000269	20.950593
2529.721520	-2.990900	3.024700	-9.045700	27.848723	0.000271	20.974913
2530.730829	-3.025700	3.021500	-9.141700	27.915086	0.000271	20.967264
2531.730785	-2.988500	3.023600	-9.034300	27.927436	0.000270	20.961203
2532.739857	-2.978800	3.022000	-9.001400	27.916206	0.000273	20.980243
2533.735740	-2.991700	3.020700	-9.036500	27.888106	0.000272	20.964291
2534.723155	-3.020200	3.017800	-9.113500	27.839606	0.000274	20.998450
2535.730723	-2.998100	3.017100	-9.044500	27.810090	0.000270	20.976810
2536.732288	-3.004800	3.016900	-9.064300	27.841529	0.000271	20.970044
2537.733553	-3.006600	3.014300	-9.061900	27.865085	0.000269	20.967200
2538.730579	-2.989900	3.014200	-9.011400	27.847565	0.000271	20.964266
2539.732593	-2.961900	3.013500	-8.924900	27.885139	0.000270	21.006343
2540.741618	-2.991900	3.010600	-9.006000	27.896930	0.000270	20.961319
2541.731176	-2.973900	3.010400	-8.952000	27.923362	0.000270	20.982704
2542.731778	-3.006000	3.008600	-9.042500	27.942028	0.000270	20.979206
2543.723914	-2.989700	3.007500	-8.990400	27.921669	0.000269	20.963459
2544.744026	-3.004900	3.007000	-9.034500	27.908427	0.000270	20.992800
2545.731937	-2.991000	3.005200	-8.987100	27.920740	0.000270	20.970583
2546.747982	-2.970800	3.003600	-8.921900	27.957230	0.000269	20.983601
2547.729243	-2.992300	3.002200	-8.982600	27.969834	0.000270	20.977323
2548.731604	-3.006000	3.000700	-9.019000	27.999919	0.000271	20.984370
2549.730733	-2.987500	3.000900	-8.964400	28.015018	0.000271	20.985344
2550.729817	-2.994400	2.999800	-8.981900	28.040429	0.000270	20.997170
2551.735220	-3.006500	2.998300	-9.013400	28.085610	0.000272	20.998080
2552.726730	-2.989900	2.996400	-8.957500	28.085979	0.000269	20.988496
2553.741164	-2.998000	2.995800	-8.980600	28.139661	0.000271	20.986113
2554.737189	-3.005800	2.994200	-8.998300	28.150800	0.000271	20.994006
2555.741642	-2.967300	2.993000	-8.880500	28.158196	0.000272	20.999554
2556.733605	-3.004800	2.990200	-8.983900	28.147236	0.000269	20.987574
2557.734465	-3.016700	2.988700	-9.015600	28.180676	0.000268	20.990419
2558.735363	-3.025500	2.987800	-9.037500	28.200737	0.000269	20.990701
2559.740696	-3.006100	2.985400	-8.974600	28.212957	0.000270	21.004424
2560.739420	-2.993100	2.985900	-8.936100	28.233984	0.000270	21.010894
2561.732543	-2.991700	2.985900	-8.932100	28.247502	0.000271	21.017864
2562.745108	-3.000200	2.982900	-8.946800	28.247388	0.000270	21.036238
2563.736114	-3.026300	2.981500	-9.022500	28.247923	0.000270	20.980362
2564.736855	-3.029700	2.978800	-9.023800	28.237434	0.000269	20.998723
2565.739112	-2.987900	2.978200	-8.897700	28.243048	0.000269	21.011484
2566.739772	-3.000900	2.977000	-8.932700	28.202418	0.000270	21.013727
2567.740256	-2.991000	2.975600	-8.898700	28.163659	0.000269	21.012164
2568.743444	-3.011900	2.975200	-8.959700	28.096560	0.000269	21.005309
2569.737024	-3.016200	2.973600	-8.967800	28.081195	0.000269	21.014496
2570.744293	-2.984600	2.972300	-8.870100	28.090527	0.000269	21.000184
2571.742882	-2.988200	2.969300	-8.871500	28.109253	0.000269	21.000543
2572.744790	-2.999300	2.970200	-8.907300	28.075416	0.000269	21.023375
2573.740317	-2.963300	2.969500	-8.798800	28.077020	0.000268	21.017879
2574.743362	-3.021400	2.964200	-8.954500	28.062469	0.000269	21.037367
2575.739636	-2.978000	2.965200	-8.829600	28.105969	0.000268	21.030897
2576.740773	-3.011700	2.963000	-8.922700	28.079248	0.000270	21.015381
2577.737409	-2.992700	2.961800	-8.862300	28.083119	0.000268	21.016906
2578.746841	-3.009600	2.959400	-8.905400	28.080802	0.000269	21.008885
2579.740104	-2.979100	2.959000	-8.814200	28.085780	0.000268	21.026221
2580.743900	-3.007700	2.957800	-8.894600	28.063985	0.000270	21.017086
2581.744038	-3.004400	2.955800	-8.879200	28.080395	0.000269	21.024120
2582.748309	-2.994100	2.955400	-8.847800	28.029587	0.000269	21.018021
2583.740350	-2.975200	2.954200	-8.788300	27.973990	0.000269	21.010898
2584.752821	-3.009000	2.951700	-8.880900	27.919600	0.000268	21.037228
2585.745378	-2.983000	2.950600	-8.800900	27.918123	0.000268	21.022468
2586.737447	-2.991000	2.949600	-8.820600	27.954791	0.000268	21.018599
2587.756101	-3.003100	2.946500	-8.848000	27.966517	0.000269	21.029451
2588.748502	-2.990900	2.945600	-8.809000	27.987944	0.000269	21.020200
2589.755416	-2.996000	2.944700	-8.821300	28.032631	0.000271	21.047632
2590.743643	-3.016600	2.941800	-8.873600	28.067080	0.000269	21.031578
2591.747351	-3.030300	2.940800	-8.910300	28.127421	0.000269	21.023571
2592.750831	-3.004800	2.940100	-8.833700	28.132042	0.000268	21.049080
2593.749871	-2.986000	2.939100	-8.776000	28.137198	0.000269	21.021559
2594.741996	-2.984500	2.936900	-8.764300	28.134308	0.000268	21.039984
2595.747996	-3.007200	2.935100	-8.824200	28.127944	0.000270	21.042111
2596.748322	-3.011500	2.933100	-8.831800	28.162543	0.000269	21.048492
2597.746260	-2.966400	2.932400	-8.697700	28.162708	0.000269	21.034436
2598.753062	-2.982700	2.929800	-8.737500	28.210239	0.000269	21.032976
2599.749145	-2.993600	2.929800	-8.768300	28.214159	0.000268	21.042137
2600.747073	-3.002200	2.925700	-8.783100	28.254433	0.000270	21.036692
2601.749332	-2.988600	2.925100	-8.741200	28.299146	0.000270	21.032874
2602.755109	-2.995800	2.923800	-8.757800	28.329285	0.000271	21.040933
2603.752757	-2.997500	2.921400	-8.755800	28.374606	0.000270	21.059537
2604.747394	-3.002700	2.921400	-8.770800	28.390260	0.000270	21.062971
2605.749158	-2.999100	2.920000	-8.756900	28.334377	0.000269	21.045111
2606.750221	-2.988700	2.918500	-8.721600	28.300776	0.000269	21.053003
2607.768378	-2.990800	2.916500	-8.721900	28.253543	0.000270	21.053337
2608.756116	-3.008600	2.915000	-8.769100	28.267200	0.000270	21.061395
2609.754975	-2.989400	2.913500	-8.707900	28.224701	0.000270	21.067917
2610.754789	-2.997100	2.912300	-8.728200	28.198416	0.000268	21.062319
2611.750094	-3.014100	2.909400	-8.768700	28.122855	0.000267	21.062587
2612.754657	-3.003500	2.907700	-8.732700	28.104665	0.000268	21.047124
2613.752312	-3.002600	2.904600	-8.720000	28.148201	0.000268	21.058706
2614.752362	-2.985200	2.903900	-8.667600	28.176931	0.000269	21.051596
2615.754241	-2.979500	2.902300	-8.646200	28.204323	0.000269	21.059257
2616.752379	-3.011500	2.900300	-8.733200	28.214837	0.000268	21.063678
2617.751820	-2.976100	2.900800	-8.632100	28.152440	0.000269	21.069136
2618.752743	-2.981800	2.898800	-8.643100	28.113793	0.000268	21.077643
2619.757599	-3.008100	2.894800	-8.706100	28.099637	0.000267	21.057708
2620.754277	-3.008400	2.893300	-8.703100	28.080580	0.000268	21.060334
2621.751779	-2.995700	2.891800	-8.662800	28.106117	0.000268	21.060911
2622.755212	-2.989400	2.891900	-8.643700	28.129846	0.000268	21.060143
2623.754316	-3.041900	2.888100	-8.784000	28.130788	0.000267	21.074364
2624.752253	-2.994800	2.887600	-8.646400	28.094749	0.000268	21.063692
2625.752524	-3.010900	2.885200	-8.686400	28.084412	0.000267	21.064191
2626.763210	-2.999600	2.883200	-8.646800	28.090167	0.000269	21.058131
2627.757042	-3.005300	2.882300	-8.660800	28.133843	0.000268	21.047574
2628.757182	-2.985100	2.879900	-8.595600	28.153981	0.000265	21.074480
2629.751567	-2.999000	2.877200	-8.627200	28.128484	0.000267	21.046447
2630.757948	-3.025000	2.874300	-8.693900	28.138452	0.000266	21.059323
2631.753041	-3.028500	2.872200	-8.697300	28.149488	0.000269	21.043410
2632.759147	-3.019500	2.872700	-8.673000	28.179924	0.000265	21.063141
2633.757261	-2.999800	2.870900	-8.611600	28.196319	0.000267	21.054045
2634.756625	-3.005200	2.866600	-8.613800	28.165680	0.000269	21.043590
2635.758445	-3.013800	2.866900	-8.639300	28.152620	0.000266	21.037556
2636.757470	-3.003800	2.862700	-8.597900	28.162715	0.000268	21.050086
2637.761822	-3.026800	2.863100	-8.665300	28.186480	0.000267	21.056941
2638.765551	-3.004500	2.860800	-8.594900	28.246406	0.000268	21.045205
2639.755914	-2.995800	2.859800	-8.566600	28.264035	0.000266	21.049202
2640.755540	-3.015900	2.856500	-8.614300	28.316321	0.000267	21.042579
2641.763797	-3.007000	2.853500	-8.579800	28.343036	0.000267	21.027755
2642.784201	-3.009500	2.851900	-8.582200	28.370463	0.000267	21.028344
2643.764602	-2.998900	2.850400	-8.546400	28.427083	0.000264	21.049793
2644.763668	-2.996300	2.849500	-8.537700	28.442889	0.000267	21.023040
2645.761428	-3.010100	2.845100	-8.562700	28.481359	0.000267	21.051343
2646.763047	-3.001800	2.843600	-8.535700	28.541168	0.000266	21.029076
2647.762085	-2.989300	2.842900	-8.497300	28.522004	0.000266	21.029216
2648.764992	-2.963500	2.841300	-8.418300	28.517449	0.000269	21.041697
2649.761734	-3.000100	2.839000	-8.515800	28.543726	0.000268	21.028334
2650.761649	-3.002300	2.837300	-8.517700	28.567724	0.000266	21.032587
2651.761230	-3.010200	2.834000	-8.529800	28.592168	0.000267	21.040134
2652.762548	-3.011500	2.832000	-8.527500	28.602144	0.000267	21.046387
2653.768513	-3.011900	2.829300	-8.520500	28.612222	0.000266	21.017661
2654.763692	-3.011300	2.827200	-8.513100	28.622223	0.000266	21.019673
2655.762342	-3.008300	2.825300	-8.498900	28.660801	0.000266	21.016803
2656.760444	-2.989600	2.824300	-8.441600	28.656603	0.000265	21.022057
2657.762277	-3.040500	2.820500	-8.574400	28.685739	0.000267	21.035753
2658.764232	-2.988700	2.817000	-8.418200	28.690510	0.000265	21.007848
2659.760701	-2.994600	2.815400	-8.429800	28.724417	0.000267	21.046260
2660.762301	-2.996800	2.813700	-8.431300	28.719417	0.000267	21.036011
2661.769331	-2.989600	2.812300	-8.406500	28.723959	0.000266	21.026837
2662.762236	-3.023200	2.809300	-8.491900	28.740117	0.000266	21.010399
2663.772554	-2.987600	2.807300	-8.386200	28.725919	0.000267	21.030233
2664.762536	-2.990900	2.804700	-8.388400	28.713934	0.000267	21.016741
2665.762741	-3.024000	2.801900	-8.470700	28.671733	0.000265	21.013116
2666.778146	-2.998600	2.799500	-8.393200	28.597986	0.000266	21.018497
2667.764896	-2.990100	2.796800	-8.361800	28.564026	0.000266	21.036922
2668.772408	-2.985000	2.794200	-8.339700	28.555437	0.000267	21.009311
2669.764926	-2.995000	2.793100	-8.364800	28.576827	0.000267	21.019472
2670.768829	-3.003600	2.788200	-8.373200	28.560794	0.000264	21.009965
2671.767132	-2.995500	2.785700	-8.343600	28.545461	0.000265	21.009696
2672.763708	-3.015400	2.784500	-8.394700	28.589667	0.000267	21.021971
2673.765365	-3.015000	2.781700	-8.385300	28.623181	0.000266	21.007365
2674.776310	-3.016500	2.779300	-8.382600	28.614784	0.000265	21.014078
2675.784266	-3.025900	2.775500	-8.397400	28.650284	0.000264	21.008108
2676.773070	-3.009500	2.774100	-8.347800	28.674763	0.000266	21.012849
2677.768482	-3.000600	2.769800	-8.309800	28.679127	0.000266	21.021985
2678.764957	-3.026700	2.766300	-8.371200	28.649495	0.000266	21.008262
2679.773578	-3.005200	2.766000	-8.311200	28.613105	0.000265	21.009070
2680.766497	-2.989500	2.761900	-8.255900	28.588154	0.000265	20.989159
2681.769768	-3.011300	2.757400	-8.302400	28.556572	0.000266	21.005713
2682.772075	-2.982100	2.755500	-8.215400	28.517316	0.000265	20.994156
2683.774641	-2.998600	2.753900	-8.256400	28.504782	0.000266	20.980588
2684.776360	-3.002300	2.750900	-8.258300	28.472561	0.000265	21.014515
2685.775270	-2.991700	2.746000	-8.214600	28.491255	0.000263	21.006316
2686.772220	-3.004900	2.743400	-8.243000	28.496956	0.000264	21.003523
2687.773707	-3.005700	2.739500	-8.233300	28.502963	0.000266	21.020474
2688.772604	-3.009200	2.737300	-8.236400	28.545515	0.000266	21.007380
2689.778204	-2.993700	2.733900	-8.183500	28.552819	0.000264	21.016630
2690.774226	-3.017400	2.730800	-8.238600	28.573738	0.000263	20.997873
2691.778541	-2.976000	2.729200	-8.121100	28.618718	0.000265	21.002870
2692.780347	-3.023600	2.724800	-8.237100	28.632600	0.000266	21.014953
2693.779845	-3.015500	2.720800	-8.204000	28.668875	0.000265	21.002653
2694.778140	-3.004900	2.718700	-8.169100	28.671114	0.000264	20.991634
2695.776643	-3.001800	2.716400	-8.153100	28.673811	0.000264	20.971594
2696.779672	-3.010900	2.713000	-8.167300	28.690174	0.000264	21.003243
2697.775387	-3.041400	2.705900	-8.228300	28.717248	0.000266	21.012019
2698.777190	-3.001900	2.704800	-8.118700	28.745199	0.000267	20.988021
2699.782744	-2.976100	2.702500	-8.041200	28.744424	0.000265	21.011892
2700.790297	-3.009200	2.697500	-8.116400	28.793188	0.000265	20.992737
2701.793984	-3.044700	2.693000	-8.198100	28.836682	0.000264	20.983921
2702.791142	-2.965100	2.691100	-7.978700	28.832039	0.000264	20.999631
2703.780182	-2.999900	2.686100	-8.056600	28.866679	0.000265	21.004179
2704.777068	-3.011400	2.682200	-8.076400	28.900033	0.000265	20.993212
2705.783212	-3.005700	2.678800	-8.050000	28.905248	0.000267	21.011739
2706.785416	-2.983200	2.674900	-7.978900	28.874668	0.000268	20.986152
2707.778438	-3.035500	2.669600	-8.102500	28.843413	0.000264	20.990227
2708.786526	-2.996000	2.665800	-7.986000	28.772479	0.000264	20.995110
2709.778349	-3.018700	2.663100	-8.037900	28.742836	0.000266	20.979953
2710.781754	-2.983700	2.659400	-7.933000	28.717862	0.000264	20.998890
2711.774296	-3.004500	2.654900	-7.975800	28.741489	0.000265	21.011780
2712.778618	-3.004200	2.650300	-7.960900	28.748346	0.000265	20.993086
2713.777303	-3.037200	2.644800	-8.032100	28.746667	0.000266	20.981439
2714.773766	-3.017700	2.640700	-7.967300	28.785126	0.000264	20.978929
2715.775244	-3.018800	2.638000	-7.961400	28.811371	0.000266	20.993036
2716.782063	-3.005000	2.633300	-7.912000	28.815798	0.000264	20.978531
2717.783240	-2.995000	2.629700	-7.874900	28.864279	0.000265	20.993229
2718.784615	-2.998100	2.623500	-7.864900	28.873909	0.000265	20.992498
2719.782681	-3.010600	2.618800	-7.882800	28.863147	0.000265	21.004415
2720.774853	-2.982200	2.613800	-7.793400	28.872294	0.000266	21.001302
2721.789815	-2.980800	2.611800	-7.784600	28.889009	0.000266	20.979737
2722.784063	-2.998500	2.605700	-7.812300	28.928812	0.000266	20.995178
2723.786110	-2.986000	2.599000	-7.758900	28.978228	0.000268	20.987118
2724.790764	-3.013700	2.592900	-7.812800	28.991686	0.000266	20.967015
2725.776049	-3.018100	2.587800	-7.809000	29.028800	0.000268	20.981174
2726.787559	-2.999100	2.585900	-7.754300	29.018104	0.000266	20.993154
2727.785701	-3.023200	2.579500	-7.797700	29.006454	0.000267	20.998011
2728.785839	-2.998100	2.572600	-7.711800	29.026105	0.000265	20.983674
2729.782946	-3.017900	2.568300	-7.750300	28.999726	0.000266	20.983174
2730.782639	-3.041700	2.561800	-7.790300	28.987643	0.000267	20.979536
2731.776926	-2.985800	2.557600	-7.635500	28.994321	0.000266	21.001907
2732.789693	-3.017400	2.551200	-7.697400	28.981895	0.000266	20.992234
2733.788898	-3.008100	2.545100	-7.654300	28.945886	0.000266	20.984880
2734.787020	-3.020600	2.537900	-7.665200	28.935557	0.000266	20.983483
2735.786519	-3.019500	2.532400	-7.645900	28.890808	0.000264	20.988186
2736.784319	-2.955300	2.527400	-7.467900	28.856970	0.000268	20.979230
2737.781114	-2.967400	2.523100	-7.485200	28.836159	0.000267	20.988609
2738.777322	-2.987800	2.516400	-7.517100	28.840306	0.000265	20.996579
2739.779366	-2.998000	2.509900	-7.523900	28.833310	0.000268	20.976259
2740.775436	-3.024500	2.501800	-7.565800	28.792907	0.000265	20.982973
2741.780511	-3.032000	2.495900	-7.565800	28.806812	0.000265	20.968533
