LabVIEW Measurement	
Writer_Version	2
Reader_Version	2
Separator	Tab
Decimal_Separator	.
Multi_Headings	No
X_Columns	One
Time_Pref	Absolute
Operator	admin
Description	Clolumns are: time, Current, Voltage, Power, Battery Temp, and Chamber Temp
Date	2024/05/20
Time	16:37:47.9793305397033691407
***End_of_Header***	
	
Channels	6						
Samples	1	1	1	1	1	1	
Date	2024/06/05	2024/06/05	2024/06/05	2024/06/05	2024/06/05	2024/06/05	
Time	06:32:06.1500687599182128906	06:32:06.1600742340087890625	06:32:06.1660871505737304687	06:32:06.1314973831176757812	06:32:06.1314973831176757812	06:32:06.1314973831176757812	
X_Dimension	Time	Time	Time	Time	Time	Time	
X0	0.0000000000000000E+0	0.0000000000000000E+0	0.0000000000000000E+0	0.0000000000000000E+0	0.0000000000000000E+0	0.0000000000000000E+0	
Delta_X	1.000000	1.000000	1.000000	1.000000	1.000000	1.000000	
***End_of_Header***							
X_Value	Untitled	Untitled 1	Untitled 2	Untitled 3	Untitled 4	Untitled 5	Comment
0.000000	0.020311	4.133600	0.083986	20.852720	-3.212058E-5	20.866470
1.000690	-3.012400	4.039800	-12.168000	20.823993	-3.291245E-5	20.854337
1.999561	-2.994900	4.034500	-12.082000	20.816034	-3.251652E-5	20.859654
3.002980	-3.013000	4.029900	-12.141000	20.829462	-3.542007E-5	20.874979
4.002691	-2.996700	4.027600	-12.068000	20.821825	-3.443022E-5	20.875876
4.999638	-3.007700	4.023400	-12.100000	20.841460	-3.429824E-5	20.882709
6.001498	-3.003400	4.021400	-12.076000	20.844110	-3.706982E-5	20.879195
7.003084	-3.004300	4.020300	-12.077000	20.830512	-3.782870E-5	20.870813
8.002550	-3.010000	4.017500	-12.091000	20.834703	-3.631093E-5	20.872159
9.001476	-2.993000	4.015500	-12.018000	20.838852	-3.862058E-5	20.880101
10.002278	-3.017700	4.012900	-12.109000	20.861839	-3.931347E-5	20.862787
11.002671	-3.012700	4.011900	-12.085000	20.834356	-3.961043E-5	20.879872
12.004423	-3.013900	4.010300	-12.085000	20.830665	-3.924748E-5	20.887086
13.001359	-2.999500	4.010200	-12.027000	20.847886	-4.033632E-5	20.868748
14.002255	-2.985400	4.008400	-11.966000	20.841121	-4.165612E-5	20.874310
15.001379	-3.020500	4.005400	-12.098000	20.843450	-4.152414E-5	20.870475
16.002077	-3.001600	4.005400	-12.022000	20.845448	-4.238200E-5	20.873895
17.001528	-3.015800	4.002800	-12.070000	20.842205	-4.304190E-5	20.871601
18.006198	-3.009000	4.001400	-12.039000	20.851857	-4.455967E-5	20.873193
19.005727	-3.011800	4.001200	-12.050000	20.857928	-4.469165E-5	20.884479
20.006406	-2.989300	4.000800	-11.959000	20.852340	-4.228302E-5	20.877468
21.005619	-2.998600	3.998600	-11.989000	20.876351	-4.564850E-5	20.863075
22.009326	-2.995800	3.997000	-11.973000	20.871254	-4.620942E-5	20.855608
23.004790	-2.964800	3.996400	-11.848000	20.883310	-4.703429E-5	20.861027
24.009109	-2.990700	3.996200	-11.951000	20.854533	-4.700130E-5	20.859274
25.011855	-3.013600	3.994400	-12.036000	20.871550	-4.736424E-5	20.874869
26.011365	-3.020600	3.992400	-12.058000	20.878662	-4.977287E-5	20.873921
27.007699	-2.990100	3.992900	-11.938000	20.876105	-4.716627E-5	20.852399
28.014614	-2.996300	3.992500	-11.962000	20.875267	-5.105968E-5	20.866259
29.011178	-3.034200	3.990000	-12.105000	20.883327	-4.812313E-5	20.867681
30.010170	-2.993800	3.990500	-11.946000	20.894672	-4.904698E-5	20.859113
31.011571	-3.005400	3.989300	-11.989000	20.865327	-4.891500E-5	20.849681
32.008820	-2.995200	3.988100	-11.945000	20.877307	-5.125765E-5	20.842222
33.015506	-3.003400	3.987100	-11.974000	20.894003	-4.997084E-5	20.839479
34.011673	-3.020000	3.986600	-12.038000	20.885113	-5.132364E-5	20.865200
35.008624	-3.005200	3.984500	-11.973000	20.880279	-5.006983E-5	20.858469
36.011734	-2.999600	3.984100	-11.949000	20.901580	-5.198353E-5	20.866021
37.011238	-3.003500	3.983300	-11.963000	20.891429	-5.297338E-5	20.844017
38.010963	-2.999100	3.982200	-11.942000	20.911511	-5.307237E-5	20.837548
39.011139	-3.014700	3.981900	-12.004000	20.916625	-5.515105E-5	20.841714
40.011343	-3.006200	3.981200	-11.967000	20.896517	-5.346831E-5	20.855743
41.015410	-2.998400	3.979300	-11.930000	20.922365	-5.280841E-5	20.848402
42.013469	-3.010200	3.979400	-11.977000	20.916955	-5.617389E-5	20.839673
43.016292	-3.006000	3.978800	-11.959000	20.901233	-5.198353E-5	20.844338
44.015243	-2.988900	3.978400	-11.890000	20.922068	-5.419420E-5	20.852373
45.016928	-2.996100	3.978600	-11.920000	20.926555	-5.465613E-5	20.854490
46.018400	-2.995200	3.977700	-11.913000	20.921696	-5.574496E-5	20.819285
47.017979	-2.984900	3.977000	-11.870000	20.919799	-5.755968E-5	20.838725
48.017992	-2.978900	3.975700	-11.842000	20.942480	-5.620689E-5	20.832959
49.022684	-2.986200	3.975800	-11.872000	20.931677	-5.775765E-5	20.851078
50.016013	-3.006400	3.974100	-11.947000	20.928740	-5.627288E-5	20.841502
51.018760	-2.999900	3.973800	-11.921000	20.946730	-5.812060E-5	20.813502
52.015394	-3.011200	3.973000	-11.962000	20.954739	-5.920943E-5	20.843323
53.020152	-2.997100	3.972900	-11.906000	20.949685	-5.920943E-5	20.824044
54.015326	-3.004100	3.972500	-11.934000	20.946535	-5.835156E-5	20.838437
55.019722	-2.984500	3.971700	-11.852000	20.947120	-5.699877E-5	20.835703
56.020808	-2.999900	3.972400	-11.916000	20.956949	-5.755968E-5	20.818507
57.020106	-3.016200	3.971600	-11.977000	20.957296	-5.973735E-5	20.823121
58.017899	-2.998900	3.970500	-11.906000	20.950862	-5.864851E-5	20.830911
59.019547	-3.002700	3.969300	-11.918000	20.975336	-6.000131E-5	20.827414
60.023073	-3.003500	3.969900	-11.923000	20.968361	-5.934141E-5	20.821386
61.017247	-3.000300	3.969100	-11.907000	20.962901	-6.112314E-5	20.821140
62.018362	-2.995900	3.968900	-11.889000	20.991743	-6.112314E-5	20.849512
63.020911	-2.993500	3.969200	-11.880000	20.962071	-6.184902E-5	20.827422
64.021801	-2.996700	3.967800	-11.889000	20.994943	-5.967136E-5	20.827109
65.022989	-2.990100	3.967200	-11.861000	20.962029	-6.227796E-5	20.825958
66.020346	-2.981500	3.966600	-11.825000	20.998812	-6.161806E-5	20.816755
67.023643	-3.015600	3.966000	-11.960000	20.995172	-6.267390E-5	20.813588
68.024117	-3.002700	3.965600	-11.906000	21.008429	-6.102415E-5	20.827796
69.024903	-2.987600	3.964400	-11.843000	21.001090	-6.336679E-5	20.818558
70.021019	-2.999900	3.965300	-11.895000	20.986876	-6.366375E-5	20.835162
71.025914	-3.027400	3.963800	-11.999000	20.998643	-6.359776E-5	20.835551
72.024002	-3.011100	3.963800	-11.935000	21.013822	-6.240994E-5	20.800947
73.024035	-2.997500	3.963200	-11.879000	21.012146	-6.273989E-5	20.809228
74.025179	-3.011500	3.963000	-11.933000	21.022600	-6.372974E-5	20.833434
75.020767	-3.013700	3.962700	-11.941000	21.012400	-6.372974E-5	20.827025
76.030945	-2.995300	3.962900	-11.869000	21.031353	-6.382872E-5	20.813740
77.026659	-2.991700	3.961300	-11.850000	21.009902	-6.227796E-5	20.828321
78.027606	-2.993800	3.961500	-11.859000	21.020475	-6.623735E-5	20.811869
79.023098	-2.983600	3.960600	-11.816000	21.027570	-6.303684E-5	20.802844
80.026621	-2.984500	3.960700	-11.820000	21.030710	-6.277288E-5	20.820683
81.027507	-2.988000	3.959000	-11.828000	21.020069	-6.465360E-5	20.818101
82.028358	-2.985100	3.960600	-11.822000	21.031083	-6.333380E-5	20.807306
83.028501	-2.980800	3.959600	-11.802000	21.033648	-6.376273E-5	20.829311
84.030734	-2.996500	3.958200	-11.860000	21.037110	-6.683126E-5	20.807170
85.028819	-2.997600	3.959200	-11.868000	21.050612	-6.613837E-5	20.821623
86.029410	-3.009200	3.958700	-11.911000	21.071394	-6.600639E-5	20.809219
87.032458	-3.014200	3.958400	-11.930000	21.079503	-6.907492E-5	20.823494
88.026373	-2.983500	3.957600	-11.806000	21.061413	-6.683126E-5	20.814883
89.030204	-2.998600	3.956300	-11.862000	21.063555	-6.676527E-5	20.811810
90.029720	-3.003000	3.956800	-11.881000	21.053744	-6.825005E-5	20.826652
91.030296	-3.018000	3.956900	-11.941000	21.072164	-6.739218E-5	20.808567
92.032311	-3.015200	3.956000	-11.927000	21.058687	-6.788710E-5	20.812631
93.030509	-3.021700	3.955200	-11.950000	21.075905	-6.570943E-5	20.819896
94.030487	-2.998000	3.954900	-11.855000	21.060287	-6.772213E-5	20.817550
95.033957	-2.967800	3.954400	-11.735000	21.071063	-6.801908E-5	20.808889
96.025405	-3.003200	3.953700	-11.873000	21.080459	-6.775512E-5	20.802166
97.026798	-2.975600	3.954100	-11.764000	21.064816	-7.069167E-5	20.806907
98.027829	-2.970600	3.953700	-11.743000	21.074204	-6.993279E-5	20.796383
99.027733	-2.997100	3.952700	-11.846000	21.072146	-6.900893E-5	20.803334
100.029881	-2.976800	3.953800	-11.768000	21.112659	-6.933888E-5	20.795968
101.028950	-3.024100	3.952000	-11.949000	21.091404	-7.105462E-5	20.796044
102.026186	-3.013500	3.951900	-11.908000	21.094595	-7.059269E-5	20.818202
103.029606	-3.012300	3.951600	-11.902000	21.106319	-7.158254E-5	20.819023
104.029784	-2.989500	3.952100	-11.814000	21.094638	-7.204447E-5	20.802123
105.026739	-3.003400	3.951000	-11.866000	21.106040	-7.016375E-5	20.797881
106.027093	-2.995700	3.950800	-11.834000	21.105295	-6.986680E-5	20.813257
107.029830	-3.007300	3.949500	-11.877000	21.111703	-7.052670E-5	20.813028
108.033658	-3.021300	3.948700	-11.929000	21.120802	-7.029573E-5	20.809328
109.033654	-3.020100	3.950100	-11.928000	21.095975	-7.178051E-5	20.802986
110.029007	-3.023400	3.950000	-11.942000	21.117475	-7.102162E-5	20.811690
111.029858	-2.996800	3.950100	-11.837000	21.106302	-6.980081E-5	20.820902
112.030858	-3.003300	3.948700	-11.858000	21.135581	-7.191249E-5	20.798507
113.033098	-2.999800	3.947800	-11.841000	21.134438	-7.148355E-5	20.812537
114.030552	-3.000400	3.948200	-11.845000	21.133752	-7.207746E-5	20.795256
115.030489	-3.026200	3.948200	-11.947000	21.120133	-7.131858E-5	20.784477
116.032717	-2.999100	3.949200	-11.843000	21.133041	-7.300132E-5	20.789328
117.034454	-2.981000	3.948100	-11.768000	21.118050	-7.389218E-5	20.794248
118.034682	-2.998500	3.947400	-11.835000	21.166916	-7.257238E-5	20.789548
119.038665	-2.998200	3.946400	-11.832000	21.142259	-7.283634E-5	20.786221
120.035626	-2.997100	3.947700	-11.831000	21.139211	-7.306731E-5	20.787440
121.034571	-3.011400	3.945600	-11.880000	21.155175	-7.319929E-5	20.795822
122.037251	-3.008500	3.944900	-11.867000	21.167685	-7.379320E-5	20.797431
123.037872	-2.991300	3.947000	-11.806000	21.152763	-7.620183E-5	20.802892
124.034357	-3.017700	3.944600	-11.902000	21.157173	-7.527797E-5	20.776009
125.039661	-2.992600	3.945600	-11.807000	21.153101	-7.600386E-5	20.789480
126.037433	-2.999100	3.945200	-11.830000	21.162073	-7.564092E-5	20.775695
127.037959	-3.016900	3.943100	-11.894000	21.179535	-7.603685E-5	20.797904
128.035494	-2.999200	3.944000	-11.827000	21.151188	-7.732366E-5	20.807955
129.036496	-2.987900	3.944100	-11.782000	21.157587	-7.465107E-5	20.786380
130.040369	-2.988800	3.945000	-11.789000	21.180220	-7.534396E-5	20.779624
131.038136	-2.990100	3.942600	-11.788000	21.181439	-7.508000E-5	20.779895
132.041072	-2.981500	3.943400	-11.756000	21.188718	-7.649878E-5	20.763942
133.039150	-2.987100	3.943500	-11.779000	21.184376	-7.626782E-5	20.781410
134.043229	-3.020000	3.942100	-11.905000	21.207796	-7.821452E-5	20.790614
135.045583	-3.003200	3.941500	-11.836000	21.181972	-7.451909E-5	20.778531
136.046657	-2.988100	3.942500	-11.778000	21.197809	-7.468406E-5	20.777778
137.044398	-2.996300	3.941700	-11.810000	21.180042	-7.771960E-5	20.778971
138.043505	-3.002600	3.941500	-11.834000	21.193365	-7.524498E-5	20.767168
139.044232	-3.008200	3.942300	-11.859000	21.195828	-7.564092E-5	20.773900
140.043601	-2.995900	3.941500	-11.807000	21.201143	-7.461807E-5	20.751715
141.045694	-3.009700	3.939800	-11.857000	21.212096	-7.461807E-5	20.775474
142.042300	-2.984100	3.940400	-11.757000	21.210522	-7.646579E-5	20.773900
143.044535	-3.006800	3.941800	-11.851000	21.206374	-7.455208E-5	20.760267
144.048769	-2.999600	3.940800	-11.820000	21.214406	-7.352924E-5	20.759293
145.048765	-3.014600	3.941000	-11.880000	21.216497	-7.686173E-5	20.761385
146.050129	-3.011000	3.940100	-11.863000	21.233162	-7.610284E-5	20.779005
147.049413	-3.016300	3.939200	-11.881000	21.227822	-7.577289E-5	20.782671
148.047203	-2.998800	3.941000	-11.817000	21.220018	-7.564092E-5	20.744992
149.049078	-2.985900	3.939100	-11.761000	21.225782	-7.573990E-5	20.763087
150.046654	-2.995000	3.939900	-11.799000	21.216125	-7.659777E-5	20.771918
151.046604	-2.994200	3.940200	-11.797000	21.243776	-7.663076E-5	20.786304
152.052876	-3.004900	3.938700	-11.834000	21.244783	-7.745564E-5	20.765974
153.048388	-3.020900	3.936500	-11.890000	21.241102	-7.626782E-5	20.770352
154.050687	-3.027900	3.937000	-11.920000	21.252477	-7.725767E-5	20.767981
155.045993	-2.990200	3.938500	-11.776000	21.223801	-7.643279E-5	20.761105
156.046515	-2.983500	3.937500	-11.746000	21.253476	-7.646579E-5	20.754755
157.046120	-3.007400	3.935900	-11.835000	21.261677	-7.471706E-5	20.752054
158.045424	-3.004200	3.936500	-11.824000	21.258012	-7.610284E-5	20.762613
159.046302	-2.983900	3.937000	-11.747000	21.256006	-7.587188E-5	20.749700
160.046376	-2.980500	3.937200	-11.734000	21.270927	-7.514599E-5	20.762257
161.046745	-3.003700	3.936200	-11.822000	21.263335	-7.738965E-5	20.757507
162.047892	-3.024700	3.936100	-11.905000	21.270369	-7.811554E-5	20.738464
163.048848	-2.990800	3.937000	-11.774000	21.272984	-7.722467E-5	20.754357
164.050619	-3.007100	3.934100	-11.829000	21.272705	-7.540995E-5	20.766406
165.054536	-3.006700	3.935000	-11.830000	21.284630	-7.758762E-5	20.760318
166.049245	-2.993900	3.935100	-11.780000	21.283419	-7.775259E-5	20.732553
167.046462	-3.022300	3.934500	-11.889000	21.291146	-7.818153E-5	20.752138
168.048853	-2.998000	3.934800	-11.796000	21.272586	-7.755462E-5	20.756804
169.045568	-3.009600	3.934500	-11.841000	21.318356	-7.603685E-5	20.736685
170.048048	-2.989300	3.935400	-11.762000	21.289987	-7.791757E-5	20.745288
171.047561	-3.003300	3.934000	-11.813000	21.300727	-7.913838E-5	20.739911
172.047561	-3.006400	3.932100	-11.821000	21.283140	-7.732366E-5	20.755508
173.055379	-2.980100	3.932600	-11.719000	21.307226	-7.854447E-5	20.749259
174.045464	-2.992600	3.933600	-11.771000	21.316054	-7.976528E-5	20.749081
175.051326	-2.975200	3.932800	-11.699000	21.308843	-7.712569E-5	20.735228
176.050941	-3.011500	3.932000	-11.840000	21.316434	-7.758762E-5	20.757997
177.047915	-3.012900	3.931400	-11.844000	21.288472	-7.702670E-5	20.730021
178.048162	-3.017300	3.932500	-11.865000	21.301945	-7.917138E-5	20.744449
179.053921	-3.004000	3.931900	-11.810000	21.296241	-7.864346E-5	20.754864
180.053845	-2.992500	3.932300	-11.766000	21.309613	-7.758762E-5	20.751647
181.057135	-3.007000	3.931900	-11.823000	21.309232	-7.669675E-5	20.750317
182.054489	-2.970600	3.932000	-11.679000	21.292492	-7.752163E-5	20.737836
183.051540	-2.985800	3.931500	-11.737000	21.316434	-7.742264E-5	20.758471
184.057226	-2.983500	3.931500	-11.729000	21.339293	-7.656477E-5	20.722544
185.054977	-2.975100	3.932700	-11.699000	21.333758	-7.719168E-5	20.738344
186.054476	-3.003900	3.930500	-11.805000	21.345573	-7.630081E-5	20.732620
187.051605	-3.014600	3.928700	-11.843000	21.320107	-7.666376E-5	20.740808
188.053113	-2.999100	3.931100	-11.789000	21.331016	-7.745564E-5	20.732756
189.055149	-3.007600	3.929800	-11.818000	21.336450	-7.762061E-5	20.738666
190.056971	-3.004300	3.929400	-11.803000	21.335519	-7.755462E-5	20.718293
191.060356	-3.011600	3.928400	-11.829000	21.330348	-7.577289E-5	20.739674
192.056352	-3.001300	3.929200	-11.792000	21.352470	-7.729066E-5	20.741418
193.057867	-2.995000	3.929200	-11.767000	21.330788	-7.831351E-5	20.738217
194.058884	-2.967600	3.930000	-11.662000	21.345987	-7.861046E-5	20.742993
195.057991	-2.983300	3.929800	-11.722000	21.343220	-7.768660E-5	20.713670
196.054504	-3.027000	3.928400	-11.891000	21.360967	-7.715868E-5	20.705346
197.055210	-3.026700	3.928200	-11.889000	21.338362	-7.699371E-5	20.712129
198.057921	-2.996200	3.927600	-11.766000	21.352394	-7.778559E-5	20.724271
199.060555	-2.985000	3.928000	-11.723000	21.368744	-7.699371E-5	20.725931
200.058233	-2.980200	3.928100	-11.706000	21.352733	-7.798356E-5	20.724610
201.056260	-3.008200	3.927600	-11.813000	21.346817	-7.547594E-5	20.714424
202.055846	-3.024500	3.927400	-11.877000	21.388311	-7.735665E-5	20.718005
203.055941	-3.024800	3.926700	-11.877000	21.372959	-7.580589E-5	20.721613
204.062501	-2.991800	3.928100	-11.751000	21.366494	-7.672975E-5	20.722256
205.061384	-2.996100	3.926400	-11.763000	21.379256	-7.692772E-5	20.714161
206.059486	-2.994400	3.926200	-11.755000	21.375405	-7.616883E-5	20.723586
207.063342	-2.996800	3.925500	-11.763000	21.385755	-7.600386E-5	20.708336
208.061682	-2.998000	3.926800	-11.771000	21.377504	-7.633381E-5	20.714306
209.061640	-2.996900	3.927000	-11.767000	21.383944	-7.696071E-5	20.702256
210.064434	-2.996400	3.926900	-11.765000	21.398077	-7.468406E-5	20.705017
211.062016	-2.989800	3.926400	-11.739000	21.376946	-7.508000E-5	20.717066
212.059799	-2.997400	3.925400	-11.765000	21.397789	-7.755462E-5	20.709945
213.064261	-3.007900	3.925700	-11.807000	21.392026	-7.699371E-5	20.707972
214.062251	-3.005600	3.925500	-11.797000	21.403595	-7.653178E-5	20.704373
215.066543	-3.002600	3.925900	-11.786000	21.390469	-7.636680E-5	20.698353
216.063322	-3.014500	3.925200	-11.831000	21.395225	-7.613584E-5	20.701689
217.062350	-2.998300	3.925800	-11.770000	21.387719	-7.623482E-5	20.713146
218.063644	-3.003100	3.925300	-11.787000	21.396766	-7.824752E-5	20.705127
219.065054	-2.977800	3.924700	-11.686000	21.403874	-7.606985E-5	20.697066
220.066697	-2.996400	3.924700	-11.759000	21.405694	-7.432112E-5	20.701257
221.066821	-2.999500	3.923800	-11.768000	21.409604	-7.729066E-5	20.690944
222.065770	-3.012100	3.924400	-11.821000	21.410179	-7.666376E-5	20.692468
223.069035	-3.004200	3.924100	-11.788000	21.436023	-7.811554E-5	20.723544
224.067383	-3.004500	3.922700	-11.785000	21.421383	-7.620183E-5	20.689928
225.066538	-3.009000	3.922400	-11.802000	21.425995	-7.359523E-5	20.692172
226.068449	-3.010000	3.923000	-11.807000	21.447321	-7.343025E-5	20.710191
227.068980	-2.987800	3.923000	-11.721000	21.415096	-7.448609E-5	20.698810
228.067454	-2.980600	3.923700	-11.694000	21.444452	-7.521198E-5	20.686456
229.067989	-2.996200	3.923000	-11.753000	21.424692	-7.402416E-5	20.701774
230.066506	-3.012600	3.922400	-11.815000	21.461537	-7.445310E-5	20.711139
231.069531	-3.021800	3.921500	-11.849000	21.443335	-7.524498E-5	20.679648
232.072762	-2.987600	3.922200	-11.717000	21.463889	-7.376020E-5	20.685516
233.074942	-3.004300	3.923000	-11.785000	21.441422	-7.491503E-5	20.702392
234.072732	-2.994300	3.921700	-11.742000	21.442742	-7.455208E-5	20.691858
235.072059	-2.994600	3.921900	-11.743000	21.472098	-7.257238E-5	20.704162
236.075403	-2.975400	3.922700	-11.671000	21.447642	-7.448609E-5	20.690122
237.074994	-3.006200	3.922300	-11.790000	21.453371	-7.359523E-5	20.699174
238.077096	-2.999400	3.920300	-11.757000	21.454505	-7.366122E-5	20.684186
239.074392	-2.993200	3.921000	-11.736000	21.456569	-7.352924E-5	20.690046
240.076598	-2.977000	3.922400	-11.676000	21.460521	-7.379320E-5	20.684042
241.076640	-2.992700	3.921200	-11.734000	21.465827	-7.409015E-5	20.703577
242.078301	-3.011100	3.920300	-11.804000	21.464710	-7.442010E-5	20.683018
243.077549	-2.983800	3.920600	-11.697000	21.474111	-7.405716E-5	20.704280
244.078135	-2.998900	3.919500	-11.752000	21.491746	-7.296832E-5	20.708175
245.078517	-3.000500	3.920100	-11.761000	21.492161	-7.336426E-5	20.719022
246.076239	-3.002800	3.920600	-11.772000	21.491645	-7.237441E-5	20.709022
247.080022	-3.024300	3.920100	-11.854000	21.491898	-7.138457E-5	20.691257
248.077663	-2.980500	3.919700	-11.682000	21.494683	-7.217644E-5	20.694991
249.079514	-3.009700	3.919000	-11.793000	21.482667	-7.293533E-5	20.707625
250.081956	-3.000700	3.919000	-11.759000	21.492271	-7.234142E-5	20.697794
251.082899	-3.025000	3.918900	-11.854000	21.492567	-7.131858E-5	20.690029
252.081171	-2.989100	3.918600	-11.712000	21.501257	-7.362822E-5	20.694932
253.085679	-3.006100	3.919400	-11.781000	21.517183	-7.184650E-5	20.670087
254.083190	-3.002500	3.917800	-11.761000	21.505412	-7.234142E-5	20.712367
255.081382	-3.018100	3.918300	-11.825000	21.520550	-7.158254E-5	20.709496
256.082555	-3.027200	3.918300	-11.860000	21.529283	-7.135157E-5	20.700216
257.080292	-2.990100	3.919000	-11.718000	21.531533	-7.283634E-5	20.667377
258.083083	-3.015900	3.917100	-11.813000	21.536492	-7.201147E-5	20.687514
259.083010	-2.974600	3.919300	-11.657000	21.522048	-7.115360E-5	20.710047
260.083375	-2.978600	3.918700	-11.670000	21.522031	-7.253939E-5	20.690588
261.088706	-2.990900	3.916700	-11.713000	21.535722	-7.201147E-5	20.683424
262.082562	-2.988600	3.918000	-11.709000	21.538887	-6.927289E-5	20.688488
263.080195	-2.985700	3.917400	-11.694000	21.541662	-7.075766E-5	20.700275
264.086474	-3.017700	3.916800	-11.819000	21.537719	-7.161553E-5	20.693958
265.084194	-3.010100	3.915900	-11.786000	21.537177	-6.937187E-5	20.707167
266.081594	-2.995500	3.916700	-11.731000	21.547526	-7.145056E-5	20.699978
267.085195	-3.003800	3.916300	-11.763000	21.549599	-6.933888E-5	20.696363
268.084296	-2.997200	3.918000	-11.742000	21.562740	-6.943786E-5	20.695761
269.089467	-3.006100	3.916000	-11.770000	21.544632	-7.055969E-5	20.697557
270.084386	-3.003400	3.915000	-11.758000	21.565667	-6.986680E-5	20.711968
271.085511	-3.001100	3.914700	-11.747000	21.572436	-6.937187E-5	20.706414
272.085763	-2.980100	3.916100	-11.669000	21.564829	-6.900893E-5	20.715398
273.083172	-2.999600	3.913800	-11.739000	21.564677	-6.762314E-5	20.719513
274.086592	-3.004900	3.914200	-11.761000	21.557527	-6.963583E-5	20.691968
275.085325	-3.011300	3.914100	-11.785000	21.572512	-6.940487E-5	20.726406
276.085627	-2.993100	3.916200	-11.720000	21.577056	-6.864598E-5	20.700130
277.089632	-3.007800	3.914000	-11.772000	21.586668	-6.897593E-5	20.703111
278.086097	-3.000100	3.914900	-11.744000	21.572021	-6.861299E-5	20.686082
279.085071	-2.991100	3.915000	-11.709000	21.596576	-6.825005E-5	20.713501
280.085861	-3.002000	3.913100	-11.746000	21.578147	-6.831604E-5	20.714500
281.086206	-3.013000	3.914200	-11.792000	21.585009	-6.877796E-5	20.700977
282.086311	-3.021100	3.912800	-11.819000	21.585898	-6.825005E-5	20.678156
283.085294	-3.021200	3.912300	-11.819000	21.610342	-6.834903E-5	20.716371
284.086043	-3.002300	3.913200	-11.747000	21.605367	-6.683126E-5	20.710918
285.092687	-2.991300	3.913200	-11.704000	21.616874	-6.594040E-5	20.699199
286.086183	-2.992200	3.912800	-11.706000	21.603497	-6.716121E-5	20.705727
287.087707	-2.978700	3.912700	-11.654000	21.606865	-6.623735E-5	20.704830
288.089328	-2.991500	3.913800	-11.707000	21.592421	-6.762314E-5	20.717878
289.086499	-2.977700	3.913100	-11.650000	21.600722	-6.521451E-5	20.717650
290.087854	-3.000300	3.912200	-11.737000	21.623321	-6.636933E-5	20.703280
291.093610	-3.001900	3.911900	-11.742000	21.607761	-6.462060E-5	20.723272
292.090616	-3.002700	3.911600	-11.745000	21.644549	-6.650131E-5	20.720732
293.087493	-3.008500	3.911700	-11.767000	21.628313	-6.587441E-5	20.699741
294.087851	-3.003700	3.912800	-11.752000	21.628398	-6.458761E-5	20.696980
295.088922	-2.985300	3.912400	-11.678000	21.634879	-6.673228E-5	20.728124
296.097703	-2.988000	3.912000	-11.688000	21.655159	-6.402669E-5	20.715228
297.091887	-3.015400	3.911700	-11.794000	21.677758	-6.448862E-5	20.714136
298.092532	-2.983400	3.911400	-11.668000	21.636715	-6.425766E-5	20.712417
299.091879	-2.980100	3.911100	-11.655000	21.648763	-6.491756E-5	20.713094
300.092564	-2.973600	3.911300	-11.630000	21.646918	-6.382872E-5	20.710774
301.090024	-2.998200	3.910600	-11.724000	21.669263	-6.353177E-5	20.725076
302.089762	-2.982300	3.911600	-11.664000	21.657224	-6.221197E-5	20.722984
303.094073	-2.988500	3.910400	-11.685000	21.681700	-6.541248E-5	20.716185
304.093378	-2.996500	3.910500	-11.717000	21.669881	-6.323481E-5	20.735652
305.093047	-3.030800	3.910000	-11.848000	21.688714	-6.369674E-5	20.712772
306.094300	-2.994800	3.910700	-11.711000	21.670685	-6.363075E-5	20.719860
307.095125	-3.021500	3.910300	-11.814000	21.678519	-6.386172E-5	20.733391
308.093807	-3.006400	3.910100	-11.754000	21.682766	-6.168405E-5	20.729580
309.094206	-3.001500	3.908800	-11.731000	21.672614	-6.168405E-5	20.733645
310.093667	-3.014800	3.909200	-11.785000	21.687682	-6.264090E-5	20.729284
311.090499	-2.986700	3.910000	-11.676000	21.695609	-6.221197E-5	20.723467
312.099010	-3.016000	3.908700	-11.788000	21.676692	-6.415867E-5	20.722078
313.094146	-3.009100	3.909800	-11.764000	21.695059	-6.217897E-5	20.741884
314.095418	-3.030100	3.908400	-11.842000	21.690846	-6.198100E-5	20.724390
315.095356	-3.005600	3.907800	-11.744000	21.704264	-6.125512E-5	20.749199
316.095170	-2.992000	3.907900	-11.691000	21.693917	-6.234395E-5	20.734102
317.093131	-3.004800	3.907700	-11.741000	21.698985	-6.191501E-5	20.747709
318.098603	-3.018500	3.906700	-11.790000	21.708114	-6.191501E-5	20.749733
319.097103	-3.011400	3.908400	-11.769000	21.712327	-6.247593E-5	20.721706
320.099242	-2.991600	3.907600	-11.689000	21.716574	-6.105715E-5	20.728801
321.100922	-2.990900	3.909100	-11.691000	21.727699	-6.092517E-5	20.743255
322.101357	-2.986300	3.908500	-11.671000	21.716033	-5.986933E-5	20.738217
323.104887	-3.010700	3.907600	-11.764000	21.737902	-6.085918E-5	20.743984
324.097237	-2.999100	3.907700	-11.718000	21.741117	-5.957237E-5	20.741037
325.103038	-3.031900	3.905500	-11.840000	21.719205	-5.986933E-5	20.743763
326.103010	-3.010200	3.906600	-11.758000	21.727065	-5.897846E-5	20.720334
327.103698	-3.018200	3.906000	-11.788000	21.732919	-5.805461E-5	20.748006
328.108256	-2.985800	3.908200	-11.669000	21.737395	-5.841755E-5	20.761020
329.102354	-2.997600	3.905500	-11.706000	21.758198	-5.584394E-5	20.733476
330.102348	-2.997300	3.905600	-11.705000	21.740144	-5.627288E-5	20.731528
331.107188	-3.000200	3.906000	-11.717000	21.733867	-5.887948E-5	20.756541
332.105215	-2.999200	3.906700	-11.716000	21.753833	-5.637186E-5	20.753763
333.106165	-3.004100	3.905000	-11.730000	21.741075	-5.686679E-5	20.740521
334.111317	-3.024800	3.904600	-11.809000	21.756007	-5.492008E-5	20.737447
335.105064	-2.992900	3.905900	-11.689000	21.745483	-5.432618E-5	20.748251
336.107062	-2.976800	3.906700	-11.628000	21.754095	-5.557998E-5	20.745491
337.107901	-3.013200	3.904100	-11.763000	21.767952	-5.614090E-5	20.753196
338.103856	-3.003200	3.905700	-11.729000	21.765279	-5.455714E-5	20.752891
339.107528	-3.003200	3.904400	-11.725000	21.782351	-5.386425E-5	20.764288
340.106526	-2.985900	3.904900	-11.659000	21.780752	-5.515105E-5	20.755101
341.109872	-2.989400	3.904300	-11.671000	21.775964	-5.531602E-5	20.759792
342.107098	-2.990700	3.904100	-11.676000	21.748469	-5.432618E-5	20.755508
343.106923	-2.996400	3.904600	-11.698000	21.796538	-5.525003E-5	20.746244
344.109495	-3.003400	3.903300	-11.722000	21.791581	-5.422719E-5	20.762146
345.115329	-2.990400	3.904900	-11.676000	21.799888	-5.604191E-5	20.756236
346.109967	-2.999100	3.903100	-11.705000	21.784508	-5.261044E-5	20.755067
347.113086	-3.013700	3.902600	-11.760000	21.808517	-5.330333E-5	20.762502
348.112051	-3.007100	3.902600	-11.735000	21.783823	-5.290739E-5	20.754381
349.108525	-2.994000	3.903300	-11.685000	21.802028	-5.307237E-5	20.731824
350.113534	-2.985100	3.902600	-11.649000	21.804363	-5.105968E-5	20.752180
351.110606	-2.987700	3.902500	-11.659000	21.812823	-5.231348E-5	20.767760
352.110653	-2.997600	3.903500	-11.701000	21.813990	-5.254445E-5	20.742375
353.110106	-3.004400	3.903300	-11.726000	21.819895	-5.373227E-5	20.759191
354.109808	-2.996200	3.902500	-11.692000	21.816300	-5.099369E-5	20.756066
355.111009	-2.997800	3.901900	-11.696000	21.807722	-5.105968E-5	20.745584
356.109518	-2.983300	3.902700	-11.641000	21.810505	-5.135663E-5	20.765440
357.114049	-2.994600	3.902000	-11.684000	21.838759	-5.168658E-5	20.745355
358.116088	-2.989800	3.901100	-11.663000	21.827288	-5.053176E-5	20.767065
359.111421	-2.977400	3.902500	-11.619000	21.840358	-4.888201E-5	20.759758
360.112007	-2.994000	3.901400	-11.681000	21.848775	-4.736424E-5	20.759174
361.115389	-2.988800	3.900900	-11.658000	21.845011	-5.082871E-5	20.772002
362.110613	-3.019800	3.900700	-11.777000	21.831374	-4.868404E-5	20.784432
363.114423	-3.005300	3.900700	-11.722000	21.863680	-4.967389E-5	20.760817
364.115733	-3.009400	3.900700	-11.737000	21.857471	-5.006983E-5	20.781155
365.113480	-2.998300	3.900300	-11.694000	21.833658	-4.825511E-5	20.749733
366.122207	-3.016700	3.899900	-11.763000	21.836585	-4.805714E-5	20.747447
367.115260	-2.977800	3.900900	-11.615000	21.864493	-4.815612E-5	20.787234
368.117991	-3.017400	3.899100	-11.764000	21.847244	-4.693531E-5	20.767599
369.118826	-3.016100	3.899300	-11.759000	21.849038	-4.733125E-5	20.772239
370.119597	-3.005600	3.899200	-11.718000	21.870482	-4.653937E-5	20.762883
371.122077	-3.021400	3.899700	-11.782000	21.892991	-4.812313E-5	20.758386
372.120662	-2.999800	3.900500	-11.700000	21.882612	-4.716627E-5	20.775973
373.119385	-3.026100	3.899600	-11.799000	21.869906	-4.703429E-5	20.777480
374.120390	-2.999700	3.898200	-11.693000	21.876699	-4.805714E-5	20.778115
375.116949	-3.007500	3.898900	-11.725000	21.875692	-4.782617E-5	20.776633
376.117485	-3.005900	3.897600	-11.715000	21.891502	-4.604444E-5	20.766854
377.122697	-3.010700	3.898800	-11.736000	21.883652	-4.597845E-5	20.776066
378.121478	-3.006800	3.897700	-11.719000	21.881056	-4.634140E-5	20.779157
379.122112	-3.005200	3.899000	-11.716000	21.898946	-4.627541E-5	20.764347
380.123360	-3.031600	3.897300	-11.814000	21.886207	-4.597845E-5	20.780046
381.124600	-3.001700	3.899000	-11.702000	21.893702	-4.548353E-5	20.771900
382.125457	-3.000400	3.898600	-11.696000	21.905739	-4.657236E-5	20.763560
383.122272	-3.013600	3.898300	-11.747000	21.905570	-4.241500E-5	20.773348
384.123512	-2.993100	3.898100	-11.666000	21.903844	-4.429571E-5	20.770198
385.123394	-2.995900	3.898600	-11.678000	21.892298	-4.525256E-5	20.758640
386.126815	-3.011700	3.898600	-11.740000	21.918926	-4.389977E-5	20.757794
387.127676	-2.985300	3.896700	-11.633000	21.929720	-4.337185E-5	20.799418
388.129375	-2.975100	3.897800	-11.595000	21.935674	-4.439470E-5	20.784990
389.126540	-2.993800	3.896100	-11.664000	21.929187	-4.452668E-5	20.778496
390.130301	-3.004000	3.895400	-11.701000	21.914029	-4.241500E-5	20.772332
391.127757	-2.979400	3.896600	-11.609000	21.937908	-4.251398E-5	20.773475
392.125820	-2.992900	3.896000	-11.659000	21.927656	-4.053429E-5	20.759420
393.133986	-3.015400	3.896300	-11.748000	21.928713	-4.168911E-5	20.778496
394.130130	-3.001300	3.896000	-11.693000	21.952220	-4.162312E-5	20.769783
395.131365	-3.017000	3.895900	-11.754000	21.937409	-4.119419E-5	20.774398
396.132214	-3.017000	3.896300	-11.754000	21.931995	-4.033632E-5	20.777040
397.130527	-2.978300	3.895500	-11.600000	21.963004	-4.129317E-5	20.764458
398.134053	-2.974300	3.896100	-11.587000	21.954182	-3.891753E-5	20.760368
399.132414	-3.004500	3.895700	-11.704000	21.950739	-3.957743E-5	20.774940
400.127151	-2.994300	3.896400	-11.666000	21.946679	-4.000637E-5	20.799799
401.132324	-3.002400	3.895100	-11.694000	21.951678	-4.043530E-5	20.787260
402.129901	-2.980600	3.894800	-11.608000	21.966658	-3.904951E-5	20.770960
403.129150	-3.000600	3.894300	-11.684000	21.957210	-3.845561E-5	20.770986
404.131495	-3.001400	3.893900	-11.686000	21.980496	-3.934647E-5	20.785761
405.132054	-3.007200	3.894900	-11.712000	21.969855	-3.848860E-5	20.776058
406.135766	-2.993400	3.894300	-11.656000	21.980843	-3.710281E-5	20.800333
407.135382	-2.988500	3.894200	-11.637000	21.990012	-3.542007E-5	20.770630
408.135888	-2.992500	3.894000	-11.652000	21.990629	-3.535408E-5	20.794482
409.138346	-3.004300	3.893000	-11.695000	21.980792	-3.525510E-5	20.796015
410.134452	-3.003500	3.894300	-11.695000	21.997912	-3.772972E-5	20.801298
411.136544	-3.009600	3.894300	-11.719000	21.980538	-3.512312E-5	20.790071
412.133362	-3.042000	3.891300	-11.836000	21.989428	-3.588200E-5	20.780004
413.133330	-2.992800	3.894100	-11.654000	22.001718	-3.683885E-5	20.797996
414.138100	-2.996700	3.892400	-11.664000	21.982070	-3.528809E-5	20.806776
415.136924	-3.000600	3.894400	-11.684000	22.003756	-3.515611E-5	20.773958
416.135340	-3.018900	3.892000	-11.749000	21.993903	-3.525510E-5	20.788276
417.134564	-2.989300	3.892700	-11.635000	22.022314	-3.472718E-5	20.796328
418.134737	-3.010600	3.891500	-11.715000	21.999908	-3.535408E-5	20.791443
419.137370	-3.008400	3.892000	-11.708000	22.041183	-3.287946E-5	20.791985
420.135894	-3.001400	3.892000	-11.680000	22.016833	-3.459520E-5	20.798902
421.135976	-3.004100	3.892000	-11.691000	22.029359	-3.132870E-5	20.798640
422.139323	-2.971800	3.892800	-11.568000	22.017137	-3.056981E-5	20.787827
423.135144	-3.005500	3.892200	-11.698000	22.015640	-3.400129E-5	20.793441
424.139161	-3.002400	3.890300	-11.679000	22.036870	-3.030585E-5	20.780554
425.136826	-3.013500	3.890300	-11.722000	22.021273	-3.264850E-5	20.802399
426.139955	-2.981700	3.892400	-11.605000	22.055249	-3.063580E-5	20.808910
427.138435	-2.998300	3.892000	-11.669000	22.049311	-3.043783E-5	20.799173
428.137248	-3.014900	3.890500	-11.729000	22.039991	-3.037184E-5	20.784627
429.136887	-2.991900	3.892100	-11.643000	22.057262	-3.007489E-5	20.801443
430.138532	-3.015700	3.889300	-11.728000	22.052974	-2.967895E-5	20.820857
431.142640	-2.988800	3.891100	-11.629000	22.064654	-2.835915E-5	20.800782
432.141850	-3.015600	3.888800	-11.726000	22.045929	-2.918403E-5	20.820442
433.141394	-3.019300	3.889700	-11.744000	22.053008	-2.862311E-5	20.804770
434.143972	-3.021300	3.888500	-11.747000	22.054099	-3.033885E-5	20.802069
435.146317	-3.012300	3.890900	-11.719000	22.046022	-2.911804E-5	20.811527
436.147095	-3.017500	3.888700	-11.733000	22.064164	-2.984392E-5	20.817361
437.141274	-2.978000	3.890200	-11.584000	22.060070	-2.957997E-5	20.814685
438.142628	-3.022000	3.888400	-11.749000	22.087854	-2.637946E-5	20.812628
439.143700	-2.989900	3.890300	-11.629000	22.068782	-2.809519E-5	20.803966
440.144611	-2.999600	3.889500	-11.667000	22.087752	-2.901905E-5	20.803043
441.148151	-3.003300	3.888400	-11.677000	22.086830	-2.835915E-5	20.815397
442.144930	-3.001200	3.888500	-11.670000	22.092954	-2.644545E-5	20.827216
443.144481	-3.006700	3.888800	-11.691000	22.093749	-2.670941E-5	20.805253
444.143898	-3.013000	3.886700	-11.709000	22.099627	-2.624748E-5	20.807345
445.146893	-3.007400	3.888700	-11.695000	22.098603	-2.469671E-5	20.811536
446.149609	-3.014300	3.887900	-11.718000	22.089842	-2.512565E-5	20.823627
447.143574	-2.998700	3.887600	-11.658000	22.111992	-2.694037E-5	20.817353
448.147538	-3.001800	3.888100	-11.671000	22.124889	-2.628047E-5	20.809402
449.150365	-2.986900	3.888100	-11.613000	22.097986	-2.496067E-5	20.804280
450.149167	-3.001500	3.887200	-11.667000	22.095018	-2.614849E-5	20.816481
451.148130	-2.996800	3.888000	-11.650000	22.116178	-2.532362E-5	20.820596
452.151491	-3.004200	3.887500	-11.678000	22.122733	-2.275001E-5	20.811511
453.149005	-3.004200	3.886000	-11.674000	22.086028	-2.489468E-5	20.804636
454.150383	-2.995500	3.886200	-11.640000	22.114174	-2.403681E-5	20.811951
455.146163	-2.994400	3.886600	-11.636000	22.119079	-2.281600E-5	20.833457
456.148039	-2.990000	3.886300	-11.618000	22.151090	-2.449874E-5	20.824728
457.147877	-2.983300	3.885700	-11.591000	22.141685	-2.199113E-5	20.811045
458.148394	-2.999500	3.884900	-11.652000	22.142565	-2.162818E-5	20.828995
459.150333	-2.991200	3.885900	-11.622000	22.149111	-2.086930E-5	20.841712
460.149923	-2.996200	3.885400	-11.641000	22.142041	-2.100128E-5	20.829418
461.145301	-2.999000	3.885300	-11.651000	22.139436	-2.037438E-5	20.825388
462.153971	-3.006600	3.886000	-11.683000	22.145990	-2.086930E-5	20.826261
463.153101	-3.004500	3.886100	-11.675000	22.153982	-1.938453E-5	20.827624
464.150069	-3.023200	3.885300	-11.744000	22.151174	-1.961549E-5	20.819597
465.157108	-3.006600	3.885500	-11.682000	22.151944	-1.978047E-5	20.847394
466.151402	-3.004600	3.883300	-11.666000	22.160621	-2.037438E-5	20.823839
467.155102	-3.000500	3.884200	-11.654000	22.168723	-2.017641E-5	20.822942
468.155433	-2.999200	3.884600	-11.651000	22.151344	-1.733884E-5	20.814551
469.153615	-3.009500	3.884400	-11.689000	22.164156	-1.737184E-5	20.834490
470.153382	-3.004300	3.884200	-11.668000	22.184622	-1.714087E-5	20.805669
471.151003	-3.004800	3.884600	-11.671000	22.184241	-1.697590E-5	20.832315
472.151269	-2.979300	3.883200	-11.568000	22.179379	-1.733884E-5	20.818437
473.152937	-2.998700	3.883100	-11.643000	22.188368	-1.743783E-5	20.824119
474.152311	-2.997300	3.882400	-11.635000	22.173307	-1.664595E-5	20.835591
475.154055	-3.007000	3.882300	-11.673000	22.199980	-1.707488E-5	20.848545
476.154223	-2.999300	3.882000	-11.643000	22.180656	-1.592006E-5	20.843423
477.156995	-2.999900	3.882300	-11.646000	22.186830	-1.869163E-5	20.832535
478.154653	-2.979700	3.883200	-11.570000	22.190737	-1.783377E-5	20.863947
479.161486	-3.025200	3.881800	-11.742000	22.188293	-1.743783E-5	20.828310
480.159091	-2.992200	3.882100	-11.616000	22.221164	-1.552412E-5	20.840833
481.158150	-3.014900	3.881400	-11.702000	22.212217	-1.572209E-5	20.844203
482.155332	-3.030200	3.879800	-11.755000	22.222957	-1.496321E-5	20.839783
483.154407	-2.997500	3.882100	-11.635000	22.210373	-1.509519E-5	20.833822
484.156225	-2.992400	3.881600	-11.614000	22.218636	-1.460026E-5	20.842095
485.154318	-2.983000	3.882100	-11.579000	22.220403	-1.367640E-5	20.832485
486.155222	-2.999500	3.881100	-11.640000	22.224733	-1.374239E-5	20.845829
487.155695	-3.007400	3.880600	-11.670000	22.204446	-1.403935E-5	20.843060
488.156055	-2.990500	3.880000	-11.601000	22.233080	-1.417133E-5	20.847548
489.157341	-3.017100	3.881000	-11.708000	22.233502	-1.370940E-5	20.834695
490.158540	-2.992200	3.880900	-11.612000	22.248656	-1.268655E-5	20.851764
491.156920	-3.007100	3.879400	-11.666000	22.239058	-1.285153E-5	20.840732
492.158662	-2.997900	3.880400	-11.632000	22.243346	-1.163072E-5	20.852611
493.157038	-2.999000	3.879700	-11.634000	22.225461	-1.186168E-5	20.849876
494.156906	-2.984000	3.879500	-11.575000	22.266964	-1.080584E-5	20.862508
495.160216	-3.008900	3.879700	-11.673000	22.252800	-1.166371E-5	20.851172
496.158852	-2.984800	3.878600	-11.576000	22.260005	-1.031092E-5	20.854592
497.159833	-2.993500	3.879500	-11.612000	22.253595	-1.001396E-5	20.858605
498.159162	-2.992100	3.878400	-11.603000	22.270964	-1.031092E-5	20.842333
499.157102	-3.027100	3.877600	-11.736000	22.276275	-1.073985E-5	20.845753
500.159102	-3.006400	3.879400	-11.662000	22.279387	-9.914979E-6	20.860248
501.158516	-2.973300	3.879200	-11.533000	22.274330	-9.980969E-6	20.837642
502.156621	-2.997500	3.877100	-11.621000	22.259845	-7.836298E-6	20.857276
503.160300	-2.994300	3.877800	-11.611000	22.267193	-8.034268E-6	20.864634
504.159679	-2.994700	3.877900	-11.611000	22.261333	-1.103681E-5	20.858767
505.161249	-3.013000	3.878000	-11.684000	22.289247	-9.848989E-6	20.848310
506.163795	-3.003100	3.876900	-11.642000	22.283362	-6.681475E-6	20.851900
507.161386	-2.999800	3.876700	-11.629000	22.293653	-7.572339E-6	20.859834
508.163249	-2.967200	3.878200	-11.507000	22.296841	-6.516501E-6	20.854017
509.161397	-3.000600	3.875300	-11.627000	22.293492	-7.539344E-6	20.848294
510.163522	-2.984200	3.877200	-11.570000	22.309423	-5.988581E-6	20.863297
511.164731	-3.016800	3.874500	-11.687000	22.307597	-7.803303E-6	20.848192
512.160811	-3.018000	3.875800	-11.697000	22.308544	-7.209394E-6	20.851037
513.163275	-2.981500	3.877800	-11.561000	22.303158	-6.747465E-6	20.866506
514.164373	-2.994100	3.875900	-11.604000	22.302955	-5.130713E-6	20.843070
515.165926	-3.021300	3.875300	-11.708000	22.317753	-5.559647E-6	20.837973
516.167151	-3.008900	3.874300	-11.656000	22.316755	-6.021576E-6	20.857836
517.169689	-3.003300	3.875300	-11.638000	22.317152	-4.767769E-6	20.831209
518.166824	-2.994200	3.875400	-11.603000	22.323748	-6.681475E-6	20.836390
519.170507	-3.005900	3.874600	-11.645000	22.328069	-5.691627E-6	20.857785
520.164279	-2.984500	3.874300	-11.562000	22.320662	-2.491118E-6	20.832352
521.168777	-2.991600	3.874000	-11.588000	22.329312	-3.942895E-6	20.837220
522.167579	-3.013600	3.874200	-11.674000	22.317694	-3.217007E-6	20.831751
523.166264	-3.026500	3.872000	-11.718000	22.344118	-2.689088E-6	20.834028
524.169239	-3.023500	3.872700	-11.708000	22.323816	-4.041880E-6	20.838829
525.170319	-2.992400	3.874200	-11.592000	22.342418	-2.623098E-6	20.831378
526.170928	-3.004400	3.872400	-11.633000	22.345910	-2.062184E-6	20.855262
527.173030	-2.998600	3.872700	-11.612000	22.346460	-6.104064E-7	20.826416
528.167509	-3.018400	3.871400	-11.685000	22.335840	-2.689088E-6	20.826213
529.167350	-3.005400	3.872100	-11.636000	22.350248	-7.093912E-7	20.822623
530.171851	-3.016900	3.871800	-11.680000	22.328018	-9.733507E-7	20.830709
531.168372	-2.997400	3.872400	-11.606000	22.361705	-2.804570E-7	20.833148
532.169125	-2.993600	3.871900	-11.591000	22.358636	9.403557E-7	20.817273
533.171354	-2.987400	3.872300	-11.567000	22.361604	-1.435280E-6	20.840158
534.169983	-3.021200	3.870600	-11.692000	22.376680	6.104064E-7	20.835815
535.170553	-3.016900	3.871000	-11.678000	22.373662	3.794418E-7	20.837534
536.171329	-3.012200	3.870500	-11.658000	22.353529	1.072335E-6	20.826857
537.170197	-3.000400	3.871300	-11.614000	22.369501	3.134519E-7	20.826730
538.169482	-3.013100	3.870800	-11.662000	22.377103	4.784266E-7	20.835764
539.170915	-3.013100	3.870200	-11.660000	22.382481	2.887057E-6	20.819813
540.170999	-3.001300	3.870000	-11.614000	22.370592	1.633249E-6	20.842521
541.173781	-2.993000	3.869600	-11.581000	22.377839	3.052032E-6	20.820854
542.170453	-3.016100	3.868400	-11.667000	22.383445	2.392133E-6	20.814140
543.175686	-3.012700	3.868800	-11.655000	22.387182	1.534265E-6	20.825943
544.173774	-3.016100	3.869400	-11.670000	22.383462	6.763962E-7	20.835968
545.173011	-2.991000	3.870100	-11.575000	22.402088	1.814722E-7	20.823327
546.176593	-3.006600	3.868500	-11.631000	22.383394	3.381981E-6	20.810770
547.171208	-3.000700	3.869700	-11.611000	22.398123	1.237310E-6	20.825045
548.175231	-3.017200	3.867600	-11.669000	22.417612	2.095179E-6	20.825596
549.175900	-2.989000	3.867200	-11.558000	22.397768	4.734774E-6	20.825638
550.176418	-3.017200	3.866600	-11.665000	22.412049	3.348986E-6	20.827611
551.175674	-3.001100	3.867800	-11.607000	22.412277	2.557108E-6	20.830210
552.174571	-2.977400	3.867600	-11.514000	22.412624	2.128174E-6	20.816807
553.174089	-2.989400	3.866400	-11.558000	22.407263	4.371829E-6	20.834198
554.177316	-2.988600	3.867000	-11.556000	22.416530	3.085027E-6	20.781839
555.173693	-3.016700	3.866900	-11.663000	22.408980	2.986042E-6	20.806994
556.173717	-3.022000	3.866100	-11.682000	22.406976	2.227158E-6	20.818264
557.179087	-2.997400	3.867400	-11.592000	22.416277	4.470814E-6	20.822836
558.175212	-2.983100	3.866400	-11.532000	22.424123	2.491118E-6	20.812676
559.175793	-2.991700	3.865400	-11.564000	22.418907	5.130713E-6	20.817883
560.178238	-2.991300	3.865900	-11.563000	22.438869	5.724622E-6	20.811321
561.175117	-3.000400	3.865000	-11.595000	22.424715	4.437819E-6	20.806631
562.178498	-3.000600	3.864400	-11.595000	22.428393	4.767769E-6	20.800831
563.178671	-2.987300	3.865800	-11.547000	22.416210	2.227158E-6	20.807122
564.178776	-2.992500	3.864200	-11.563000	22.444889	6.120561E-6	20.789849
565.177396	-3.026900	3.863100	-11.692000	22.427912	4.008885E-6	20.803668
566.175291	-2.999900	3.862400	-11.586000	22.434625	3.711931E-6	20.794269
567.179360	-2.997900	3.863700	-11.582000	22.421630	5.823607E-6	20.801170
568.179631	-3.005800	3.862600	-11.609000	22.442285	7.539343E-6	20.809527
569.180858	-3.030000	3.863400	-11.705000	22.453547	6.978429E-6	20.803262
570.183043	-2.988500	3.864000	-11.546000	22.451383	6.219546E-6	20.792085
571.180357	-3.014600	3.862700	-11.644000	22.458603	7.209394E-6	20.793626
572.180951	-3.006000	3.864100	-11.613000	22.457606	6.384520E-6	20.800214
573.182168	-2.974300	3.863500	-11.490000	22.448863	6.054571E-6	20.780553
574.180768	-3.011000	3.863400	-11.632000	22.470567	5.031728E-6	20.809874
575.183593	-2.989300	3.861000	-11.540000	22.464234	5.790612E-6	20.800688
576.182664	-3.000100	3.860900	-11.582000	22.451425	7.275384E-6	20.774110
577.185085	-3.004700	3.861900	-11.603000	22.488735	6.153556E-6	20.786819
578.184971	-2.994500	3.861700	-11.563000	22.483003	6.219546E-6	20.786294
579.185879	-2.972500	3.861400	-11.478000	22.468275	6.879445E-6	20.795726
580.186140	-2.996700	3.859800	-11.566000	22.462738	6.021576E-6	20.812940
581.187201	-2.986600	3.861400	-11.531000	22.476273	6.252541E-6	20.791408
582.186958	-2.997900	3.860400	-11.572000	22.476747	6.879445E-6	20.801839
583.180846	-2.982400	3.860200	-11.512000	22.486064	7.506348E-6	20.792204
584.186930	-2.993400	3.860000	-11.553000	22.472528	8.265232E-6	20.792399
585.187191	-2.982900	3.860000	-11.513000	22.478117	8.265232E-6	20.794676
586.185987	-3.025600	3.858400	-11.672000	22.496429	7.209394E-6	20.804007
587.191956	-2.980400	3.862100	-11.510000	22.499997	7.671323E-6	20.800942
588.188150	-3.005600	3.858900	-11.598000	22.505865	8.628176E-6	20.800654
589.191131	-3.003100	3.859000	-11.588000	22.495474	8.265232E-6	20.788826
590.187995	-2.994200	3.859000	-11.554000	22.495846	8.859141E-6	20.767861
591.187788	-2.985800	3.859500	-11.522000	22.491695	1.021193E-5	20.795472
592.186258	-2.989100	3.857600	-11.530000	22.507141	8.892136E-6	20.777751
593.187584	-2.998700	3.857700	-11.567000	22.516821	8.595181E-6	20.770849
594.186007	-3.007900	3.857500	-11.602000	22.495381	7.440358E-6	20.784465
595.185395	-2.969800	3.856800	-11.453000	22.499971	7.242389E-6	20.771993
596.188771	-2.994200	3.857300	-11.549000	22.505475	1.001396E-5	20.793626
597.190778	-3.034400	3.855300	-11.697000	22.507564	9.222085E-6	20.764897
598.191540	-2.990100	3.857000	-11.532000	22.520879	9.486045E-6	20.785820
599.191247	-2.998000	3.856000	-11.559000	22.519433	7.836298E-6	20.769673
600.194142	-3.004900	3.856000	-11.586000	22.521995	7.671323E-6	20.790731
601.188932	-3.002400	3.854100	-11.571000	22.521547	7.737313E-6	20.780799
602.193418	-2.995900	3.856000	-11.551000	22.520752	8.727161E-6	20.777158
603.194958	-2.987700	3.854600	-11.516000	22.505171	8.991120E-6	20.782890
604.192265	-3.020600	3.853800	-11.640000	22.547738	9.750004E-6	20.777158
605.192751	-2.988900	3.855300	-11.523000	22.538312	1.087183E-5	20.767243
606.193699	-3.001600	3.853200	-11.565000	22.542700	8.958126E-6	20.773534
607.194350	-3.015400	3.853000	-11.616000	22.522782	8.001272E-6	20.763543
608.194653	-2.980700	3.855100	-11.489000	22.524456	8.463202E-6	20.766168
609.196168	-2.987700	3.854000	-11.514000	22.527812	7.110409E-6	20.775694
610.194976	-3.003100	3.852700	-11.569000	22.537306	1.087183E-5	20.780935
611.195237	-2.997300	3.852600	-11.547000	22.528726	9.453050E-6	20.777082
612.197583	-2.989000	3.852400	-11.514000	22.538896	9.980969E-6	20.776363
613.201506	-2.999700	3.852000	-11.553000	22.553598	1.047589E-5	20.774491
614.202287	-3.006000	3.852900	-11.580000	22.544552	1.064087E-5	20.784398
615.198386	-3.010900	3.851300	-11.594000	22.555838	8.331222E-6	20.781003
616.199611	-2.989700	3.852400	-11.516000	22.557055	7.440358E-6	20.784119
617.199369	-2.993700	3.851000	-11.528000	22.524667	8.925131E-6	20.769225
618.198931	-2.977500	3.850700	-11.464000	22.572180	1.014594E-5	20.755643
619.197505	-3.001400	3.851300	-11.558000	22.543157	1.192767E-5	20.748861
620.195870	-2.994400	3.849700	-11.527000	22.560065	9.881984E-6	20.776228
621.196221	-2.995300	3.850100	-11.531000	22.556549	1.017894E-5	20.746626
622.196508	-2.997200	3.850100	-11.538000	22.562382	8.199242E-6	20.767642
623.198305	-2.998400	3.848700	-11.539000	22.555222	1.054188E-5	20.776118
624.199407	-2.999300	3.848900	-11.544000	22.547680	9.288075E-6	20.756236
625.201734	-3.007200	3.849200	-11.574000	22.565721	9.815994E-6	20.771460
626.200971	-2.987300	3.850000	-11.500000	22.579780	1.014594E-5	20.786015
627.205159	-3.012100	3.849300	-11.593000	22.573600	1.024493E-5	20.758963
628.199184	-3.020600	3.847400	-11.620000	22.576499	1.064087E-5	20.754280
629.202734	-2.994800	3.848500	-11.525000	22.572526	9.255080E-6	20.765948
630.204694	-3.008100	3.847700	-11.573000	22.569339	9.881984E-6	20.773188
631.203783	-3.005000	3.847500	-11.561000	22.579712	1.070686E-5	20.748962
632.205863	-2.988700	3.846400	-11.495000	22.597101	1.179569E-5	20.769699
633.205290	-3.009000	3.846400	-11.572000	22.588276	1.136676E-5	20.754695
634.207146	-2.977500	3.847200	-11.454000	22.595774	8.925131E-6	20.749403
635.212061	-2.979800	3.847300	-11.463000	22.594633	1.116879E-5	20.762485
636.205219	-2.981700	3.846500	-11.468000	22.596053	1.047589E-5	20.750631
637.205373	-2.999700	3.846700	-11.538000	22.584497	1.073985E-5	20.755652
638.206380	-3.019500	3.846100	-11.612000	22.603382	1.318148E-5	20.761765
639.208386	-3.010200	3.845100	-11.574000	22.603991	1.166371E-5	20.734398
640.210383	-3.012300	3.844400	-11.579000	22.597388	9.980969E-6	20.761926
641.213530	-2.978700	3.845300	-11.453000	22.602545	1.024493E-5	20.747175
642.213073	-2.990900	3.845700	-11.500000	22.606780	9.684014E-6	20.757582
643.212172	-2.998400	3.844100	-11.526000	22.587573	8.859141E-6	20.781019
644.208984	-2.999500	3.843800	-11.528000	22.599037	1.275254E-5	20.773060
645.213521	-3.001700	3.843600	-11.535000	22.604667	8.694166E-6	20.760207
646.212748	-2.996300	3.843100	-11.515000	22.621371	1.087183E-5	20.766980
647.215060	-3.005300	3.843400	-11.549000	22.599645	1.007995E-5	20.749012
648.210563	-3.019700	3.842600	-11.603000	22.614684	1.176270E-5	20.765973
649.214591	-2.999000	3.841700	-11.521000	22.630492	1.060787E-5	20.746718
650.216382	-3.027800	3.840200	-11.626000	22.631836	1.123478E-5	20.767505
651.219207	-3.000100	3.841000	-11.522000	22.611733	9.255080E-6	20.750689
652.217616	-2.987800	3.842400	-11.479000	22.605782	1.021193E-5	20.754685
653.215358	-3.005400	3.840700	-11.542000	22.634313	1.037691E-5	20.750070
654.216456	-2.992500	3.841800	-11.496000	22.622807	1.196066E-5	20.735227
655.214467	-2.995800	3.841100	-11.507000	22.638632	1.166371E-5	20.755345
656.215497	-3.010400	3.840700	-11.560000	22.634921	1.136676E-5	20.758266
657.217123	-3.004800	3.841400	-11.542000	22.628936	1.271955E-5	20.753694
658.219015	-2.994200	3.839600	-11.496000	22.622232	9.519039E-6	20.764998
659.217463	-3.004000	3.839600	-11.533000	22.641286	9.288075E-6	20.746623
660.220586	-2.997200	3.838000	-11.503000	22.654085	9.387060E-6	20.754702
661.220917	-2.967200	3.838600	-11.389000	22.656680	1.143275E-5	20.752085
662.229211	-3.017100	3.838100	-11.579000	22.634954	1.054188E-5	20.754033
663.222090	-2.988900	3.837400	-11.468000	22.661548	1.073985E-5	20.761229
664.218355	-3.001400	3.838400	-11.520000	22.649283	1.001396E-5	20.742779
665.224325	-2.989900	3.838700	-11.477000	22.651700	1.136676E-5	20.736192
666.222670	-2.994100	3.837400	-11.488000	22.634912	1.083884E-5	20.748774
667.223147	-2.999300	3.838300	-11.511000	22.650584	1.073985E-5	20.717055
668.224000	-2.973200	3.837900	-11.410000	22.656738	1.004696E-5	20.745506
669.223972	-3.018000	3.835800	-11.575000	22.667406	1.110280E-5	20.749079
670.226359	-2.994500	3.836900	-11.488000	22.657161	8.892136E-6	20.739291
671.223902	-3.003600	3.837300	-11.525000	22.641945	1.047589E-5	20.747758
672.224426	-2.979600	3.836700	-11.431000	22.669140	9.980969E-6	20.748444
673.227709	-2.990700	3.835900	-11.471000	22.658116	1.007995E-5	20.746411
674.221791	-2.994400	3.834500	-11.482000	22.668277	9.057110E-6	20.738571
675.219965	-3.000500	3.834300	-11.504000	22.648902	1.031092E-5	20.722956
676.225638	-2.988900	3.834800	-11.460000	22.652588	9.782999E-6	20.753676
677.221519	-2.971800	3.834600	-11.394000	22.688032	8.595181E-6	20.745556
678.222849	-2.981500	3.833900	-11.430000	22.671971	9.585029E-6	20.734684
679.221199	-3.009400	3.834400	-11.539000	22.676181	1.031092E-5	20.741272
680.220533	-3.024400	3.832700	-11.590000	22.662918	9.222085E-6	20.737470
681.226546	-2.995100	3.833700	-11.481000	22.672267	9.222085E-6	20.729290
682.225595	-2.989900	3.832100	-11.456000	22.668852	8.661171E-6	20.722550
683.222581	-3.007700	3.833100	-11.528000	22.669046	9.288075E-6	20.730332
684.224030	-3.007600	3.833200	-11.528000	22.691489	1.083884E-5	20.727208
685.227359	-2.981000	3.832000	-11.422000	22.664507	7.770308E-6	20.719621
686.225461	-2.991000	3.833400	-11.464000	22.698869	9.585029E-6	20.718003
687.228338	-3.009200	3.830500	-11.526000	22.706519	7.869293E-6	20.734202
688.225656	-2.992700	3.831600	-11.466000	22.693206	9.321070E-6	20.727030
689.233122	-3.019100	3.829900	-11.562000	22.698539	7.836298E-6	20.734744
690.225598	-3.013200	3.830400	-11.541000	22.686748	7.110409E-6	20.728622
691.229543	-3.023500	3.829000	-11.576000	22.695513	9.618024E-6	20.740722
692.230195	-3.006800	3.830600	-11.517000	22.696908	7.638328E-6	20.714617
693.227462	-3.020200	3.828300	-11.561000	22.689309	7.473353E-6	20.732136
694.235507	-3.008100	3.829100	-11.517000	22.712969	6.879445E-6	20.716480
695.232427	-2.979000	3.829100	-11.405000	22.702648	8.463202E-6	20.723212
696.232376	-2.971100	3.829000	-11.375000	22.675768	7.374369E-6	20.737539
697.232525	-2.987900	3.829100	-11.440000	22.693426	8.793151E-6	20.729622
698.232370	-2.993600	3.828000	-11.458000	22.716748	8.298227E-6	20.717894
699.231063	-2.994200	3.828400	-11.463000	22.703164	7.506348E-6	20.715667
700.233872	-3.010600	3.826600	-11.519000	22.691449	7.044419E-6	20.706777
701.232344	-2.997400	3.826300	-11.468000	22.691575	7.968277E-6	20.729190
702.228600	-2.981700	3.826900	-11.409000	22.715362	7.242389E-6	20.715084
703.230581	-2.970000	3.826800	-11.364000	22.707704	8.133252E-6	20.709309
704.233294	-2.996600	3.826200	-11.465000	22.706461	6.483505E-6	20.709487
705.228959	-2.984600	3.826000	-11.419000	22.709843	8.133252E-6	20.694855
706.232231	-2.988800	3.825800	-11.434000	22.706977	8.397212E-6	20.729919
707.232745	-3.006900	3.825000	-11.501000	22.697925	6.021576E-6	20.706151
708.234644	-3.017500	3.823700	-11.537000	22.689252	7.671323E-6	20.697937
709.232639	-2.998400	3.824300	-11.466000	22.714104	5.163708E-6	20.710978
710.232709	-2.999200	3.824000	-11.468000	22.694739	6.846450E-6	20.730462
711.232223	-3.026200	3.822600	-11.567000	22.718787	6.483505E-6	20.721834
712.230315	-2.999100	3.823300	-11.466000	22.701788	6.450510E-6	20.696270
713.233711	-3.013000	3.821800	-11.514000	22.719793	7.506348E-6	20.691071
714.234900	-2.974800	3.824400	-11.376000	22.728103	4.734774E-6	20.701292
715.233007	-3.014100	3.823200	-11.523000	22.720250	6.120561E-6	20.701013
716.239429	-3.019500	3.821200	-11.537000	22.723860	7.539343E-6	20.720751
717.232369	-2.993600	3.822500	-11.443000	22.728213	7.011424E-6	20.708516
718.233519	-3.027400	3.821100	-11.567000	22.723548	5.427667E-6	20.724232
719.231851	-3.012300	3.821500	-11.510000	22.743302	5.493657E-6	20.700396
720.231549	-3.021100	3.820900	-11.542000	22.736743	6.945434E-6	20.704257
721.237526	-3.005300	3.819400	-11.478000	22.724284	6.879445E-6	20.704579
722.232887	-2.998600	3.819800	-11.452000	22.706913	5.592642E-6	20.708043
723.234304	-3.002300	3.820100	-11.468000	22.739119	4.668784E-6	20.709482
724.236220	-2.982300	3.819100	-11.389000	22.728824	3.019037E-6	20.713869
725.236653	-3.014300	3.818900	-11.510000	22.740311	6.087566E-6	20.708780
726.237125	-3.014000	3.819800	-11.512000	22.743751	4.800763E-6	20.685197
727.236350	-3.002600	3.819200	-11.466000	22.743591	6.054571E-6	20.712540
728.238578	-2.974100	3.818600	-11.355000	22.730912	4.404824E-6	20.682767
729.235330	-3.017100	3.817400	-11.516000	22.737885	5.097718E-6	20.681692
730.240891	-2.996700	3.818600	-11.442000	22.718698	4.338834E-6	20.701354
731.239154	-3.020400	3.817600	-11.530000	22.747665	4.767769E-6	20.703344
732.246871	-3.000500	3.816600	-11.451000	22.729864	7.044419E-6	20.689304
733.238208	-2.990300	3.817600	-11.415000	22.728630	4.635789E-6	20.687120
734.241426	-2.994500	3.816300	-11.427000	22.732239	4.998733E-6	20.677933
735.240279	-3.007900	3.816400	-11.479000	22.741833	5.691627E-6	20.691337
736.241518	-2.993400	3.816600	-11.424000	22.725613	3.282996E-6	20.686943
737.243761	-3.005500	3.815200	-11.466000	22.746245	5.031728E-6	20.673944
738.237967	-3.003500	3.815700	-11.460000	22.735282	4.833758E-6	20.672445
739.244217	-3.011600	3.815500	-11.490000	22.742112	3.876905E-6	20.709636
740.242632	-2.989900	3.814800	-11.403000	22.754985	4.074875E-6	20.702142
741.244893	-3.003700	3.814700	-11.457000	22.753988	5.262693E-6	20.697349
742.244128	-3.020500	3.815200	-11.522000	22.750057	2.293148E-6	20.678712
743.248709	-3.009000	3.812700	-11.472000	22.762956	3.480966E-6	20.704911
744.243992	-2.974100	3.814000	-11.342000	22.747911	2.722082E-6	20.697426
745.244473	-2.988600	3.812800	-11.394000	22.772922	3.118022E-6	20.685020
746.244754	-3.017000	3.813400	-11.504000	22.757876	3.151017E-6	20.694606
747.243915	-2.972700	3.812400	-11.332000	22.749407	1.237310E-6	20.678534
748.246764	-3.001500	3.811900	-11.440000	22.772347	6.434013E-7	20.704835
749.246846	-2.988200	3.812600	-11.392000	22.768738	3.348986E-6	20.688416
750.246943	-3.004200	3.811200	-11.449000	22.777706	1.732234E-6	20.703565
751.249111	-3.007100	3.810700	-11.459000	22.736373	2.425128E-6	20.697722
752.247257	-3.004600	3.811500	-11.451000	22.782768	2.194163E-6	20.689195
753.246622	-3.008400	3.810800	-11.464000	22.780622	5.444165E-7	20.680405
754.250615	-3.001100	3.810800	-11.436000	22.774527	1.699239E-6	20.692793
755.248790	-3.011800	3.809100	-11.470000	22.776142	4.668784E-6	20.680659
756.246820	-3.016900	3.810200	-11.494000	22.791592	2.755077E-6	20.692344
757.249880	-2.990400	3.809200	-11.390000	22.782210	3.711931E-6	20.688635
758.250840	-3.014200	3.809100	-11.481000	22.780840	9.073608E-7	20.702438
759.252551	-2.999300	3.808900	-11.423000	22.774560	3.794418E-7	20.690930
760.251865	-2.997300	3.809200	-11.416000	22.789808	2.128174E-6	20.711896
761.252000	-3.001900	3.809100	-11.434000	22.799900	2.062184E-6	20.707306
762.251958	-3.005800	3.807300	-11.443000	22.789267	7.423861E-7	20.702818
763.251967	-2.999700	3.806900	-11.418000	22.787729	1.039341E-6	20.702700
764.249549	-3.013600	3.808200	-11.476000	22.803771	5.444165E-7	20.687949
765.249530	-2.999600	3.806500	-11.417000	22.784643	-1.864214E-6	20.690599
766.249393	-3.014200	3.806800	-11.473000	22.802055	-8.083760E-7	20.708991
767.251603	-2.997800	3.805900	-11.408000	22.777323	-1.105330E-6	20.669040
768.251723	-3.026800	3.806300	-11.520000	22.793949	-9.403558E-7	20.676686
769.253162	-2.994200	3.806400	-11.397000	22.785530	-1.831219E-6	20.710455
770.257731	-2.983800	3.806000	-11.356000	22.801099	-2.359138E-6	20.716095
771.251100	-2.975600	3.807100	-11.328000	22.795749	-6.763962E-7	20.694612
772.251713	-3.004500	3.804600	-11.430000	22.803821	-2.953047E-6	20.697482
773.253599	-2.996500	3.804100	-11.397000	22.818772	-8.413709E-7	20.694916
774.252739	-3.001400	3.802600	-11.412000	22.797498	-6.434013E-7	20.691622
775.253957	-3.003500	3.803800	-11.424000	22.798047	2.804570E-7	20.693595
776.255258	-2.976400	3.804300	-11.322000	22.799814	-1.154823E-7	20.699633
777.251564	-2.996100	3.802900	-11.393000	22.813328	-3.250001E-6	20.695153
778.254014	-3.000500	3.801300	-11.405000	22.805679	-2.986042E-6	20.728270
779.253824	-3.010700	3.801400	-11.443000	22.805789	-1.732234E-6	20.692816
780.251739	-2.991300	3.801800	-11.372000	22.821130	-2.392133E-6	20.721936
781.255325	-2.973100	3.800600	-11.300000	22.821282	-4.305840E-6	20.695060
782.251011	-3.011800	3.800700	-11.446000	22.813911	-3.250001E-6	20.714230
783.249783	-2.990300	3.800300	-11.362000	22.838971	-2.755077E-6	20.702824
784.250845	-3.024000	3.798100	-11.484000	22.792460	-4.338834E-6	20.699378
785.254006	-3.002700	3.798600	-11.405000	22.834466	-3.447971E-6	20.702105
786.256701	-3.019500	3.798600	-11.469000	22.825947	-4.107870E-6	20.710166
787.256830	-3.005300	3.800100	-11.419000	22.809169	-5.988581E-6	20.729869
788.257934	-2.991400	3.798700	-11.362000	22.825735	-4.239850E-6	20.714695
789.257662	-3.010000	3.799400	-11.434000	22.809329	-3.513961E-6	20.710588
790.254717	-3.005000	3.798700	-11.414000	22.816649	-4.932743E-6	20.707963
791.255037	-3.012100	3.797800	-11.439000	22.841608	-5.163708E-6	20.704517
792.257719	-2.996300	3.797900	-11.378000	22.837060	-4.767769E-6	20.714661
793.254931	-3.023500	3.797700	-11.482000	22.835344	-4.668784E-6	20.718632
794.255347	-3.001100	3.796800	-11.394000	22.820520	-5.031728E-6	20.720377
795.258286	-3.013800	3.796000	-11.439000	22.835294	-6.912440E-6	20.701036
796.257087	-2.991900	3.796800	-11.358000	22.828895	-5.988581E-6	20.722129
797.262908	-3.002300	3.795800	-11.395000	22.812076	-7.011425E-6	20.706227
798.258531	-2.996900	3.796200	-11.376000	22.822801	-6.120561E-6	20.716498
799.258516	-3.015200	3.795200	-11.443000	22.845588	-8.529192E-6	20.717988
800.259913	-3.022700	3.794500	-11.468000	22.838099	-8.397212E-6	20.713331
801.258555	-2.999700	3.796100	-11.387000	22.858079	-6.483506E-6	20.716278
802.259399	-3.005600	3.794500	-11.404000	22.855341	-7.572339E-6	20.712586
803.261487	-2.989300	3.793800	-11.340000	22.833070	-7.869293E-6	20.725837
804.259372	-3.023900	3.793300	-11.470000	22.861603	-1.011295E-5	20.713644
805.261910	-3.000500	3.793100	-11.381000	22.869548	-9.090106E-6	20.728242
806.259277	-3.011200	3.793600	-11.423000	22.845029	-8.991121E-6	20.734500
807.261222	-3.013200	3.791700	-11.424000	22.846728	-8.760156E-6	20.713915
808.265287	-2.991400	3.791900	-11.342000	22.872717	-9.848989E-6	20.735210
809.259174	-3.013900	3.789900	-11.421000	22.853337	-9.288075E-6	20.741400
810.262426	-3.003500	3.792100	-11.389000	22.861941	-8.793151E-6	20.743381
811.262912	-3.000100	3.791900	-11.375000	22.875261	-9.156096E-6	20.736811
812.259805	-2.997100	3.789900	-11.359000	22.881870	-1.034391E-5	20.746277
813.268635	-3.021100	3.789700	-11.448000	22.857309	-9.947974E-6	20.719774
814.261023	-2.997200	3.791300	-11.362000	22.889890	-1.044290E-5	20.718749
815.264866	-2.973800	3.791100	-11.273000	22.889493	-9.618025E-6	20.734473
816.268175	-2.989800	3.790300	-11.331000	22.899229	-1.034391E-5	20.756557
817.262693	-3.017600	3.788200	-11.430000	22.876206	-1.064087E-5	20.739181
818.262206	-3.020100	3.789300	-11.443000	22.865093	-8.232237E-6	20.715717
819.264560	-2.991300	3.789000	-11.333000	22.876824	-1.149874E-5	20.743593
820.265585	-2.998700	3.788100	-11.359000	22.905575	-1.265356E-5	20.730197
821.262975	-2.988200	3.789000	-11.322000	22.868439	-1.027792E-5	20.753685
822.267058	-2.994600	3.788300	-11.343000	22.896219	-9.024116E-6	20.726039
823.267560	-2.990600	3.787600	-11.327000	22.889450	-1.275254E-5	20.740120
824.275056	-2.984800	3.788300	-11.306000	22.869073	-1.268655E-5	20.737250
825.268373	-2.993200	3.787500	-11.336000	22.884624	-1.146574E-5	20.724853
826.265931	-2.999900	3.787800	-11.363000	22.904873	-1.248858E-5	20.736132
827.268351	-3.011900	3.786700	-11.404000	22.896692	-1.328046E-5	20.734573
828.266117	-2.974700	3.786700	-11.263000	22.898036	-1.308249E-5	20.740187
829.269885	-3.011600	3.785100	-11.399000	22.901949	-1.314848E-5	20.726563
830.266804	-3.024600	3.783300	-11.441000	22.869021	-1.334645E-5	20.730560
831.269139	-3.000400	3.785800	-11.359000	22.895686	-1.420432E-5	20.742101
832.268862	0.000000	0.000000	0.000000	22.885848	-1.394036E-5	20.766859
