LabVIEW Measurement	
Writer_Version	2
Reader_Version	2
Separator	Tab
Decimal_Separator	.
Multi_Headings	No
X_Columns	One
Time_Pref	Absolute
Operator	admin
Description	Clolumns are: time, Current, Voltage, Power, Battery Temp, and Chamber Temp
Date	2024/08/16
Time	13:07:17.8513970375061035156
***End_of_Header***	
	
Channels	6						
Samples	1	1	1	1	1	1	
Date	2024/08/26	2024/08/26	2024/08/26	2024/08/26	2024/08/26	2024/08/26	
Time	23:45:38.6626682281494140625	23:45:38.6695566177368164062	23:45:38.6785573959350585937	23:45:38.6453008651733398437	23:45:38.6453008651733398437	23:45:38.6453008651733398437	
X_Dimension	Time	Time	Time	Time	Time	Time	
X0	0.0000000000000000E+0	0.0000000000000000E+0	0.0000000000000000E+0	0.0000000000000000E+0	0.0000000000000000E+0	0.0000000000000000E+0	
Delta_X	1.000000	1.000000	1.000000	1.000000	1.000000	1.000000	
***End_of_Header***							
X_Value	Untitled	Untitled 1	Untitled 2	Untitled 3	Untitled 4	Untitled 5	Comment
0.000000	0.009070	4.087100	0.037075	20.853938	0.000459	20.824068
1.007670	-2.998000	3.928800	-11.778000	20.845359	0.000456	20.817385
1.998409	-2.995800	3.922900	-11.750000	20.854645	0.000457	20.819085
3.002970	-2.993700	3.919800	-11.734000	20.865379	0.000457	20.834086
4.005966	-2.994600	3.915900	-11.725000	20.860719	0.000456	20.825159
4.998937	-2.986400	3.911900	-11.682000	20.883477	0.000454	20.825633
6.000525	-2.984800	3.910400	-11.671000	20.866490	0.000456	20.834249
7.005749	-3.007900	3.907600	-11.752000	20.863494	0.000455	20.832201
8.002606	-2.993300	3.905700	-11.690000	20.883191	0.000452	20.848580
9.003306	-2.995400	3.904200	-11.693000	20.865331	0.000453	20.847314
10.005080	-2.988300	3.903900	-11.665000	20.870294	0.000454	20.829993
11.003727	-2.988000	3.902300	-11.659000	20.898677	0.000452	20.836566
12.002420	-3.005500	3.898200	-11.715000	20.898525	0.000450	20.839734
13.006125	-2.977700	3.898900	-11.609000	20.907141	0.000450	20.820376
14.003452	-2.986900	3.896800	-11.639000	20.916003	0.000451	20.828290
15.003980	-2.986100	3.896700	-11.634000	20.925308	0.000449	20.849924
16.008271	-3.026300	3.893600	-11.782000	20.931059	0.000448	20.839080
17.003833	-3.011600	3.893500	-11.724000	20.941868	0.000449	20.827606
18.005161	-2.987900	3.893800	-11.634000	20.946937	0.000448	20.810391
19.008049	-2.998300	3.892100	-11.669000	20.957867	0.000449	20.805674
20.006067	-2.992500	3.892000	-11.646000	20.960041	0.000449	20.840090
21.005394	-3.001000	3.891800	-11.677000	20.973694	0.000448	20.825771
22.010439	-2.978100	3.890700	-11.585000	20.980216	0.000448	20.836561
23.011852	-2.998700	3.889400	-11.662000	20.979192	0.000446	20.824632
24.005249	-2.985200	3.888300	-11.607000	21.000828	0.000445	20.828728
25.013207	-3.003600	3.888000	-11.677000	21.000183	0.000446	20.803902
26.008450	-2.972800	3.887700	-11.556000	21.005575	0.000445	20.829208
27.010252	-2.991400	3.886800	-11.626000	21.011087	0.000445	20.843255
28.011710	-3.011900	3.886200	-11.704000	21.022394	0.000446	20.820901
29.008459	-3.005000	3.885800	-11.676000	21.038796	0.000444	20.831141
30.019927	-2.999100	3.885200	-11.651000	21.047101	0.000444	20.822379
31.011420	-3.021200	3.884100	-11.733000	21.028094	0.000443	20.824231
32.009933	-3.015900	3.884700	-11.714000	21.051026	0.000443	20.849063
33.009023	-2.976700	3.883700	-11.559000	21.051051	0.000445	20.849088
34.011633	-2.983200	3.884000	-11.585000	21.076302	0.000443	20.831672
35.010406	-2.997900	3.882100	-11.637000	21.078854	0.000443	20.850345
36.010684	-2.991600	3.882500	-11.613000	21.084145	0.000443	20.819128
37.010833	-3.006000	3.882000	-11.668000	21.093353	0.000443	20.843985
38.009706	-3.001900	3.882300	-11.653000	21.091665	0.000444	20.815745
39.012260	-3.017400	3.881400	-11.711000	21.095533	0.000442	20.837631
40.010848	-2.996500	3.881400	-11.629000	21.116087	0.000442	20.824052
41.011158	-3.018500	3.880500	-11.712000	21.133758	0.000441	20.819917
42.013335	-3.020400	3.879500	-11.717000	21.126129	0.000441	20.841682
43.013080	-2.997000	3.879700	-11.626000	21.146410	0.000440	20.838736
44.011228	-3.002200	3.878600	-11.644000	21.168992	0.000440	20.830505
45.013835	-2.994700	3.880200	-11.619000	21.154847	0.000440	20.840538
46.015874	-2.994900	3.879800	-11.618000	21.161489	0.000441	20.850026
47.010808	-2.973000	3.880700	-11.536000	21.175185	0.000442	20.809674
48.015945	-3.005900	3.879200	-11.660000	21.169003	0.000440	20.829094
49.015138	-2.993800	3.877600	-11.608000	21.184917	0.000442	20.844539
50.011780	-2.995800	3.878100	-11.618000	21.194302	0.000438	20.837331
51.014392	-3.008000	3.876300	-11.659000	21.214916	0.000442	20.841831
52.015135	-2.983000	3.877200	-11.565000	21.219555	0.000440	20.839360
53.011731	-2.988800	3.877300	-11.587000	21.219833	0.000440	20.844379
54.016054	-3.009900	3.877600	-11.670000	21.247026	0.000440	20.830806
55.015443	-3.003000	3.877000	-11.642000	21.210017	0.000441	20.841198
56.012865	-2.993700	3.876500	-11.604000	21.255246	0.000440	20.849934
57.011372	-3.000500	3.875900	-11.629000	21.267942	0.000440	20.819963
58.012530	-2.993200	3.876500	-11.602000	21.267569	0.000439	20.849934
59.014661	-3.022700	3.874400	-11.711000	21.279570	0.000441	20.845344
60.012542	-3.009000	3.874800	-11.658000	21.277458	0.000441	20.847974
61.014502	-2.991600	3.875600	-11.593000	21.315077	0.000442	20.838668
62.015938	-3.000200	3.875700	-11.627000	21.315355	0.000440	20.836101
63.014884	-2.989100	3.873200	-11.576000	21.299221	0.000439	20.851253
64.016504	-2.999700	3.874500	-11.621000	21.300169	0.000441	20.852676
65.016858	-2.995700	3.876500	-11.612000	21.331853	0.000439	20.844071
66.012790	-2.980800	3.874800	-11.549000	21.351587	0.000443	20.843900
67.016948	-3.014900	3.874400	-11.680000	21.335827	0.000440	20.845202
68.015769	-3.008200	3.873200	-11.650000	21.343562	0.000440	20.844406
69.017133	-2.992000	3.872900	-11.587000	21.378708	0.000439	20.845430
70.017065	-3.018600	3.872200	-11.686000	21.359801	0.000438	20.848325
71.016558	-3.030600	3.871900	-11.733000	21.352351	0.000438	20.840871
72.017172	-2.986900	3.873200	-11.568000	21.386372	0.000438	20.862580
73.015832	-3.002200	3.873200	-11.627000	21.382062	0.000442	20.854475
74.017748	-2.994800	3.873800	-11.600000	21.394409	0.000438	20.853552
75.017542	-2.988900	3.871600	-11.569000	21.422173	0.000441	20.846244
76.018208	-2.992600	3.872500	-11.588000	21.390699	0.000440	20.867383
77.018002	-3.001900	3.871600	-11.621000	21.415367	0.000439	20.867409
78.019684	-3.009400	3.870800	-11.648000	21.428743	0.000441	20.856136
79.020977	-2.989800	3.871400	-11.574000	21.424111	0.000439	20.846761
80.020130	-3.003400	3.870900	-11.625000	21.436559	0.000439	20.880076
81.020485	-3.001000	3.871700	-11.618000	21.467557	0.000441	20.851825
82.019265	-2.982200	3.871700	-11.545000	21.449884	0.000441	20.855478
83.021751	-3.010500	3.869000	-11.646000	21.484357	0.000439	20.871003
84.019808	-2.988500	3.871100	-11.567000	21.496229	0.000441	20.868658
85.022269	-2.992700	3.870700	-11.583000	21.479649	0.000441	20.860130
86.020953	-2.994400	3.870900	-11.589000	21.503146	0.000442	20.850925
87.019095	-3.002000	3.870900	-11.621000	21.513375	0.000439	20.844091
88.021648	-3.037900	3.867500	-11.749000	21.536872	0.000442	20.867601
89.026735	-2.985400	3.869300	-11.550000	21.521310	0.000440	20.865306
90.022929	-2.999500	3.869100	-11.604000	21.536309	0.000441	20.864193
91.023982	-3.011000	3.868100	-11.646000	21.513197	0.000441	20.854817
92.029932	-3.001800	3.869000	-11.613000	21.521031	0.000443	20.885414
93.026435	-3.011000	3.868400	-11.647000	21.535316	0.000441	20.871734
94.024970	-2.999300	3.868900	-11.603000	21.549019	0.000439	20.863635
95.031819	-2.997800	3.867500	-11.594000	21.563019	0.000440	20.875273
96.025926	-3.019900	3.867400	-11.678000	21.585586	0.000442	20.863243
97.028449	-2.982000	3.869300	-11.538000	21.583248	0.000443	20.852843
98.028876	-2.983400	3.868400	-11.540000	21.579262	0.000441	20.871138
99.025724	-2.983500	3.868900	-11.542000	21.620016	0.000441	20.865928
100.027149	-3.001800	3.867900	-11.610000	21.617874	0.000443	20.879905
101.029358	-2.989200	3.867000	-11.559000	21.639247	0.000444	20.873318
102.025539	-2.998400	3.866800	-11.593000	21.639050	0.000442	20.867432
103.028300	-3.006000	3.867400	-11.625000	21.639183	0.000442	20.873254
104.028435	-3.000700	3.866500	-11.601000	21.621828	0.000444	20.879595
105.026265	-3.021900	3.865600	-11.680000	21.640212	0.000445	20.870965
106.028471	-2.982600	3.867200	-11.533000	21.661539	0.000443	20.875238
107.030785	-3.022500	3.865400	-11.683000	21.667875	0.000446	20.859769
108.028579	-2.993700	3.866000	-11.573000	21.665341	0.000445	20.876198
109.031220	-3.011200	3.867000	-11.643000	21.683718	0.000444	20.875149
110.033425	-3.008700	3.866200	-11.631000	21.698658	0.000444	20.884410
111.028441	-2.997200	3.867400	-11.590000	21.700237	0.000448	20.858491
112.029786	-3.032100	3.865700	-11.720000	21.731980	0.000445	20.879826
113.031777	-2.990100	3.865700	-11.558000	21.740014	0.000445	20.867954
114.031363	-2.991700	3.865300	-11.563000	21.712586	0.000444	20.870849
115.031146	-3.016000	3.866000	-11.658000	21.747822	0.000447	20.881931
116.036204	-3.005100	3.864500	-11.612000	21.740475	0.000446	20.866518
117.032297	-2.995700	3.864400	-11.576000	21.746659	0.000447	20.887405
118.031893	-2.998800	3.865300	-11.590000	21.763720	0.000447	20.869394
119.036117	-2.994800	3.863200	-11.569000	21.774642	0.000445	20.892177
120.030393	-2.992200	3.865000	-11.564000	21.765078	0.000446	20.885450
121.031945	-3.032600	3.862600	-11.713000	21.766676	0.000446	20.880886
122.037570	-2.989500	3.864800	-11.552000	21.785203	0.000446	20.892789
123.032615	-2.974100	3.864300	-11.491000	21.763056	0.000447	20.893384
124.031537	-2.985000	3.865000	-11.536000	21.798821	0.000448	20.887454
125.038166	-3.006100	3.864200	-11.616000	21.842991	0.000448	20.895153
126.034821	-3.004800	3.864300	-11.610000	21.841090	0.000448	20.889457
127.035236	-2.979500	3.864600	-11.514000	21.852339	0.000449	20.870372
128.038103	-2.980800	3.865100	-11.520000	21.818186	0.000448	20.898301
129.032276	-2.986800	3.863800	-11.539000	21.853495	0.000449	20.886226
130.034194	-2.999600	3.864700	-11.591000	21.849187	0.000450	20.889975
131.039747	-2.999800	3.863300	-11.588000	21.864150	0.000450	20.882193
132.035798	-2.995100	3.862200	-11.567000	21.868060	0.000449	20.906019
133.035702	-3.016700	3.861800	-11.649000	21.875771	0.000450	20.910892
134.034540	-2.994100	3.862200	-11.563000	21.854429	0.000450	20.892377
135.034733	-3.007000	3.862400	-11.613000	21.884178	0.000452	20.898919
136.033365	-2.994000	3.861700	-11.561000	21.894908	0.000448	20.908236
137.036020	-2.973600	3.862800	-11.485000	21.901565	0.000452	20.898779
138.032685	-2.971000	3.861600	-11.472000	21.912340	0.000450	20.893918
139.034265	-3.015100	3.860500	-11.639000	21.918580	0.000452	20.903482
140.034949	-2.992200	3.862700	-11.558000	21.922041	0.000451	20.899835
141.038331	-2.993700	3.861400	-11.559000	21.938999	0.000452	20.894999
142.034842	-3.003500	3.862400	-11.600000	21.951971	0.000450	20.896604
143.040330	-2.993200	3.861900	-11.559000	21.968006	0.000454	20.907913
144.038114	-2.993000	3.861500	-11.556000	21.968872	0.000453	20.892185
145.038087	-2.988100	3.861600	-11.538000	21.964343	0.000452	20.904720
146.039004	-2.996400	3.860000	-11.565000	21.969181	0.000453	20.916674
147.037433	-2.992600	3.859900	-11.551000	21.985045	0.000453	20.915485
148.040625	-3.000900	3.860400	-11.584000	21.967791	0.000453	20.909120
149.055138	-3.016200	3.860600	-11.643000	21.991682	0.000454	20.897001
150.042713	-2.993600	3.860100	-11.555000	22.013249	0.000455	20.892038
151.042640	-2.997500	3.859000	-11.566000	22.042521	0.000456	20.899055
152.042684	-3.013100	3.859300	-11.628000	22.048507	0.000454	20.900781
153.041811	-2.990600	3.859200	-11.540000	22.020240	0.000456	20.928430
154.041785	-2.989000	3.860300	-11.537000	22.014032	0.000455	20.917001
155.041839	-3.008500	3.859000	-11.609000	22.010097	0.000453	20.934872
156.040200	-2.998500	3.858900	-11.570000	22.050212	0.000456	20.924770
157.042765	-3.018000	3.858800	-11.644000	22.047597	0.000456	20.920731
158.042917	-3.026900	3.857700	-11.676000	22.070407	0.000456	20.929340
159.047457	-3.019800	3.858300	-11.649000	22.099223	0.000458	20.914567
160.041937	-2.973800	3.857500	-11.470000	22.089485	0.000458	20.910034
161.042745	-3.012900	3.856300	-11.618000	22.093002	0.000457	20.924934
162.043102	-2.996500	3.857600	-11.558000	22.105840	0.000457	20.917399
163.044587	-3.001700	3.857600	-11.578000	22.127809	0.000460	20.908574
164.045702	-3.004300	3.856900	-11.587000	22.112597	0.000458	20.920370
165.043944	-2.976600	3.857300	-11.481000	22.118261	0.000460	20.912291
166.047043	-3.006100	3.857800	-11.596000	22.126666	0.000457	20.924971
167.047003	-3.025600	3.855900	-11.666000	22.109717	0.000459	20.911323
168.047451	-3.004400	3.858500	-11.591000	22.143747	0.000459	20.927847
169.045197	-2.978200	3.858600	-11.491000	22.123660	0.000458	20.917695
170.046442	-3.014700	3.857300	-11.627000	22.136895	0.000459	20.919566
171.046548	-2.987800	3.856100	-11.520000	22.166814	0.000462	20.931501
172.046239	-3.000100	3.854600	-11.562000	22.165766	0.000460	20.933770
173.048875	-2.992300	3.856700	-11.539000	22.178230	0.000461	20.921121
174.045505	-2.984000	3.855700	-11.505000	22.158813	0.000461	20.935818
175.049043	-2.986300	3.856300	-11.515000	22.166668	0.000462	20.940363
176.047827	-2.992900	3.854300	-11.535000	22.167470	0.000462	20.939269
177.048382	-2.989400	3.856300	-11.527000	22.175376	0.000463	20.936279
178.049368	-3.003800	3.853600	-11.575000	22.197110	0.000462	20.934806
179.047430	-3.005600	3.855200	-11.587000	22.229294	0.000464	20.917245
180.047421	-3.011300	3.854400	-11.606000	22.254916	0.000462	20.934364
181.047231	-3.013000	3.854400	-11.613000	22.244927	0.000462	20.930052
182.049093	-2.998700	3.853700	-11.555000	22.268655	0.000463	20.946222
183.049025	-2.973800	3.854700	-11.463000	22.269930	0.000464	20.937069
184.054759	-2.993200	3.853700	-11.535000	22.278378	0.000466	20.934622
185.050556	-3.002800	3.852500	-11.567000	22.266521	0.000465	20.951197
186.049366	-3.009800	3.852400	-11.594000	22.304379	0.000464	20.949275
187.048416	-2.992000	3.853100	-11.527000	22.304808	0.000465	20.936430
188.051899	-3.017300	3.852000	-11.622000	22.295388	0.000468	20.954970
189.051024	-2.990100	3.854100	-11.523000	22.321634	0.000468	20.966076
190.050217	-3.004100	3.852600	-11.573000	22.327196	0.000464	20.956000
191.052098	-3.006200	3.853300	-11.583000	22.325579	0.000466	20.944426
192.049322	-3.008500	3.852700	-11.589000	22.326280	0.000468	20.937068
193.050841	-3.017100	3.850800	-11.617000	22.317157	0.000467	20.938838
194.052692	-2.990100	3.852500	-11.518000	22.351029	0.000468	20.946202
195.051677	-2.995800	3.853000	-11.542000	22.350309	0.000466	20.940740
196.052422	-2.981000	3.851300	-11.480000	22.337821	0.000467	20.933926
197.052657	-3.001600	3.851500	-11.560000	22.351913	0.000470	20.935709
198.055726	-3.019700	3.851700	-11.630000	22.352955	0.000469	20.943389
199.053464	-2.987800	3.852400	-11.509000	22.343566	0.000470	20.948212
200.054945	-3.000000	3.850900	-11.552000	22.378808	0.000469	20.945095
201.055321	-3.009700	3.851600	-11.590000	22.375070	0.000470	20.958895
202.054834	-3.016600	3.850300	-11.614000	22.408120	0.000470	20.959748
203.058344	-3.027500	3.849700	-11.654000	22.397855	0.000471	20.967485
204.059630	-2.986600	3.850000	-11.498000	22.414951	0.000471	20.953313
205.058436	-2.989900	3.850500	-11.512000	22.413530	0.000474	20.947624
206.059974	-3.003300	3.849500	-11.560000	22.434370	0.000471	20.950949
207.057711	-3.005300	3.848400	-11.565000	22.422785	0.000472	20.949305
208.057805	-3.008900	3.848200	-11.577000	22.446655	0.000471	20.960879
209.058994	-2.972900	3.849600	-11.443000	22.462487	0.000472	20.967251
210.060102	-2.999100	3.849200	-11.543000	22.464085	0.000475	20.962213
211.069479	-2.986500	3.849500	-11.495000	22.455512	0.000472	20.953629
212.060086	-2.993100	3.848900	-11.520000	22.447040	0.000473	20.973591
213.061182	-2.993000	3.847900	-11.516000	22.470763	0.000472	20.966530
214.061360	-3.045200	3.848900	-11.718000	22.469198	0.000474	20.957851
215.061636	-3.009300	3.847800	-11.578000	22.464665	0.000475	20.956157
216.061402	-3.005500	3.847600	-11.563000	22.486747	0.000477	20.962623
217.060323	-3.016400	3.846600	-11.601000	22.509896	0.000476	20.973003
218.068986	-3.003700	3.847000	-11.555000	22.517957	0.000476	20.973015
219.061604	-2.988100	3.847000	-11.495000	22.520242	0.000477	20.965822
220.062438	-2.975600	3.847400	-11.447000	22.496121	0.000477	20.975803
221.063068	-2.982900	3.846600	-11.474000	22.498615	0.000476	20.982566
222.065259	-2.994000	3.848000	-11.520000	22.506020	0.000475	20.966277
223.069504	-3.011700	3.845600	-11.581000	22.538062	0.000477	20.953799
224.063548	-3.008400	3.846000	-11.570000	22.518234	0.000479	20.951011
225.065349	-3.004100	3.846800	-11.555000	22.516511	0.000479	20.973464
226.063169	-3.007800	3.845900	-11.567000	22.528101	0.000479	20.973217
227.064479	-3.003500	3.845400	-11.549000	22.544179	0.000479	20.963716
228.064340	-3.004000	3.846300	-11.553000	22.539173	0.000476	20.973874
229.064263	-3.011500	3.845200	-11.579000	22.579313	0.000478	20.969981
230.064130	-3.000000	3.846100	-11.538000	22.588213	0.000481	20.988375
231.064936	-3.014000	3.843500	-11.583000	22.606852	0.000481	21.004670
232.065129	-3.003800	3.843800	-11.545000	22.598205	0.000480	21.001699
233.064970	-3.019100	3.843700	-11.603000	22.639946	0.000481	20.977604
234.064898	-2.982100	3.846000	-11.468000	22.639567	0.000481	20.975802
235.064629	-2.995600	3.843700	-11.514000	22.644434	0.000484	20.991579
236.065637	-3.000400	3.842900	-11.530000	22.634423	0.000483	20.991510
237.065631	-3.008100	3.845000	-11.565000	22.644440	0.000483	20.986845
238.065381	-3.001500	3.844100	-11.536000	22.654065	0.000482	20.989847
239.067376	-3.001600	3.844000	-11.537000	22.654835	0.000484	20.990144
240.066382	-2.993800	3.843200	-11.505000	22.658244	0.000482	20.998298
241.066887	-3.012400	3.842600	-11.574000	22.645993	0.000482	20.995037
242.067301	-3.007200	3.842700	-11.555000	22.685535	0.000487	21.001452
243.067543	-2.992000	3.842300	-11.495000	22.684267	0.000484	20.995915
244.065389	-3.004600	3.841700	-11.542000	22.691045	0.000487	20.978052
245.068485	-3.001600	3.841900	-11.531000	22.695508	0.000483	20.992003
246.067766	-2.998100	3.841900	-11.517000	22.697729	0.000486	20.976687
247.068357	-3.012600	3.840700	-11.570000	22.657644	0.000486	20.979683
248.072686	-3.016000	3.840100	-11.581000	22.675714	0.000486	20.993039
249.069977	-3.016800	3.841300	-11.587000	22.701232	0.000487	21.004846
250.072444	-2.993500	3.842000	-11.500000	22.683964	0.000487	20.963848
251.072658	-2.996800	3.841000	-11.510000	22.722609	0.000489	20.980270
252.070569	-2.978100	3.839800	-11.432000	22.732903	0.000485	20.974935
253.071585	-3.003600	3.840500	-11.534000	22.734550	0.000489	20.981326
254.070972	-2.993900	3.840600	-11.497000	22.743266	0.000487	20.977729
255.070711	-2.997700	3.841000	-11.513000	22.729968	0.000488	20.975789
256.072365	-2.991200	3.839700	-11.485000	22.718443	0.000488	20.985106
257.072469	-2.998700	3.840800	-11.516000	22.738229	0.000489	20.967944
258.072690	-2.998700	3.840300	-11.515000	22.739593	0.000489	20.973576
259.074653	-2.994500	3.839000	-11.495000	22.759700	0.000490	20.963848
260.075983	-3.003500	3.839600	-11.531000	22.768952	0.000491	20.994922
261.076036	-2.992600	3.839600	-11.489000	22.773307	0.000492	20.960409
262.073944	-2.994500	3.838600	-11.492000	22.797434	0.000493	20.974145
263.075829	-2.991100	3.839500	-11.483000	22.770158	0.000489	20.963418
264.075313	-2.997300	3.838100	-11.503000	22.788889	0.000492	20.973172
265.077519	-2.995600	3.837800	-11.496000	22.807778	0.000492	20.963646
266.080402	-2.993800	3.838000	-11.489000	22.793509	0.000490	20.972584
267.078498	-3.002400	3.838300	-11.523000	22.838625	0.000491	20.959461
268.078121	-3.007600	3.837300	-11.540000	22.830030	0.000493	20.948481
269.077922	-3.010100	3.836300	-11.546000	22.852509	0.000491	20.974790
270.080147	-2.986400	3.836900	-11.458000	22.846778	0.000494	20.956250
271.079981	-3.013600	3.836100	-11.560000	22.814025	0.000496	20.951888
272.080549	-2.994100	3.835600	-11.483000	22.862625	0.000494	20.939410
273.079637	-3.016200	3.837000	-11.572000	22.864474	0.000493	20.966863
274.080327	-3.014800	3.836500	-11.566000	22.859343	0.000494	20.971680
275.082241	-3.005000	3.836600	-11.528000	22.871409	0.000496	20.939676
276.082233	-3.025800	3.834800	-11.603000	22.850281	0.000494	20.959758
277.083520	-2.990400	3.835500	-11.469000	22.871933	0.000496	20.972438
278.081197	-2.986400	3.836000	-11.455000	22.892789	0.000495	20.961566
279.082579	-3.000500	3.835600	-11.508000	22.906192	0.000498	20.938013
280.082832	-2.985100	3.835000	-11.447000	22.899920	0.000497	20.949271
281.085397	-3.001500	3.834400	-11.508000	22.926865	0.000500	20.948766
282.083969	-2.997100	3.835200	-11.494000	22.959482	0.000499	20.943987
283.089505	-3.022500	3.833900	-11.588000	22.937239	0.000499	20.950624
284.085024	-3.005200	3.833800	-11.520000	22.939233	0.000497	20.962103
285.092031	-2.981500	3.835300	-11.434000	22.938741	0.000498	20.936957
286.085099	-2.995400	3.834700	-11.486000	22.937195	0.000498	20.949157
287.093876	-3.012400	3.833400	-11.547000	22.936702	0.000498	20.948190
288.091997	-2.999100	3.832600	-11.494000	22.942009	0.000499	20.923164
289.086114	-2.999100	3.832700	-11.494000	22.933099	0.000500	20.941262
290.092945	-3.002900	3.832100	-11.507000	22.919993	0.000499	20.931926
291.087241	-2.986400	3.833100	-11.446000	22.911424	0.000500	20.935668
292.082187	-2.986300	3.833700	-11.449000	22.934551	0.000498	20.917115
293.087365	-2.998600	3.831600	-11.489000	22.946105	0.000502	20.931060
294.090612	-3.001000	3.831800	-11.498000	22.953311	0.000500	20.944916
295.085808	-3.000900	3.832000	-11.499000	22.962227	0.000502	20.932514
296.089937	-2.993600	3.831400	-11.469000	22.989997	0.000503	20.932836
297.092046	-2.995200	3.830500	-11.472000	22.985019	0.000501	20.936856
298.089290	-3.002200	3.830900	-11.501000	22.993714	0.000502	20.927551
299.091049	-3.017100	3.830000	-11.555000	22.976589	0.000500	20.947375
300.093020	-3.010400	3.829500	-11.527000	23.007223	0.000502	20.925440
301.090232	-2.980500	3.831200	-11.417000	23.008845	0.000503	20.933702
302.093947	-3.011500	3.830200	-11.534000	23.023912	0.000503	20.923196
303.094229	-3.000200	3.828400	-11.485000	22.997039	0.000504	20.928512
304.092692	-3.005000	3.830000	-11.507000	23.006031	0.000502	20.904333
305.093087	-2.994400	3.830000	-11.467000	23.027528	0.000503	20.931559
306.108066	-3.006900	3.830100	-11.516000	23.038866	0.000504	20.932014
307.092697	-3.016300	3.828400	-11.546000	23.072465	0.000507	20.925377
308.095194	-3.031200	3.828700	-11.604000	23.065915	0.000506	20.924979
309.092729	-3.001100	3.828100	-11.488000	23.095311	0.000505	20.926458
310.095265	-2.978700	3.829700	-11.407000	23.112226	0.000507	20.909270
311.095865	-2.999000	3.828200	-11.479000	23.124775	0.000505	20.929903
312.095336	-2.986400	3.828500	-11.432000	23.072156	0.000508	20.921275
313.094775	-3.001400	3.828000	-11.488000	23.110567	0.000507	20.949329
314.094404	-3.001000	3.828200	-11.488000	23.125829	0.000506	20.936648
315.096560	-3.039100	3.826100	-11.627000	23.116441	0.000509	20.941939
316.096349	-3.003900	3.826000	-11.492000	23.118643	0.000509	20.925656
317.096160	-2.976400	3.826800	-11.389000	23.130069	0.000509	20.929518
318.100036	-3.007500	3.826900	-11.509000	23.154478	0.000507	20.916995
319.097782	-3.003700	3.825100	-11.489000	23.153065	0.000506	20.919846
320.100555	-2.997700	3.826900	-11.471000	23.164869	0.000508	20.916976
321.098590	-3.017800	3.826200	-11.546000	23.147740	0.000510	20.908822
322.098885	-2.980900	3.826700	-11.406000	23.130883	0.000509	20.917533
323.098221	-2.994300	3.826300	-11.456000	23.142372	0.000507	20.928570
324.103512	-3.023200	3.824300	-11.560000	23.141097	0.000510	20.931086
325.100594	-3.037700	3.824600	-11.617000	23.129148	0.000510	20.920061
326.100808	-3.019700	3.823800	-11.546000	23.154876	0.000508	20.932091
327.102867	-3.028700	3.824700	-11.582000	23.147286	0.000508	20.924486
328.100514	-2.994100	3.824700	-11.451000	23.168731	0.000511	20.920845
329.099802	-3.009700	3.823700	-11.507000	23.176705	0.000510	20.914613
330.098917	-2.985200	3.823400	-11.413000	23.183828	0.000509	20.914164
331.100919	-3.005700	3.823500	-11.491000	23.224714	0.000512	20.908196
332.102343	-2.975000	3.823300	-11.374000	23.234209	0.000511	20.897798
333.103495	-2.988000	3.822800	-11.422000	23.206419	0.000513	20.905510
334.101569	-2.995300	3.823200	-11.450000	23.189165	0.000512	20.909556
335.100922	-3.017000	3.822100	-11.530000	23.224853	0.000513	20.920188
336.101914	-2.991300	3.823700	-11.437000	23.268237	0.000514	20.926680
337.101949	-3.026600	3.822500	-11.568000	23.253368	0.000514	20.896609
338.103671	-2.986900	3.822200	-11.415000	23.265202	0.000513	20.924588
339.101604	-3.001500	3.821200	-11.468000	23.279295	0.000513	20.916901
340.106419	-3.022100	3.822500	-11.552000	23.291653	0.000514	20.912217
341.101402	-3.015500	3.821300	-11.523000	23.264111	0.000514	20.904530
342.102656	-2.997200	3.822200	-11.454000	23.281371	0.000514	20.923722
343.103576	-3.028500	3.820800	-11.570000	23.275100	0.000515	20.913172
344.102105	-2.994700	3.821000	-11.442000	23.292385	0.000515	20.896831
345.104559	-3.007400	3.820200	-11.488000	23.320904	0.000514	20.877525
346.102849	-2.992100	3.820300	-11.430000	23.314350	0.000515	20.905567
347.102784	-2.991300	3.820500	-11.428000	23.323667	0.000516	20.904948
348.104612	-3.010600	3.819500	-11.498000	23.316469	0.000516	20.906743
349.103200	-2.985800	3.820900	-11.408000	23.317618	0.000517	20.911213
350.105224	-2.995300	3.819100	-11.438000	23.330549	0.000516	20.883398
351.108553	-2.995900	3.819200	-11.441000	23.359704	0.000518	20.896022
352.105236	-3.019500	3.817300	-11.525000	23.364088	0.000519	20.910846
353.108102	-2.987400	3.818400	-11.406000	23.358663	0.000519	20.918685
354.105573	-2.982400	3.817900	-11.385000	23.385982	0.000517	20.910031
355.103174	-3.004600	3.817600	-11.469000	23.389300	0.000517	20.894392
356.113454	-3.019300	3.817800	-11.525000	23.384046	0.000518	20.899556
357.103486	-3.013700	3.816900	-11.501000	23.385913	0.000517	20.889100
358.103487	-3.005200	3.816700	-11.468000	23.388928	0.000519	20.913457
359.115645	-3.006700	3.817000	-11.475000	23.403373	0.000518	20.899961
360.104725	-3.008400	3.816900	-11.481000	23.411547	0.000520	20.912421
361.105778	-2.985700	3.816700	-11.395000	23.446654	0.000521	20.895454
362.105012	-3.002100	3.815900	-11.455000	23.415231	0.000520	20.891933
363.105017	-2.987800	3.815000	-11.398000	23.400497	0.000520	20.907983
364.103830	-2.974100	3.816400	-11.349000	23.400327	0.000520	20.895486
365.103987	-2.959000	3.816300	-11.291000	23.389276	0.000521	20.882514
366.107676	-3.009700	3.815300	-11.482000	23.385188	0.000519	20.889322
367.106748	-2.985600	3.815800	-11.391000	23.358583	0.000519	20.911492
368.107895	-3.019800	3.814000	-11.516000	23.361301	0.000522	20.918958
369.109433	-3.005300	3.814800	-11.464000	23.381846	0.000519	20.887869
370.104918	-3.001200	3.814800	-11.449000	23.405222	0.000521	20.899443
371.108855	-2.998000	3.813300	-11.431000	23.400151	0.000520	20.889146
372.108544	-3.025700	3.814300	-11.540000	23.429878	0.000521	20.890018
373.108967	-2.985800	3.813600	-11.385000	23.434596	0.000522	20.895221
374.112188	-3.005600	3.812800	-11.458000	23.420051	0.000520	20.886333
375.110829	-3.009900	3.814300	-11.480000	23.435694	0.000523	20.882098
376.109735	-3.011900	3.812800	-11.483000	23.450579	0.000525	20.874733
377.113666	-2.992700	3.812100	-11.407000	23.443786	0.000523	20.894950
378.117684	-2.995000	3.813000	-11.419000	23.442026	0.000523	20.887971
379.112392	-3.002300	3.812200	-11.444000	23.426737	0.000524	20.882604
380.110569	-3.001000	3.811800	-11.438000	23.425747	0.000524	20.881612
381.117557	-3.011700	3.812300	-11.481000	23.455102	0.000524	20.884482
382.109631	-3.003700	3.811800	-11.449000	23.447287	0.000525	20.879020
383.112269	-2.982400	3.812400	-11.369000	23.489892	0.000524	20.898964
384.112122	-3.017000	3.811800	-11.500000	23.491885	0.000525	20.896221
385.111249	-2.992900	3.811700	-11.407000	23.454591	0.000524	20.885866
386.110296	-3.020800	3.810300	-11.509000	23.442172	0.000525	20.885272
387.112620	-3.031500	3.810200	-11.550000	23.440721	0.000524	20.869120
388.110337	-3.002000	3.810000	-11.437000	23.479839	0.000524	20.895526
389.116979	-3.024900	3.809600	-11.523000	23.459328	0.000524	20.898674
390.114451	-3.006400	3.810000	-11.453000	23.468518	0.000526	20.895083
391.109777	-2.997500	3.809700	-11.419000	23.478982	0.000525	20.878547
392.115785	-3.007700	3.809600	-11.457000	23.477840	0.000526	20.894945
393.116580	-3.008000	3.808000	-11.454000	23.491136	0.000526	20.893099
394.111285	-3.037200	3.807900	-11.565000	23.491684	0.000526	20.876107
395.116247	-3.019300	3.807200	-11.494000	23.516036	0.000526	20.875386
396.115197	-2.992600	3.808400	-11.396000	23.498061	0.000527	20.887713
397.114167	-3.008200	3.808700	-11.457000	23.476030	0.000526	20.877011
398.116938	-3.002900	3.807000	-11.431000	23.513753	0.000528	20.874046
399.115227	-2.989600	3.807500	-11.382000	23.519732	0.000528	20.885255
400.112262	-2.985900	3.808400	-11.370000	23.549286	0.000528	20.867466
401.117833	-2.993000	3.808200	-11.397000	23.567159	0.000527	20.892019
402.120751	-3.019200	3.804700	-11.487000	23.584962	0.000526	20.882366
403.114827	-3.000500	3.805900	-11.418000	23.583872	0.000529	20.880798
404.115883	-3.003900	3.806500	-11.433000	23.584919	0.000527	20.876158
405.118001	-3.015900	3.805800	-11.476000	23.600458	0.000530	20.873718
406.117295	-2.997100	3.806900	-11.408000	23.629883	0.000526	20.866708
407.115310	-2.998300	3.806900	-11.413000	23.623439	0.000529	20.862618
408.119102	-3.003500	3.804400	-11.425000	23.598547	0.000529	20.878441
409.115801	-3.033100	3.803300	-11.534000	23.609899	0.000528	20.887923
410.115465	-2.982700	3.805200	-11.348000	23.594720	0.000529	20.869863
411.118382	-3.000600	3.804300	-11.413000	23.598579	0.000530	20.853344
412.116692	-2.995200	3.804000	-11.393000	23.565375	0.000527	20.857991
413.117272	-3.013300	3.804600	-11.463000	23.567936	0.000528	20.872884
414.121316	-3.010300	3.802100	-11.445000	23.604420	0.000529	20.863466
415.118710	-2.999100	3.803300	-11.406000	23.625502	0.000529	20.871798
416.116690	-3.000200	3.802500	-11.407000	23.648355	0.000530	20.864838
417.122941	-2.993900	3.803200	-11.385000	23.653886	0.000529	20.850943
418.116472	-3.005200	3.802500	-11.425000	23.644105	0.000532	20.859155
419.118397	-2.991400	3.803100	-11.376000	23.636715	0.000531	20.856013
420.122417	-2.980300	3.801800	-11.329000	23.601671	0.000530	20.854072
421.118206	-3.008400	3.801900	-11.437000	23.624121	0.000533	20.857612
422.120036	-2.982700	3.801700	-11.339000	23.663081	0.000530	20.875806
423.122848	-2.999700	3.800300	-11.399000	23.673518	0.000533	20.882002
424.118189	-2.995900	3.800800	-11.386000	23.632868	0.000531	20.845519
425.118665	-3.024200	3.799300	-11.488000	23.630832	0.000531	20.868606
426.122400	-3.015400	3.799700	-11.457000	23.670416	0.000532	20.835746
427.119102	-2.988700	3.799400	-11.355000	23.697991	0.000532	20.870977
428.119197	-3.018300	3.800300	-11.470000	23.672213	0.000533	20.874530
429.123353	-3.000500	3.800200	-11.401000	23.710074	0.000532	20.863651
430.121331	-3.011400	3.799800	-11.442000	23.715875	0.000534	20.841019
431.117177	-2.989200	3.799700	-11.357000	23.716752	0.000533	20.847588
432.120605	-2.987200	3.799800	-11.350000	23.708517	0.000532	20.860667
433.119725	-3.021600	3.798200	-11.476000	23.712679	0.000535	20.849668
434.119286	-2.992900	3.798800	-11.368000	23.698548	0.000532	20.868216
435.123821	-3.000800	3.798800	-11.398000	23.696328	0.000534	20.860775
436.121589	-2.978900	3.797700	-11.313000	23.725108	0.000531	20.845060
437.120572	-2.991600	3.797100	-11.358000	23.691782	0.000537	20.841046
438.125327	-2.991300	3.798200	-11.361000	23.653473	0.000532	20.840097
439.125235	-2.996500	3.799000	-11.383000	23.688503	0.000531	20.855301
440.124116	-2.995400	3.797200	-11.372000	23.706500	0.000533	20.858646
441.126187	-3.024300	3.796500	-11.481000	23.741377	0.000534	20.841457
442.122261	-2.986700	3.797400	-11.341000	23.721767	0.000536	20.864468
443.123052	-3.003100	3.795700	-11.398000	23.729914	0.000535	20.845137
444.129333	-2.994400	3.796000	-11.365000	23.765730	0.000535	20.840743
445.124919	-3.026100	3.794500	-11.481000	23.794205	0.000537	20.837526
446.125161	-3.003900	3.794300	-11.396000	23.809244	0.000535	20.817991
447.128383	-2.984900	3.795000	-11.327000	23.775945	0.000535	20.843399
448.125208	-2.992600	3.795500	-11.357000	23.763454	0.000534	20.835143
449.125834	-2.995600	3.794400	-11.365000	23.787428	0.000536	20.844480
450.131012	-2.989000	3.794000	-11.340000	23.790341	0.000535	20.856884
451.126292	-3.024900	3.793700	-11.475000	23.793557	0.000534	20.834505
452.126810	-2.995200	3.793200	-11.360000	23.772976	0.000535	20.884042
453.130258	-2.999100	3.793200	-11.375000	23.763298	0.000536	20.857270
454.130424	-3.001300	3.794500	-11.387000	23.733302	0.000535	20.849007
455.131408	-2.980100	3.793000	-11.303000	23.781048	0.000536	20.846144
456.135930	-3.014500	3.791000	-11.426000	23.825027	0.000535	20.840454
457.131433	-2.975600	3.791800	-11.282000	23.820658	0.000537	20.842712
458.131331	-2.997400	3.792200	-11.366000	23.821175	0.000535	20.842282
459.129669	-2.994000	3.792400	-11.354000	23.849699	0.000537	20.837218
460.135165	-3.005600	3.792400	-11.398000	23.853640	0.000537	20.816040
461.129591	-2.981800	3.791500	-11.305000	23.870342	0.000534	20.847959
462.131789	-3.009400	3.790600	-11.407000	23.840104	0.000537	20.833761
463.132757	-3.008100	3.790200	-11.400000	23.799770	0.000537	20.853536
464.132620	-3.000200	3.791500	-11.374000	23.810968	0.000535	20.832996
465.132495	-2.999100	3.790900	-11.368000	23.831057	0.000535	20.828957
466.133891	-2.997400	3.789600	-11.358000	23.859606	0.000538	20.821548
467.140648	-3.022800	3.789900	-11.455000	23.875394	0.000538	20.809404
468.132128	-3.012600	3.789200	-11.414000	23.868749	0.000538	20.838301
469.138253	-2.996000	3.789400	-11.352000	23.850660	0.000537	20.827276
470.132390	-2.979900	3.788700	-11.289000	23.854096	0.000537	20.834989
471.135913	-2.981200	3.789200	-11.295000	23.844097	0.000539	20.824015
472.137761	-2.994600	3.790000	-11.349000	23.866820	0.000539	20.833523
473.137415	-3.002600	3.789000	-11.376000	23.887853	0.000538	20.825690
474.136344	-2.984100	3.788800	-11.305000	23.921256	0.000538	20.819830
475.134892	-2.985700	3.787100	-11.306000	23.909712	0.000538	20.843341
476.136194	-3.005500	3.787900	-11.383000	23.941955	0.000540	20.844853
477.134829	-3.008300	3.787800	-11.393000	23.955982	0.000538	20.817194
478.137017	-3.000200	3.787600	-11.363000	23.966737	0.000537	20.829402
479.133961	-3.007200	3.787800	-11.389000	23.966397	0.000538	20.849449
480.135188	-3.011700	3.787700	-11.407000	23.965906	0.000540	20.833310
481.136034	-3.021000	3.785200	-11.433000	23.972060	0.000540	20.810084
482.137632	-2.988000	3.785700	-11.312000	23.927935	0.000537	20.836010
483.138993	-2.997800	3.785500	-11.346000	23.914853	0.000537	20.832850
484.138031	-3.001400	3.785700	-11.362000	23.893336	0.000539	20.824076
485.139360	-2.993500	3.784900	-11.329000	23.907370	0.000537	20.825346
486.136271	-2.991100	3.785100	-11.321000	23.900259	0.000539	20.829595
487.136865	-2.992600	3.784500	-11.325000	23.931246	0.000540	20.823210
488.137454	-3.025500	3.782700	-11.443000	23.938213	0.000538	20.839678
489.136486	-3.006200	3.785100	-11.378000	23.958577	0.000537	20.823116
490.137864	-3.015100	3.783300	-11.405000	23.966495	0.000539	20.816832
491.139314	-2.984500	3.785400	-11.296000	23.964813	0.000540	20.846438
492.136693	-3.010800	3.782100	-11.386000	23.976929	0.000539	20.832985
493.139147	-2.987400	3.783000	-11.300000	23.992161	0.000540	20.834509
494.138998	-2.994300	3.783600	-11.328000	23.998213	0.000538	20.817345
495.149092	-2.994900	3.781900	-11.325000	23.995105	0.000540	20.808539
496.142544	-2.978600	3.781400	-11.263000	23.996732	0.000539	20.829136
497.141691	-2.978500	3.782600	-11.265000	24.011314	0.000540	20.811991
498.141400	-3.014000	3.781400	-11.396000	23.979642	0.000540	20.824800
499.144148	-2.994300	3.781200	-11.321000	24.012562	0.000540	20.815140
500.151102	-3.009900	3.780400	-11.376000	24.046762	0.000540	20.823833
501.145104	-3.010500	3.780300	-11.380000	24.078943	0.000540	20.824339
502.141472	-3.040900	3.779400	-11.492000	24.071354	0.000542	20.836168
503.143182	-3.018400	3.779300	-11.406000	24.057870	0.000540	20.827861
504.141087	-3.002900	3.779700	-11.350000	24.006739	0.000540	20.796024
505.143463	-3.006800	3.779400	-11.363000	23.987700	0.000539	20.812967
506.146585	-2.971700	3.779300	-11.229000	23.988054	0.000540	20.850778
507.142016	-2.993400	3.779300	-11.312000	24.015383	0.000540	20.829348
508.148098	-2.993200	3.777600	-11.306000	24.066369	0.000542	20.826901
509.140339	-2.999300	3.777800	-11.330000	24.064510	0.000540	20.809864
510.144312	-2.983900	3.778800	-11.274000	24.036413	0.000540	20.813455
511.145783	-2.995000	3.778400	-11.314000	24.013303	0.000539	20.822995
512.143186	-3.001000	3.777500	-11.336000	24.038935	0.000539	20.834950
513.142311	-3.015000	3.776200	-11.384000	23.997953	0.000540	20.825145
514.148165	-3.001000	3.777600	-11.336000	24.036553	0.000538	20.807431
515.147105	-3.017500	3.776400	-11.394000	24.062008	0.000541	20.820631
516.145936	-3.003100	3.776900	-11.342000	24.085130	0.000540	20.829596
517.154250	-2.999900	3.776600	-11.328000	24.043399	0.000540	20.826151
518.149756	-3.003000	3.776600	-11.340000	24.052118	0.000539	20.818774
519.147579	-2.996600	3.776400	-11.316000	24.043060	0.000538	20.812534
520.144881	-3.003400	3.776000	-11.340000	24.046950	0.000541	20.820702
521.145571	-2.997500	3.775000	-11.315000	24.075764	0.000540	20.814987
522.145272	-2.984600	3.775000	-11.267000	24.094600	0.000539	20.832455
523.149970	-3.005800	3.774700	-11.345000	24.068326	0.000543	20.818907
524.148485	-3.012200	3.774600	-11.368000	24.082535	0.000539	20.824148
525.145908	-2.992400	3.774300	-11.294000	24.095054	0.000540	20.816315
526.148555	-3.002600	3.774200	-11.332000	24.097494	0.000540	20.826823
527.147890	-3.006500	3.774200	-11.347000	24.124870	0.000541	20.821563
528.147347	-2.995000	3.774300	-11.303000	24.107227	0.000542	20.818092
529.145025	-2.982000	3.772900	-11.250000	24.107851	0.000539	20.832943
530.147143	-2.992900	3.773300	-11.292000	24.120767	0.000541	20.827405
531.145652	-3.005800	3.772700	-11.340000	24.166435	0.000539	20.834802
532.149267	-2.984300	3.772400	-11.257000	24.168843	0.000540	20.827260
533.146660	-3.004900	3.771500	-11.332000	24.145931	0.000542	20.842211
534.148580	-3.008300	3.772500	-11.347000	24.145988	0.000540	20.846062
535.147544	-2.996800	3.771700	-11.302000	24.182490	0.000541	20.841422
536.149393	-3.013500	3.769700	-11.360000	24.178387	0.000539	20.823082
537.147988	-3.000600	3.769400	-11.310000	24.140499	0.000543	20.825384
538.148747	-2.995000	3.771100	-11.293000	24.159087	0.000542	20.833596
539.150469	-3.009200	3.769100	-11.341000	24.157322	0.000544	20.821395
540.149069	-2.985700	3.770400	-11.256000	24.133963	0.000541	20.837794
541.152432	-2.992900	3.769900	-11.282000	24.145738	0.000542	20.834906
542.151054	-3.007300	3.770600	-11.338000	24.156145	0.000539	20.837758
543.152378	-3.014500	3.768800	-11.360000	24.150895	0.000542	20.815897
544.155001	-2.988900	3.769700	-11.265000	24.136838	0.000542	20.834515
545.149156	-3.017900	3.766900	-11.367000	24.099642	0.000540	20.826132
546.151368	-2.997400	3.768200	-11.293000	24.137538	0.000540	20.830949
547.149159	-2.988300	3.768600	-11.261000	24.130681	0.000540	20.830236
548.148884	-3.028200	3.767100	-11.406000	24.141511	0.000542	20.837304
549.150237	-3.009200	3.768000	-11.338000	24.170172	0.000541	20.830963
550.149595	-3.005500	3.767100	-11.321000	24.180546	0.000541	20.860808
551.151896	-3.001700	3.767600	-11.308000	24.177017	0.000541	20.843993
552.153308	-3.002100	3.766000	-11.305000	24.213103	0.000542	20.843678
553.154055	-3.002500	3.767100	-11.310000	24.207751	0.000542	20.845422
554.149600	-2.993400	3.767500	-11.277000	24.196665	0.000541	20.839045
555.152607	-2.995200	3.765400	-11.277000	24.199274	0.000541	20.841187
556.152779	-2.995300	3.765400	-11.278000	24.219381	0.000541	20.834803
557.151188	-3.009500	3.765800	-11.332000	24.240011	0.000542	20.837477
558.158469	-3.004600	3.766100	-11.315000	24.247877	0.000541	20.854376
559.158469	-3.014000	3.765800	-11.349000	24.253701	0.000543	20.842200
560.154292	-3.013700	3.763800	-11.342000	24.283740	0.000543	20.858107
561.154971	-3.017400	3.765400	-11.361000	24.293194	0.000540	20.858581
562.154001	-2.987600	3.763800	-11.244000	24.291877	0.000540	20.843984
563.151622	-3.007300	3.764000	-11.317000	24.261826	0.000541	20.855566
564.156030	-3.000900	3.764100	-11.295000	24.259867	0.000541	20.843169
565.155552	-2.994300	3.764800	-11.272000	24.272113	0.000540	20.848341
566.154940	-3.006100	3.762900	-11.311000	24.259351	0.000541	20.847393
567.153822	-3.020200	3.763000	-11.364000	24.262912	0.000541	20.859025
568.156097	-2.999400	3.762700	-11.285000	24.252715	0.000541	20.864443
569.154511	-3.015600	3.761500	-11.342000	24.248265	0.000541	20.840541
570.162977	-2.995300	3.763100	-11.271000	24.292031	0.000539	20.850776
571.160388	-2.987100	3.762200	-11.237000	24.346439	0.000542	20.850353
572.163114	-3.020700	3.760900	-11.360000	24.323682	0.000541	20.848862
573.160054	-2.987400	3.762300	-11.238000	24.299669	0.000542	20.863654
574.161099	-2.999500	3.761100	-11.281000	24.320846	0.000542	20.844594
575.159945	-3.012000	3.760700	-11.327000	24.310876	0.000540	20.866361
576.161684	-3.022900	3.758700	-11.360000	24.289757	0.000540	20.849444
577.162545	-2.997800	3.760800	-11.273000	24.318490	0.000541	20.852662
578.157999	-3.007000	3.760600	-11.307000	24.347802	0.000539	20.850298
579.164161	-3.026900	3.759500	-11.379000	24.353449	0.000542	20.851695
580.165267	-3.002300	3.758800	-11.284000	24.309245	0.000540	20.869466
581.158588	-3.007300	3.759000	-11.303000	24.340549	0.000540	20.855350
582.170277	-2.992600	3.758900	-11.248000	24.326351	0.000542	20.846798
583.160619	-2.999700	3.758200	-11.272000	24.362191	0.000541	20.848137
584.159849	-3.019300	3.758100	-11.346000	24.364164	0.000541	20.860547
585.158170	-3.001600	3.757600	-11.277000	24.365834	0.000541	20.880240
586.161293	-3.003200	3.758100	-11.285000	24.342227	0.000541	20.852766
587.158732	-3.008300	3.757300	-11.301000	24.371236	0.000540	20.850572
588.157639	-3.022800	3.756200	-11.353000	24.386115	0.000540	20.848904
589.161432	-2.998500	3.757800	-11.267000	24.397061	0.000540	20.844712
590.157847	-2.997900	3.757000	-11.262000	24.380576	0.000541	20.870847
591.160761	-3.003600	3.757600	-11.286000	24.371993	0.000539	20.863185
592.161859	-3.007600	3.755000	-11.293000	24.398789	0.000540	20.850239
593.159008	-2.970700	3.756800	-11.159000	24.412604	0.000541	20.848451
594.159670	-2.984400	3.755200	-11.206000	24.398551	0.000542	20.859956
595.162978	-2.996900	3.755500	-11.253000	24.359195	0.000540	20.866468
596.159340	-3.016200	3.754600	-11.324000	24.397140	0.000540	20.859489
597.170352	-2.991800	3.755100	-11.234000	24.379010	0.000542	20.873543
598.160562	-2.999200	3.754000	-11.258000	24.373407	0.000540	20.868871
599.165383	-2.998700	3.754400	-11.257000	24.400185	0.000539	20.872974
600.163221	-3.012900	3.752600	-11.306000	24.440365	0.000539	20.866344
601.167234	-2.984800	3.755200	-11.207000	24.425241	0.000539	20.878671
602.161465	-3.006600	3.753400	-11.284000	24.435065	0.000542	20.883311
603.162260	-3.029100	3.753000	-11.367000	24.413111	0.000539	20.889735
604.164699	-2.991300	3.753900	-11.228000	24.376844	0.000543	20.860466
605.164241	-3.006600	3.752500	-11.281000	24.353987	0.000538	20.884002
606.165335	-2.992500	3.754200	-11.233000	24.366359	0.000537	20.867016
607.162297	-2.974200	3.754000	-11.164000	24.409251	0.000540	20.888232
608.168227	-2.995000	3.752100	-11.236000	24.381491	0.000541	20.887885
609.171361	-2.996400	3.753000	-11.244000	24.387617	0.000539	20.893556
610.163110	-2.967200	3.753900	-11.137000	24.402742	0.000537	20.883600
611.164705	-2.996300	3.751100	-11.237000	24.430811	0.000540	20.872879
612.171481	-2.987700	3.750600	-11.205000	24.425486	0.000539	20.892191
613.170375	-3.010700	3.750200	-11.290000	24.423299	0.000538	20.872930
614.165205	-2.985900	3.750500	-11.197000	24.427012	0.000537	20.865275
615.169012	-3.006100	3.749600	-11.270000	24.393758	0.000539	20.880751
616.179452	-3.016000	3.749000	-11.307000	24.425330	0.000537	20.883975
617.177730	-3.009700	3.750600	-11.287000	24.451458	0.000539	20.882687
618.171785	-3.004000	3.747900	-11.258000	24.452782	0.000539	20.896816
619.168441	-3.015700	3.749200	-11.305000	24.443153	0.000538	20.891424
620.167890	-2.994400	3.750900	-11.231000	24.440374	0.000538	20.886740
621.181253	-2.974000	3.749200	-11.149000	24.432095	0.000539	20.892658
622.179002	-2.986800	3.748000	-11.193000	24.395363	0.000540	20.887576
623.168034	-2.985700	3.748400	-11.190000	24.428566	0.000538	20.900023
624.173666	-2.978900	3.748700	-11.166000	24.444743	0.000538	20.899657
625.172437	-3.009200	3.747400	-11.275000	24.435323	0.000538	20.878828
626.169630	-2.998700	3.747600	-11.237000	24.452175	0.000539	20.913750
627.178660	-3.014900	3.745800	-11.293000	24.453568	0.000539	20.883855
628.181376	-2.984600	3.747300	-11.183000	24.513494	0.000540	20.894192
629.171620	-2.993500	3.746200	-11.213000	24.493393	0.000538	20.890619
630.172698	-2.984800	3.747300	-11.184000	24.527408	0.000539	20.897246
631.185493	-2.986700	3.746000	-11.188000	24.468276	0.000538	20.896714
632.176343	-3.005300	3.745700	-11.256000	24.450584	0.000538	20.901723
633.173420	-2.995300	3.745900	-11.219000	24.466703	0.000538	20.893714
634.175615	-2.973200	3.745500	-11.136000	24.462652	0.000537	20.896287
635.169865	-2.984500	3.745600	-11.177000	24.449274	0.000539	20.918899
636.190459	-3.014600	3.743500	-11.285000	24.460548	0.000537	20.912667
637.175104	-3.004000	3.743900	-11.246000	24.468709	0.000535	20.919905
638.176532	-3.025500	3.744600	-11.329000	24.472201	0.000538	20.913926
639.173834	-3.022500	3.743200	-11.313000	24.484269	0.000538	20.912283
640.184463	-3.003100	3.744800	-11.244000	24.451532	0.000538	20.915475
641.189413	-2.990800	3.744500	-11.198000	24.462020	0.000537	20.889490
642.180169	-2.976400	3.744000	-11.142000	24.459783	0.000536	20.915692
643.173909	-3.004900	3.742600	-11.246000	24.471800	0.000536	20.934385
644.180170	-3.005700	3.742200	-11.247000	24.452676	0.000536	20.900503
645.187582	-2.997600	3.742900	-11.219000	24.494323	0.000537	20.897716
646.175848	-3.008300	3.741800	-11.256000	24.518974	0.000535	20.915808
647.179931	-3.001100	3.742700	-11.232000	24.490499	0.000535	20.910948
648.180445	-3.006300	3.741200	-11.247000	24.504406	0.000537	20.913047
649.178936	-3.002600	3.740500	-11.231000	24.472100	0.000535	20.914773
650.182883	-3.005900	3.741400	-11.245000	24.483078	0.000538	20.914882
651.183632	-3.003800	3.742400	-11.240000	24.507289	0.000537	20.904560
652.179847	-2.997100	3.740600	-11.209000	24.550936	0.000536	20.897618
653.179489	-2.996600	3.739800	-11.205000	24.568681	0.000535	20.916369
654.184746	-3.013000	3.739100	-11.264000	24.551499	0.000534	20.924733
655.191788	-3.013300	3.740300	-11.269000	24.584098	0.000536	20.929467
656.182081	-2.993700	3.739600	-11.194000	24.576974	0.000534	20.921371
657.182452	-2.987200	3.738700	-11.167000	24.522880	0.000536	20.931106
658.179832	-2.991200	3.739200	-11.183000	24.543656	0.000534	20.906435
659.183242	-3.009700	3.738100	-11.250000	24.551048	0.000536	20.936133
660.191124	-2.969900	3.741000	-11.109000	24.574846	0.000535	20.917813
661.182489	-3.001000	3.738100	-11.217000	24.598160	0.000535	20.918447
662.180675	-2.997000	3.739700	-11.207000	24.585357	0.000537	20.935945
663.194375	-3.012800	3.736900	-11.257000	24.603668	0.000535	20.929604
664.181703	-2.986300	3.738300	-11.163000	24.629185	0.000535	20.919706
665.182031	-2.988000	3.738500	-11.169000	24.627768	0.000536	20.950048
666.193334	-2.988300	3.736500	-11.165000	24.581541	0.000536	20.944917
667.184089	-2.999600	3.737500	-11.209000	24.574831	0.000532	20.932496
668.179633	-2.992700	3.737800	-11.185000	24.552628	0.000535	20.941511
669.198718	-3.005000	3.736500	-11.227000	24.572847	0.000529	20.944728
670.185062	-2.990000	3.736800	-11.171000	24.605537	0.000534	20.957138
671.185763	-3.011900	3.735700	-11.250000	24.573976	0.000533	20.931638
672.179696	-3.002100	3.735000	-11.212000	24.563436	0.000532	20.943346
673.181529	-3.010300	3.734900	-11.243000	24.584185	0.000532	20.935717
674.187890	-3.000100	3.735300	-11.206000	24.618808	0.000535	20.945800
675.184190	-3.008400	3.735400	-11.236000	24.626250	0.000534	20.940465
676.191408	-2.993400	3.736000	-11.183000	24.637994	0.000532	20.960309
677.195575	-3.004900	3.735500	-11.224000	24.676453	0.000533	20.939633
678.194102	-2.981000	3.735000	-11.133000	24.679786	0.000532	20.944399
679.180860	-2.994300	3.733900	-11.180000	24.630322	0.000531	20.950241
680.196434	-2.987100	3.734100	-11.153000	24.617495	0.000534	20.935475
681.191617	-3.006400	3.733500	-11.224000	24.609909	0.000532	20.952991
682.196404	-2.991400	3.733900	-11.168000	24.639957	0.000532	20.958011
683.186481	-3.003800	3.734100	-11.215000	24.622084	0.000530	20.955250
684.201729	-2.982900	3.733800	-11.136000	24.669582	0.000531	20.955496
685.190581	-2.995200	3.731400	-11.175000	24.652460	0.000533	20.976717
686.189874	-3.000500	3.732000	-11.197000	24.611086	0.000532	20.971713
687.187102	-3.013800	3.730500	-11.242000	24.653783	0.000532	20.970934
688.192797	-3.007200	3.731400	-11.220000	24.648221	0.000531	20.948287
689.187040	-3.019900	3.731000	-11.266000	24.700942	0.000530	20.952825
690.194848	-2.974900	3.731900	-11.102000	24.745169	0.000530	20.950267
691.185024	-3.001300	3.732200	-11.201000	24.740816	0.000531	20.954432
692.188731	-3.008200	3.731700	-11.225000	24.729508	0.000529	20.974850
693.186698	-3.025700	3.729700	-11.284000	24.733912	0.000529	20.967417
694.193135	-2.982600	3.729900	-11.123000	24.710843	0.000530	20.967026
695.192389	-2.973300	3.731300	-11.094000	24.727186	0.000530	20.986268
696.187788	-2.970100	3.731200	-11.080000	24.746861	0.000529	20.960498
697.188416	-2.994200	3.730000	-11.167000	24.740964	0.000527	20.960270
698.187962	-2.982600	3.728800	-11.120000	24.727987	0.000529	20.965264
699.190610	-3.020500	3.727500	-11.258000	24.706226	0.000529	20.978039
700.187562	-3.003600	3.728700	-11.198000	24.714494	0.000527	20.960259
701.206210	-3.001600	3.728200	-11.189000	24.691568	0.000528	20.961910
702.191387	-3.019900	3.728700	-11.259000	24.691939	0.000529	20.985512
703.190539	-3.001000	3.728400	-11.188000	24.702656	0.000528	20.975405
704.190223	-3.001100	3.727900	-11.187000	24.718905	0.000527	20.977960
705.204020	-3.009800	3.726900	-11.216000	24.705152	0.000529	20.961316
706.197873	-3.019700	3.727600	-11.255000	24.715926	0.000528	20.977815
707.196829	-2.997200	3.727800	-11.173000	24.680462	0.000526	20.996753
708.190114	-2.978400	3.728200	-11.104000	24.698147	0.000529	20.992215
709.187981	-3.006400	3.726100	-11.201000	24.656818	0.000529	20.965446
710.190469	-2.976600	3.726800	-11.092000	24.647216	0.000527	20.974301
711.193662	-2.977200	3.726900	-11.094000	24.665677	0.000529	20.980497
712.187872	-2.984100	3.725700	-11.117000	24.675853	0.000527	20.976958
713.194233	-3.002100	3.725100	-11.182000	24.722606	0.000527	20.972192
714.188714	-2.998300	3.724500	-11.166000	24.745791	0.000526	20.962743
715.187700	-3.005000	3.725500	-11.194000	24.748752	0.000525	20.992262
716.200944	-2.994400	3.724700	-11.153000	24.754793	0.000527	20.972250
717.200287	-3.010800	3.725200	-11.215000	24.761542	0.000528	20.980917
718.189253	-3.019500	3.724100	-11.243000	24.757315	0.000527	20.975254
719.197421	-3.005500	3.723300	-11.189000	24.747147	0.000527	20.983541
720.192584	-2.973400	3.725000	-11.076000	24.715364	0.000525	20.989577
721.198685	-2.977000	3.723000	-11.082000	24.707288	0.000527	20.982423
722.194325	-3.011700	3.723300	-11.213000	24.703306	0.000527	20.980798
723.197454	-3.020300	3.723400	-11.245000	24.691374	0.000526	20.982101
724.202365	-3.017300	3.722800	-11.231000	24.698689	0.000526	20.991337
725.195266	-3.006000	3.721900	-11.187000	24.737409	0.000525	20.978511
726.194819	-3.018000	3.722500	-11.233000	24.768171	0.000525	20.985673
727.199958	-3.010300	3.722700	-11.205000	24.764197	0.000525	21.002544
728.193656	-3.000700	3.722300	-11.169000	24.800805	0.000524	20.994713
729.193733	-2.975900	3.723600	-11.080000	24.770606	0.000522	20.984324
730.197246	-2.987500	3.722000	-11.119000	24.770278	0.000527	20.998216
731.193732	-2.993800	3.720100	-11.136000	24.826949	0.000524	21.006250
732.200181	-2.998500	3.721400	-11.158000	24.827100	0.000525	20.991706
733.195678	-3.011200	3.720900	-11.204000	24.801140	0.000523	20.968976
734.198432	-2.977800	3.721200	-11.080000	24.803957	0.000522	20.982232
735.195856	-3.000000	3.720700	-11.161000	24.846647	0.000523	20.989513
736.195376	-3.018200	3.720900	-11.230000	24.833747	0.000526	20.988894
737.199450	-3.002300	3.720100	-11.168000	24.847903	0.000523	21.000728
738.210096	-3.013300	3.719800	-11.209000	24.844603	0.000522	20.981773
739.208955	-3.002700	3.720100	-11.169000	24.805652	0.000523	20.992941
740.200328	-2.995300	3.720000	-11.142000	24.805786	0.000523	20.967474
741.198837	-3.017600	3.718900	-11.221000	24.814972	0.000523	20.971003
742.195704	-2.986500	3.719400	-11.107000	24.816938	0.000520	20.987198
743.198826	-2.988600	3.718800	-11.113000	24.805945	0.000521	20.974271
744.210701	-3.017700	3.718000	-11.219000	24.799861	0.000522	20.977174
745.198740	-2.988900	3.718600	-11.114000	24.753288	0.000521	20.992547
746.210253	-2.990800	3.718400	-11.120000	24.771412	0.000519	20.954316
747.202128	-2.999400	3.716800	-11.147000	24.763412	0.000520	20.974735
748.200827	-3.006200	3.717200	-11.173000	24.741956	0.000522	20.970273
749.199484	-2.997300	3.717500	-11.142000	24.819687	0.000519	20.964356
750.218161	-2.978100	3.717000	-11.069000	24.807958	0.000521	20.955906
751.201035	-3.006600	3.715800	-11.171000	24.809350	0.000521	20.981481
752.198661	-3.003100	3.715900	-11.158000	24.851255	0.000521	20.948624
753.213969	-2.999400	3.715700	-11.144000	24.846927	0.000519	20.964667
754.199851	-3.002900	3.715200	-11.156000	24.830618	0.000520	20.971533
755.202650	-3.028900	3.714200	-11.249000	24.822847	0.000519	20.944770
756.200439	-2.989800	3.716000	-11.109000	24.797410	0.000519	20.961440
757.208272	-3.029200	3.713000	-11.247000	24.790196	0.000520	20.971269
758.201326	-2.984700	3.716200	-11.091000	24.804378	0.000519	20.972224
759.205092	-3.009900	3.713900	-11.177000	24.852864	0.000517	20.960195
760.200845	-2.998700	3.714700	-11.138000	24.837399	0.000519	20.950366
761.200012	-2.996400	3.714100	-11.128000	24.816164	0.000520	20.968406
762.207788	-3.007200	3.714600	-11.170000	24.806798	0.000518	20.942415
763.201341	-3.002600	3.714700	-11.153000	24.732670	0.000517	20.946258
764.202723	-3.001300	3.713300	-11.144000	24.752741	0.000517	20.949805
765.201309	-2.990100	3.713700	-11.103000	24.756918	0.000519	20.938825
766.200338	-2.986300	3.712300	-11.084000	24.729665	0.000515	20.934236
767.203053	-3.009200	3.712400	-11.170000	24.719808	0.000516	20.952791
768.199576	-2.997100	3.712600	-11.126000	24.768990	0.000518	20.954731
769.201416	-3.023900	3.711300	-11.221000	24.820201	0.000518	20.958235
770.211639	-3.004500	3.712400	-11.153000	24.824706	0.000517	20.933835
771.207908	-3.004100	3.711500	-11.149000	24.828857	0.000516	20.946060
772.208148	-2.997400	3.711200	-11.123000	24.861059	0.000516	20.946136
773.210495	-2.987000	3.711700	-11.086000	24.845746	0.000516	20.942622
774.207407	-3.015700	3.710800	-11.190000	24.799377	0.000517	20.944924
775.206158	-2.978600	3.711100	-11.053000	24.828172	0.000514	20.945373
776.202607	-3.010300	3.710600	-11.169000	24.856627	0.000518	20.951645
777.217082	-2.996900	3.711800	-11.123000	24.854222	0.000515	20.956343
778.203766	-3.037000	3.710000	-11.266000	24.830802	0.000515	20.934738
779.207401	-3.007800	3.711000	-11.161000	24.841600	0.000516	20.926609
780.204506	-2.984700	3.711500	-11.077000	24.874282	0.000514	20.942338
781.204402	-2.987700	3.710400	-11.084000	24.857130	0.000514	20.945038
782.209291	-2.988100	3.710800	-11.087000	24.886623	0.000513	20.938604
783.211468	-2.999600	3.709400	-11.126000	24.940208	0.000513	20.938332
784.205904	-2.999000	3.709900	-11.126000	24.946645	0.000513	20.946689
785.203796	-3.021700	3.709100	-11.207000	24.951409	0.000513	20.940566
786.206006	-2.993100	3.708100	-11.098000	24.953054	0.000513	20.942216
787.204665	-3.009500	3.708500	-11.159000	24.918550	0.000512	20.928924
788.216728	-2.965000	3.708300	-10.995000	24.915016	0.000512	20.937229
789.210377	-2.990200	3.708100	-11.087000	24.875214	0.000514	20.915776
790.205412	-3.011700	3.708500	-11.168000	24.934612	0.000512	20.929398
791.210494	-2.996200	3.706000	-11.103000	24.904681	0.000514	20.936339
792.210104	-3.013800	3.706200	-11.168000	24.878384	0.000511	20.926543
793.202997	-3.002900	3.707000	-11.131000	24.906813	0.000510	20.935160
794.209024	-3.024900	3.706400	-11.210000	24.875575	0.000511	20.929413
795.217257	-2.985600	3.706500	-11.065000	24.878695	0.000510	20.912158
796.204271	-2.986900	3.707700	-11.074000	24.886575	0.000512	20.941874
797.217946	-2.991300	3.706400	-11.086000	24.910398	0.000511	20.929750
798.215900	-2.997800	3.705500	-11.108000	24.894815	0.000508	20.932128
799.207856	-3.000500	3.706900	-11.121000	24.898822	0.000508	20.920978
800.218884	-2.982000	3.705800	-11.049000	24.895397	0.000510	20.930341
801.227214	-2.998700	3.704800	-11.109000	24.895151	0.000509	20.929621
802.215337	-3.014500	3.704600	-11.166000	24.909357	0.000510	20.917327
803.227689	-2.996900	3.705200	-11.103000	24.904034	0.000511	20.920519
804.219021	-2.997500	3.705700	-11.107000	24.911052	0.000509	20.918554
805.217946	-3.008200	3.704900	-11.143000	24.850429	0.000509	20.916506
806.215233	-2.982700	3.706500	-11.054000	24.876050	0.000508	20.925623
807.216702	-3.006100	3.704700	-11.136000	24.843585	0.000507	20.927653
808.215525	-3.002200	3.703100	-11.117000	24.851837	0.000510	20.922185
809.213591	-3.002900	3.703400	-11.120000	24.871366	0.000507	20.932775
810.215756	-2.996100	3.703300	-11.094000	24.871247	0.000508	20.926492
811.216949	-2.999700	3.702100	-11.104000	24.889081	0.000508	20.925899
812.222612	-2.991300	3.702400	-11.075000	24.886870	0.000507	20.926525
813.215556	-2.981400	3.702500	-11.037000	24.885706	0.000506	20.899281
814.212453	-2.993700	3.701100	-11.078000	24.895854	0.000506	20.905198
815.214336	-2.994300	3.702000	-11.084000	24.896132	0.000507	20.926338
816.220679	-2.984200	3.701800	-11.047000	24.903471	0.000506	20.922324
817.215455	-3.012000	3.701900	-11.149000	24.915627	0.000506	20.925516
818.220773	-2.997100	3.701900	-11.095000	24.884776	0.000506	20.927268
819.214897	-3.013000	3.700000	-11.146000	24.875158	0.000504	20.907660
820.218824	-2.993700	3.700500	-11.077000	24.938141	0.000506	20.916820
821.216238	-2.995500	3.701300	-11.086000	24.953309	0.000508	20.925879
822.218654	-3.008400	3.699500	-11.129000	24.934521	0.000506	20.904179
823.233882	-2.989800	3.699300	-11.060000	24.943404	0.000505	20.905982
824.228167	-2.999900	3.698800	-11.095000	24.926667	0.000505	20.894874
825.221979	-3.024700	3.700100	-11.190000	24.919109	0.000506	20.892030
826.230883	-2.994400	3.700700	-11.080000	24.941893	0.000506	20.923430
827.221280	-2.973100	3.699100	-10.997000	24.940029	0.000504	20.914922
828.223677	-3.014300	3.698200	-11.147000	24.946145	0.000504	20.909681
829.228239	-2.980900	3.699200	-11.026000	24.926834	0.000503	20.906421
830.220250	-3.003900	3.697400	-11.106000	24.914728	0.000502	20.894745
831.226801	-3.001200	3.698400	-11.098000	24.908064	0.000501	20.915555
832.233468	-2.990100	3.698000	-11.057000	24.915681	0.000504	20.908502
833.222002	-2.997500	3.699100	-11.088000	24.877887	0.000501	20.902813
834.230948	-3.003700	3.697900	-11.106000	24.884956	0.000502	20.916070
835.224074	-2.979300	3.697900	-11.016000	24.915461	0.000502	20.907334
836.230933	-3.014600	3.696400	-11.142000	24.913554	0.000502	20.900204
837.226944	-2.993800	3.697400	-11.068000	24.888313	0.000502	20.902372
838.226908	-2.990900	3.697500	-11.058000	24.866986	0.000503	20.904200
839.242615	-3.015600	3.695600	-11.144000	24.852888	0.000502	20.909965
840.223334	-2.983500	3.697600	-11.031000	24.886684	0.000503	20.915908
841.231215	-3.003500	3.694900	-11.096000	24.953413	0.000500	20.885210
842.239300	-2.989600	3.695200	-11.047000	24.947911	0.000501	20.911928
843.223190	-2.972700	3.696000	-10.986000	24.967406	0.000501	20.903521
844.224669	-3.019700	3.696000	-11.160000	24.969396	0.000501	20.896510
845.228865	-3.000000	3.695800	-11.086000	24.967161	0.000498	20.922713
846.228724	-3.008200	3.695700	-11.117000	25.002648	0.000499	20.899066
847.231053	-3.012500	3.694500	-11.128000	25.001728	0.000500	20.909522
848.243742	-2.989700	3.694000	-11.043000	24.981365	0.000498	20.899515
849.242495	-2.991000	3.694800	-11.050000	24.962376	0.000496	20.905585
850.237298	-2.975600	3.695400	-10.996000	24.967792	0.000500	20.898694
851.235719	-2.992400	3.693400	-11.051000	24.942864	0.000497	20.891691
852.225592	-2.996100	3.693800	-11.066000	24.982394	0.000497	20.901969
853.224861	-3.010700	3.692700	-11.116000	24.986822	0.000497	20.891242
854.229521	-3.000600	3.692900	-11.080000	24.990677	0.000498	20.923084
855.228352	-2.986200	3.692400	-11.026000	25.029268	0.000498	20.895441
856.227018	-3.007900	3.692700	-11.106000	25.023203	0.000495	20.895517
857.226451	-3.005200	3.692200	-11.095000	25.010380	0.000496	20.919628
858.237579	-2.986500	3.693400	-11.030000	24.974184	0.000498	20.912220
859.232427	-2.986700	3.692100	-11.026000	24.982290	0.000498	20.899021
860.243226	-3.009500	3.690800	-11.107000	24.977718	0.000496	20.895854
861.228676	-2.965400	3.692900	-10.949000	25.016731	0.000494	20.879065
862.229214	-2.984900	3.691300	-11.017000	24.969720	0.000495	20.892095
863.234630	-3.022000	3.692000	-11.156000	24.973111	0.000493	20.865628
864.239645	-2.985800	3.690100	-11.017000	24.942945	0.000496	20.905522
865.246594	-3.004400	3.690500	-11.086000	24.911496	0.000495	20.885338
866.231750	-2.993900	3.690900	-11.049000	24.928384	0.000494	20.878581
867.239961	-3.015400	3.691000	-11.129000	24.958264	0.000496	20.886286
868.239173	-3.002500	3.688800	-11.074000	24.987889	0.000495	20.896106
869.237540	-2.986500	3.691000	-11.022000	24.981917	0.000496	20.872096
870.240474	-2.970700	3.689400	-10.959000	24.972924	0.000492	20.886302
871.249636	-3.006000	3.689300	-11.090000	24.993085	0.000493	20.881882
872.238444	-2.998800	3.688300	-11.059000	24.981258	0.000491	20.870486
873.235677	-2.976400	3.688900	-10.979000	24.989036	0.000493	20.867862
874.233451	-3.008500	3.687500	-11.092000	24.972383	0.000493	20.912310
875.233700	-2.983300	3.687700	-11.001000	24.954761	0.000493	20.883718
876.234848	-3.006700	3.688900	-11.090000	24.995639	0.000493	20.870222
877.239336	-3.000100	3.688700	-11.065000	24.992055	0.000493	20.865202
878.251665	-2.984600	3.687600	-11.006000	24.979477	0.000491	20.885767
879.246643	-2.968200	3.688500	-10.947000	25.019687	0.000492	20.882033
880.237715	-3.004100	3.686500	-11.074000	24.999570	0.000491	20.870375
881.250644	-2.998700	3.686700	-11.055000	24.996018	0.000492	20.885775
882.246592	-2.987300	3.686500	-11.012000	25.045625	0.000489	20.863499
883.237439	-3.007900	3.686700	-11.087000	25.051091	0.000490	20.854762
884.248304	-2.996000	3.685500	-11.041000	25.061988	0.000491	20.896992
885.243330	-2.970200	3.686700	-10.949000	25.124488	0.000489	20.860162
886.249681	-2.987000	3.685800	-11.008000	25.116913	0.000491	20.867257
887.249125	-3.022400	3.684700	-11.136000	25.079667	0.000487	20.872066
888.256206	-2.991200	3.684500	-11.020000	25.043144	0.000488	20.888034
889.249197	-2.994100	3.685800	-11.035000	25.030474	0.000488	20.864412
890.225671	-3.008400	3.684000	-11.082000	25.064956	0.000489	20.878161
891.225997	-3.026300	3.684100	-11.149000	25.081521	0.000491	20.898582
892.226298	-3.000100	3.683700	-11.050000	25.059144	0.000486	20.874224
893.227154	-3.003700	3.684300	-11.066000	25.026238	0.000485	20.872962
894.225921	-2.986900	3.683500	-11.001000	25.028229	0.000486	20.871167
895.228937	-3.007700	3.683800	-11.079000	25.048717	0.000487	20.867551
896.228517	-3.004500	3.683700	-11.067000	25.046828	0.000488	20.864706
897.229644	-3.003200	3.682000	-11.057000	25.052100	0.000484	20.889437
898.226821	-3.006500	3.681800	-11.069000	25.043554	0.000484	20.867584
899.254854	-2.996100	3.682600	-11.033000	25.065806	0.000487	20.880436
900.247559	-2.996600	3.683200	-11.035000	25.101426	0.000486	20.879209
901.257677	-3.004800	3.681700	-11.062000	25.134986	0.000484	20.881605
902.253526	-2.970400	3.681600	-10.935000	25.098971	0.000486	20.886701
903.259452	-2.998900	3.682100	-11.042000	25.068125	0.000482	20.874704
904.247363	-2.994900	3.680900	-11.022000	25.077538	0.000485	20.871826
905.228261	-3.008400	3.680300	-11.071000	25.039884	0.000485	20.859634
906.250931	-2.990200	3.681100	-11.006000	25.060001	0.000485	20.850904
907.265565	-2.997300	3.680000	-11.030000	25.054704	0.000484	20.855070
908.259018	-2.981700	3.680500	-10.972000	25.018990	0.000482	20.850514
909.259422	-2.996200	3.680500	-11.027000	25.025224	0.000484	20.891856
910.255409	-2.964000	3.680200	-10.907000	25.022069	0.000484	20.863561
911.251360	-2.999300	3.678900	-11.034000	25.061654	0.000482	20.869631
912.262928	-3.003000	3.678500	-11.046000	25.075402	0.000481	20.867785
913.236536	-2.986800	3.680400	-10.992000	25.075554	0.000481	20.872205
914.251889	-3.004400	3.679800	-11.055000	25.065061	0.000482	20.850293
915.235446	-3.009300	3.679600	-11.072000	25.073546	0.000480	20.850276
916.235446	-2.993000	3.678300	-11.009000	25.050105	0.000483	20.866100
917.234193	-2.999000	3.678400	-11.031000	25.096345	0.000483	20.871264
918.234358	-2.988500	3.678200	-10.992000	25.126624	0.000481	20.837652
919.237634	-3.002200	3.676900	-11.038000	25.065170	0.000482	20.839023
920.235795	-2.985600	3.678400	-10.981000	25.076193	0.000479	20.848666
921.236029	-2.992600	3.676800	-11.002000	25.076024	0.000481	20.847548
922.237316	-3.008100	3.675600	-11.056000	25.042639	0.000479	20.849597
923.236352	-2.998500	3.676200	-11.021000	25.035697	0.000479	20.854957
924.239440	-3.013500	3.676000	-11.077000	25.052331	0.000479	20.841782
925.239566	-2.988400	3.677400	-10.988000	25.061094	0.000479	20.854846
926.238964	-3.003200	3.676100	-11.039000	25.082375	0.000478	20.840173
927.240618	-3.027500	3.674300	-11.123000	25.082653	0.000480	20.836185
928.240741	-2.998200	3.676100	-11.021000	25.102888	0.000480	20.856970
929.240622	-3.004600	3.675200	-11.042000	25.120735	0.000478	20.845964
930.242764	-2.993200	3.674400	-10.998000	25.155644	0.000476	20.847343
931.264068	-3.001100	3.674200	-11.026000	25.188882	0.000478	20.844202
932.240732	-2.997800	3.673000	-11.010000	25.188932	0.000477	20.854210
933.240573	-3.004500	3.673000	-11.035000	25.135047	0.000477	20.852744
934.242116	-2.966800	3.675200	-10.903000	25.107475	0.000476	20.859679
935.249933	-2.973500	3.673400	-10.921000	25.111143	0.000474	20.849137
936.241446	-2.985200	3.674500	-10.968000	25.081529	0.000477	20.866824
937.240775	-2.996000	3.673300	-11.004000	25.120809	0.000474	20.839874
938.244826	-3.001100	3.672100	-11.018000	25.100987	0.000476	20.831356
939.264476	-3.001500	3.673700	-11.026000	25.150977	0.000476	20.847400
940.269428	-3.020400	3.671500	-11.089000	25.139296	0.000475	20.836622
941.259850	-3.005300	3.672400	-11.036000	25.126728	0.000474	20.844868
942.264815	-2.995200	3.671900	-10.996000	25.127816	0.000475	20.838848
943.262837	-3.004200	3.670700	-11.026000	25.090376	0.000475	20.839196
944.249191	-2.983300	3.671500	-10.952000	25.102791	0.000473	20.828425
945.264552	-2.994100	3.672200	-10.994000	25.113435	0.000473	20.835317
946.251972	-2.980300	3.672400	-10.944000	25.121667	0.000471	20.822244
947.277759	-3.013400	3.669500	-11.057000	25.115999	0.000472	20.831727
948.256911	-2.995000	3.670500	-10.991000	25.126195	0.000471	20.835325
949.247463	-2.975200	3.671500	-10.922000	25.173637	0.000473	20.840751
950.246655	-3.007200	3.669100	-11.032000	25.176150	0.000472	20.837584
951.248940	-2.998000	3.669800	-11.001000	25.186717	0.000472	20.828753
952.247608	-3.006800	3.669700	-11.033000	25.130091	0.000472	20.845873
953.265050	-3.005000	3.668400	-11.022000	25.142177	0.000469	20.830031
954.250355	-3.021200	3.668100	-11.082000	25.140566	0.000470	20.841216
955.250352	-3.013900	3.668300	-11.055000	25.120627	0.000470	20.833054
956.250317	-3.005400	3.668300	-11.024000	25.103336	0.000469	20.837507
957.248546	-3.016300	3.667800	-11.063000	25.072760	0.000468	20.839530
958.250309	-2.992800	3.668900	-10.979000	25.088279	0.000470	20.829979
959.252584	-2.999000	3.667800	-10.999000	25.089823	0.000468	20.822520
960.282476	-3.018500	3.667400	-11.070000	25.127415	0.000471	20.834652
961.267538	-3.012800	3.667500	-11.049000	25.157171	0.000468	20.837023
962.275460	-3.019100	3.667100	-11.070000	25.158815	0.000466	20.823501
963.268875	-3.007300	3.665600	-11.023000	25.175599	0.000469	20.839876
964.251462	-3.004400	3.665600	-11.012000	25.134406	0.000467	20.842619
965.253992	-3.005000	3.666000	-11.016000	25.092521	0.000467	20.830444
966.259532	-3.023200	3.665900	-11.082000	25.145007	0.000468	20.843778
967.253267	-3.015500	3.665300	-11.052000	25.163251	0.000467	20.820368
968.253269	-2.988300	3.665300	-10.952000	25.207781	0.000467	20.835675
969.254331	-3.008200	3.663500	-11.019000	25.198293	0.000467	20.833736
970.268016	-3.002800	3.665500	-11.006000	25.162271	0.000466	20.858738
971.254363	-2.990200	3.663900	-10.954000	25.121061	0.000466	20.816421
972.254343	-3.003300	3.663000	-11.000000	25.131857	0.000466	20.841008
973.261520	-3.001200	3.664000	-10.996000	25.152200	0.000464	20.817808
974.252308	-2.974600	3.664400	-10.899000	25.148270	0.000466	20.829984
975.253808	-2.994800	3.663800	-10.971000	25.147080	0.000464	20.842540
976.273218	-3.018500	3.663600	-11.058000	25.155041	0.000462	20.840575
977.288748	-2.987100	3.663900	-10.943000	25.166908	0.000463	20.813134
978.278720	-3.000800	3.662300	-10.988000	25.157883	0.000462	20.841531
979.270883	-2.994700	3.662900	-10.968000	25.179693	0.000463	20.838296
980.258836	-2.988800	3.662300	-10.944000	25.197244	0.000460	20.843114
981.257584	-2.997100	3.662900	-10.977000	25.190437	0.000461	20.836755
982.260602	-3.016800	3.661400	-11.044000	25.194047	0.000462	20.827577
983.258406	-3.006300	3.661100	-11.005000	25.192529	0.000463	20.831268
984.287694	-2.994300	3.660600	-10.960000	25.173147	0.000461	20.847846
985.277601	-2.979700	3.661600	-10.909000	25.206916	0.000460	20.844289
986.281370	-2.971000	3.661800	-10.878000	25.221261	0.000461	20.865803
987.274062	-2.977400	3.661500	-10.901000	25.198321	0.000460	20.833765
988.276781	-2.999600	3.659000	-10.974000	25.191237	0.000458	20.833290
989.276864	-2.993700	3.659800	-10.956000	25.233498	0.000460	20.829252
990.279665	-2.993100	3.659600	-10.953000	25.209909	0.000460	20.853932
991.289246	-2.981100	3.660200	-10.911000	25.222222	0.000460	20.850172
992.263237	-3.005200	3.659700	-10.997000	25.229905	0.000461	20.821377
993.264569	-3.006500	3.658800	-10.999000	25.196069	0.000457	20.840986
994.261052	-2.997700	3.658400	-10.965000	25.192754	0.000458	20.821063
995.260106	-3.005300	3.658200	-10.993000	25.167275	0.000459	20.842425
996.264541	-3.005300	3.656900	-10.989000	25.209090	0.000456	20.836989
997.264457	-2.999300	3.658400	-10.972000	25.207832	0.000461	20.841416
998.260362	-2.997400	3.657500	-10.962000	25.247226	0.000461	20.848723
999.288410	-2.990200	3.658700	-10.939000	25.226496	0.000459	20.832653
1000.279250	-2.992100	3.657600	-10.943000	25.253070	0.000458	20.845582
1001.280955	-3.000500	3.656000	-10.968000	25.234997	0.000456	20.846403
1002.286197	-2.992000	3.657500	-10.942000	25.243903	0.000456	20.865300
1003.282178	-3.004700	3.655700	-10.984000	25.211720	0.000458	20.819241
1004.288482	-2.998800	3.656500	-10.964000	25.170933	0.000455	20.823339
1005.263140	-3.008100	3.655300	-10.994000	25.153627	0.000454	20.838207
1006.268445	-2.990100	3.655500	-10.930000	25.132709	0.000455	20.836648
1007.264357	-3.041600	3.652800	-11.109000	25.126763	0.000454	20.851541
1008.265471	-3.000100	3.654900	-10.963000	25.160803	0.000454	20.835454
1009.264297	-2.980900	3.655000	-10.894000	25.130929	0.000454	20.848611
1010.264375	-2.997200	3.655000	-10.954000	25.196277	0.000453	20.829815
1011.265133	-3.002400	3.655300	-10.973000	25.215969	0.000453	20.836309
1012.284730	-2.992100	3.653600	-10.931000	25.237921	0.000452	20.828951
1013.282418	-2.977000	3.653500	-10.876000	25.220228	0.000455	20.842955
1014.289172	-3.018500	3.653500	-11.028000	25.196419	0.000455	20.855087
1015.280781	-3.013900	3.653100	-11.009000	25.217765	0.000451	20.844276
1016.283594	-2.989900	3.652400	-10.918000	25.207105	0.000454	20.834522
1017.281150	-2.998300	3.654000	-10.954000	25.248800	0.000452	20.860734
1018.286172	-2.996200	3.653200	-10.945000	25.293394	0.000451	20.849084
1019.266631	-2.985500	3.653100	-10.905000	25.273661	0.000450	20.851082
1020.266534	-3.009100	3.651300	-10.986000	25.308658	0.000450	20.874839
1021.265328	-2.981500	3.653200	-10.891000	25.318962	0.000450	20.870961
1022.279908	-3.025500	3.651800	-11.048000	25.345104	0.000447	20.861174
1023.287189	-3.006900	3.650900	-10.977000	25.341258	0.000450	20.859683
1024.270468	-3.007400	3.650300	-10.976000	25.300005	0.000450	20.859514
1025.267531	-2.995700	3.651700	-10.938000	25.308623	0.000451	20.876701
1026.287813	-3.004100	3.649500	-10.962000	25.261356	0.000447	20.865279
1027.270928	-3.017800	3.649500	-11.013000	25.254398	0.000447	20.877733
1028.267580	-3.010900	3.649200	-10.986000	25.267435	0.000449	20.866642
1029.270329	-3.006500	3.649900	-10.972000	25.291588	0.000448	20.865762
1030.268328	-3.012200	3.648400	-10.989000	25.325944	0.000447	20.861376
1031.285904	-3.006300	3.648200	-10.967000	25.326550	0.000449	20.854873
1032.286749	-2.993900	3.647700	-10.919000	25.290930	0.000448	20.841394
1033.283279	-3.010000	3.648700	-10.982000	25.266802	0.000446	20.860317
1034.286304	-2.999900	3.648800	-10.945000	25.274687	0.000446	20.863491
1035.291602	-3.022100	3.646100	-11.018000	25.325378	0.000445	20.853696
1036.269400	-3.019700	3.646200	-11.009000	25.324947	0.000444	20.852789
1037.270233	-3.006900	3.646300	-10.963000	25.328422	0.000447	20.860071
1038.270815	-2.996000	3.646300	-10.924000	25.285009	0.000445	20.886181
1039.275760	-3.004400	3.646800	-10.955000	25.287809	0.000443	20.854381
1040.272445	-3.003800	3.645400	-10.948000	25.297237	0.000446	20.865269
1041.301606	-3.005800	3.645500	-10.957000	25.268429	0.000443	20.866217
1042.293473	-2.978200	3.646300	-10.859000	25.252701	0.000444	20.858961
1043.285814	-3.005500	3.645600	-10.956000	25.225183	0.000442	20.852671
1044.272541	-3.004100	3.645700	-10.951000	25.213957	0.000441	20.862263
1045.291286	-3.004700	3.645300	-10.953000	25.229989	0.000443	20.873142
1046.286420	-2.995100	3.643500	-10.912000	25.264710	0.000442	20.863905
1047.289953	-2.990000	3.644500	-10.896000	25.292159	0.000443	20.872024
1048.290358	-2.993600	3.645200	-10.911000	25.257752	0.000441	20.886316
1049.291385	-3.002500	3.645300	-10.943000	25.245785	0.000442	20.878095
1050.302382	-2.997700	3.644000	-10.923000	25.256250	0.000439	20.879119
1051.296837	-3.007900	3.643400	-10.957000	25.284805	0.000441	20.863693
1052.295639	-3.022700	3.642300	-11.009000	25.264802	0.000441	20.877747
1053.294247	-3.002300	3.643300	-10.937000	25.277595	0.000441	20.873049
1054.292461	-2.978500	3.643100	-10.850000	25.276828	0.000441	20.886028
1055.296192	-3.019600	3.642900	-10.999000	25.295153	0.000439	20.881193
1056.276444	-2.995200	3.641600	-10.906000	25.310146	0.000441	20.905728
1057.278625	-2.980900	3.642800	-10.858000	25.347756	0.000440	20.888017
1058.276657	-2.988300	3.642300	-10.883000	25.352039	0.000438	20.888050
1059.279321	-2.997100	3.641000	-10.911000	25.323579	0.000438	20.881760
1060.276409	-2.995300	3.642300	-10.909000	25.333892	0.000435	20.870305
1061.277293	-2.976100	3.641000	-10.834000	25.324768	0.000438	20.878212
1062.276766	-2.995300	3.640100	-10.902000	25.305988	0.000438	20.884011
1063.277417	-2.997600	3.640600	-10.912000	25.299208	0.000438	20.875308
1064.292576	-3.002600	3.639300	-10.927000	25.291432	0.000439	20.886466
1065.279866	-3.010400	3.640300	-10.958000	25.259757	0.000435	20.880269
1066.279467	-2.993100	3.638500	-10.889000	25.231809	0.000434	20.888718
1067.301960	-2.984600	3.638900	-10.859000	25.195266	0.000435	20.908453
1068.282607	-3.006300	3.637500	-10.934000	25.279457	0.000434	20.886297
1069.280005	-2.997200	3.638200	-10.903000	25.299451	0.000436	20.877923
1070.280365	-3.001700	3.638400	-10.921000	25.335198	0.000437	20.886313
1071.280140	-3.016400	3.637700	-10.972000	25.366239	0.000436	20.890927
1072.279448	-3.001500	3.638600	-10.920000	25.371922	0.000433	20.894737
1073.282111	-2.990400	3.637500	-10.877000	25.389900	0.000435	20.886237
1074.279697	-3.021800	3.637500	-10.991000	25.420525	0.000435	20.903237
1075.280260	-2.988100	3.636100	-10.865000	25.442077	0.000434	20.874146
1076.279892	-2.999200	3.636500	-10.905000	25.433932	0.000432	20.906268
1077.279385	-3.001100	3.635300	-10.909000	25.390835	0.000432	20.902348
1078.281436	-2.992800	3.636800	-10.884000	25.407388	0.000433	20.902373
1079.280500	-2.996300	3.636500	-10.895000	25.393820	0.000432	20.911034
1080.288061	-3.005600	3.636600	-10.929000	25.360453	0.000431	20.900290
1081.282737	-2.981800	3.636000	-10.841000	25.297021	0.000432	20.892552
1082.281409	-2.983300	3.637000	-10.849000	25.279945	0.000432	20.912862
1083.304985	-3.003800	3.634800	-10.917000	25.301449	0.000430	20.912168
1084.299746	-2.992100	3.634200	-10.873000	25.357746	0.000429	20.916062
1085.297866	-2.977700	3.634800	-10.822000	25.359162	0.000431	20.907054
1086.300138	-2.986400	3.633200	-10.849000	25.361152	0.000430	20.898622
1087.301170	-2.997200	3.633200	-10.888000	25.332405	0.000430	20.906741
1088.297004	-3.007000	3.632500	-10.921000	25.297712	0.000430	20.894668
1089.310400	-2.992100	3.634300	-10.873000	25.325971	0.000429	20.905970
1090.297201	-2.997100	3.633300	-10.889000	25.353192	0.000429	20.905801
1091.282602	-2.991600	3.632600	-10.867000	25.344202	0.000428	20.900568
1092.305022	-3.010300	3.631000	-10.929000	25.350889	0.000427	20.899222
1093.303862	-3.033000	3.630100	-11.009000	25.348874	0.000424	20.902414
1094.303358	-3.013000	3.632300	-10.943000	25.299963	0.000425	20.888394
1095.302490	-3.003500	3.631200	-10.905000	25.300840	0.000425	20.895912
1096.303110	-2.996900	3.631700	-10.883000	25.338375	0.000428	20.910363
1097.304372	-2.988900	3.631700	-10.854000	25.371481	0.000426	20.906621
1098.307290	-2.997700	3.628300	-10.876000	25.391895	0.000424	20.923325
1099.306172	-2.986000	3.629800	-10.838000	25.385605	0.000425	20.905630
1100.301911	-3.004500	3.629700	-10.905000	25.365502	0.000425	20.904411
1101.304620	-3.019400	3.627900	-10.953000	25.311271	0.000425	20.908280
1102.307372	-2.998800	3.628600	-10.881000	25.300839	0.000424	20.908238
1103.317856	-2.971100	3.629900	-10.783000	25.291040	0.000422	20.896029
1104.304930	-2.990800	3.627800	-10.849000	25.308893	0.000422	20.920590
1105.307219	-2.967600	3.628500	-10.766000	25.354733	0.000423	20.932476
1106.308421	-3.004900	3.627800	-10.901000	25.357212	0.000424	20.906993
1107.312763	-2.978800	3.627900	-10.807000	25.352347	0.000423	20.933873
1108.308237	-2.972800	3.626900	-10.781000	25.385284	0.000424	20.910049
1109.305872	-2.981400	3.627000	-10.813000	25.379440	0.000421	20.931206
1110.291180	-2.993100	3.627400	-10.856000	25.417351	0.000423	20.913325
1111.308298	-3.021900	3.626200	-10.957000	25.434628	0.000422	20.919768
1112.319515	-3.017600	3.625900	-10.940000	25.431407	0.000423	20.925541
1113.297660	-3.007800	3.624500	-10.901000	25.418599	0.000420	20.927853
1114.294776	-2.990900	3.625200	-10.841000	25.434434	0.000417	20.933322
1115.295125	-2.974500	3.626400	-10.786000	25.407628	0.000422	20.924898
1116.297082	-2.984300	3.625500	-10.819000	25.343348	0.000417	20.944751
1117.316134	-3.006400	3.625000	-10.898000	25.375147	0.000419	20.932111
1118.297569	-2.995600	3.624100	-10.855000	25.397965	0.000417	20.922307
1119.295208	-2.964600	3.623600	-10.742000	25.379026	0.000418	20.926049
1120.295892	-2.988300	3.624300	-10.830000	25.400857	0.000416	20.935167
1121.313526	-3.010300	3.623100	-10.904000	25.370290	0.000417	20.935294
1122.314729	-3.003500	3.623700	-10.882000	25.355457	0.000418	20.941736
1123.300806	-3.013700	3.621400	-10.913000	25.351384	0.000415	20.951396
1124.298148	-3.006400	3.623000	-10.891000	25.354166	0.000417	20.932381
1125.297638	-3.007300	3.621900	-10.892000	25.368460	0.000418	20.953842
1126.298064	-3.002600	3.622200	-10.874000	25.388444	0.000413	20.935031
1127.297812	-3.016300	3.621900	-10.923000	25.384017	0.000415	20.950498
1128.296824	-2.988400	3.621300	-10.821000	25.425385	0.000417	20.937511
1129.300828	-2.997200	3.621000	-10.852000	25.439256	0.000415	20.929629
1130.313887	-2.998900	3.620700	-10.857000	25.409288	0.000413	20.954062
1131.319440	-3.012600	3.619900	-10.905000	25.416127	0.000414	20.952868
1132.301719	-3.002400	3.620500	-10.869000	25.434036	0.000416	20.920122
1133.298823	-3.022900	3.620300	-10.943000	25.418909	0.000413	20.937646
1134.318584	-3.011500	3.618100	-10.895000	25.410384	0.000415	20.931932
1135.315931	-3.011900	3.619000	-10.899000	25.423437	0.000412	20.954045
1136.317226	-3.009600	3.619300	-10.892000	25.399583	0.000412	20.955696
1137.323745	-2.987000	3.619300	-10.810000	25.433859	0.000411	20.956923
1138.316983	-3.001600	3.617800	-10.857000	25.445663	0.000413	20.955501
1139.318400	-2.990500	3.617200	-10.816000	25.426261	0.000412	20.944554
1140.303843	-2.999700	3.618100	-10.853000	25.434095	0.000411	20.947204
1141.320965	-2.994400	3.615600	-10.825000	25.414979	0.000411	20.956931
1142.303932	-3.010300	3.616700	-10.886000	25.442451	0.000409	20.953223
1143.322334	-3.016300	3.616600	-10.907000	25.403899	0.000410	20.948652
1144.323773	-3.009300	3.615000	-10.878000	25.461742	0.000409	20.962637
1145.307231	-2.988700	3.615700	-10.805000	25.435621	0.000410	20.962959
1146.305495	-2.980400	3.616400	-10.777000	25.401656	0.000408	20.962518
1147.305184	-3.004300	3.615700	-10.862000	25.430654	0.000409	20.963187
1148.309143	-3.018300	3.613400	-10.905000	25.452830	0.000408	20.958903
1149.308287	-2.984000	3.614200	-10.783000	25.436177	0.000410	20.955932
1150.326086	-2.970200	3.614200	-10.734000	25.418765	0.000408	20.946509
1151.306759	-3.002400	3.614800	-10.851000	25.398755	0.000409	20.953443
1152.306430	-2.988100	3.614700	-10.800000	25.396150	0.000407	20.940871
1153.308063	-2.990100	3.614300	-10.806000	25.429161	0.000405	20.985866
1154.309385	-3.025700	3.611900	-10.927000	25.449516	0.000405	20.962213
1155.308412	-3.037800	3.611400	-10.970000	25.462964	0.000406	20.991835
1156.311457	-2.986900	3.613000	-10.790000	25.446337	0.000404	20.985096
1157.312304	-2.996100	3.612800	-10.823000	25.391216	0.000405	20.965311
1158.342658	-3.014700	3.613100	-10.891000	25.382851	0.000404	20.986780
1159.327810	-2.964400	3.613200	-10.710000	25.333167	0.000405	20.954441
1160.337693	-2.972700	3.612100	-10.737000	25.358600	0.000405	20.958640
1161.326072	-2.995300	3.610600	-10.813000	25.393822	0.000403	20.970297
1162.328940	-3.017900	3.610600	-10.896000	25.401849	0.000401	20.968401
1163.328162	-3.021700	3.610400	-10.907000	25.406124	0.000401	20.965108
1164.310767	-3.007100	3.609900	-10.853000	25.420315	0.000403	20.978882
1165.310167	-3.007400	3.608500	-10.850000	25.397506	0.000402	20.981108
1166.330698	-2.999700	3.610400	-10.829000	25.381679	0.000402	21.002670
1167.324602	-2.979700	3.608800	-10.752000	25.389740	0.000403	20.987059
1168.331593	-2.995300	3.610100	-10.813000	25.369932	0.000402	20.997514
1169.328732	-3.029100	3.607300	-10.926000	25.367377	0.000402	20.999216
1170.332160	-2.979000	3.609900	-10.753000	25.407397	0.000401	20.991512
1171.336090	-3.037100	3.608600	-10.959000	25.435223	0.000398	20.976782
1172.333972	-2.997100	3.609100	-10.816000	25.458537	0.000399	20.976485
1173.319039	-2.998000	3.607100	-10.813000	25.437474	0.000400	20.996583
1174.313009	-2.989400	3.606400	-10.780000	25.452230	0.000400	20.972049
1175.328415	-2.976900	3.607800	-10.739000	25.427710	0.000398	20.995787
1176.329418	-2.975800	3.607400	-10.735000	25.435594	0.000397	20.998487
1177.330864	-2.998200	3.607200	-10.814000	25.438722	0.000400	21.002102
1178.315914	-3.001300	3.606500	-10.823000	25.442179	0.000399	20.994195
1179.314571	-3.013900	3.605100	-10.865000	25.455324	0.000398	20.984164
1180.340633	-2.997800	3.606000	-10.809000	25.472280	0.000398	21.017780
1181.335285	-3.003200	3.606200	-10.829000	25.481673	0.000397	20.989759
1182.335530	-2.976100	3.605400	-10.729000	25.475889	0.000395	20.978263
1183.317327	-2.971100	3.606400	-10.713000	25.485712	0.000397	20.992866
1184.337423	-2.995100	3.604100	-10.794000	25.506706	0.000397	20.982182
1185.316852	-3.016100	3.602600	-10.865000	25.554418	0.000396	20.993112
1186.317504	-3.016500	3.603300	-10.868000	25.548626	0.000397	20.989192
1187.335299	-3.025600	3.602400	-10.898000	25.497516	0.000397	20.973903
1188.318877	-3.010500	3.604700	-10.851000	25.491184	0.000395	20.992197
1189.317250	-2.995800	3.603200	-10.794000	25.516360	0.000394	20.998987
1190.343078	-2.974800	3.603800	-10.720000	25.506689	0.000393	21.006343
1191.337412	-2.997000	3.602900	-10.796000	25.529866	0.000394	20.989793
1192.336462	-3.028100	3.601600	-10.905000	25.566120	0.000395	20.986373
1193.339814	-2.987500	3.602500	-10.761000	25.567376	0.000392	20.981471
1194.333459	-2.992200	3.601400	-10.775000	25.546063	0.000392	21.000840
1195.319063	-3.005400	3.601800	-10.824000	25.534293	0.000391	20.999926
1196.321642	-3.007700	3.600900	-10.830000	25.540616	0.000391	20.998690
1197.320530	-2.993000	3.599600	-10.773000	25.526688	0.000390	20.987075
1198.335696	-3.023100	3.599300	-10.879000	25.513417	0.000393	20.983706
1199.320704	-3.008500	3.599400	-10.828000	25.509867	0.000390	20.978245
1200.319649	-2.985100	3.599800	-10.745000	25.505441	0.000390	20.991342
1201.320724	-3.005800	3.599200	-10.818000	25.489910	0.000390	20.973378
1202.320427	-2.995300	3.598900	-10.779000	25.480543	0.000389	20.967291
1203.337758	-2.976600	3.599300	-10.713000	25.474506	0.000390	20.967866
1204.319854	-2.991900	3.597400	-10.762000	25.513004	0.000390	20.989928
1205.318780	-3.020500	3.597600	-10.866000	25.448173	0.000389	20.962761
1206.320339	-2.998700	3.598700	-10.790000	25.442954	0.000389	20.971744
1207.319824	-3.010000	3.597900	-10.829000	25.437532	0.000388	20.972463
1208.322639	-3.003100	3.597400	-10.803000	25.449446	0.000387	20.974944
1209.323273	-2.989800	3.597900	-10.756000	25.479860	0.000387	20.989361
1210.321005	-3.005300	3.596500	-10.808000	25.539882	0.000386	20.988946
1211.320041	-2.989400	3.597000	-10.752000	25.560024	0.000386	20.969348
1212.323843	-3.002200	3.595600	-10.793000	25.553203	0.000385	20.965343
1213.322751	-3.006600	3.595700	-10.810000	25.519411	0.000384	20.975028
1214.324014	-3.020000	3.595200	-10.857000	25.503805	0.000385	20.986381
1215.321297	-3.011800	3.595100	-10.827000	25.506267	0.000385	20.969890
1216.322042	-3.006500	3.595300	-10.809000	25.461166	0.000385	20.947362
1217.324550	-3.019700	3.594200	-10.853000	25.496090	0.000384	20.961568
1218.320921	-2.996400	3.594000	-10.768000	25.539671	0.000384	20.983045
1219.326462	-2.994800	3.594400	-10.764000	25.567494	0.000386	20.974952
1220.344976	-3.010500	3.593000	-10.815000	25.557807	0.000382	20.960010
1221.322260	-2.987300	3.594700	-10.737000	25.510946	0.000384	20.966054
1222.321849	-2.976600	3.592900	-10.693000	25.501098	0.000382	20.948107
1223.324365	-2.985500	3.593900	-10.729000	25.470913	0.000382	20.953830
1224.323590	-3.002200	3.592300	-10.784000	25.490323	0.000381	20.965733
1225.343972	-3.015700	3.591600	-10.830000	25.514833	0.000383	20.978490
1226.323588	-2.995200	3.592700	-10.760000	25.540927	0.000381	20.954913
1227.323286	-3.021200	3.590400	-10.846000	25.532538	0.000382	20.949334
1228.326787	-3.015400	3.590900	-10.827000	25.531341	0.000379	20.943391
1229.341262	-3.017800	3.590600	-10.835000	25.538676	0.000381	20.962134
1230.345363	-2.996300	3.590600	-10.758000	25.475289	0.000379	20.938785
1231.348775	-3.020900	3.589500	-10.842000	25.472009	0.000377	20.931699
1232.345570	-3.010800	3.588500	-10.803000	25.468240	0.000381	20.935975
1233.341862	-2.998200	3.590800	-10.765000	25.525996	0.000380	20.969313
1234.340761	-2.991400	3.589000	-10.735000	25.546795	0.000380	20.954642
1235.325933	-3.010600	3.588600	-10.803000	25.571793	0.000377	20.934231
1236.325561	-3.009200	3.588100	-10.796000	25.606916	0.000376	20.944847
1237.324885	-2.988300	3.588500	-10.723000	25.559029	0.000376	20.953178
1238.325713	-3.000300	3.588700	-10.766000	25.544721	0.000377	20.962041
1239.327590	-2.992500	3.587200	-10.733000	25.571388	0.000376	20.948047
1240.325667	-3.019600	3.585900	-10.826000	25.590375	0.000377	20.932978
1241.327141	-3.004100	3.586600	-10.773000	25.612640	0.000374	20.959603
1242.325281	-2.978600	3.587700	-10.686000	25.613289	0.000376	20.929439
1243.340764	-2.994800	3.586400	-10.740000	25.581489	0.000375	20.930218
1244.328535	-3.012100	3.585500	-10.799000	25.559155	0.000373	20.936711
1245.325088	-3.004800	3.584900	-10.770000	25.553641	0.000376	20.935915
1246.343367	-3.013000	3.584400	-10.799000	25.569053	0.000373	20.933376
1247.343020	-2.993400	3.585800	-10.733000	25.565048	0.000373	20.924613
1248.326849	-2.988000	3.586200	-10.715000	25.584836	0.000373	20.955387
1249.355843	-3.008800	3.584600	-10.784000	25.641017	0.000374	20.938794
1250.326428	-3.011200	3.582900	-10.787000	25.626264	0.000372	20.917341
1251.326498	-3.009000	3.584600	-10.785000	25.600719	0.000371	20.939573
1252.329170	-3.009400	3.583700	-10.784000	25.560647	0.000371	20.959544
1253.344302	-3.012600	3.583100	-10.794000	25.586421	0.000371	20.912413
1254.353873	-3.010100	3.582000	-10.781000	25.602818	0.000373	20.926984
1255.331589	-3.013500	3.581800	-10.793000	25.619646	0.000370	20.931555
1256.328822	-3.002300	3.582000	-10.753000	25.585038	0.000367	20.921929
1257.331270	-2.996200	3.583000	-10.735000	25.596124	0.000370	20.925477
1258.330453	-2.996800	3.582300	-10.734000	25.644330	0.000370	20.919364
1259.335789	-3.004600	3.581600	-10.760000	25.649135	0.000369	20.918027
1260.330678	-2.985400	3.582100	-10.693000	25.650197	0.000369	20.918145
1261.334060	-2.990300	3.580800	-10.707000	25.603316	0.000368	20.943603
1262.331742	-2.998100	3.579700	-10.732000	25.550218	0.000368	20.931056
1263.341300	-2.996200	3.580900	-10.728000	25.520600	0.000369	20.923597
1264.330099	-3.001500	3.580100	-10.745000	25.497422	0.000366	20.935882
1265.352601	-3.003400	3.580200	-10.752000	25.474311	0.000367	20.941122
1266.350804	-3.010800	3.578900	-10.775000	25.463704	0.000365	20.939480
1267.354465	-2.989400	3.578300	-10.696000	25.491731	0.000366	20.928745
1268.335829	-2.999300	3.578500	-10.733000	25.489083	0.000365	20.926561
1269.332444	-3.016100	3.578500	-10.792000	25.501958	0.000366	20.921947
1270.333738	-2.998600	3.576800	-10.724000	25.554510	0.000364	20.930150
1271.355467	-2.996400	3.577200	-10.717000	25.580587	0.000362	20.924097
1272.350650	-3.018000	3.575700	-10.790000	25.587888	0.000364	20.942807
1273.338552	-3.021500	3.577000	-10.807000	25.635537	0.000366	20.944669
1274.334143	-3.010100	3.575300	-10.762000	25.644431	0.000364	20.913777
1275.337485	-3.001000	3.576000	-10.732000	25.629248	0.000362	20.912752
1276.350861	-3.005100	3.575800	-10.745000	25.610145	0.000365	20.914429
1277.338615	-3.000500	3.576100	-10.729000	25.606907	0.000363	20.928245
1278.335188	-3.009000	3.575800	-10.758000	25.573370	0.000362	20.932969
1279.339067	-3.028100	3.573900	-10.821000	25.539933	0.000362	20.939217
1280.334636	-3.010100	3.573000	-10.754000	25.522168	0.000360	20.932758
1281.369149	-2.981900	3.575200	-10.661000	25.497093	0.000362	20.929862
1282.357245	-3.002200	3.574200	-10.730000	25.557334	0.000362	20.909755
1283.349782	-2.998000	3.573800	-10.714000	25.547394	0.000361	20.930591
1284.339377	-2.997200	3.574900	-10.713000	25.545008	0.000359	20.920609
1285.336218	-3.018900	3.573300	-10.787000	25.525802	0.000360	20.933562
1286.339580	-3.008000	3.572700	-10.746000	25.549393	0.000358	20.935916
1287.340973	-3.022100	3.572800	-10.797000	25.542909	0.000358	20.914708
1288.353682	-2.998300	3.572700	-10.712000	25.503974	0.000357	20.932504
1289.355338	-3.014600	3.572000	-10.768000	25.492591	0.000358	20.918704
1290.353848	-3.011900	3.572100	-10.758000	25.519142	0.000358	20.909332
1291.351485	-3.010700	3.570700	-10.749000	25.549654	0.000356	20.914370
1292.364968	-3.020500	3.570700	-10.785000	25.591876	0.000356	20.906987
1293.381312	-3.006200	3.571200	-10.735000	25.569872	0.000357	20.904803
1294.354401	-3.010500	3.570400	-10.747000	25.533660	0.000356	20.910162
1295.356637	-2.987400	3.570800	-10.667000	25.546644	0.000355	20.917037
1296.362370	-2.993800	3.569100	-10.684000	25.528551	0.000353	20.894601
1297.358788	-2.979200	3.570600	-10.636000	25.549899	0.000355	20.908452
1298.359990	-3.006100	3.569200	-10.729000	25.548718	0.000354	20.908689
1299.361012	-2.990700	3.569600	-10.675000	25.544216	0.000355	20.917443
1300.359074	-2.986800	3.568100	-10.657000	25.515913	0.000356	20.913676
1301.358520	-3.014800	3.568200	-10.757000	25.555708	0.000355	20.914285
1302.364403	-3.018900	3.567600	-10.769000	25.613450	0.000352	20.894043
1303.357605	-2.995700	3.568300	-10.689000	25.594878	0.000353	20.917113
1304.362754	-2.999700	3.568200	-10.702000	25.579761	0.000353	20.907623
1305.365902	-2.975800	3.567000	-10.613000	25.580225	0.000352	20.906192
1306.362210	-3.003700	3.567000	-10.713000	25.621325	0.000353	20.914277
1307.365775	-2.989900	3.567000	-10.664000	25.638792	0.000352	20.914277
1308.356687	-3.008000	3.567900	-10.732000	25.666224	0.000351	20.917647
1309.357904	-2.998500	3.564500	-10.686000	25.625557	0.000352	20.928958
1310.360666	-2.995700	3.566700	-10.683000	25.622134	0.000350	20.884747
1311.374429	-2.999200	3.565100	-10.691000	25.587223	0.000351	20.906108
1312.379463	-3.008600	3.566000	-10.728000	25.559966	0.000348	20.904812
1313.374258	-2.975400	3.565300	-10.607000	25.552285	0.000350	20.919383
1314.360774	-2.995800	3.564700	-10.678000	25.580099	0.000348	20.902272
1315.369118	-2.987300	3.562900	-10.642000	25.569982	0.000348	20.890216
1316.363353	-3.002100	3.563300	-10.696000	25.552665	0.000347	20.917393
1317.367707	-2.997500	3.564300	-10.682000	25.537540	0.000348	20.911687
1318.376380	-3.021800	3.563300	-10.767000	25.568380	0.000347	20.918477
1319.349201	-3.012300	3.563100	-10.733000	25.555962	0.000348	20.911696
1320.363265	-2.974700	3.562800	-10.598000	25.537076	0.000348	20.883249
1321.371361	-2.991000	3.563200	-10.657000	25.566129	0.000345	20.899623
1322.364621	-3.014500	3.560400	-10.731000	25.590132	0.000346	20.910925
1323.368865	-2.991700	3.561100	-10.652000	25.606833	0.000347	20.886449
1324.375177	-2.996400	3.560800	-10.669000	25.601522	0.000346	20.896287
1325.345868	-3.007300	3.562200	-10.712000	25.594272	0.000347	20.902756
1326.347833	-3.022800	3.559700	-10.759000	25.648395	0.000345	20.914439
1327.378719	-2.997700	3.560300	-10.672000	25.630009	0.000346	20.907827
1328.368789	-2.996800	3.559900	-10.668000	25.647249	0.000344	20.887211
1329.365372	-2.989600	3.559900	-10.641000	25.650132	0.000344	20.889633
1330.364268	-3.002800	3.559300	-10.687000	25.674908	0.000345	20.895077
1331.365422	-2.987100	3.560300	-10.634000	25.682791	0.000344	20.869331
1332.367882	-3.002100	3.558000	-10.681000	25.661918	0.000340	20.899098
1333.360230	-2.984500	3.560400	-10.625000	25.615087	0.000343	20.908013
1334.375009	-3.002600	3.557100	-10.679000	25.614076	0.000342	20.880921
1335.370472	-3.015000	3.557200	-10.724000	25.587637	0.000341	20.899886
1336.373948	-2.975100	3.558700	-10.586000	25.547202	0.000342	20.899581
1337.370038	-3.016500	3.556100	-10.726000	25.551308	0.000342	20.901808
1338.368119	-2.974500	3.557800	-10.581000	25.556974	0.000341	20.895170
1339.370498	-3.006300	3.555900	-10.689000	25.540028	0.000340	20.897117
1340.351048	-2.988800	3.556300	-10.628000	25.624943	0.000340	20.889938
1341.385977	-2.996600	3.556300	-10.656000	25.666858	0.000341	20.892207
1342.352494	-2.991800	3.555800	-10.637000	25.689569	0.000338	20.883250
1343.354297	-2.999500	3.555400	-10.663000	25.716780	0.000340	20.884029
1344.353013	-3.001200	3.555000	-10.668000	25.709952	0.000340	20.891869
1345.376788	-2.998600	3.554700	-10.658000	25.659693	0.000341	20.881692
1346.378669	-3.006000	3.554300	-10.683000	25.654053	0.000339	20.884562
1347.355644	-3.002900	3.553900	-10.671000	25.627228	0.000337	20.896974
1348.356888	-2.978400	3.554300	-10.584000	25.669851	0.000340	20.897583
1349.373880	-3.018400	3.552800	-10.723000	25.685413	0.000338	20.888559
1350.355161	-2.975700	3.554000	-10.575000	25.711006	0.000337	20.888660
1351.384640	-3.043800	3.553000	-10.813000	25.724325	0.000339	20.893503
1352.378940	-2.991200	3.551500	-10.621000	25.697974	0.000337	20.884105
1353.378579	-3.017200	3.550400	-10.712000	25.702239	0.000336	20.858520
1354.374938	-2.993500	3.552300	-10.633000	25.681401	0.000337	20.869831
1355.377667	-2.984900	3.551300	-10.600000	25.653750	0.000337	20.888051
1356.377361	-2.990100	3.551200	-10.617000	25.707963	0.000337	20.884182
1357.374655	-2.993800	3.552000	-10.632000	25.695664	0.000336	20.865666
1358.377804	-2.995800	3.550600	-10.636000	25.659288	0.000334	20.879390
1359.377437	-3.008200	3.549700	-10.677000	25.630921	0.000336	20.868917
1360.356032	-3.028100	3.549300	-10.747000	25.660916	0.000336	20.867274
1361.360262	-2.993400	3.549400	-10.623000	25.653556	0.000335	20.866047
1362.357021	-2.991300	3.549500	-10.617000	25.670383	0.000333	20.871567
1363.355969	-2.983600	3.549500	-10.589000	25.636889	0.000333	20.873963
1364.359354	-2.983100	3.549100	-10.587000	25.598505	0.000333	20.881405
1365.361866	-2.996800	3.548000	-10.632000	25.589628	0.000335	20.864904
1366.360129	-3.033800	3.546800	-10.760000	25.620450	0.000332	20.890168
1367.381429	-3.002500	3.547000	-10.649000	25.650142	0.000332	20.883954
1368.383495	-3.015500	3.547800	-10.698000	25.672676	0.000331	20.887145
1369.363698	-3.007100	3.547400	-10.667000	25.660731	0.000331	20.877045
1370.362634	-2.988100	3.546600	-10.597000	25.616775	0.000332	20.865615
1371.365088	-3.018300	3.546000	-10.702000	25.650817	0.000328	20.860925
1372.364715	-3.000200	3.545300	-10.636000	25.699568	0.000328	20.857733
1373.384564	-2.980000	3.547300	-10.570000	25.679639	0.000331	20.859054
1374.366906	-3.026400	3.545100	-10.728000	25.653009	0.000329	20.862652
1375.381088	-3.014300	3.545100	-10.685000	25.610823	0.000326	20.861535
1376.362824	-3.019700	3.543500	-10.699000	25.597334	0.000327	20.873117
1377.362629	-3.019700	3.543600	-10.700000	25.599990	0.000329	20.885266
1378.366729	-3.000300	3.543500	-10.631000	25.623275	0.000330	20.856497
1379.364684	-2.991200	3.544300	-10.601000	25.618427	0.000329	20.852103
1380.368395	-2.991000	3.543700	-10.598000	25.628240	0.000326	20.864329
1381.366980	-3.019600	3.543000	-10.698000	25.598455	0.000326	20.862864
1382.362581	-2.990700	3.543300	-10.596000	25.655108	0.000326	20.860968
1383.368440	-3.005000	3.542900	-10.646000	25.677524	0.000326	20.855033
1384.368699	-2.997100	3.542200	-10.616000	25.663513	0.000326	20.847125
1385.366109	-3.022500	3.540900	-10.701000	25.623587	0.000327	20.855863
1386.394366	-3.022600	3.541700	-10.705000	25.651289	0.000325	20.859503
1387.366595	-3.016100	3.540400	-10.677000	25.622694	0.000325	20.863025
1388.366516	-2.999100	3.542100	-10.622000	25.643070	0.000325	20.867369
1389.367203	-2.992600	3.541200	-10.597000	25.671252	0.000324	20.844941
1390.366493	-3.015900	3.539900	-10.675000	25.647648	0.000324	20.868647
1391.366913	-3.004200	3.539800	-10.633000	25.625586	0.000324	20.856921
1392.367166	-3.008500	3.539000	-10.646000	25.592993	0.000324	20.860697
1393.366673	-3.004600	3.537800	-10.629000	25.615284	0.000326	20.847998
1394.371246	-2.990600	3.538800	-10.582000	25.648204	0.000325	20.855457
1395.366428	-2.984600	3.538600	-10.561000	25.640676	0.000323	20.838413
1396.367324	-3.009400	3.538500	-10.647000	25.667189	0.000324	20.852239
1397.372769	-3.000300	3.538300	-10.615000	25.624262	0.000322	20.868394
1398.368433	-2.984000	3.537800	-10.556000	25.676859	0.000321	20.853890
1399.394772	-2.979600	3.537000	-10.537000	25.641005	0.000320	20.841588
1400.371524	-2.974500	3.537600	-10.521000	25.647826	0.000320	20.847964
1401.375558	-2.990300	3.536400	-10.573000	25.621885	0.000319	20.850360
1402.384273	-2.996500	3.538200	-10.602000	25.604991	0.000320	20.856151
1403.384353	-2.985100	3.536000	-10.553000	25.595624	0.000320	20.853857
1404.391029	-2.986100	3.536200	-10.559000	25.562752	0.000320	20.868259
1405.388693	-3.013500	3.535800	-10.654000	25.544871	0.000321	20.840345
1406.366831	-2.985800	3.535100	-10.554000	25.537569	0.000321	20.846762
1407.370313	-3.015200	3.534900	-10.658000	25.566563	0.000320	20.857388
1408.369268	-3.024500	3.534400	-10.689000	25.634354	0.000320	20.852452
1409.372600	-3.016100	3.534200	-10.658000	25.592767	0.000318	20.855255
1410.372741	-3.011900	3.533700	-10.642000	25.619820	0.000317	20.862985
1411.368780	-3.004100	3.534100	-10.617000	25.621929	0.000318	20.853249
1412.369829	-3.013700	3.533400	-10.648000	25.623850	0.000317	20.806816
1413.371839	-2.995100	3.534200	-10.585000	25.607757	0.000316	20.836645
1414.375103	-3.015000	3.531800	-10.647000	25.598163	0.000315	20.847872
1415.371025	-3.001800	3.533200	-10.605000	25.642651	0.000316	20.853672
1416.372460	-2.994800	3.531900	-10.576000	25.686479	0.000317	20.846484
1417.375677	-2.979700	3.531900	-10.524000	25.685771	0.000314	20.826807
1418.372256	-2.981000	3.532400	-10.529000	25.694117	0.000317	20.853207
1419.373529	-2.981200	3.531800	-10.528000	25.752282	0.000316	20.826757
1420.371870	-2.996400	3.530900	-10.578000	25.744788	0.000313	20.852894
1421.375688	-3.002300	3.530500	-10.599000	25.769756	0.000315	20.833403
1422.374153	-3.007400	3.529000	-10.611000	25.749188	0.000314	20.834555
1423.371562	-3.008200	3.529500	-10.616000	25.733585	0.000314	20.838323
1424.375522	-3.000300	3.530100	-10.590000	25.740852	0.000313	20.833768
1425.372223	-3.010200	3.529200	-10.623000	25.707732	0.000311	20.846493
1426.375007	-3.026800	3.527300	-10.676000	25.725737	0.000312	20.822854
1427.376873	-2.996900	3.527800	-10.571000	25.695087	0.000313	20.845647
1428.373643	-2.996500	3.528100	-10.571000	25.703913	0.000310	20.827012
1429.382532	-2.988900	3.527800	-10.543000	25.665877	0.000313	20.836224
1430.379943	-2.998000	3.527300	-10.574000	25.663660	0.000310	20.847272
1431.375741	-2.992100	3.527300	-10.552000	25.654598	0.000312	20.862352
1432.374558	-3.001900	3.525900	-10.583000	25.666400	0.000310	20.837223
1433.404852	-2.983500	3.526000	-10.519000	25.700373	0.000311	20.822982
1434.392980	-2.996900	3.527600	-10.571000	25.723403	0.000308	20.815294
1435.395733	-3.005600	3.525600	-10.596000	25.698738	0.000309	20.843624
1436.378604	-3.014400	3.525500	-10.626000	25.646792	0.000308	20.836021
1437.377019	-2.991300	3.524400	-10.541000	25.652685	0.000308	20.848103
1438.394174	-2.979000	3.524200	-10.498000	25.578108	0.000310	20.835792
1439.378522	-2.991800	3.524800	-10.544000	25.601790	0.000307	20.831127
1440.377259	-3.013900	3.522900	-10.616000	25.623491	0.000307	20.843912
1441.376519	-2.978000	3.525400	-10.498000	25.594498	0.000309	20.832338
1442.380323	-2.980500	3.525000	-10.504000	25.611259	0.000307	20.818352
1443.379604	-2.992000	3.523000	-10.540000	25.625995	0.000308	20.807548
1444.377974	-3.001500	3.523100	-10.574000	25.651311	0.000305	20.841034
1445.378891	-3.006200	3.521900	-10.587000	25.674950	0.000304	20.839646
1446.380955	-2.991800	3.521600	-10.535000	25.703730	0.000308	20.823034
1447.382757	-2.994800	3.521300	-10.545000	25.722933	0.000305	20.824779
1448.379146	-2.983300	3.521500	-10.505000	25.756517	0.000305	20.854718
1449.378929	-2.989100	3.520900	-10.524000	25.753002	0.000307	20.824161
1450.382041	-2.974300	3.521300	-10.472000	25.713357	0.000304	20.840764
1451.380265	-2.982800	3.520600	-10.500000	25.739970	0.000305	20.821503
1452.380423	-2.972000	3.520700	-10.462000	25.701194	0.000303	20.822857
1453.381049	-2.994000	3.520300	-10.538000	25.676494	0.000307	20.821283
1454.381026	-3.018600	3.517600	-10.617000	25.632278	0.000304	20.835194
1455.380600	-2.994700	3.519600	-10.539000	25.662247	0.000305	20.804603
1456.380888	-3.005400	3.518800	-10.575000	25.684815	0.000305	20.852873
1457.380157	-3.009100	3.519200	-10.589000	25.711698	0.000302	20.832934
1458.380643	-3.005500	3.517600	-10.571000	25.676545	0.000301	20.834610
1459.380055	-3.009800	3.516900	-10.584000	25.644604	0.000302	20.834298
1460.382912	-3.024900	3.517800	-10.640000	25.673604	0.000302	20.838768
1461.379906	-3.010300	3.517100	-10.586000	25.678148	0.000302	20.840013
1462.384434	-3.017300	3.517000	-10.610000	25.730969	0.000303	20.840436
1463.381008	-2.993000	3.516900	-10.525000	25.691847	0.000303	20.831013
1464.380712	-3.014600	3.514600	-10.595000	25.657705	0.000300	20.836550
1465.383518	-2.974700	3.516000	-10.458000	25.692192	0.000301	20.849377
1466.379749	-3.001500	3.515500	-10.551000	25.671236	0.000299	20.840183
1467.381712	-2.980500	3.514300	-10.473000	25.646965	0.000300	20.833350
1468.382057	-2.991100	3.515600	-10.515000	25.654173	0.000300	20.847702
1469.386674	-3.007900	3.514000	-10.569000	25.667611	0.000299	20.847921
1470.383410	-3.001200	3.513300	-10.543000	25.625182	0.000297	20.831861
1471.385669	-2.973400	3.513400	-10.446000	25.658549	0.000299	20.850199
1472.384485	-2.996400	3.512900	-10.524000	25.706887	0.000298	20.838533
1473.383228	-2.982300	3.513300	-10.476000	25.729369	0.000300	20.832191
1474.386916	-2.997400	3.513200	-10.529000	25.718942	0.000298	20.840209
1475.385145	-3.016200	3.512300	-10.593000	25.693636	0.000297	20.837551
1476.383253	-2.981100	3.512900	-10.471000	25.643729	0.000296	20.829626
1477.384383	-2.987800	3.511700	-10.492000	25.617797	0.000296	20.834401
1478.383682	-2.977000	3.511000	-10.451000	25.649041	0.000296	20.883322
1479.385214	-3.005900	3.511300	-10.554000	25.667570	0.000296	20.827493
1480.383797	-3.001000	3.511400	-10.537000	25.676330	0.000298	20.836764
1481.384120	-3.011100	3.511000	-10.572000	25.635106	0.000297	20.833767
1482.388689	-2.968300	3.511500	-10.422000	25.617638	0.000296	20.845621
1483.384800	-2.992800	3.510900	-10.507000	25.602834	0.000296	20.832176
1484.384445	-3.022000	3.509400	-10.604000	25.623480	0.000294	20.829678
1485.388125	-2.997600	3.510300	-10.521000	25.623784	0.000292	20.841362
1486.386637	-2.983000	3.508000	-10.464000	25.611383	0.000296	20.856881
1487.387450	-2.979400	3.508300	-10.451000	25.641033	0.000294	20.860108
1488.389221	-2.995700	3.508700	-10.510000	25.643453	0.000295	20.844047
1489.388235	-2.985400	3.506600	-10.467000	25.692803	0.000292	20.860896
1490.388005	-2.982300	3.508200	-10.461000	25.757257	0.000295	20.847400
1491.389783	-3.004400	3.506600	-10.534000	25.749577	0.000293	20.851066
1492.389082	-2.990800	3.507400	-10.488000	25.791791	0.000293	20.851269
1493.388725	-2.988900	3.506700	-10.481000	25.766875	0.000293	20.850423
1494.388951	-2.964900	3.506500	-10.396000	25.724079	0.000289	20.854851
1495.390254	-2.984100	3.505900	-10.461000	25.683699	0.000291	20.827097
1496.391132	-3.014800	3.503700	-10.562000	25.680302	0.000291	20.858297
1497.393025	-2.960000	3.505600	-10.376000	25.678212	0.000292	20.864732
1498.392343	-2.998000	3.504800	-10.506000	25.710398	0.000290	20.847274
1499.395030	-3.027200	3.503400	-10.604000	25.740365	0.000292	20.864572
1500.395813	-3.012200	3.504700	-10.556000	25.752613	0.000291	20.857434
1501.394046	-3.006500	3.503900	-10.534000	25.742405	0.000289	20.860457
1502.393305	-2.998000	3.503500	-10.503000	25.770703	0.000289	20.850475
1503.392565	-3.000600	3.502900	-10.510000	25.753769	0.000290	20.852431
1504.394413	-3.012300	3.502000	-10.548000	25.703933	0.000289	20.860695
1505.394661	-3.005200	3.501000	-10.520000	25.695604	0.000289	20.855174
1506.394456	-2.980000	3.503800	-10.440000	25.672776	0.000289	20.855005
1507.395502	-2.997000	3.500700	-10.491000	25.702298	0.000286	20.848147
1508.401682	-2.990200	3.501500	-10.470000	25.746351	0.000288	20.849722
1509.394741	-3.008900	3.501000	-10.533000	25.718551	0.000288	20.844084
1510.403182	-2.990500	3.500300	-10.467000	25.700022	0.000288	20.859138
1511.400925	-3.009700	3.500200	-10.534000	25.720448	0.000286	20.877282
1512.394953	-3.023100	3.500200	-10.580000	25.678138	0.000286	20.870348
1513.398491	-3.005500	3.499300	-10.517000	25.703513	0.000285	20.862643
1514.400549	-3.014500	3.498000	-10.543000	25.721679	0.000285	20.844381
1515.395176	-3.005100	3.498900	-10.514000	25.705056	0.000286	20.847598
1516.397024	-3.005400	3.498600	-10.514000	25.702637	0.000285	20.853230
1517.397204	-2.986000	3.497900	-10.444000	25.698161	0.000287	20.871018
1518.398494	-3.004200	3.496400	-10.503000	25.717271	0.000284	20.873143
1519.396532	-2.996200	3.498200	-10.479000	25.709667	0.000285	20.883997
1520.399051	-2.994500	3.496200	-10.469000	25.674784	0.000284	20.862712
1521.406747	-3.004100	3.496900	-10.504000	25.717398	0.000283	20.875167
1522.399107	-2.994900	3.497800	-10.474000	25.755542	0.000284	20.873651
1523.402814	-3.002300	3.495800	-10.495000	25.747711	0.000283	20.858200
1524.398541	-3.001000	3.495500	-10.489000	25.784910	0.000284	20.869486
1525.400582	-3.001300	3.496200	-10.492000	25.800673	0.000281	20.874888
1526.398864	-3.005300	3.494600	-10.501000	25.796501	0.000283	20.882550
1527.399011	-3.005200	3.494900	-10.502000	25.781396	0.000283	20.854103
1528.400858	-3.016100	3.493900	-10.537000	25.755956	0.000282	20.871222
1529.400259	-2.994200	3.495000	-10.464000	25.740910	0.000282	20.872230
1530.403316	-2.991700	3.493000	-10.449000	25.740859	0.000280	20.880714
1531.404271	-2.995700	3.493500	-10.464000	25.773119	0.000280	20.888935
1532.402250	-3.000900	3.493100	-10.481000	25.694732	0.000280	20.870893
1533.407142	-2.974800	3.493500	-10.391000	25.713219	0.000278	20.892305
1534.408280	-3.002600	3.493300	-10.487000	25.736477	0.000281	20.881527
1535.404537	-3.004400	3.491000	-10.488000	25.738669	0.000280	20.886100
1536.407966	-2.999300	3.492700	-10.474000	25.709055	0.000279	20.898080
1537.406111	-3.003300	3.492000	-10.488000	25.712267	0.000278	20.893246
1538.403646	-3.014900	3.492100	-10.528000	25.760063	0.000279	20.878192
1539.403800	-3.001800	3.491200	-10.478000	25.753631	0.000277	20.882637
1540.407697	-2.991700	3.490000	-10.440000	25.717292	0.000278	20.885965
1541.405232	-2.986700	3.490500	-10.423000	25.671484	0.000278	20.875518
1542.405548	-2.987000	3.490000	-10.424000	25.675134	0.000277	20.881080
1543.409003	-2.992600	3.489500	-10.442000	25.694287	0.000278	20.893204
1544.407736	-3.016100	3.489700	-10.525000	25.732803	0.000276	20.868829
1545.407270	-2.998600	3.488300	-10.459000	25.730123	0.000277	20.891740
1546.410260	-3.016000	3.488400	-10.520000	25.779250	0.000278	20.903627
1547.412709	-2.997400	3.488000	-10.454000	25.800567	0.000275	20.903229
1548.409404	-3.010300	3.486900	-10.496000	25.771900	0.000276	20.880125
1549.410634	-2.985400	3.488400	-10.414000	25.764996	0.000276	20.891207
1550.411577	-2.999500	3.486900	-10.458000	25.723490	0.000274	20.901672
1551.413721	-3.002200	3.487000	-10.467000	25.692831	0.000274	20.911654
1552.412024	-3.004900	3.486900	-10.476000	25.678399	0.000276	20.888626
1553.413042	-2.992300	3.487200	-10.433000	25.730967	0.000273	20.894484
1554.416134	-3.028400	3.485200	-10.554000	25.744219	0.000273	20.895467
1555.412682	-3.008900	3.484900	-10.485000	25.731052	0.000273	20.888880
1556.411842	-3.025100	3.484800	-10.541000	25.753162	0.000275	20.895916
1557.416714	-2.978700	3.484900	-10.380000	25.715179	0.000272	20.884317
1558.410634	-3.009700	3.484300	-10.485000	25.702173	0.000271	20.892115
1559.410766	-2.978700	3.485100	-10.380000	25.739044	0.000272	20.903071
1560.416246	-3.001600	3.484400	-10.458000	25.710847	0.000273	20.906991
1561.411674	-3.024800	3.481200	-10.529000	25.705207	0.000272	20.901801
1562.413724	-2.996800	3.482900	-10.437000	25.712424	0.000271	20.909049
1563.417743	-2.992900	3.482700	-10.422000	25.736819	0.000270	20.908896
1564.411693	-3.014600	3.482200	-10.496000	25.739896	0.000272	20.907245
1565.412260	-3.004300	3.482200	-10.461000	25.784699	0.000271	20.911470
1566.418520	-2.991000	3.481100	-10.411000	25.815229	0.000269	20.907051
1567.411796	-3.009800	3.482100	-10.480000	25.837524	0.000270	20.924703
1568.413548	-2.996300	3.480300	-10.427000	25.877172	0.000271	20.901946
1569.413600	-2.970600	3.481700	-10.341000	25.869418	0.000271	20.902217
1570.411668	-2.987100	3.480300	-10.395000	25.810004	0.000269	20.909862
1571.413858	-2.987600	3.480300	-10.397000	25.789757	0.000270	20.917025
1572.414665	-2.984500	3.481300	-10.389000	25.824266	0.000269	20.903801
1573.416752	-3.002200	3.480000	-10.447000	25.777341	0.000269	20.900288
1574.413837	-2.999700	3.480200	-10.438000	25.759454	0.000267	20.912665
1575.413868	-2.984000	3.479700	-10.383000	25.798633	0.000270	20.930207
1576.416931	-3.020400	3.477800	-10.503000	25.823473	0.000267	20.924340
1577.413700	-3.000500	3.478500	-10.437000	25.860527	0.000269	20.905139
1578.414746	-2.996600	3.479000	-10.425000	25.842759	0.000268	20.915265
1579.416919	-3.000300	3.477600	-10.433000	25.835182	0.000267	20.915239
1580.413355	-3.000500	3.477300	-10.432000	25.843088	0.000265	20.917492
1581.412356	-2.997300	3.476400	-10.418000	25.852259	0.000268	20.903946
1582.414817	-3.021700	3.476000	-10.502000	25.804341	0.000267	20.920294
1583.414256	-2.977100	3.477100	-10.351000	25.781287	0.000266	20.937912
1584.417425	-3.021400	3.475100	-10.499000	25.770877	0.000265	20.919397
1585.420443	-2.970800	3.476000	-10.326000	25.797371	0.000265	20.919457
1586.417785	-2.976400	3.474900	-10.341000	25.767228	0.000264	20.913361
1587.421001	-2.985900	3.475500	-10.377000	25.809289	0.000265	20.911515
1588.415154	-3.001500	3.473000	-10.423000	25.857587	0.000265	20.930632
1589.421092	-2.996200	3.474500	-10.409000	25.869783	0.000265	20.934348
1590.418429	-3.003500	3.474200	-10.434000	25.893391	0.000262	20.921557
1591.423291	-3.025000	3.473300	-10.505000	25.887677	0.000263	20.929566
1592.422331	-2.983900	3.473900	-10.365000	25.866522	0.000262	20.923962
1593.418610	-2.990200	3.473700	-10.386000	25.844135	0.000262	20.928499
1594.422092	-2.995900	3.472400	-10.402000	25.801974	0.000262	20.932140
1595.420109	-3.013200	3.471700	-10.460000	25.778667	0.000262	20.916790
1596.419960	-3.013000	3.472200	-10.460000	25.794278	0.000261	20.917299
1597.418042	-2.992300	3.471400	-10.386000	25.775599	0.000261	20.928881
1598.419485	-2.994900	3.471700	-10.396000	25.724517	0.000263	20.939683
1599.419112	-3.006300	3.471500	-10.435000	25.677141	0.000262	20.945678
1600.419201	-3.014500	3.471800	-10.465000	25.750961	0.000261	20.943485
1601.419785	-3.003000	3.468800	-10.416000	25.786963	0.000262	20.930338
1602.424016	-2.995500	3.469500	-10.391000	25.832008	0.000260	20.961831
1603.421400	-2.977000	3.470700	-10.332000	25.801462	0.000260	20.945848
1604.422524	-2.996500	3.470000	-10.397000	25.754014	0.000259	20.950818
1605.425439	-2.989200	3.468800	-10.368000	25.761069	0.000259	20.930881
1606.421241	-3.011500	3.468200	-10.444000	25.787722	0.000260	20.928256
1607.422743	-2.999500	3.469700	-10.406000	25.769541	0.000259	20.930855
1608.421014	-3.009300	3.467200	-10.432000	25.788954	0.000259	20.921433
1609.423321	-3.012300	3.467600	-10.444000	25.795958	0.000259	20.934632
1610.422160	-2.993300	3.468500	-10.380000	25.844114	0.000258	20.939382
1611.422420	-3.011400	3.466100	-10.437000	25.797038	0.000257	20.951361
1612.422714	-2.998100	3.467900	-10.396000	25.775004	0.000258	20.952462
1613.422866	-2.990600	3.466600	-10.366000	25.789393	0.000259	20.948898
1614.424049	-2.997800	3.467700	-10.395000	25.809193	0.000257	20.946976
1615.423007	-3.003900	3.466000	-10.411000	25.837936	0.000256	20.945503
1616.424357	-3.005000	3.466200	-10.415000	25.810501	0.000258	20.962038
1617.427314	-2.990700	3.465400	-10.364000	25.805923	0.000255	20.954596
1618.423245	-3.000000	3.466300	-10.398000	25.761536	0.000256	20.939883
1619.423429	-3.014400	3.464300	-10.442000	25.814834	0.000256	20.964968
1620.422099	-2.989100	3.463700	-10.352000	25.847841	0.000255	20.955926
1621.423792	-3.001900	3.464500	-10.400000	25.867151	0.000253	20.951143
1622.425172	-2.990900	3.465400	-10.364000	25.893684	0.000256	20.947926
1623.424904	-2.999500	3.462900	-10.386000	25.890574	0.000254	20.959025
1624.423928	-2.977700	3.463500	-10.313000	25.866343	0.000253	20.969769
1625.426676	-3.003600	3.463000	-10.401000	25.839819	0.000253	20.954980
1626.426608	-2.989100	3.463300	-10.351000	25.821166	0.000255	20.972750
1627.427703	-2.989100	3.463500	-10.353000	25.764101	0.000252	20.970904
1628.430207	-2.991900	3.462300	-10.358000	25.737742	0.000254	20.982359
1629.426595	-3.003200	3.461900	-10.396000	25.763232	0.000253	20.963395
1630.428469	-2.987400	3.462900	-10.345000	25.793284	0.000253	20.966554
1631.426963	-2.976000	3.462000	-10.302000	25.840958	0.000251	20.974614
1632.426071	-3.001500	3.460900	-10.387000	25.842181	0.000251	20.953085
1633.425453	-3.034400	3.459800	-10.498000	25.834907	0.000252	20.981810
1634.426882	-2.999800	3.459600	-10.378000	25.767854	0.000251	20.985103
1635.430019	-3.001600	3.460600	-10.386000	25.812107	0.000251	20.957488
1636.427283	-2.987000	3.459600	-10.333000	25.814299	0.000249	20.959216
1637.426059	-2.984300	3.459500	-10.323000	25.833753	0.000251	20.983022
1638.430479	-3.003000	3.459800	-10.389000	25.871336	0.000251	20.976207
1639.427770	-2.997900	3.459200	-10.370000	25.854252	0.000249	20.969951
1640.425641	-2.966900	3.458900	-10.262000	25.805289	0.000249	20.985249
1641.426789	-3.007300	3.457600	-10.397000	25.831326	0.000249	20.972525
1642.425998	-3.020000	3.457700	-10.442000	25.823150	0.000250	20.987069
1643.429028	-2.988700	3.458100	-10.334000	25.834589	0.000249	20.981965
1644.433465	-2.981000	3.457000	-10.304000	25.869391	0.000251	20.993690
1645.429196	-2.978700	3.456500	-10.295000	25.845740	0.000250	20.981313
1646.428784	-2.982500	3.455400	-10.305000	25.833553	0.000250	20.983294
1647.435894	-3.010900	3.455500	-10.403000	25.840978	0.000246	20.978901
1648.429093	-3.010300	3.455000	-10.399000	25.861604	0.000247	20.992979
1649.431579	-3.018300	3.454700	-10.427000	25.846778	0.000249	20.975718
1650.436353	-3.002800	3.454900	-10.374000	25.860786	0.000247	20.979358
1651.432126	-2.989900	3.456300	-10.333000	25.852914	0.000246	21.000370
1652.433124	-3.007700	3.454500	-10.389000	25.812827	0.000245	20.967219
1653.431006	-3.016200	3.453800	-10.417000	25.803387	0.000246	20.989975
1654.433000	-2.992900	3.454300	-10.338000	25.862322	0.000245	21.009819
1655.432736	-2.980000	3.452900	-10.289000	25.879212	0.000245	20.995021
1656.433297	-2.983900	3.454100	-10.305000	25.883755	0.000245	20.982043
1657.433079	-2.996000	3.452500	-10.342000	25.852587	0.000246	20.988190
1658.435394	-3.001800	3.451800	-10.361000	25.873127	0.000244	20.985117
1659.434982	-3.028600	3.450600	-10.449000	25.883251	0.000245	20.992914
1660.433753	-2.981200	3.452000	-10.290000	25.896179	0.000245	21.009218
1661.434019	-3.007800	3.450900	-10.378000	25.908333	0.000243	21.005307
1662.433659	-3.004500	3.450400	-10.366000	25.919366	0.000244	21.001693
1663.436781	-3.012900	3.450500	-10.396000	25.903866	0.000242	20.997028
1664.435503	-3.009600	3.450400	-10.383000	25.913905	0.000245	21.011378
1665.436080	-2.995900	3.450800	-10.338000	25.919147	0.000243	20.983932
1666.437104	-2.991900	3.450900	-10.324000	25.961481	0.000241	20.997537
1667.433570	-3.013000	3.449500	-10.393000	25.978623	0.000241	20.964504
1668.437125	-3.002400	3.448900	-10.354000	25.969682	0.000244	20.981123
1669.437084	-2.981100	3.448300	-10.279000	25.975842	0.000240	20.958866
1670.435659	-2.979900	3.448200	-10.274000	25.974477	0.000242	20.983569
1671.436491	-2.990200	3.449200	-10.313000	25.978294	0.000241	20.959433
1672.436726	-2.998100	3.448400	-10.338000	25.954934	0.000238	20.971523
1673.439874	-2.998300	3.448100	-10.338000	25.934446	0.000241	20.973225
1674.436574	-2.984900	3.447400	-10.289000	25.888781	0.000240	20.983299
1675.437961	-2.993100	3.447600	-10.317000	25.824867	0.000241	20.972675
1676.437215	-2.999400	3.447200	-10.338000	25.795307	0.000238	20.963371
1677.436800	-2.996900	3.445800	-10.325000	25.827262	0.000238	20.972709
1678.441112	-2.983200	3.445600	-10.277000	25.813766	0.000237	20.969111
1679.440219	-3.012100	3.444900	-10.376000	25.762989	0.000237	20.974055
1680.437532	-3.007700	3.445300	-10.361000	25.770821	0.000237	20.956320
1681.443021	-3.031300	3.444800	-10.440000	25.747117	0.000240	20.960011
1682.440992	-3.000000	3.444800	-10.334000	25.806806	0.000235	20.975394
1683.438341	-2.990400	3.443400	-10.296000	25.832910	0.000237	20.979330
1684.438231	-2.968500	3.445300	-10.225000	25.812714	0.000237	20.944824
1685.438828	-2.976100	3.444100	-10.248000	25.891295	0.000236	20.957379
1686.440781	-3.003400	3.443200	-10.341000	25.884763	0.000236	20.966937
1687.438467	-2.979100	3.443600	-10.258000	25.866634	0.000236	20.951098
1688.439560	-3.007900	3.442600	-10.354000	25.897171	0.000234	20.954747
1689.437418	-3.000700	3.441900	-10.328000	25.882412	0.000239	20.942293
1690.439635	-3.010900	3.442700	-10.365000	25.896252	0.000235	20.968047
1691.439410	-2.988100	3.441300	-10.282000	25.930133	0.000234	20.945189
1692.439957	-2.986800	3.442800	-10.281000	25.873530	0.000236	20.953757
1693.438373	-3.008700	3.441200	-10.352000	25.858106	0.000234	20.943480
1694.440002	-3.019100	3.440600	-10.387000	25.897585	0.000233	20.965593
1695.438026	-3.009600	3.441400	-10.357000	25.865262	0.000234	20.934548
1696.440046	-2.990300	3.441500	-10.290000	25.869839	0.000233	20.937724
1697.438696	-2.998800	3.440700	-10.317000	25.901715	0.000232	20.946512
1698.440282	-3.005300	3.438900	-10.334000	25.957130	0.000232	20.942439
1699.440717	-3.003500	3.439700	-10.331000	26.001300	0.000233	20.949356
1700.439024	-2.985500	3.439300	-10.267000	26.023287	0.000234	20.930198
1701.438362	-2.989500	3.439300	-10.281000	25.964943	0.000233	20.946970
1702.444108	-3.015000	3.438700	-10.366000	25.904313	0.000234	20.951965
1703.441434	-3.012500	3.439100	-10.359000	25.884068	0.000232	20.928785
1704.441813	-2.978700	3.439300	-10.244000	25.869588	0.000231	20.944583
1705.442209	-3.000900	3.438100	-10.317000	25.850708	0.000231	20.934627
1706.442270	-3.000800	3.437400	-10.314000	25.870953	0.000232	20.924620
1707.442092	-3.004900	3.436500	-10.325000	25.818376	0.000229	20.931546
1708.446165	-2.985700	3.436800	-10.260000	25.808809	0.000231	20.939005
1709.448229	-2.999200	3.437500	-10.309000	25.861928	0.000231	20.926933
1710.442862	-3.006200	3.436000	-10.328000	25.906624	0.000229	20.932478
1711.445131	-3.022800	3.435700	-10.385000	25.905208	0.000229	20.934375
1712.443744	-2.984300	3.435200	-10.251000	25.894210	0.000230	20.942765
1713.446156	-3.005500	3.434400	-10.321000	25.922934	0.000227	20.946491
1714.446107	-2.996900	3.434800	-10.294000	25.917910	0.000226	20.935281
1715.446733	-3.013800	3.434700	-10.350000	25.906237	0.000228	20.943468
1716.447226	-3.006000	3.433500	-10.320000	25.954860	0.000229	20.920247
1717.447182	-3.012500	3.434100	-10.345000	25.942883	0.000227	20.912957
1718.448133	-2.990800	3.433000	-10.267000	25.904476	0.000227	20.957818
1719.452601	-3.025700	3.432300	-10.384000	25.873486	0.000228	20.936646
1720.448077	-2.987100	3.433900	-10.256000	25.860270	0.000226	20.933801
1721.448345	-2.968800	3.433200	-10.192000	25.857767	0.000227	20.929865
1722.456084	-2.986000	3.432800	-10.249000	25.866786	0.000227	20.929442
1723.448718	-2.993800	3.432200	-10.274000	25.828933	0.000226	20.922712
1724.449902	-2.995300	3.431300	-10.277000	25.834892	0.000225	20.937231
1725.449949	-3.005400	3.431000	-10.311000	25.868978	0.000226	20.922162
1726.447992	-3.007100	3.431800	-10.319000	25.917171	0.000227	20.927902
1727.452529	-2.991600	3.432900	-10.269000	25.936303	0.000225	20.931475
1728.456573	-3.030200	3.429700	-10.392000	25.917804	0.000223	20.907677
1729.450953	-3.012000	3.429400	-10.328000	25.931634	0.000226	20.922992
1730.452091	-2.994100	3.430700	-10.271000	25.841611	0.000224	20.920749
1731.448871	-3.002200	3.429000	-10.293000	25.829870	0.000223	20.922231
1732.449139	-2.977300	3.430600	-10.213000	25.863272	0.000223	20.915483
1733.450596	-3.012600	3.428300	-10.327000	25.906629	0.000222	20.914941
1734.450788	-2.992800	3.428100	-10.259000	25.931248	0.000223	20.905061
1735.449965	-2.997300	3.429100	-10.277000	25.979388	0.000224	20.915492
1736.449596	-3.008400	3.428600	-10.314000	25.936591	0.000223	20.907111
1737.451434	-2.991000	3.428100	-10.252000	25.889225	0.000222	20.910260
1738.450482	-3.001400	3.427700	-10.286000	25.865280	0.000226	20.934093
1739.454318	-3.000400	3.427700	-10.284000	25.881784	0.000221	20.908475
1740.453669	-2.990200	3.427200	-10.247000	25.926714	0.000221	20.920894
1741.454553	-3.000400	3.427300	-10.282000	25.945973	0.000221	20.874339
1742.454189	-3.005100	3.425500	-10.293000	25.995595	0.000220	20.915180
1743.454320	-3.012000	3.425500	-10.317000	25.948485	0.000222	20.922851
1744.455702	-2.994900	3.424700	-10.256000	25.919273	0.000220	20.927169
1745.452805	-3.016400	3.425100	-10.331000	25.919156	0.000219	20.909983
1746.452811	-2.991600	3.425300	-10.246000	25.907179	0.000219	20.918339
1747.456440	-3.005000	3.424400	-10.289000	25.952928	0.000220	20.909773
1748.453476	-2.994400	3.425100	-10.255000	25.983621	0.000219	20.888454
1749.455429	-2.989600	3.424100	-10.236000	26.015368	0.000218	20.905649
1750.454853	-2.971800	3.423700	-10.174000	26.047561	0.000218	20.901484
1751.453106	-3.025000	3.421900	-10.350000	26.077098	0.000218	20.906979
1752.453269	-2.982100	3.423200	-10.207000	26.045058	0.000217	20.880005
1753.456192	-2.996100	3.424400	-10.259000	26.032199	0.000216	20.917816
1754.453751	-2.987200	3.423300	-10.225000	26.039547	0.000217	20.911449
1755.453422	-2.983800	3.422400	-10.211000	26.023004	0.000215	20.911898
1756.457200	-2.987500	3.422400	-10.224000	26.005973	0.000217	20.902848
1757.457543	-3.007600	3.421000	-10.288000	25.992110	0.000217	20.903144
1758.455967	-2.993200	3.420700	-10.238000	26.033085	0.000216	20.906380
1759.457345	-3.009100	3.419800	-10.290000	26.004136	0.000215	20.900529
1760.457394	-3.024600	3.420100	-10.343000	25.962285	0.000215	20.882665
1761.457571	-3.030300	3.418500	-10.357000	25.890234	0.000213	20.883775
1762.461025	-3.008900	3.419500	-10.288000	25.891270	0.000212	20.893350
1763.457334	-2.990000	3.420500	-10.227000	25.948531	0.000214	20.893503
1764.459895	-3.025200	3.418600	-10.341000	25.918797	0.000214	20.894451
1765.457782	-2.999000	3.419300	-10.254000	25.924993	0.000215	20.902571
1766.455157	-3.015700	3.419300	-10.311000	25.954508	0.000214	20.913256
1767.456866	-3.003800	3.419200	-10.270000	25.990006	0.000215	20.887282
1768.462861	-3.011300	3.417200	-10.289000	25.940121	0.000212	20.887899
1769.462605	-2.996600	3.417500	-10.240000	25.973513	0.000212	20.885885
1770.456530	-3.031700	3.415800	-10.355000	26.011816	0.000213	20.891176
1771.462050	-2.997100	3.417700	-10.242000	26.034006	0.000211	20.895927
1772.463001	-3.000300	3.417500	-10.253000	26.024897	0.000210	20.903843
1773.460778	-3.033000	3.415500	-10.358000	26.000382	0.000212	20.913825
1774.462661	-2.979700	3.415600	-10.176000	25.985457	0.000212	20.907366
1775.465168	-3.000200	3.414800	-10.244000	25.962331	0.000212	20.894091
1776.459836	-2.994400	3.415000	-10.225000	25.940174	0.000211	20.904546
1777.462585	-2.978000	3.416300	-10.173000	25.917140	0.000210	20.913647
1778.465400	-2.986700	3.414200	-10.196000	25.908695	0.000209	20.889992
1779.464727	-2.989700	3.415200	-10.209000	25.883461	0.000209	20.870808
1780.465156	-2.970600	3.416000	-10.147000	25.913205	0.000210	20.902109
1781.463173	-2.970900	3.415100	-10.145000	25.910500	0.000208	20.864307
1782.462237	-2.999200	3.413200	-10.236000	25.935616	0.000209	20.896174
1783.463593	-2.982500	3.412700	-10.178000	25.971105	0.000208	20.906223
1784.463039	-2.992700	3.413300	-10.214000	25.998706	0.000208	20.886065
1785.465034	-3.004500	3.413100	-10.253000	26.011550	0.000206	20.875737
1786.462355	-2.984600	3.413700	-10.189000	25.972093	0.000207	20.897259
1787.465690	-2.980900	3.412300	-10.171000	25.946496	0.000207	20.898570
1788.466471	-2.994100	3.411300	-10.213000	25.924770	0.000207	20.883383
1789.463634	-3.007900	3.411100	-10.259000	25.871217	0.000205	20.894542
1790.466778	-3.014000	3.409700	-10.276000	25.908697	0.000206	20.873875
1791.467874	-3.011300	3.409500	-10.266000	25.892178	0.000205	20.886676
1792.464592	-2.988600	3.411400	-10.195000	25.870273	0.000205	20.867043
1793.466854	-3.020500	3.409200	-10.296000	25.893796	0.000207	20.876449
1794.469390	-3.024900	3.408600	-10.310000	25.932828	0.000203	20.879150
1795.465446	-2.985600	3.410000	-10.180000	25.960430	0.000205	20.884121
1796.467675	-3.003900	3.408100	-10.236000	25.957481	0.000205	20.867409
1797.466856	-3.015400	3.407600	-10.274000	25.974842	0.000205	20.877263
1798.470201	-3.011400	3.409300	-10.266000	25.948919	0.000204	20.890573
1799.468052	-3.001200	3.406700	-10.224000	25.991319	0.000203	20.862998
1800.467379	-2.997500	3.407500	-10.213000	26.005132	0.000206	20.879246
1801.468534	-3.036200	3.406300	-10.341000	26.003573	0.000202	20.880525
1802.466668	-2.999500	3.407500	-10.220000	25.993865	0.000204	20.866504
1803.468611	-3.005100	3.406700	-10.237000	25.985177	0.000202	20.869155
1804.468104	-2.992900	3.406500	-10.195000	26.023379	0.000201	20.876241
1805.471441	-3.022600	3.404700	-10.290000	26.058453	0.000201	20.861696
1806.469245	-3.012400	3.405100	-10.256000	26.088671	0.000202	20.874040
1807.473986	-2.983700	3.406100	-10.162000	26.102365	0.000202	20.893014
1808.472954	-2.999600	3.405300	-10.213000	26.109209	0.000201	20.884718
1809.471629	-3.003300	3.404600	-10.224000	26.080347	0.000200	20.872789
1810.474993	-2.993900	3.403400	-10.187000	26.075359	0.000199	20.868725
1811.473414	-2.986300	3.404300	-10.165000	26.080347	0.000200	20.873737
1812.470656	-3.015100	3.403100	-10.260000	26.065516	0.000200	20.868792
1813.471520	-2.991400	3.403300	-10.179000	26.045907	0.000200	20.870902
1814.473822	-3.010900	3.402600	-10.245000	26.079017	0.000201	20.872874
1815.474688	-2.998300	3.403300	-10.204000	26.052717	0.000198	20.869683
1816.472836	-2.984400	3.403800	-10.157000	26.041289	0.000198	20.876219
1817.473085	-3.008000	3.403000	-10.236000	26.028927	0.000198	20.869014
1818.473745	-2.998400	3.401800	-10.199000	26.031195	0.000197	20.875560
1819.475381	-3.007700	3.401900	-10.231000	26.039664	0.000199	20.870319
1820.474405	-2.983200	3.401600	-10.146000	26.058094	0.000197	20.854698
1821.475917	-3.022100	3.400400	-10.276000	26.068688	0.000196	20.875299
1822.474454	-3.000900	3.400900	-10.205000	26.061011	0.000195	20.873275
1823.476055	-3.013700	3.400700	-10.248000	26.040567	0.000195	20.870752
1824.476450	-3.017400	3.399000	-10.255000	25.997108	0.000197	20.868814
1825.474649	-3.007800	3.400400	-10.227000	26.011224	0.000197	20.868298
1826.476609	-2.968300	3.402200	-10.097000	26.019222	0.000196	20.864954
1827.476788	-3.021600	3.399400	-10.271000	26.023301	0.000193	20.866207
1828.479980	-3.022700	3.398100	-10.271000	26.018455	0.000196	20.856123
1829.476451	-3.009100	3.398900	-10.226000	25.994311	0.000196	20.874538
1830.477767	-3.004400	3.399100	-10.212000	26.025493	0.000196	20.862246
1831.479377	-2.996500	3.398800	-10.184000	26.042457	0.000196	20.857005
1832.477478	-2.974400	3.398100	-10.106000	26.077667	0.000196	20.859665
1833.478181	-3.014900	3.397300	-10.242000	26.087096	0.000194	20.846380
1834.479433	-3.003100	3.397000	-10.200000	26.037031	0.000195	20.863407
1835.476255	-3.003100	3.397200	-10.201000	26.038482	0.000196	20.853011
1836.479129	-2.998000	3.395700	-10.179000	26.066965	0.000193	20.840852
1837.481473	-3.003500	3.396400	-10.200000	26.070648	0.000193	20.867311
1838.477901	-2.991100	3.396700	-10.158000	26.082177	0.000192	20.873678
1839.479669	-2.995100	3.395500	-10.169000	26.014002	0.000192	20.849752
1840.478650	-3.007100	3.393500	-10.204000	25.978961	0.000193	20.848686
1841.477690	-2.990100	3.395300	-10.151000	25.977763	0.000194	20.861233
1842.479408	-3.008000	3.395200	-10.211000	26.008541	0.000189	20.848534
1843.480762	-2.984000	3.395000	-10.129000	25.979037	0.000192	20.840228
1844.482101	-2.993700	3.395200	-10.161000	26.071798	0.000189	20.862302
1845.478992	-2.990700	3.394300	-10.150000	26.089081	0.000191	20.851219
1846.482833	-3.007900	3.393200	-10.205000	26.073289	0.000189	20.851948
1847.480865	-2.991800	3.394400	-10.155000	26.086294	0.000191	20.856479
1848.478761	-2.996200	3.393300	-10.165000	26.078616	0.000192	20.859196
1849.482612	-3.009800	3.392500	-10.210000	26.055325	0.000189	20.840537
1850.482455	-2.996500	3.392600	-10.165000	26.023234	0.000188	20.843381
1851.480049	-3.022400	3.392000	-10.251000	25.983692	0.000188	20.855811
1852.482227	-2.991000	3.391900	-10.144000	25.986879	0.000188	20.853322
1853.483578	-2.996500	3.390700	-10.159000	26.020716	0.000188	20.840852
1854.483477	-2.976800	3.391200	-10.094000	26.038076	0.000185	20.849758
1855.484709	-3.009200	3.389200	-10.198000	26.046377	0.000188	20.844349
1856.484702	-3.004000	3.390500	-10.184000	26.002421	0.000186	20.863721
1857.484610	-2.975900	3.390400	-10.089000	26.045266	0.000188	20.850344
1858.486205	-2.997400	3.390800	-10.163000	25.991323	0.000187	20.831235
1859.484594	-2.982400	3.390100	-10.109000	25.960605	0.000187	20.836409
1860.487960	-2.969700	3.389800	-10.066000	26.000290	0.000187	20.826494
1861.485089	-3.002500	3.388900	-10.174000	26.081201	0.000188	20.848043
1862.485069	-2.992200	3.388900	-10.139000	26.144729	0.000187	20.837434
1863.485335	-3.004800	3.388900	-10.182000	26.156047	0.000186	20.838376
1864.484179	-3.006000	3.388100	-10.183000	26.163318	0.000185	20.838096
1865.486263	-2.987200	3.389100	-10.123000	26.173674	0.000187	20.842337
1866.488084	-2.997200	3.387800	-10.153000	26.146838	0.000185	20.862785
1867.486965	-2.995700	3.387800	-10.148000	26.111126	0.000185	20.845869
1868.486876	-3.006300	3.386000	-10.179000	26.129403	0.000184	20.833415
1869.492312	-2.984700	3.386200	-10.106000	26.128748	0.000182	20.834178
1870.484993	-3.004000	3.386000	-10.171000	26.132060	0.000182	20.829921
1871.490149	-3.005200	3.385100	-10.172000	26.120634	0.000182	20.829819
1872.490711	-2.987600	3.385900	-10.115000	26.135136	0.000182	20.832536
1873.489581	-3.010600	3.386100	-10.193000	26.136881	0.000182	20.822910
1874.489170	-3.017300	3.384300	-10.210000	26.183707	0.000183	20.832504
1875.492490	-3.006800	3.384100	-10.175000	26.218228	0.000181	20.846331
1876.492456	-3.020100	3.385100	-10.222000	26.203844	0.000181	20.820972
1877.490218	-3.011000	3.384100	-10.188000	26.200475	0.000183	20.828966
1878.493501	-3.011000	3.384000	-10.189000	26.215204	0.000181	20.846137
1879.492255	-3.008900	3.382900	-10.178000	26.222880	0.000182	20.820660
1880.491381	-3.013700	3.383100	-10.195000	26.179992	0.000180	20.850108
1881.492901	-3.019800	3.382000	-10.212000	26.107028	0.000181	20.826105
1882.493906	-2.999400	3.382100	-10.143000	26.049044	0.000178	20.882113
1883.491245	-2.996300	3.382800	-10.135000	26.082372	0.000180	20.829780
1884.495770	-3.019500	3.381500	-10.210000	26.115506	0.000179	20.816606
1885.494773	-3.022800	3.381500	-10.220000	26.099741	0.000180	20.832059
1886.493561	-3.026600	3.380400	-10.230000	26.059882	0.000178	20.832313
1887.493404	-2.990100	3.381400	-10.110000	26.035789	0.000177	20.814745
1888.494725	-2.996300	3.380500	-10.128000	26.064896	0.000177	20.817911
1889.492702	-2.993200	3.381600	-10.120000	26.071461	0.000177	20.833042
1890.495550	-3.012500	3.380500	-10.183000	26.093422	0.000178	20.823814
1891.496612	-2.997500	3.379100	-10.127000	26.055365	0.000177	20.836784
1892.490853	-2.982800	3.380100	-10.081000	26.059698	0.000178	20.833551
1893.494586	-2.973000	3.380400	-10.049000	26.100551	0.000175	20.822916
1894.495862	-2.981200	3.379400	-10.074000	26.152747	0.000178	20.829370
1895.495317	-3.006900	3.378900	-10.159000	26.197052	0.000175	20.807983
1896.494948	-2.987900	3.377900	-10.092000	26.197710	0.000177	20.803429
1897.497199	-3.003900	3.378000	-10.146000	26.099779	0.000177	20.806019
1898.495122	-3.008900	3.377200	-10.161000	26.117559	0.000178	20.821513
1899.495805	-3.002700	3.378200	-10.143000	26.078451	0.000175	20.815410
1900.498181	-3.003100	3.377700	-10.142000	26.019461	0.000175	20.825841
1901.495635	-2.997800	3.376900	-10.123000	26.072864	0.000175	20.823547
1902.498153	-3.000100	3.376600	-10.130000	26.129771	0.000176	20.819559
1903.499551	-2.988700	3.377600	-10.094000	26.135215	0.000174	20.843047
1904.495263	-2.989200	3.375700	-10.090000	26.153491	0.000173	20.824428
1905.496964	-2.999400	3.375300	-10.123000	26.169351	0.000173	20.817606
1906.498624	-3.003100	3.376000	-10.138000	26.214279	0.000174	20.819130
1907.498438	-3.017400	3.374000	-10.180000	26.215096	0.000173	20.808571
1908.502616	-3.004500	3.373900	-10.135000	26.172106	0.000172	20.817529
1909.496944	-2.971300	3.374700	-10.026000	26.206460	0.000174	20.813170
1910.498722	-3.003400	3.374100	-10.133000	26.221905	0.000173	20.806878
1911.499756	-2.996900	3.373600	-10.109000	26.224273	0.000172	20.815423
1912.500110	-2.993600	3.373700	-10.099000	26.243375	0.000171	20.826083
1913.501810	-3.018400	3.371500	-10.176000	26.227972	0.000172	20.815820
1914.499995	-2.992500	3.373200	-10.093000	26.189904	0.000173	20.806490
1915.499965	-2.986900	3.372700	-10.073000	26.192004	0.000169	20.826143
1916.501069	-2.993400	3.371300	-10.090000	26.170314	0.000170	20.824737
1917.500314	-2.998000	3.372900	-10.110000	26.207946	0.000172	20.826516
1918.501650	-3.000400	3.370800	-10.113000	26.210599	0.000170	20.823967
1919.503715	-3.016500	3.371500	-10.168000	26.201340	0.000171	20.807550
1920.501946	-2.999300	3.371500	-10.111000	26.192770	0.000169	20.826439
1921.504401	-2.994100	3.370800	-10.092000	26.133375	0.000168	20.840250
1922.502386	-2.991000	3.371100	-10.082000	26.071547	0.000169	20.819852
1923.503208	-3.016000	3.368300	-10.158000	26.060297	0.000168	20.800963
1924.505424	-2.995500	3.370300	-10.095000	26.077498	0.000167	20.833892
1925.505014	-3.019200	3.367200	-10.165000	26.092361	0.000167	20.789083
1926.502053	-2.995500	3.369300	-10.091000	26.129818	0.000168	20.831461
1927.501585	-3.003800	3.368800	-10.118000	26.177883	0.000167	20.821911
1928.503016	-3.001900	3.367400	-10.107000	26.158258	0.000168	20.831588
1929.506886	-2.978800	3.368400	-10.033000	26.176467	0.000167	20.817644
1930.505393	-3.011200	3.367500	-10.140000	26.135095	0.000167	20.822064
1931.503847	-2.992200	3.367900	-10.077000	26.119320	0.000167	20.809058
1932.503685	-3.019400	3.365600	-10.161000	26.194743	0.000167	20.815620
1933.507789	-2.989300	3.366900	-10.064000	26.234464	0.000166	20.822344
1934.508755	-2.994900	3.367000	-10.083000	26.286279	0.000165	20.812301
1935.509275	-3.007500	3.366300	-10.123000	26.272150	0.000167	20.834611
1936.503757	-2.999300	3.365100	-10.092000	26.239385	0.000165	20.812117
1937.504316	-3.002700	3.365000	-10.103000	26.188837	0.000164	20.826280
1938.504884	-2.987500	3.365000	-10.051000	26.176838	0.000165	20.818964
1939.509449	-2.954300	3.366800	-9.944700	26.172844	0.000163	20.804995
1940.505002	-3.006300	3.364100	-10.112000	26.141929	0.000163	20.820871
1941.508129	-2.996900	3.364500	-10.082000	26.157080	0.000164	20.828508
1942.509705	-2.982100	3.365800	-10.036000	26.149951	0.000160	20.843629
1943.506981	-2.978200	3.363900	-10.017000	26.150397	0.000162	20.820371
1944.510508	-2.978600	3.364200	-10.020000	26.152985	0.000162	20.828186
1945.509625	-2.993900	3.362800	-10.066000	26.154923	0.000163	20.825867
1946.508661	-2.977600	3.363600	-10.014000	26.184660	0.000162	20.837730
1947.509294	-2.985000	3.362800	-10.037000	26.219948	0.000163	20.821981
1948.510035	-2.990300	3.362500	-10.054000	26.229714	0.000163	20.807140
1949.511452	-3.004600	3.362500	-10.102000	26.214555	0.000161	20.823674
1950.513532	-3.003900	3.362800	-10.101000	26.214951	0.000160	20.814115
1951.515303	-3.003900	3.361100	-10.096000	26.238258	0.000162	20.812406
1952.516055	-2.997800	3.361800	-10.077000	26.253854	0.000160	20.814802
1953.513552	-3.016600	3.360000	-10.134000	26.258572	0.000161	20.826182
1954.515209	-3.021000	3.360700	-10.152000	26.266644	0.000160	20.840931
1955.518448	-2.991400	3.359900	-10.050000	26.255674	0.000159	20.836072
1956.513205	-3.018300	3.358500	-10.136000	26.291355	0.000160	20.812187
1957.514759	-3.007000	3.360100	-10.103000	26.302080	0.000161	20.846672
1958.514534	-3.031800	3.357500	-10.179000	26.299015	0.000160	20.852600
1959.514934	-3.029700	3.358200	-10.174000	26.308030	0.000157	20.834634
1960.514349	-3.004400	3.359700	-10.093000	26.306143	0.000158	20.823254
1961.513090	-3.003800	3.358000	-10.086000	26.315158	0.000157	20.853650
1962.514869	-3.001300	3.357600	-10.077000	26.320297	0.000156	20.834160
1963.513747	-3.040800	3.357400	-10.209000	26.294434	0.000156	20.839935
1964.521552	-2.992400	3.357700	-10.047000	26.267480	0.000157	20.846038
1965.513625	-3.020800	3.356200	-10.138000	26.300384	0.000157	20.827897
1966.516089	-3.021100	3.356700	-10.139000	26.330275	0.000158	20.834704
1967.514230	-2.996300	3.357400	-10.059000	26.374699	0.000157	20.828142
1968.513563	-2.998600	3.355400	-10.060000	26.353326	0.000156	20.829422
1969.514464	-3.001600	3.355300	-10.070000	26.323350	0.000156	20.843865
1970.515097	-3.003000	3.354000	-10.071000	26.285219	0.000156	20.835417
1971.515449	-2.995700	3.355900	-10.052000	26.309937	0.000154	20.824222
1972.520000	-3.008100	3.355100	-10.092000	26.349511	0.000153	20.829855
1973.516340	-2.981000	3.356000	-10.003000	26.376149	0.000156	20.872272
1974.515944	-3.028600	3.352800	-10.154000	26.380177	0.000154	20.851665
1975.518937	-3.010700	3.354300	-10.098000	26.360448	0.000154	20.847009
1976.516622	-3.027300	3.352300	-10.148000	26.330060	0.000155	20.845393
1977.517086	-2.997500	3.352800	-10.050000	26.287917	0.000152	20.837654
1978.524619	-2.995000	3.352900	-10.041000	26.312249	0.000152	20.847881
1979.516644	-2.995900	3.352300	-10.042000	26.360052	0.000154	20.856094
1980.517354	-2.979800	3.352800	-9.989400	26.341089	0.000152	20.865011
1981.518253	-3.016500	3.350500	-10.106000	26.411114	0.000151	20.862844
1982.519069	-3.003500	3.352000	-10.067000	26.398452	0.000152	20.849644
1983.516165	-3.005500	3.350000	-10.067000	26.330506	0.000152	20.839204
1984.517014	-2.993000	3.352000	-10.032000	26.292157	0.000154	20.849975
1985.522820	-3.020000	3.349900	-10.115000	26.307129	0.000151	20.847952
1986.519161	-2.993400	3.350800	-10.030000	26.356297	0.000152	20.861803
1987.519271	-3.006200	3.350100	-10.070000	26.340626	0.000151	20.870710
1988.522438	-3.010400	3.348500	-10.080000	26.322875	0.000150	20.857138
1989.523681	-3.001000	3.349900	-10.052000	26.255112	0.000149	20.865377
1990.519033	-3.009000	3.348200	-10.074000	26.306296	0.000149	20.852804
1991.521172	-3.019000	3.348500	-10.109000	26.273497	0.000147	20.845922
1992.518240	-2.995200	3.347700	-10.026000	26.309507	0.000149	20.865514
1993.519005	-2.989000	3.349400	-10.010000	26.362896	0.000148	20.870805
1994.520890	-3.020900	3.347400	-10.111000	26.381118	0.000147	20.848343
1995.520345	-3.012200	3.347000	-10.080000	26.411092	0.000148	20.883209
1996.520463	-3.013000	3.348000	-10.087000	26.413907	0.000148	20.868021
1997.521650	-2.991500	3.347600	-10.014000	26.393890	0.000146	20.858809
1998.522284	-2.973100	3.347500	-9.950800	26.349334	0.000147	20.864289
1999.521307	-2.992500	3.345500	-10.011000	26.372569	0.000148	20.865829
2000.524224	-2.971900	3.346700	-9.945200	26.387026	0.000147	20.885099
2001.527007	-2.997500	3.346200	-10.029000	26.357893	0.000145	20.861511
2002.523460	-2.988500	3.345200	-9.996600	26.360708	0.000148	20.871926
2003.530628	-2.987800	3.346000	-9.996100	26.377094	0.000145	20.900246
2004.528891	-3.016200	3.344500	-10.086000	26.410345	0.000147	20.870605
2005.527424	-3.011200	3.344600	-10.070000	26.464084	0.000146	20.888107
2006.534695	-3.028200	3.344100	-10.126000	26.473214	0.000146	20.856509
2007.532473	-2.980000	3.345700	-9.969600	26.494898	0.000145	20.875932
2008.527301	-3.021100	3.343100	-10.099000	26.477748	0.000145	20.863436
2009.535452	-3.003800	3.342500	-10.039000	26.521710	0.000144	20.886286
2010.533325	-3.009000	3.341100	-10.052000	26.521552	0.000144	20.895610
2011.530264	-3.015100	3.342800	-10.078000	26.517459	0.000144	20.869441
2012.531414	-3.012400	3.342200	-10.067000	26.466664	0.000142	20.888330
2013.532146	-2.995600	3.341600	-10.009000	26.443473	0.000141	20.882090
2014.527174	-3.022000	3.341300	-10.096000	26.401395	0.000143	20.902384
2015.530686	-3.008400	3.341000	-10.050000	26.412910	0.000142	20.883140
2016.533494	-3.019900	3.338700	-10.082000	26.438116	0.000144	20.879551
2017.529922	-2.987400	3.341200	-9.980900	26.436954	0.000143	20.875538
2018.535973	-3.024300	3.338800	-10.097000	26.415035	0.000139	20.872474
2019.531364	-3.004100	3.339600	-10.031000	26.454621	0.000140	20.866269
2020.532980	-3.009600	3.340300	-10.052000	26.411666	0.000142	20.884734
2021.539539	-3.009800	3.338800	-10.048000	26.430242	0.000140	20.904351
2022.536856	-2.999000	3.338200	-10.011000	26.435441	0.000140	20.871647
2023.536044	-2.990800	3.338200	-9.983100	26.406537	0.000140	20.889062
2024.538811	-2.980200	3.339100	-9.950400	26.449771	0.000139	20.878937
2025.535233	-2.988400	3.337900	-9.974000	26.461093	0.000140	20.884626
2026.534426	-2.988600	3.338200	-9.975700	26.436613	0.000140	20.878988
2027.535937	-2.981600	3.338400	-9.952800	26.380676	0.000139	20.888674
2028.533871	-3.007700	3.337100	-10.036000	26.408140	0.000137	20.894939
2029.536171	-2.985200	3.336900	-9.960300	26.420532	0.000139	20.881317
2030.534924	-2.989900	3.335200	-9.971300	26.433640	0.000139	20.881215
2031.535748	-3.009000	3.336300	-10.038000	26.459535	0.000139	20.887328
2032.535110	-3.008100	3.336000	-10.034000	26.451104	0.000138	20.867476
2033.540080	-2.998300	3.335100	-9.999200	26.467945	0.000138	20.892461
2034.537618	-3.018600	3.334100	-10.064000	26.504065	0.000138	20.891783
2035.536382	-2.994000	3.334800	-9.983600	26.512515	0.000136	20.905017
2036.541481	-3.009500	3.333700	-10.032000	26.527062	0.000137	20.892140
2037.537225	-3.019600	3.333500	-10.065000	26.530389	0.000135	20.898803
2038.539273	-3.035500	3.333000	-10.117000	26.558726	0.000137	20.909268
2039.539989	-3.014200	3.333400	-10.047000	26.531966	0.000136	20.880949
2040.542339	-3.008200	3.333400	-10.027000	26.516384	0.000134	20.895157
2041.538879	-3.003300	3.332900	-10.009000	26.507934	0.000135	20.896146
2042.540169	-2.998100	3.332600	-9.990200	26.523425	0.000135	20.895596
2043.542625	-3.010600	3.332100	-10.031000	26.497221	0.000134	20.891068
2044.538979	-3.003900	3.332600	-10.009000	26.523393	0.000135	20.908839
2045.540045	-3.044200	3.330000	-10.136000	26.499934	0.000133	20.906122
2046.539934	-2.981500	3.331900	-9.932300	26.464960	0.000134	20.895151
2047.546707	-2.990900	3.330300	-9.959200	26.467714	0.000133	20.907401
2048.539571	-3.004400	3.330600	-10.006000	26.498225	0.000133	20.911515
2049.541191	-2.990800	3.331200	-9.961800	26.481354	0.000134	20.907360
2050.545751	-3.022000	3.330300	-10.063000	26.515916	0.000133	20.918392
2051.540437	-3.010400	3.329200	-10.021000	26.529925	0.000133	20.905922
2052.540386	-3.021700	3.329300	-10.059000	26.567417	0.000133	20.908996
2053.541343	-2.985500	3.328800	-9.937100	26.576440	0.000132	20.917116
2054.541348	-2.999500	3.329900	-9.987400	26.581340	0.000132	20.913034
2055.540799	-3.009800	3.328100	-10.016000	26.587213	0.000132	20.922255
2056.543504	-3.021100	3.327100	-10.051000	26.591584	0.000130	20.913374
2057.544644	-3.000900	3.327900	-9.985700	26.589799	0.000130	20.912528
2058.544230	-3.026000	3.326700	-10.066000	26.640993	0.000129	20.921791
2059.544289	-3.020000	3.326800	-10.047000	26.640303	0.000130	20.910193
2060.545213	-3.003700	3.326900	-9.992500	26.626346	0.000131	20.907542
2061.543777	-3.006500	3.327300	-10.003000	26.617992	0.000132	20.923325
2062.542616	-3.000600	3.325800	-9.978200	26.612804	0.000128	20.938970
2063.547166	-3.001800	3.325400	-9.981700	26.612712	0.000131	20.905691
2064.543172	-2.994800	3.326100	-9.960100	26.599160	0.000129	20.918619
2065.547075	-3.019200	3.326200	-10.041000	26.622516	0.000129	20.926449
2066.549673	-2.997600	3.325600	-9.968200	26.573842	0.000128	20.935365
2067.542960	-2.998300	3.324700	-9.967100	26.583301	0.000127	20.924012
2068.544501	-2.986300	3.323800	-9.925100	26.582956	0.000128	20.932673
2069.545047	-3.005100	3.324500	-9.989400	26.563718	0.000127	20.925190
2070.548798	-3.001700	3.323100	-9.974100	26.548329	0.000128	20.939591
2071.543148	-2.985700	3.323600	-9.921500	26.529176	0.000125	20.946890
2072.546437	-2.994500	3.323300	-9.950800	26.487782	0.000128	20.938948
2073.544930	-3.006300	3.320600	-9.981400	26.471829	0.000126	20.933820
2074.544034	-2.997100	3.322100	-9.956000	26.537053	0.000124	20.938214
2075.545606	-2.981100	3.321500	-9.901300	26.525615	0.000129	20.935252
2076.543990	-2.987500	3.322100	-9.923400	26.584425	0.000125	20.958329
2077.548630	-2.995800	3.321200	-9.948600	26.610165	0.000127	20.942007
2078.549725	-3.003900	3.320500	-9.973500	26.651757	0.000125	20.951575
2079.547574	-2.984600	3.322700	-9.915900	26.700143	0.000126	20.935261
2080.545474	-2.989600	3.319700	-9.923900	26.708861	0.000125	20.933120
2081.547112	-3.025600	3.319200	-10.042000	26.709839	0.000124	20.940741
2082.548882	-2.986200	3.319700	-9.912900	26.670734	0.000126	20.937463
2083.548120	-2.987800	3.319500	-9.917100	26.663198	0.000122	20.932732
2084.546482	-3.019300	3.317500	-10.015000	26.678721	0.000124	20.940751
2085.548430	-3.005600	3.319600	-9.976200	26.680801	0.000123	20.940945
2086.548918	-2.995100	3.319500	-9.941100	26.748993	0.000123	20.949759
2087.550268	-3.028500	3.317700	-10.047000	26.755758	0.000125	20.951818
2088.549390	-2.995400	3.317700	-9.935900	26.725574	0.000121	20.944706
2089.549038	-3.013000	3.317200	-9.992900	26.675338	0.000121	20.958210
2090.550456	-3.025600	3.317200	-10.035000	26.716756	0.000122	20.957176
2091.549078	-2.999500	3.317200	-9.948500	26.744997	0.000119	20.931518
2092.550081	-2.989600	3.316400	-9.913200	26.727816	0.000123	20.947433
2093.549078	-3.001800	3.316200	-9.953300	26.708362	0.000120	20.946368
2094.548927	-2.999900	3.315300	-9.945000	26.707241	0.000121	20.945715
2095.551769	-2.993900	3.315400	-9.924600	26.660939	0.000122	20.953219
2096.550907	-2.997100	3.315000	-9.934800	26.684319	0.000119	20.943059
2097.556873	-3.011900	3.315700	-9.985800	26.673085	0.000121	20.969694
2098.552114	-2.994100	3.314100	-9.922400	26.639876	0.000121	20.974241
2099.552656	-3.012900	3.312700	-9.979700	26.599952	0.000120	20.951653
2100.556069	-2.977200	3.315500	-9.868800	26.621735	0.000120	20.952688
2101.559004	-3.004200	3.313100	-9.951800	26.693948	0.000120	20.961272
2102.553492	-2.997400	3.314400	-9.934000	26.751040	0.000119	20.957979
2103.557220	-2.997200	3.313600	-9.930700	26.809417	0.000120	20.979685
2104.555165	-2.999300	3.312700	-9.934500	26.842117	0.000119	20.979374
2105.557375	-2.992000	3.313400	-9.913200	26.835870	0.000118	20.968352
2106.555222	-2.994500	3.312400	-9.919100	26.780441	0.000119	20.957668
2107.555730	-3.010500	3.311000	-9.966400	26.746369	0.000116	20.976040
2108.556407	-3.018200	3.310300	-9.990100	26.687913	0.000117	20.964687
2109.556530	-2.994300	3.311700	-9.915000	26.663767	0.000116	20.967440
2110.556597	-2.994300	3.311100	-9.913300	26.648573	0.000117	20.981086
2111.556492	-2.983100	3.312200	-9.880100	26.601979	0.000116	20.979292
2112.557284	-3.015000	3.309100	-9.975700	26.634180	0.000115	20.987952
2113.555521	-2.995300	3.309400	-9.911900	26.649501	0.000117	20.976804
2114.556800	-3.002300	3.309900	-9.936600	26.709592	0.000116	20.964197
2115.556597	-3.005700	3.308300	-9.942600	26.730227	0.000115	20.981621
2116.555450	-3.019800	3.307700	-9.987400	26.773818	0.000117	20.966654
2117.559017	-2.992100	3.308200	-9.896500	26.759274	0.000115	20.984746
2118.557524	-3.007300	3.307400	-9.945900	26.726961	0.000114	20.980708
2119.556609	-3.004300	3.307100	-9.934000	26.781028	0.000115	20.999029
2120.556565	-3.007600	3.307300	-9.946300	26.800759	0.000114	20.980463
2121.559311	-3.012800	3.307400	-9.963800	26.811783	0.000113	20.964523
2122.557526	-3.010800	3.306400	-9.954000	26.797341	0.000113	20.983190
2123.557228	-3.030900	3.306300	-10.020000	26.788710	0.000113	20.988736
2124.561288	-3.003800	3.306700	-9.932100	26.817771	0.000111	20.989506
2125.565998	-2.998200	3.305500	-9.909700	26.811818	0.000112	20.992529
2126.560127	-3.006300	3.305200	-9.935200	26.853864	0.000111	20.987865
2127.563309	-3.025800	3.304800	-9.999000	26.870318	0.000114	20.985917
2128.561895	-3.005200	3.304500	-9.930000	26.850345	0.000110	20.973897
2129.558577	-3.042900	3.303300	-10.050000	26.849681	0.000111	20.989822
2130.564878	-3.009400	3.303600	-9.940900	26.892136	0.000112	20.999319
2131.558956	-2.996700	3.303300	-9.898400	26.950987	0.000112	20.992590
2132.558754	-2.987000	3.302600	-9.862900	26.905030	0.000109	21.015126
2133.564846	-2.990600	3.302800	-9.875700	26.899523	0.000111	20.968819
2134.560201	-3.003000	3.304600	-9.922900	26.909999	0.000111	20.992151
2135.559879	-2.993900	3.302400	-9.885700	26.924221	0.000112	21.001235
2136.563709	-2.985900	3.302400	-9.860200	26.968990	0.000110	21.011639
2137.559035	-2.955000	3.303900	-9.760900	26.980829	0.000111	20.998416
2138.559068	-2.981000	3.301600	-9.841100	26.887197	0.000110	20.995775
2139.562006	-2.974200	3.300800	-9.816300	26.832993	0.000110	20.991060
2140.562185	-3.010300	3.301000	-9.935700	26.792168	0.000110	21.009278
2141.559911	-2.981400	3.302200	-9.844600	26.813491	0.000109	21.005114
2142.562207	-2.996100	3.298700	-9.881800	26.877365	0.000108	21.024764
2143.565978	-2.969500	3.299600	-9.797100	26.919282	0.000111	21.002906
2144.563696	-2.992400	3.299200	-9.871100	26.915443	0.000107	20.988143
2145.568917	-3.009300	3.298300	-9.924600	26.898138	0.000108	20.986390
2146.566030	-2.989900	3.298600	-9.861700	26.887749	0.000107	20.999648
2147.565645	-3.043000	3.296500	-10.029000	26.876381	0.000107	21.010501
2148.568671	-2.992600	3.298400	-9.870700	26.888296	0.000105	21.001621
2149.566485	-3.004800	3.297500	-9.907100	26.878100	0.000107	20.988051
2150.565953	-2.990600	3.298200	-9.862500	26.885056	0.000109	20.998364
2151.565625	-3.004000	3.296900	-9.902700	26.850759	0.000105	20.980002
2152.564958	-2.987600	3.298500	-9.852500	26.800300	0.000105	20.986639
2153.567825	-3.009800	3.295700	-9.918400	26.780620	0.000105	20.993404
2154.565577	-2.988200	3.295500	-9.846300	26.834928	0.000105	20.974991
2155.568412	-2.988000	3.295200	-9.845500	26.885051	0.000104	20.984136
2156.567983	-3.005700	3.294600	-9.902100	26.933569	0.000104	20.971759
2157.569757	-3.010600	3.295400	-9.920200	27.003109	0.000104	20.990477
2158.572739	-3.024300	3.293400	-9.958700	27.019409	0.000103	21.009710
2159.574082	-3.005200	3.294400	-9.899100	27.029893	0.000104	20.964785
2160.569935	-3.010400	3.292500	-9.911000	27.008524	0.000103	20.979328
2161.571562	-2.985100	3.294700	-9.833900	26.973794	0.000102	20.964321
2162.568874	-2.995000	3.292000	-9.857700	27.003297	0.000101	20.973599
2163.569095	-2.989100	3.292600	-9.841400	27.020945	0.000100	20.992291
2164.570312	-3.006000	3.291600	-9.893800	27.017898	0.000102	20.964101
2165.569733	-3.020200	3.289600	-9.934400	26.977779	0.000102	20.973068
2166.571769	-2.982000	3.292900	-9.817800	26.968197	0.000102	20.959641
2167.571301	-3.018900	3.290800	-9.933300	26.943881	0.000103	20.966482
2168.571068	-2.979800	3.291100	-9.805600	26.980978	0.000100	20.963958
2169.574215	-3.014800	3.290700	-9.919600	27.016990	0.000101	20.950862
2170.572926	-2.989200	3.290300	-9.833800	26.946071	9.991483E-5	20.944031
2171.570983	-2.991400	3.290000	-9.840100	26.967340	0.000101	20.962572
2172.573504	-2.987500	3.288700	-9.823800	26.918007	9.974981E-5	20.957535
2173.571960	-2.980300	3.287900	-9.797600	26.914235	9.984882E-5	20.953742
2174.571287	-3.010800	3.288400	-9.899800	26.917175	0.000101	20.959069
2175.576866	-3.005200	3.288500	-9.881700	26.956109	9.879274E-5	20.969769
2176.574782	-2.976800	3.289000	-9.789400	26.981632	9.955180E-5	20.974097
2177.573640	-2.999600	3.287000	-9.858300	27.005856	9.767066E-5	20.950097
2178.572475	-3.006000	3.286600	-9.877700	27.037218	9.796768E-5	20.954609
2179.573608	-2.980600	3.287600	-9.798600	27.035636	9.753865E-5	20.980515
2180.572852	-3.006200	3.286000	-9.877000	27.048634	9.694461E-5	20.967037
2181.578361	-2.991500	3.286300	-9.829300	27.088821	9.503047E-5	20.968097
2182.575877	-2.999500	3.285700	-9.854500	27.029146	9.714262E-5	20.967352
2183.574230	-2.989200	3.286100	-9.821900	27.022495	9.565751E-5	20.968724
2184.575388	-2.983100	3.286100	-9.801600	26.972632	9.608655E-5	20.956041
2185.575162	-2.981900	3.285000	-9.794500	26.924572	9.588853E-5	20.947069
2186.575942	-2.979400	3.286200	-9.790300	26.948361	9.611955E-5	20.952971
2187.576969	-2.990400	3.284900	-9.821900	27.002600	9.470045E-5	20.955831
2188.580313	-2.987700	3.283700	-9.809900	27.095720	9.361137E-5	20.953700
2189.575064	-3.002800	3.282900	-9.856900	27.142282	9.635057E-5	20.947425
2190.575741	-3.023600	3.282100	-9.922600	27.084471	9.212626E-5	20.962774
2191.577465	-3.017100	3.281200	-9.898900	27.025749	9.404040E-5	20.936439
2192.576982	-3.015700	3.283300	-9.900700	27.007705	9.364437E-5	20.944371
2193.577496	-2.992200	3.284100	-9.826200	27.051716	9.397439E-5	20.949275
2194.577756	-3.025700	3.280700	-9.925000	27.108586	9.486546E-5	20.961423
2195.577662	-3.003500	3.281400	-9.854500	27.110076	9.083916E-5	20.936847
2196.578424	-2.995900	3.282300	-9.832100	27.081636	9.328134E-5	20.931479
2197.587840	-2.990900	3.280800	-9.811000	27.014342	9.146621E-5	20.942510
2198.585501	-2.991000	3.280200	-9.810500	27.042119	9.380938E-5	20.945314
2199.580245	-3.002500	3.279400	-9.845600	27.074220	9.136720E-5	20.945829
2200.581741	-2.989700	3.277900	-9.799200	27.087867	9.123519E-5	20.933951
2201.584424	-3.027100	3.278200	-9.922500	27.059994	9.239028E-5	20.953807
2202.579847	-3.019700	3.277000	-9.894100	27.043264	9.054214E-5	20.934614
2203.581104	-2.986100	3.277900	-9.787700	27.085925	8.998110E-5	20.955703
2204.583180	-2.991200	3.277100	-9.801700	27.139366	8.984909E-5	20.922211
2205.579801	-3.009500	3.276100	-9.858200	27.156515	8.932105E-5	20.942301
2206.583837	-2.999600	3.277700	-9.831100	27.130880	8.915604E-5	20.941649
2207.583843	-3.007600	3.274900	-9.849000	27.177983	8.948606E-5	20.942556
2208.581859	-3.001200	3.275700	-9.830900	27.225722	9.034413E-5	20.929409
2209.582640	-3.004400	3.276300	-9.842200	27.199937	8.889202E-5	20.951360
2210.582377	-3.010200	3.274300	-9.855400	27.160540	8.882602E-5	20.921222
2211.586173	-3.003800	3.276300	-9.840500	27.114810	8.905703E-5	20.939237
2212.583126	-3.005100	3.273600	-9.836900	27.107855	8.968408E-5	20.940777
2213.586442	-2.987400	3.275500	-9.784200	27.077667	8.720890E-5	20.944080
2214.587620	-3.029800	3.273700	-9.918000	26.994645	8.842999E-5	20.910852
2215.591321	-3.007600	3.272800	-9.842400	27.037196	8.727490E-5	20.928986
2216.586005	-2.991500	3.273700	-9.792800	27.068835	8.935405E-5	20.926192
2217.586532	-3.016300	3.272200	-9.868200	27.150549	9.037713E-5	20.906906
2218.585052	-3.009400	3.271200	-9.843500	27.215690	8.763793E-5	20.919320
2219.589054	-3.001000	3.273000	-9.821300	27.262475	8.770393E-5	20.923704
2220.585641	-2.996100	3.272200	-9.803400	27.302567	8.684587E-5	20.914247
2221.585107	-2.987000	3.272500	-9.774000	27.321741	8.786895E-5	20.932110
2222.585606	-3.025500	3.269700	-9.891400	27.233771	8.641684E-5	20.938452
2223.584842	-2.977400	3.270500	-9.735800	27.229108	8.387565E-5	20.929495
2224.590806	-3.013600	3.269500	-9.852100	27.155795	8.648284E-5	20.917872
2225.584608	-3.012600	3.269100	-9.847100	27.153032	8.473372E-5	20.931687
2226.586889	-3.011400	3.269400	-9.844500	27.152764	8.503074E-5	20.927624
2227.593603	-2.997200	3.268700	-9.796500	27.132122	8.314960E-5	20.920141
2228.587169	-2.984100	3.268800	-9.753500	27.168448	8.598781E-5	20.908313
2229.588373	-3.009400	3.266900	-9.829500	27.190386	8.496473E-5	20.910939
2230.586789	-2.986100	3.268100	-9.758500	27.202567	8.516275E-5	20.929826
2231.590921	-2.995400	3.268500	-9.788400	27.163429	8.225854E-5	20.940247
2232.588648	-3.004000	3.267300	-9.814300	27.160398	8.123546E-5	20.918708
2233.600074	-3.046500	3.267500	-9.953700	27.200899	8.364464E-5	20.918667
2234.590204	-2.993900	3.267000	-9.779600	27.250102	8.529476E-5	20.918846
2235.590251	-3.004100	3.267600	-9.816100	27.306146	8.338062E-5	20.921639
2236.593127	-3.008700	3.265400	-9.823500	27.320464	8.456870E-5	20.924662
2237.593751	-3.003300	3.264200	-9.802400	27.386619	8.196151E-5	20.910133
2238.591352	-3.002500	3.265100	-9.803000	27.355613	8.446970E-5	20.924458
2239.594138	-2.968000	3.263700	-9.686000	27.353839	8.361163E-5	20.897546
2240.594700	-2.992000	3.265200	-9.767700	27.307190	8.090544E-5	20.930275
2241.593469	-2.991800	3.263000	-9.761000	27.212735	8.404067E-5	20.922037
2242.594566	-2.987600	3.263000	-9.746600	27.224657	8.206052E-5	20.904632
2243.596412	-3.007000	3.261700	-9.806700	27.265197	8.245655E-5	20.927864
2244.595082	-3.015200	3.261300	-9.832000	27.267148	8.021239E-5	20.919870
2245.593125	-2.967500	3.263500	-9.683900	27.307813	8.156549E-5	20.903878
2246.593369	-2.961200	3.265100	-9.667400	27.326693	8.258856E-5	20.935668
2247.593235	-2.981500	3.260400	-9.719900	27.304245	8.196151E-5	20.926839
2248.594393	-3.008400	3.259400	-9.805300	27.320793	8.103745E-5	20.913141
2249.595228	-3.014800	3.259700	-9.825700	27.286292	8.202752E-5	20.908308
2250.599813	-2.991900	3.260800	-9.755200	27.228748	8.308360E-5	20.940985
2251.596900	-3.006500	3.261000	-9.804000	27.203378	7.994837E-5	20.919737
2252.598185	-2.987700	3.259200	-9.736100	27.258354	8.064142E-5	20.893009
2253.601495	-2.985600	3.259100	-9.729200	27.308538	7.829825E-5	20.912667
2254.600113	-3.018700	3.258500	-9.834600	27.331812	7.975035E-5	20.906208
2255.598588	-3.008500	3.257000	-9.797800	27.344954	7.704415E-5	20.917530
2256.599146	-3.010700	3.256300	-9.802600	27.357695	7.852926E-5	20.906641
2257.599165	-3.004900	3.257700	-9.788300	27.377223	7.793522E-5	20.913482
2258.599094	-3.028900	3.256500	-9.862200	27.423732	7.889229E-5	20.928027
2259.599000	-2.992600	3.256500	-9.744600	27.443679	7.727517E-5	20.907319
2260.601369	-3.005700	3.254700	-9.780800	27.489799	7.750619E-5	20.881650
2261.600722	-3.025200	3.253600	-9.842100	27.446197	7.704415E-5	20.917912
2262.600641	-3.004100	3.254700	-9.776800	27.420797	7.839725E-5	20.901843
2263.601842	-3.022500	3.253600	-9.833300	27.400404	7.678014E-5	20.921154
2264.603818	-2.990800	3.254900	-9.733300	27.382889	7.800122E-5	20.901165
2265.602449	-3.006700	3.252800	-9.779200	27.340959	7.846326E-5	20.920624
2266.602437	-2.991100	3.253400	-9.730300	27.258090	7.717616E-5	20.913604
2267.603781	-3.016200	3.252800	-9.810100	27.264167	7.536103E-5	20.908812
2268.603404	-3.029900	3.250500	-9.847300	27.283175	7.536103E-5	20.893794
2269.605866	-2.995000	3.252000	-9.738700	27.310524	7.687914E-5	20.903760
2270.603506	-3.001200	3.252700	-9.760600	27.308714	7.734118E-5	20.916637
2271.603650	-2.983200	3.252400	-9.702100	27.274456	7.648311E-5	20.904463
2272.606185	-3.029800	3.251500	-9.850700	27.297873	7.503101E-5	20.900992
2273.603304	-3.012400	3.250100	-9.790100	27.299515	7.526202E-5	20.913074
2274.609136	-2.998600	3.250600	-9.746700	27.329834	7.575706E-5	20.906589
2275.607014	-3.002600	3.250000	-9.757000	27.362165	7.668113E-5	20.900232
2276.603593	-3.028300	3.249800	-9.840400	27.358561	7.526202E-5	20.919839
2277.609794	-3.000200	3.248100	-9.744600	27.359960	7.463498E-5	20.901807
2278.629300	-2.987300	3.248900	-9.703700	27.383881	7.585607E-5	20.907379
2279.606867	-2.992400	3.247800	-9.718400	27.318684	7.562505E-5	20.917657
2280.605493	-3.006200	3.248200	-9.763900	27.307472	7.410694E-5	20.895475
2281.610890	-3.000100	3.247700	-9.742000	27.310478	7.598808E-5	20.891387
2282.606554	-2.983900	3.248000	-9.691200	27.354263	7.394193E-5	20.897499
2283.627682	-2.995400	3.245700	-9.721800	27.363102	7.281985E-5	20.918243
2284.607370	-3.006000	3.246700	-9.758600	27.391676	7.394193E-5	20.885351
2285.607619	-2.997200	3.245200	-9.726000	27.422327	7.163176E-5	20.900064
2286.606238	-3.001200	3.246600	-9.743600	27.454320	7.080670E-5	20.895740
2287.611266	-3.002200	3.244900	-9.741200	27.451072	7.308386E-5	20.920445
2288.608253	-3.003400	3.244600	-9.743600	27.471084	7.196178E-5	20.903122
2289.626408	-2.999300	3.244100	-9.728000	27.420472	7.140074E-5	20.883974
2290.626851	-2.982600	3.242500	-9.670100	27.403266	7.107072E-5	20.911233
2291.623700	-3.003700	3.242500	-9.738000	27.352205	7.113672E-5	20.901593
2292.628476	-2.980100	3.243400	-9.664100	27.305556	7.021265E-5	20.885488
2293.627162	-2.982800	3.241500	-9.668000	27.336078	7.126873E-5	20.878733
2294.608590	-2.997100	3.242600	-9.716900	27.432701	7.083970E-5	20.891534
2295.608348	-2.991900	3.240900	-9.695000	27.447681	7.074069E-5	20.906604
2296.638092	-2.991300	3.241300	-9.694500	27.443044	6.862854E-5	20.893405
2297.611193	-2.980800	3.240900	-9.659700	27.426776	7.024566E-5	20.905962
2298.621600	-3.035400	3.239400	-9.831700	27.413580	6.882655E-5	20.891264
2299.610168	-3.008000	3.240600	-9.747400	27.437054	7.047667E-5	20.897336
2300.610908	-2.978900	3.240800	-9.652600	27.451066	6.951960E-5	20.910958
2301.637510	-3.004300	3.238600	-9.728200	27.419524	6.922258E-5	20.907200
2302.628205	-2.984700	3.239400	-9.667300	27.440667	6.971762E-5	20.911401
2303.629439	-3.001600	3.238600	-9.720400	27.501580	6.902457E-5	20.885916
2304.626490	-2.990800	3.239000	-9.686700	27.473136	7.008064E-5	20.902816
2305.634645	-3.014600	3.235800	-9.753000	27.480727	7.103771E-5	20.897178
2306.630952	-2.985200	3.236900	-9.661500	27.452718	6.813350E-5	20.879906
2307.630971	-2.999800	3.235800	-9.705700	27.465621	6.869454E-5	20.902367
2308.635897	-2.998500	3.235800	-9.701800	27.498712	6.876055E-5	20.881134
2309.630359	-2.998000	3.237200	-9.704500	27.468590	6.476726E-5	20.892080
2310.629935	-2.987300	3.234900	-9.662800	27.497871	6.813350E-5	20.884555
2311.635860	-3.043700	3.234600	-9.844000	27.509627	6.767147E-5	20.887848
2312.632544	-3.000900	3.236000	-9.710300	27.472077	6.562532E-5	20.885631
2313.619107	-3.022500	3.233200	-9.771200	27.508492	6.539430E-5	20.894292
2314.620941	-2.998400	3.232500	-9.691600	27.508107	6.608735E-5	20.891060
2315.618966	-2.994300	3.232300	-9.676800	27.520081	6.572433E-5	20.901684
2316.616997	-3.000800	3.233400	-9.701300	27.546102	6.542730E-5	20.877606
2317.619174	-2.971700	3.232300	-9.604400	27.570111	6.542730E-5	20.877581
2318.616007	-3.000100	3.231200	-9.693100	27.522271	6.440423E-5	20.883974
2319.646461	-3.001500	3.232300	-9.700700	27.492833	6.470125E-5	20.881858
2320.645847	-3.001500	3.230100	-9.694100	27.442709	6.687941E-5	20.900654
2321.618728	-2.981800	3.230800	-9.632500	27.418966	6.285312E-5	20.886252
2322.620589	-2.988700	3.229500	-9.651100	27.453255	6.301813E-5	20.872860
2323.618893	-3.001200	3.228800	-9.689500	27.509541	6.453624E-5	20.863107
2324.619853	-2.995900	3.229900	-9.675800	27.514279	6.503128E-5	20.877356
2325.617335	-2.976900	3.228300	-9.609200	27.487391	6.470125E-5	20.896295
2326.626344	-3.014400	3.227800	-9.728600	27.461480	6.242408E-5	20.868332
2327.623373	-3.008300	3.225900	-9.703900	27.538146	6.341416E-5	20.847318
2328.632757	-2.999100	3.226800	-9.676000	27.517907	6.301813E-5	20.879110
2329.650310	-3.027200	3.226300	-9.766600	27.571119	6.298513E-5	20.870535
2330.637296	-3.023300	3.226000	-9.751900	27.661671	6.526229E-5	20.883887
2331.639485	-3.015400	3.224700	-9.722900	27.667006	6.331515E-5	20.881195
2332.645469	-3.006900	3.225200	-9.696600	27.669691	6.265510E-5	20.885319
2333.646062	-3.018800	3.223800	-9.730900	27.646374	6.268810E-5	20.842893
2334.637153	-3.002200	3.224800	-9.680600	27.629978	6.308413E-5	20.870015
2335.642160	-2.975000	3.224700	-9.592100	27.643288	6.245709E-5	20.863494
2336.642695	-2.988700	3.223500	-9.633800	27.623076	6.305113E-5	20.875872
2337.645093	-3.012600	3.222000	-9.705600	27.663500	6.080697E-5	20.860598
2338.646962	-2.997100	3.222100	-9.656100	27.696038	6.186304E-5	20.859676
2339.652909	-2.994300	3.221900	-9.646700	27.706581	6.173103E-5	20.848475
2340.630401	-2.982500	3.223300	-9.612900	27.705051	6.037793E-5	20.858314
2341.622766	-2.995700	3.222300	-9.652000	27.689704	6.183004E-5	20.869897
2342.623806	-2.985000	3.221100	-9.614900	27.663981	6.103798E-5	20.871988
2343.622701	-3.011800	3.219300	-9.695100	27.609776	6.232508E-5	20.871972
2344.627491	-2.996300	3.220200	-9.648000	27.568869	5.965188E-5	20.859737
2345.649569	-3.014500	3.220000	-9.706000	27.592786	6.255609E-5	20.870050
2346.626860	-2.986300	3.220900	-9.617200	27.614235	6.285312E-5	20.862235
2347.627134	-3.011000	3.218000	-9.687900	27.609877	6.100498E-5	20.868755
2348.628367	-2.979200	3.217700	-9.585500	27.664579	5.899183E-5	20.846512
2349.628201	-3.002000	3.218400	-9.660100	27.701393	5.991590E-5	20.859849
2350.627846	-3.007400	3.217000	-9.674300	27.681096	5.922285E-5	20.870244
2351.628073	-2.992700	3.216700	-9.625400	27.725717	5.955287E-5	20.875791
2352.629219	-2.977800	3.216800	-9.578600	27.709672	5.876082E-5	20.858697
2353.645613	-3.012800	3.215300	-9.686200	27.709150	5.942086E-5	20.850586
2354.629665	-3.009500	3.217600	-9.682500	27.763396	5.876082E-5	20.847328
2355.626673	-2.983700	3.214500	-9.590600	27.824214	5.757273E-5	20.845946
2356.631891	-2.988200	3.215000	-9.605200	27.800364	5.760573E-5	20.854659
2357.628870	-2.972500	3.215500	-9.557500	27.748141	5.750672E-5	20.867063
2358.631357	-2.974400	3.214600	-9.560800	27.674038	6.034493E-5	20.862668
2359.633448	-3.002400	3.212200	-9.643400	27.621566	5.641764E-5	20.847328
2360.633622	-2.999400	3.214100	-9.639100	27.630814	5.664866E-5	20.843830
2361.632810	-2.998200	3.213400	-9.633900	27.641611	5.720970E-5	20.846160
2362.635450	-2.989000	3.212900	-9.602000	27.690019	5.747372E-5	20.857886
2363.631439	-3.000800	3.211200	-9.635200	27.744382	5.519655E-5	20.838625
2364.631203	-3.017500	3.211900	-9.690800	27.760771	5.608762E-5	20.854644
2365.634162	-3.031400	3.209200	-9.727900	27.770129	5.750672E-5	20.836560
2366.632351	-3.008400	3.210300	-9.656900	27.759165	5.819977E-5	20.853976
2367.635121	-3.025100	3.210000	-9.710500	27.731534	5.806777E-5	20.869790
2368.632640	-3.012700	3.209200	-9.668100	27.624044	5.526256E-5	20.838916
2369.655402	-3.012000	3.206900	-9.658700	27.656827	5.701169E-5	20.842505
2370.660882	-2.967000	3.211200	-9.526400	27.645021	5.704469E-5	20.854807
2371.652958	-2.995700	3.208000	-9.609800	27.655540	5.631864E-5	20.858279
2372.646277	-3.005400	3.207100	-9.637200	27.639594	5.730871E-5	20.853140
2373.638325	-2.994400	3.207700	-9.604100	27.649211	5.503154E-5	20.848118
2374.638092	-3.017200	3.205000	-9.668300	27.626233	5.387646E-5	20.846334
2375.663745	-2.976900	3.205300	-9.541300	27.683543	5.664866E-5	20.837621
2376.637943	-2.985700	3.206500	-9.572300	27.736813	5.447050E-5	20.839069
2377.636736	-2.972000	3.205300	-9.525300	27.736569	5.305140E-5	20.853996
2378.639169	-2.994300	3.204700	-9.595400	27.738008	5.628563E-5	20.863030
2379.641436	-2.993300	3.202600	-9.585200	27.723402	5.539457E-5	20.846435
2380.658522	-2.993900	3.203900	-9.591300	27.697958	5.460251E-5	20.856866
2381.638462	-2.998800	3.202200	-9.602400	27.734401	5.509755E-5	20.837590
2382.640678	-2.994900	3.201300	-9.586700	27.773498	5.440450E-5	20.848485
2383.656051	-2.996900	3.201800	-9.594500	27.760011	5.427249E-5	20.854353
2384.663867	-3.010200	3.200500	-9.632800	27.742142	5.364544E-5	20.826415
2385.638963	-2.990000	3.200500	-9.568200	27.722647	5.414048E-5	20.839512
2386.661120	-3.011600	3.200500	-9.637900	27.725104	5.146728E-5	20.825864
2387.657250	-3.004200	3.200100	-9.612800	27.706333	5.341442E-5	20.844906
2388.666911	-2.992600	3.200000	-9.575000	27.706470	5.242435E-5	20.822759
2389.669686	-2.996600	3.198000	-9.582300	27.769911	5.216033E-5	20.847720
2390.643362	-2.979100	3.198500	-9.527300	27.821914	5.225934E-5	20.820873
2391.645323	-2.976200	3.198300	-9.517600	27.837031	5.163229E-5	20.821862
2392.644773	-2.985100	3.197500	-9.544000	27.862928	5.367844E-5	20.840338
2393.647209	-2.992100	3.197800	-9.567800	27.858293	5.489953E-5	20.831880
2394.643531	-2.984800	3.196200	-9.539500	27.906893	5.255636E-5	20.820577
2395.648888	-3.004900	3.193900	-9.597400	27.931683	5.133527E-5	20.829407
2396.645061	-2.981700	3.194800	-9.525200	27.932778	5.258936E-5	20.840940
2397.644952	-2.995400	3.193400	-9.564500	27.898448	5.060922E-5	20.841475
2398.673529	-3.002800	3.193000	-9.587500	27.924308	5.133527E-5	20.826251
2399.647511	-3.007200	3.193300	-9.602100	27.920347	5.179731E-5	20.845972
2400.643364	-2.990900	3.193900	-9.552100	27.864782	4.968515E-5	20.852635
2401.645457	-2.988300	3.194600	-9.544800	27.850775	5.103825E-5	20.842331
2402.649793	-3.027700	3.190900	-9.660100	27.814559	4.991617E-5	20.831487
2403.646797	-2.961800	3.194000	-9.458700	27.750775	4.899210E-5	20.847430
2404.648364	-3.027200	3.190000	-9.655900	27.760209	5.150028E-5	20.819940
2405.646536	-3.000800	3.190200	-9.572500	27.777693	4.813404E-5	20.835637
2406.644289	-3.007000	3.191000	-9.594700	27.759652	4.796902E-5	20.827439
2407.645414	-2.986600	3.189000	-9.522800	27.753866	4.886009E-5	20.818772
2408.647059	-2.993500	3.187900	-9.540900	27.747969	4.813404E-5	20.832752
2409.644684	-3.032500	3.187900	-9.666000	27.764586	4.912411E-5	20.830509
2410.649405	-3.030400	3.187600	-9.659100	27.804224	4.681394E-5	20.843372
2411.645144	-3.027600	3.186800	-9.647200	27.886889	4.853007E-5	20.834582
2412.651824	-3.013400	3.185700	-9.598800	27.886139	4.737498E-5	20.827664
2413.643729	-2.990700	3.187000	-9.530800	27.858419	4.806803E-5	20.848128
2414.647757	-3.011500	3.184800	-9.589500	27.862442	4.796902E-5	20.850280
2415.646768	-3.003600	3.183700	-9.561500	27.896691	4.585687E-5	20.830697
2416.643655	-2.998500	3.184600	-9.548300	27.882507	4.892610E-5	20.836336
2417.673408	-2.992500	3.183200	-9.525000	27.861342	4.753999E-5	20.830208
2418.649508	-2.983300	3.183500	-9.496400	27.909714	4.635191E-5	20.835745
2419.645420	-3.019700	3.182000	-9.607400	27.951499	4.664893E-5	20.845085
2420.646033	-2.978300	3.182800	-9.476400	27.966331	4.661593E-5	20.824926
2421.645792	-3.029300	3.179900	-9.632000	27.914790	4.588987E-5	20.836112
2422.647090	-3.003900	3.180600	-9.552700	27.887785	4.562585E-5	20.827898
2423.664057	-2.995100	3.180400	-9.523800	27.849205	4.489980E-5	20.828898
2424.666823	-2.975600	3.179700	-9.460700	27.837705	4.658292E-5	20.843876
2425.647287	-2.984800	3.179400	-9.488700	27.794984	4.654992E-5	20.840710
2426.649597	-2.993000	3.179700	-9.515300	27.790323	4.645091E-5	20.842658
2427.649728	-3.020000	3.176900	-9.592500	27.809397	4.480079E-5	20.843362
2428.653119	-3.019300	3.175700	-9.586900	27.830370	4.301866E-5	20.830330
2429.649243	-3.007300	3.175900	-9.549600	27.845269	4.328268E-5	20.821143
2430.651672	-2.999400	3.175500	-9.523900	27.862913	4.245762E-5	20.824676
2431.653605	-2.986800	3.174700	-9.481200	27.875608	4.542784E-5	20.833660
2432.652300	-2.999300	3.175000	-9.521900	27.916300	4.140154E-5	20.828623
2433.670897	-3.026800	3.172900	-9.602600	27.896372	4.417375E-5	20.833221
2434.667661	-3.001500	3.173500	-9.524800	27.908251	4.407474E-5	20.845651
2435.675552	-3.024000	3.170200	-9.585600	27.946282	4.272164E-5	20.852161
2436.669688	-2.985400	3.171600	-9.467300	27.956150	4.166556E-5	20.853558
2437.674921	-3.005200	3.171200	-9.529000	27.970839	4.486680E-5	20.831360
2438.680265	-3.000000	3.172100	-9.516000	27.843936	4.242462E-5	20.826441
2439.670411	-3.005800	3.170100	-9.528300	27.870547	4.176457E-5	20.830463
2440.676059	-2.989000	3.169200	-9.471600	27.935569	4.295266E-5	20.823835
2441.668645	-3.004700	3.168000	-9.517700	27.955142	4.070849E-5	20.847328
2442.691070	-2.980200	3.168500	-9.442200	28.011259	4.130254E-5	20.822260
2443.671420	-2.996200	3.166900	-9.487500	28.028713	4.202859E-5	20.845992
2444.676999	-3.003000	3.165500	-9.505400	28.061711	4.341469E-5	20.844596
2445.678621	-3.011900	3.165000	-9.531600	28.080309	4.338169E-5	20.828230
2446.657310	-3.019500	3.164000	-9.552100	28.030446	4.265564E-5	20.827822
2447.655426	-2.988100	3.164000	-9.453700	27.992645	4.249062E-5	20.858524
2448.657717	-3.006100	3.163100	-9.507600	27.964229	4.031246E-5	20.846043
2449.655864	-3.002500	3.162500	-9.494300	28.020726	4.090651E-5	20.827996
2450.656813	-2.989100	3.162100	-9.451200	28.019799	4.130254E-5	20.843183
2451.654082	-3.019800	3.160800	-9.544600	27.949712	4.245762E-5	20.839492
2452.655113	-2.974100	3.160900	-9.399800	27.949291	4.074149E-5	20.858983
2453.658585	-2.994900	3.160700	-9.465300	27.966367	4.080750E-5	20.848669
2454.685354	-2.988100	3.160300	-9.442200	28.020230	4.021346E-5	20.868746
2455.677202	-2.988300	3.158200	-9.437300	27.957426	3.899237E-5	20.862429
2456.654233	-2.977500	3.158200	-9.402300	27.886940	4.014745E-5	20.851228
2457.679869	-3.003700	3.157200	-9.482100	27.896666	3.853033E-5	20.856276
2458.676634	-2.999300	3.155800	-9.464600	27.900344	3.886036E-5	20.847650
2459.656915	-2.965300	3.157400	-9.361700	27.922247	4.080750E-5	20.844091
2460.654999	-2.987100	3.154400	-9.422000	27.922921	3.697922E-5	20.838605
2461.656376	-3.006500	3.153800	-9.480000	27.941967	3.971842E-5	20.854456
2462.657114	-3.003600	3.152700	-9.468600	27.947124	3.968542E-5	20.855853
2463.656810	-3.008700	3.152900	-9.484900	27.940984	3.965241E-5	20.858208
2464.658398	-2.987000	3.152100	-9.414100	27.994317	3.661619E-5	20.857836
2465.661673	-3.018000	3.151200	-9.509500	28.029494	3.770527E-5	20.866691
2466.661380	-3.005300	3.150900	-9.468600	28.047799	3.866234E-5	20.843393
2467.659646	-3.012600	3.148800	-9.485100	28.007658	3.691321E-5	20.874583
2468.668982	-3.010000	3.148800	-9.476300	27.987631	3.876135E-5	20.856796
2469.659137	-3.010300	3.147100	-9.472200	27.967871	3.912438E-5	20.854925
2470.658476	-2.993700	3.146300	-9.418500	27.917643	3.552711E-5	20.847517
2471.662505	-3.000000	3.146300	-9.438300	27.899918	3.750726E-5	20.859075
2472.661898	-3.006100	3.146700	-9.458400	27.905445	3.549411E-5	20.858947
2473.660279	-2.996700	3.144600	-9.422600	27.892852	3.754026E-5	20.858127
2474.661107	-2.976500	3.145600	-9.361800	27.896378	3.744125E-5	20.863571
2475.662398	-3.009700	3.142900	-9.458200	27.971599	3.740825E-5	20.852514
2476.676794	-3.018400	3.142000	-9.482600	27.976665	3.744125E-5	20.854767
2477.681245	-3.010900	3.141500	-9.458000	27.939273	3.490007E-5	20.860278
2478.676793	-2.991300	3.141400	-9.395500	28.000152	3.470205E-5	20.851856
2479.682862	-2.995600	3.140700	-9.407800	27.957234	3.539510E-5	20.859391
2480.677026	-3.034900	3.136900	-9.519500	28.013164	3.466905E-5	20.849781
2481.660684	-3.006600	3.138700	-9.435200	28.033100	3.651718E-5	20.855624
2482.660130	-3.011300	3.137900	-9.448500	28.026020	3.473505E-5	20.859876
2483.658645	-2.996500	3.137700	-9.401600	28.072703	3.572513E-5	20.869409
2484.660182	-3.023300	3.134900	-9.476200	28.123724	3.364597E-5	20.871459
2485.659024	-2.993100	3.136600	-9.387100	28.143774	3.480106E-5	20.871255
2486.661634	-3.001700	3.133900	-9.405900	28.200353	3.602215E-5	20.883169
2487.660142	-3.004700	3.132900	-9.411500	28.216518	3.476806E-5	20.877158
2488.663628	-2.986900	3.131800	-9.353500	28.253915	3.450404E-5	20.864076
2489.679999	-3.001800	3.130300	-9.396000	28.301708	3.278791E-5	20.870470
2490.685155	-2.988800	3.130500	-9.355400	28.290380	3.516409E-5	20.864280
2491.685662	-2.984700	3.130500	-9.343000	28.239747	3.169883E-5	20.875889
2492.681939	-2.977700	3.130100	-9.318100	28.198783	3.268890E-5	20.883485
2493.686967	-2.993700	3.129500	-9.368000	28.206334	3.209486E-5	20.870699
2494.687102	-2.982700	3.128200	-9.330200	28.159475	3.348096E-5	20.871413
2495.686650	-3.009200	3.126500	-9.407500	28.084382	3.397600E-5	20.871209
2496.660976	-3.001000	3.125200	-9.377000	28.105269	3.173183E-5	20.870424
2497.662343	-3.028600	3.124700	-9.462200	28.065070	3.014772E-5	20.890648
2498.662466	-2.982300	3.125700	-9.320800	28.029561	3.381099E-5	20.889042
2499.663204	-3.006200	3.123500	-9.389400	28.042684	3.047774E-5	20.888502
2500.662501	-2.990000	3.122800	-9.336000	28.095885	3.080777E-5	20.873305
2501.662598	-2.980700	3.122000	-9.305100	28.152354	3.381099E-5	20.903597
2502.662869	-2.972400	3.120500	-9.274200	28.182203	3.166583E-5	20.887182
2503.664638	-2.982500	3.118900	-9.301100	28.245171	3.288692E-5	20.878031
2504.664559	-3.002200	3.118600	-9.362000	28.226814	3.258990E-5	20.907436
2505.665215	-3.016700	3.118800	-9.407500	28.239940	3.077476E-5	20.888410
2506.665654	-2.994900	3.117900	-9.337000	28.211910	2.988370E-5	20.894329
2507.685656	-2.990000	3.115800	-9.314600	28.213485	2.879462E-5	20.889277
2508.692629	-3.002100	3.115500	-9.352600	28.215729	3.044474E-5	20.889639
2509.693879	-3.002600	3.114300	-9.348700	28.201190	3.126980E-5	20.913880
2510.683055	-3.001300	3.112700	-9.341600	28.201382	2.978469E-5	20.878515
2511.686621	-3.019800	3.111700	-9.396200	28.266981	3.014772E-5	20.878179
2512.683805	-3.045900	3.110900	-9.472800	28.331103	3.117079E-5	20.880626
2513.686792	-3.009400	3.110200	-9.359000	28.336663	2.905864E-5	20.901870
2514.697964	-3.003500	3.109900	-9.339900	28.340891	3.183084E-5	20.879102
2515.687093	-3.004600	3.108000	-9.337200	28.322789	3.206186E-5	20.900702
2516.670456	-3.005300	3.107900	-9.339600	28.332663	2.942166E-5	20.875085
2517.673648	-3.001900	3.106800	-9.325700	28.286958	2.938866E-5	20.893550
2518.678045	-3.014500	3.106500	-9.363600	28.255203	2.843159E-5	20.869640
2519.670747	-2.993800	3.105500	-9.296100	28.218175	2.938866E-5	20.910592
2520.672380	-3.021700	3.103200	-9.376300	28.195964	3.047774E-5	20.866423
2521.674865	-3.003800	3.103200	-9.320000	28.171483	2.734251E-5	20.901044
2522.671697	-2.980500	3.102100	-9.245100	28.170465	2.843159E-5	20.885796
2523.691606	-2.997100	3.100100	-9.290200	28.107134	2.866261E-5	20.885103
2524.697377	-2.979700	3.100300	-9.237300	28.074351	2.909164E-5	20.900463
2525.688152	-3.007800	3.098600	-9.319200	28.105413	3.123680E-5	20.916557
2526.689170	-2.994100	3.098200	-9.275500	28.135187	2.724350E-5	20.899591
2527.701008	-3.016500	3.096100	-9.338200	28.187046	2.909164E-5	20.907702
2528.697335	-3.003100	3.095700	-9.296100	28.221427	2.823358E-5	20.899168
2529.674344	-3.007500	3.094600	-9.305500	28.263377	2.938866E-5	20.911531
2530.673144	-2.980400	3.095300	-9.223700	28.273510	2.777154E-5	20.898501
2531.672004	-2.997200	3.093300	-9.270300	28.260359	2.892663E-5	20.895218
2532.676391	-2.999600	3.091500	-9.272600	28.261706	2.889362E-5	20.902737
2533.674212	-3.008100	3.090500	-9.295900	28.285430	2.899263E-5	20.902916
2534.683812	-2.996400	3.088900	-9.253900	28.332537	2.958668E-5	20.910517
2535.678385	-3.014800	3.088200	-9.309100	28.401222	2.747452E-5	20.923251
2536.674661	-3.021600	3.087600	-9.327800	28.460065	2.757353E-5	20.922762
2537.678935	-3.001500	3.086600	-9.263300	28.474981	2.658346E-5	20.911705
2538.674625	-3.022700	3.084500	-9.322700	28.443585	2.641844E-5	20.900953
2539.674526	-3.032300	3.083000	-9.347600	28.450684	2.816757E-5	20.909523
2540.678617	-2.989000	3.083400	-9.215500	28.449793	2.701249E-5	20.933279
2541.673124	-2.983600	3.082000	-9.194900	28.412124	2.608842E-5	20.922375
2542.675369	-3.010800	3.080000	-9.272700	28.398483	2.800256E-5	20.912908
2543.679017	-2.992800	3.080100	-9.217300	28.393400	2.711149E-5	20.913005
2544.675134	-3.006100	3.078500	-9.253700	28.471498	2.767254E-5	20.911043
2545.679234	-3.000000	3.079400	-9.237700	28.479897	2.615442E-5	20.910018
2546.677978	-3.010700	3.076000	-9.260600	28.424463	2.678147E-5	20.918680
2547.680647	-2.978500	3.075700	-9.160400	28.378063	2.602241E-5	20.929803
2548.678952	-2.982300	3.075200	-9.169900	28.395623	2.684747E-5	20.919985
2549.676940	-3.014600	3.073600	-9.265000	28.363426	2.536237E-5	20.936400
2550.676529	-2.999200	3.072800	-9.215200	28.367431	2.612142E-5	20.920994
2551.678286	-3.011100	3.070400	-9.244000	28.435253	2.704549E-5	20.929543
2552.677069	-2.986700	3.070200	-9.168800	28.485659	2.836559E-5	20.928621
2553.679177	-3.009300	3.070700	-9.239700	28.463975	2.721050E-5	20.933810
2554.679990	-3.003200	3.068200	-9.213900	28.397887	2.556038E-5	20.935539
2555.679341	-3.003600	3.067200	-9.212100	28.428240	2.694648E-5	20.919638
2556.680112	-2.962100	3.066300	-9.081500	28.446832	2.688048E-5	20.917971
2557.684868	-3.004800	3.064000	-9.205400	28.418134	2.430629E-5	20.934590
2558.681565	-3.001800	3.063300	-9.194800	28.440529	2.499934E-5	20.968516
2559.684614	-3.015200	3.061000	-9.228400	28.488925	2.645145E-5	20.949925
2560.681747	-3.002500	3.060500	-9.187200	28.510522	2.572539E-5	20.920943
2561.688212	-2.987000	3.060700	-9.141500	28.512264	2.661646E-5	20.932179
2562.680810	-3.006700	3.057800	-9.193300	28.465307	2.523036E-5	20.945107
2563.682600	-3.007800	3.056500	-9.190700	28.431734	2.569239E-5	20.923630
2564.688408	-3.002200	3.056500	-9.174900	28.391644	2.516435E-5	20.926883
2565.685663	-2.995200	3.055600	-9.150800	28.429785	2.539537E-5	20.951536
2566.686481	-3.001900	3.053700	-9.166200	28.454523	2.651745E-5	20.930931
2567.687764	-3.010100	3.051700	-9.185000	28.403148	2.575839E-5	20.917605
2568.686217	-3.027200	3.051500	-9.236900	28.465262	2.714450E-5	20.945536
2569.683557	-2.998900	3.050400	-9.146900	28.506058	2.463631E-5	20.952954
2570.688845	-2.984100	3.049400	-9.098700	28.486207	2.473532E-5	20.939603
2571.685695	-2.989200	3.046800	-9.106800	28.519915	2.519735E-5	20.946995
2572.686117	-2.979700	3.048600	-9.083000	28.532106	2.694648E-5	20.959270
2573.689649	-2.987100	3.045600	-9.096200	28.512250	2.579140E-5	20.956344
2574.686656	-2.967800	3.045300	-9.037100	28.525980	2.651745E-5	20.951206
2575.686013	-2.995700	3.043400	-9.116400	28.527216	2.664946E-5	20.942968
2576.690350	-2.979700	3.042200	-9.064200	28.529084	2.519735E-5	20.959546
2577.690209	-3.025000	3.040800	-9.197700	28.526755	2.344822E-5	20.951038
2578.687897	-3.006800	3.040400	-9.140800	28.511648	2.460331E-5	20.950049
2579.688773	-2.998100	3.038000	-9.107700	28.519116	2.308520E-5	20.963257
2580.688431	-2.992700	3.036400	-9.086000	28.520797	2.414128E-5	20.951201
2581.688364	-2.992600	3.036700	-9.086900	28.584762	2.608842E-5	20.949239
2582.688525	-2.984300	3.034400	-9.054700	28.629552	2.443830E-5	20.964002
2583.690564	-3.013800	3.031800	-9.137000	28.601391	2.493333E-5	20.949866
2584.690461	-2.981300	3.031900	-9.038100	28.583795	2.490033E-5	20.950161
2585.692393	-3.008400	3.029600	-9.113200	28.620820	2.523036E-5	20.943830
2586.694777	-2.985500	3.029400	-9.043100	28.636189	2.519735E-5	20.953144
2587.691160	-3.012600	3.027600	-9.119800	28.692083	2.496634E-5	20.964869
2588.692395	-2.994800	3.027000	-9.064300	28.715747	2.354723E-5	20.964522
2589.691403	-2.989600	3.026700	-9.048200	28.659727	2.605542E-5	20.962626
2590.694202	-3.003700	3.024300	-9.083300	28.667386	2.351423E-5	20.967968
2591.691781	-2.991600	3.022400	-9.041400	28.626288	2.638544E-5	20.976359
2592.691876	-2.997300	3.021200	-9.054600	28.637343	2.655045E-5	20.972322
2593.695636	-2.982300	3.020600	-9.007100	28.587886	2.183111E-5	20.959022
2594.691477	-3.016700	3.019000	-9.106600	28.492933	2.381125E-5	20.980983
2595.691214	-2.989600	3.018300	-9.022100	28.499028	2.196312E-5	20.975268
2596.695013	-3.014200	3.016200	-9.089700	28.444410	2.331622E-5	20.964365
2597.692556	-2.999200	3.015400	-9.043000	28.471234	2.321721E-5	20.966246
2598.690982	-2.991600	3.014600	-9.017600	28.528458	2.397626E-5	20.962234
2599.694028	-3.012100	3.012200	-9.072500	28.551822	2.427329E-5	20.972960
2600.715879	-3.004400	3.010300	-9.043100	28.577063	2.344822E-5	20.986051
2601.694262	-2.983900	3.009100	-8.978000	28.576785	2.529636E-5	20.983874
2602.697611	-3.024500	3.008600	-9.098000	28.550799	2.556038E-5	20.987101
2603.695640	-3.012800	3.007400	-9.060400	28.591187	2.374525E-5	20.985103
2604.699299	-3.017500	3.006300	-9.070700	28.615172	2.430629E-5	20.980336
2605.698964	-3.010500	3.004600	-9.044700	28.654170	2.480132E-5	20.987371
2606.716116	-2.992600	3.003500	-8.987700	28.714057	2.410827E-5	21.002169
2607.714651	-3.014000	2.999900	-9.040900	28.703241	2.226014E-5	20.978950
2608.728206	-3.025900	2.999200	-9.074200	28.744843	2.569239E-5	20.998092
2609.699622	-2.992000	2.999200	-8.973300	28.763646	2.288718E-5	20.986688
2610.699090	-2.988800	2.998900	-8.963000	28.758964	2.490033E-5	20.980077
2611.699918	-2.996000	2.997000	-8.978200	28.739943	2.420728E-5	20.971824
2612.704877	-2.988200	2.995300	-8.949400	28.744575	2.341522E-5	20.973170
2613.700161	-3.003200	2.993600	-8.989200	28.749333	2.377825E-5	20.988391
2614.714851	-2.971500	2.992500	-8.891500	28.782217	2.486733E-5	20.979792
2615.704134	-2.988900	2.991100	-8.939500	28.769837	2.318421E-5	20.990553
2616.702968	-3.018400	2.989000	-9.021000	28.734750	2.539537E-5	21.001202
2617.701649	-3.005400	2.986900	-8.975600	28.689038	2.321721E-5	20.974602
2618.705262	-3.008600	2.986600	-8.984300	28.726429	2.275517E-5	21.005621
2619.704534	-2.993400	2.985300	-8.935200	28.681314	2.288718E-5	21.016127
2620.707047	-2.990000	2.983600	-8.919800	28.702421	2.295319E-5	20.987607
2621.709177	-3.025300	2.982100	-9.021100	28.696986	2.546137E-5	20.993510
2622.706824	-2.990400	2.980100	-8.910500	28.664352	2.377825E-5	20.995727
2623.707544	-3.005400	2.978700	-8.951600	28.697648	2.334922E-5	21.003659
2624.707430	-2.997300	2.978600	-8.926400	28.674835	2.532936E-5	21.001544
2625.725825	-3.000600	2.976400	-8.929900	28.715967	2.315120E-5	20.999352
2626.725093	-2.998200	2.975200	-8.919200	28.761997	2.249115E-5	21.003517
2627.724341	-3.018400	2.971500	-8.968100	28.779120	2.430629E-5	21.011280
2628.723384	-2.996500	2.973400	-8.907900	28.756946	2.348123E-5	21.000326
2629.705623	-3.006100	2.971100	-8.931000	28.727681	2.400927E-5	21.011622
2630.702725	-2.999900	2.969200	-8.906100	28.715826	2.209513E-5	20.993521
2631.705784	-3.009300	2.969200	-8.934200	28.769600	2.308520E-5	21.018759
2632.706589	-3.015400	2.966300	-8.943700	28.821848	2.285418E-5	20.994581
2633.706671	-2.982000	2.966000	-8.843500	28.748049	2.519735E-5	21.002742
2634.713966	-3.012200	2.961800	-8.920000	28.750286	2.470232E-5	21.016847
2635.707048	-2.985300	2.962700	-8.842900	28.783186	2.318421E-5	20.989775
2636.705848	-3.002400	2.959900	-8.886100	28.745781	2.265617E-5	21.000459
2637.707748	-2.995400	2.959000	-8.862000	28.826551	2.526336E-5	20.990784
2638.712397	-2.967100	2.957600	-8.773900	28.840606	2.252416E-5	20.998778
2639.705688	-2.985500	2.956600	-8.826000	28.824248	2.331622E-5	20.996050
2640.710138	-2.981700	2.954900	-8.809200	28.801767	2.321721E-5	20.981466
2641.709225	-3.015700	2.953400	-8.905600	28.817006	2.222714E-5	20.980697
2642.708303	-3.025200	2.951800	-8.929200	28.821065	2.173210E-5	20.993318
2643.707529	-3.009500	2.949100	-8.873100	28.865461	2.364624E-5	20.992523
2644.707765	-2.985000	2.948400	-8.799900	28.824305	2.364624E-5	20.990418
2645.708919	-3.002100	2.946000	-8.842900	28.849190	2.433929E-5	20.976609
2646.707751	-2.993000	2.944800	-8.812800	28.851605	2.292019E-5	20.982359
2647.710045	-3.008400	2.943200	-8.853200	28.870381	2.453730E-5	20.971878
2648.709084	-2.992200	2.942800	-8.803800	28.847748	2.447130E-5	20.966149
2649.709821	-3.001100	2.941000	-8.825800	28.893874	2.381125E-5	20.976105
2650.709506	-2.990500	2.938600	-8.787200	28.888975	2.235914E-5	20.962163
2651.712457	-3.008500	2.936800	-8.834300	28.936370	2.232614E-5	20.957279
2652.711196	-2.986100	2.936500	-8.767900	28.903004	2.199612E-5	20.966338
2653.710693	-3.001300	2.933600	-8.803600	28.941481	2.130307E-5	20.970014
2654.714269	-2.985300	2.933400	-8.756200	28.986064	2.255716E-5	20.972257
2655.711369	-2.988400	2.931500	-8.759500	28.947063	2.318421E-5	20.963785
2656.713257	-2.994600	2.930000	-8.773600	28.915784	2.344822E-5	20.950291
2657.734093	-2.975000	2.927900	-8.709600	28.893066	2.295319E-5	20.964860
2658.713774	-2.980000	2.927400	-8.722600	28.897363	2.453730E-5	20.966818
2659.742824	-2.976800	2.924800	-8.705300	28.849188	2.202912E-5	20.957643
2660.729337	-2.991600	2.923300	-8.744000	28.768065	2.166609E-5	20.957953
2661.730067	-3.002600	2.922100	-8.773200	28.797042	2.189711E-5	20.934988
2662.735891	-2.984300	2.920800	-8.715000	28.757057	2.308520E-5	20.964882
2663.730700	-2.976300	2.920300	-8.690700	28.815233	2.430629E-5	20.941932
2664.748719	-3.002300	2.916600	-8.755000	28.820320	2.301919E-5	20.951322
2665.717518	-3.011300	2.912700	-8.770700	28.850494	2.160009E-5	20.946158
2666.737953	-2.991800	2.912600	-8.712700	28.908513	2.358023E-5	20.961931
2667.741719	-3.027400	2.909900	-8.808800	28.941139	2.163309E-5	20.948809
2668.721781	-3.001600	2.910700	-8.735700	28.999967	2.315120E-5	20.928423
2669.718269	-3.028800	2.906600	-8.803100	29.014617	2.282118E-5	20.966886
2670.721745	-3.019800	2.905100	-8.771600	28.962303	2.331622E-5	20.958276
2671.717896	-3.012000	2.903300	-8.744000	28.909768	2.315120E-5	20.941387
2672.717811	-3.026800	2.902000	-8.783100	28.881641	2.242515E-5	20.942922
2673.740230	-3.004700	2.899800	-8.711900	28.898853	2.305220E-5	20.931340
2674.734904	-3.003000	2.898700	-8.704200	28.883589	2.140207E-5	20.963374
2675.718324	-2.976300	2.897600	-8.623400	28.937228	2.483433E-5	20.947714
2676.717880	-3.015200	2.894000	-8.724800	28.980997	2.275517E-5	20.938707
2677.718886	-2.985700	2.894700	-8.641700	28.969206	2.364624E-5	20.950059
2678.720727	-3.014900	2.890700	-8.714100	29.008571	2.199612E-5	20.945150
2679.724593	-2.997600	2.890200	-8.662800	29.067052	2.084103E-5	20.947174
2680.722608	-3.013000	2.888900	-8.703600	29.158341	2.110505E-5	20.945752
2681.720572	-3.023300	2.885700	-8.723800	29.184868	2.272217E-5	20.940716
2682.728207	-2.980200	2.883800	-8.593900	29.147873	2.206212E-5	20.926671
2683.738513	-3.027900	2.882100	-8.726100	29.095312	2.338222E-5	20.960948
2684.720068	-2.998700	2.881800	-8.640800	28.974622	2.090704E-5	20.939395
2685.723371	-3.000200	2.879400	-8.637300	28.992237	2.226014E-5	20.954770
2686.722935	-3.011300	2.876500	-8.661000	28.941384	1.955394E-5	20.929618
2687.729055	-3.011400	2.874500	-8.654500	28.952548	2.094004E-5	20.921901
2688.741945	-2.990900	2.873800	-8.593900	28.981449	2.166609E-5	20.943428
2689.724673	-2.994300	2.872200	-8.599700	29.040528	2.169910E-5	20.947002
2690.725493	-3.005800	2.869300	-8.623700	29.126350	2.186411E-5	20.939595
2691.724652	-3.014300	2.867700	-8.643100	29.212064	2.216113E-5	20.924975
2692.725883	-3.009800	2.865800	-8.624800	29.176597	2.084103E-5	20.930959
2693.724857	-2.981700	2.865100	-8.541600	29.079688	2.414128E-5	20.936200
2694.727800	-2.994500	2.863700	-8.574200	29.010025	2.183111E-5	20.918169
2695.731892	-3.009400	2.860600	-8.608500	28.972629	2.153408E-5	20.930277
2696.725040	-3.020100	2.858700	-8.632200	29.046656	2.259016E-5	20.916671
2697.743351	-3.017900	2.855900	-8.618000	29.106177	2.334922E-5	20.939183
2698.745980	-2.996800	2.854200	-8.552500	29.132898	2.219413E-5	20.923436
2699.725753	-3.023400	2.851600	-8.620100	29.159921	2.331622E-5	20.922691
2700.728346	-3.014500	2.851000	-8.594000	29.191574	2.146808E-5	20.918078
2701.726200	-3.010700	2.848500	-8.575100	29.090087	2.292019E-5	20.932928
2702.724210	-2.988200	2.847000	-8.507000	29.121079	2.034600E-5	20.927173
2703.725951	-3.028100	2.843800	-8.609900	29.119439	2.305220E-5	20.934529
2704.736829	-2.993300	2.842500	-8.507800	29.071047	2.150108E-5	20.924650
2705.724621	-3.004500	2.840900	-8.534200	29.043651	2.130307E-5	20.924547
2706.726476	-2.990100	2.838300	-8.485700	29.119197	2.100605E-5	20.922906
2707.743698	-3.001200	2.835100	-8.507700	29.109467	2.113806E-5	20.922585
2708.743672	-3.006600	2.833700	-8.518400	29.093337	2.100605E-5	20.904437
2709.748034	-3.009400	2.831100	-8.519100	29.108319	2.219413E-5	20.935178
2710.755227	-3.031300	2.828400	-8.573300	29.095194	2.202912E-5	20.914368
2711.728907	-2.975600	2.826800	-8.410300	29.188377	2.255716E-5	20.913909
2712.727896	-2.989600	2.824500	-8.442500	29.287335	2.595641E-5	20.911217
2713.737442	-2.990300	2.822700	-8.439600	29.359722	2.430629E-5	20.910203
2714.728421	-2.990100	2.819900	-8.430900	29.376825	2.308520E-5	20.933602
2715.728981	-2.996600	2.816800	-8.439400	29.285515	2.212813E-5	20.938777
2716.736566	-3.013400	2.814300	-8.480000	29.191808	2.097304E-5	20.922107
2717.731358	-3.012700	2.813200	-8.473700	29.131362	2.150108E-5	20.903398
2718.732351	-2.974100	2.812000	-8.362300	29.120235	2.275517E-5	20.902618
2719.733355	-2.994200	2.807800	-8.406400	29.093525	2.400927E-5	20.927384
2720.730698	-2.982700	2.806300	-8.369800	29.123999	2.374525E-5	20.928693
2721.730263	-3.006000	2.804200	-8.428500	29.181912	2.338222E-5	20.916403
2722.731153	-2.978600	2.800400	-8.340200	29.261950	2.354723E-5	20.917876
2723.732202	-2.981600	2.797900	-8.341400	29.268881	2.354723E-5	20.903051
2724.730769	-2.999900	2.794200	-8.381500	29.282601	2.453730E-5	20.901231
2725.732248	-3.015100	2.791600	-8.416500	29.253420	2.176510E-5	20.922556
2726.730769	-2.996600	2.789700	-8.359300	29.266720	2.295319E-5	20.909408
2727.731864	-3.003400	2.787500	-8.370800	29.234115	2.391026E-5	20.906421
2728.747390	-2.989100	2.783900	-8.320500	29.278265	2.252416E-5	20.928153
2729.732054	-3.013900	2.781000	-8.380800	29.299235	2.450430E-5	20.916571
2730.734906	-3.009000	2.779200	-8.360800	29.322718	2.509835E-5	20.924116
2731.734932	-3.001300	2.775800	-8.330500	29.374863	2.193011E-5	20.905075
2732.737138	-2.982800	2.773500	-8.272000	29.301865	2.417428E-5	20.912110
2733.734873	-2.990200	2.770600	-8.284200	29.260336	2.321721E-5	20.916250
2734.733029	-2.986500	2.766700	-8.261300	29.365682	2.107205E-5	20.916209
2735.761586	-3.000200	2.764500	-8.293100	29.398334	2.328321E-5	20.910239
2736.740872	-3.042800	2.760900	-8.399900	29.341587	2.328321E-5	20.909944
2737.736836	-2.996600	2.758800	-8.266200	29.298800	2.374525E-5	20.931778
2738.734768	-3.006700	2.755900	-8.285700	29.295952	2.328321E-5	20.906151
2739.738844	-3.004800	2.753900	-8.273700	29.269069	2.344822E-5	20.925524
2740.738405	-3.028300	2.748200	-8.322100	29.362986	2.235914E-5	20.897847
2741.737051	-3.026600	2.745200	-8.307500	29.322779	2.334922E-5	20.915170
2742.739570	-2.972500	2.743100	-8.152900	29.307598	2.486733E-5	20.914568
2743.737516	-3.035400	2.737900	-8.309200	29.356106	2.381125E-5	20.904189
2744.743825	-2.962100	2.736900	-8.106000	29.386215	2.371224E-5	20.909878
2745.739366	-2.985000	2.733900	-8.159600	29.404764	2.100605E-5	20.909134
2746.767169	-2.998300	2.730800	-8.186900	29.451958	2.410827E-5	20.903124
2747.753016	-2.983000	2.726400	-8.131700	29.432353	2.103905E-5	20.912285
2748.759470	-2.988000	2.723500	-8.137400	29.415164	2.331622E-5	20.917245
2749.761510	-3.025900	2.717700	-8.222300	29.461265	2.400927E-5	20.906340
2750.759981	-3.004500	2.715800	-8.158800	29.529052	2.235914E-5	20.911607
2751.775629	-3.039600	2.711800	-8.241600	29.507871	2.450430E-5	20.909221
2752.760770	-3.021400	2.706800	-8.177900	29.464048	2.361324E-5	20.903929
2753.762178	-2.974400	2.704900	-8.044200	29.450265	2.361324E-5	20.894779
2754.765922	-2.992300	2.700400	-8.078800	29.535243	2.232614E-5	20.905046
2755.762248	-3.010300	2.696500	-8.116200	29.585072	2.239215E-5	20.899801
2756.759952	-2.988000	2.693700	-8.047100	29.481159	2.556038E-5	20.909323
2757.763249	-3.027300	2.687300	-8.133700	29.531107	2.305220E-5	20.904195
2758.765791	-3.029900	2.683300	-8.128100	29.562965	2.235914E-5	20.892689
2759.769598	-2.985600	2.681700	-8.004400	29.601802	2.262316E-5	20.901493
2760.743765	-3.004600	2.676200	-8.039900	29.581972	2.341522E-5	20.901891
2761.745668	-2.982500	2.673400	-7.972400	29.474610	2.374525E-5	20.902722
2762.746050	-3.008700	2.668000	-8.026300	29.518190	2.364624E-5	20.899235
2763.765004	-3.014900	2.663300	-8.028500	29.526834	2.318421E-5	20.895147
2764.764009	-3.018100	2.658900	-8.024000	29.512049	2.107205E-5	20.891624
2765.759969	-3.006500	2.655000	-7.981600	29.484104	2.325021E-5	20.878155
2766.769588	-3.006200	2.651300	-7.969700	29.483341	2.252416E-5	20.890661
2767.744778	-3.007100	2.646700	-7.958200	29.532453	2.483433E-5	20.892751
2768.760426	-3.011100	2.639900	-7.948100	29.545902	2.407527E-5	20.903936
2769.746645	-3.008500	2.635500	-7.927800	29.523096	2.351423E-5	20.909396
2770.745332	-3.016700	2.630100	-7.932800	29.510953	2.193011E-5	20.874398
2771.744249	-2.987600	2.626600	-7.846000	29.467995	2.381125E-5	20.906011
2772.742912	-2.985400	2.622600	-7.829000	29.522100	2.430629E-5	20.881842
2773.744081	-3.004500	2.617200	-7.862300	29.603867	2.334922E-5	20.890774
2774.744647	-3.002500	2.611400	-7.840400	29.683443	2.480132E-5	20.895606
2775.748262	-2.995300	2.606200	-7.805700	29.689492	2.285418E-5	20.897911
2776.773942	-2.996100	2.600600	-7.791200	29.640018	2.407527E-5	20.911095
2777.761945	-3.014100	2.597000	-7.826600	29.584543	2.229314E-5	20.902586
2778.773476	-3.019400	2.589800	-7.819400	29.647047	2.196312E-5	20.875511
2779.764468	-2.996800	2.585100	-7.746600	29.726352	2.529636E-5	20.887185
2780.773196	-3.024100	2.579000	-7.798200	29.806718	2.420728E-5	20.872436
2781.775539	-2.989400	2.574100	-7.694100	29.768561	2.400927E-5	20.875689
2782.769388	-2.981900	2.568200	-7.656900	29.707728	2.503234E-5	20.893538
2783.765436	-3.006400	2.563400	-7.705700	29.714439	2.325021E-5	20.887502
2784.769509	-2.997900	2.557100	-7.665300	29.726337	2.374525E-5	20.885274
2785.774273	-3.009600	2.550400	-7.674700	29.756305	2.338222E-5	20.864281
2786.768726	-3.007500	2.545000	-7.652700	29.722546	2.226014E-5	20.876236
2787.770946	-3.002400	2.538900	-7.620800	29.813409	2.358023E-5	20.879657
2788.767737	-2.998800	2.534000	-7.597900	29.824796	2.351423E-5	20.875018
2789.768440	-3.007500	2.525600	-7.594900	29.864448	2.354723E-5	20.894610
2790.769382	-2.983000	2.519700	-7.515400	29.911875	2.598941E-5	20.900707
2791.769681	-3.030700	2.514600	-7.619600	29.959592	2.430629E-5	20.886239
2792.771718	-3.022300	2.506500	-7.573900	29.942842	2.344822E-5	20.879780
2793.775238	-3.001800	2.502200	-7.509900	29.920743	2.463631E-5	20.888314
2794.769384	-2.998300	2.495600	-7.481800	29.979148	2.638544E-5	20.884624
