LabVIEW Measurement	
Writer_Version	2
Reader_Version	2
Separator	Tab
Decimal_Separator	.
Multi_Headings	No
X_Columns	One
Time_Pref	Absolute
Operator	admin
Description	Clolumns are: time, Current, Voltage, Power, Battery Temp, and Chamber Temp
Date	2024/08/16
Time	13:07:17.8513970375061035156
***End_of_Header***	
	
Channels	6						
Samples	1	1	1	1	1	1	
Date	2024/08/26	2024/08/26	2024/08/26	2024/08/26	2024/08/26	2024/08/26	
Time	16:19:21.9892377853393554688	16:19:21.9942407608032226563	16:19:22.0004038810729980469	16:19:21.9656543731689453125	16:19:21.9656543731689453125	16:19:21.9656543731689453125	
X_Dimension	Time	Time	Time	Time	Time	Time	
X0	0.0000000000000000E+0	0.0000000000000000E+0	0.0000000000000000E+0	0.0000000000000000E+0	0.0000000000000000E+0	0.0000000000000000E+0	
Delta_X	1.000000	1.000000	1.000000	1.000000	1.000000	1.000000	
***End_of_Header***							
X_Value	Untitled	Untitled 1	Untitled 2	Untitled 3	Untitled 4	Untitled 5	Comment
0.000000	-0.003363	4.064900	-0.013569	20.675367	0.000405	20.662089
1.004100	-2.984100	3.918000	-11.691000	20.695929	0.000406	20.682178
2.001828	-2.998900	3.909600	-11.723000	20.689168	0.000404	20.683952
3.001009	-2.999900	3.905800	-11.716000	20.700794	0.000405	20.654322
4.003018	-3.000200	3.903000	-11.709000	20.702610	0.000405	20.658035
5.005668	-2.994700	3.901100	-11.682000	20.731019	0.000405	20.663684
6.006003	-3.018000	3.896600	-11.759000	20.696821	0.000405	20.666473
7.002823	-2.990400	3.896600	-11.651000	20.719133	0.000405	20.674559
7.999171	-2.987800	3.895400	-11.638000	20.727152	0.000406	20.664084
9.005666	-3.002600	3.892800	-11.687000	20.735550	0.000405	20.695244
10.003868	-2.956000	3.892900	-11.507000	20.733538	0.000406	20.669047
11.001673	-3.008800	3.889100	-11.701000	20.723956	0.000404	20.685546
12.002358	-2.993800	3.888100	-11.639000	20.744535	0.000405	20.676252
13.004302	-2.996200	3.885400	-11.640000	20.750854	0.000404	20.651273
14.003216	-2.984900	3.885600	-11.598000	20.771366	0.000405	20.674158
15.004864	-3.010500	3.884600	-11.694000	20.779975	0.000403	20.660006
16.005540	-2.992500	3.882700	-11.618000	20.772511	0.000404	20.658706
17.006928	-3.013900	3.882100	-11.699000	20.789008	0.000405	20.667144
18.007945	-3.015000	3.880400	-11.698000	20.783294	0.000406	20.677077
19.005327	-2.986600	3.879600	-11.587000	20.803134	0.000405	20.655190
20.008337	-3.002800	3.879100	-11.647000	20.787930	0.000403	20.658004
21.009717	-2.987000	3.879200	-11.586000	20.801810	0.000404	20.655288
22.005044	-3.018600	3.877400	-11.702000	20.813362	0.000407	20.656409
23.010788	-2.997500	3.877600	-11.622000	20.817808	0.000405	20.637619
24.006515	-2.994100	3.876700	-11.606000	20.835155	0.000404	20.663030
25.009956	-2.998300	3.876200	-11.621000	20.834526	0.000408	20.655763
26.010934	-2.997600	3.874500	-11.613000	20.824496	0.000407	20.674657
27.007812	-3.013400	3.873900	-11.672000	20.864944	0.000406	20.665320
28.010378	-3.019200	3.872800	-11.691000	20.854236	0.000409	20.673579
29.008348	-2.998300	3.874000	-11.615000	20.867291	0.000409	20.669090
30.012136	-2.998500	3.871900	-11.609000	20.860203	0.000406	20.667217
31.009391	-3.009000	3.871200	-11.648000	20.899604	0.000408	20.659205
32.015461	-2.976700	3.871900	-11.524000	20.893539	0.000409	20.658829
33.011477	-2.997100	3.870500	-11.600000	20.887499	0.000408	20.677446
34.015427	-2.985700	3.870900	-11.556000	20.904265	0.000409	20.660072
35.018439	-3.048600	3.869100	-11.794000	20.923661	0.000409	20.667618
36.015149	-2.999600	3.868700	-11.603000	20.924479	0.000409	20.668436
37.017869	-2.989800	3.868500	-11.565000	20.914326	0.000411	20.652116
38.012156	-2.991800	3.868400	-11.573000	20.931018	0.000411	20.663596
39.014606	-3.020800	3.866100	-11.678000	20.939552	0.000410	20.659328
40.020683	-3.023900	3.865500	-11.688000	20.926105	0.000412	20.666743
41.014135	-3.010100	3.867500	-11.640000	20.963084	0.000412	20.665320
42.018630	-3.007600	3.867500	-11.631000	20.965047	0.000412	20.667758
43.015624	-3.008800	3.866700	-11.633000	20.958508	0.000412	20.666908
44.018216	-3.000000	3.865700	-11.596000	20.985254	0.000413	20.672321
45.018345	-3.006800	3.865300	-11.621000	20.986897	0.000413	20.658316
46.018259	-2.992500	3.864400	-11.563000	20.986023	0.000413	20.685419
47.019361	-2.991000	3.864600	-11.558000	21.002622	0.000415	20.673571
48.014951	-2.996500	3.865100	-11.580000	20.996575	0.000415	20.654719
49.027230	-3.010400	3.863300	-11.628000	21.008803	0.000415	20.659837
50.016021	-3.016100	3.864500	-11.655000	21.031386	0.000413	20.672943
51.018444	-2.992400	3.862800	-11.558000	21.055351	0.000416	20.661825
52.018590	-2.979200	3.862600	-11.507000	21.048641	0.000417	20.665545
53.017379	-2.980400	3.862700	-11.511000	21.059225	0.000418	20.677080
54.015428	-2.991400	3.863000	-11.555000	21.057795	0.000419	20.659053
55.016699	-2.978100	3.863000	-11.503000	21.082421	0.000418	20.673255
56.016273	-2.986100	3.861400	-11.530000	21.081146	0.000418	20.666764
57.022167	-2.978700	3.861200	-11.500000	21.101333	0.000419	20.659454
58.023417	-3.011700	3.861300	-11.628000	21.114328	0.000421	20.658702
59.025020	-2.996000	3.860900	-11.567000	21.108886	0.000421	20.667484
60.019737	-3.024500	3.859600	-11.672000	21.110013	0.000418	20.669560
61.028468	-3.001800	3.859600	-11.584000	21.143384	0.000422	20.660739
62.021286	-2.993700	3.860600	-11.557000	21.132359	0.000422	20.681007
63.020973	-2.998000	3.858000	-11.565000	21.144757	0.000424	20.661164
64.016545	-3.004500	3.859600	-11.595000	21.127611	0.000422	20.672939
65.026641	-3.014000	3.858400	-11.628000	21.170125	0.000424	20.662359
66.021684	-3.004800	3.858900	-11.595000	21.181255	0.000422	20.664484
67.018611	-2.978200	3.858400	-11.490000	21.178299	0.000426	20.668639
68.017234	-3.016100	3.857700	-11.634000	21.186258	0.000424	20.650047
69.019061	-2.998300	3.859200	-11.570000	21.196654	0.000427	20.665664
70.019112	-3.036200	3.856800	-11.708000	21.220354	0.000425	20.672777
71.021430	-2.996600	3.857600	-11.559000	21.230332	0.000426	20.657627
72.024704	-2.984600	3.858400	-11.515000	21.227358	0.000425	20.677414
73.022696	-3.008300	3.858100	-11.605000	21.231919	0.000426	20.678657
74.028303	-3.001600	3.855800	-11.573000	21.240106	0.000429	20.675468
75.022296	-3.005500	3.855900	-11.588000	21.239853	0.000428	20.699399
76.029778	-3.015800	3.855800	-11.628000	21.245787	0.000429	20.676883
77.032045	-3.017700	3.855700	-11.634000	21.246661	0.000430	20.668748
78.019361	-3.016000	3.854500	-11.624000	21.262646	0.000432	20.669566
79.023130	-3.004800	3.855300	-11.584000	21.269984	0.000430	20.660785
80.029492	-3.004400	3.855800	-11.583000	21.290978	0.000430	20.668987
81.023221	-3.014100	3.854500	-11.617000	21.281246	0.000432	20.664466
82.032671	-2.997100	3.855100	-11.553000	21.336501	0.000433	20.691773
83.035490	-3.000900	3.854300	-11.565000	21.318361	0.000434	20.676468
84.027081	-3.010400	3.853700	-11.600000	21.333871	0.000433	20.671596
85.023563	-3.008300	3.854400	-11.593000	21.327507	0.000434	20.674238
86.023988	-3.017400	3.853500	-11.626000	21.321935	0.000435	20.686683
87.024576	-2.994000	3.853800	-11.537000	21.347626	0.000435	20.671133
88.024346	-3.002100	3.853200	-11.567000	21.367906	0.000434	20.695218
89.034830	-2.990100	3.854600	-11.525000	21.382861	0.000437	20.702121
90.027017	-3.006400	3.852300	-11.580000	21.378645	0.000437	20.676563
91.032983	-2.994300	3.853700	-11.538000	21.382485	0.000437	20.681828
92.029683	-2.994400	3.852300	-11.534000	21.387323	0.000437	20.682401
93.029597	-2.998700	3.851800	-11.550000	21.396573	0.000438	20.685966
94.042065	-2.984200	3.852800	-11.497000	21.381727	0.000438	20.680121
95.030745	-3.006100	3.851100	-11.576000	21.406321	0.000440	20.691453
96.016220	-3.012300	3.850700	-11.598000	21.422353	0.000441	20.687578
97.015996	-3.004500	3.852400	-11.573000	21.435303	0.000439	20.673981
98.045672	-3.023400	3.849700	-11.638000	21.457617	0.000441	20.678765
99.032396	-3.020400	3.849500	-11.625000	21.445630	0.000441	20.671512
100.036371	-3.000300	3.851700	-11.554000	21.427436	0.000441	20.680810
101.034998	-2.976000	3.852300	-11.463000	21.463704	0.000442	20.691969
102.032413	-3.015400	3.850800	-11.611000	21.457642	0.000443	20.699655
103.039922	-3.008600	3.849100	-11.580000	21.459660	0.000444	20.702149
104.033430	-3.012100	3.849400	-11.594000	21.480486	0.000445	20.674146
105.041026	-3.020600	3.849000	-11.625000	21.469310	0.000446	20.700898
106.016533	-3.000400	3.849700	-11.550000	21.499989	0.000444	20.702672
107.020770	-3.004500	3.850000	-11.567000	21.489809	0.000445	20.681105
108.015205	-3.015200	3.848600	-11.603000	21.543355	0.000446	20.704814
109.016811	-3.001800	3.849300	-11.554000	21.513657	0.000447	20.695959
110.036507	-3.011100	3.848000	-11.586000	21.528624	0.000447	20.697659
111.019580	-3.016500	3.848000	-11.607000	21.561165	0.000447	20.714576
112.016152	-3.012900	3.848200	-11.593000	21.566949	0.000450	20.700448
113.015461	-2.979700	3.848000	-11.465000	21.547782	0.000448	20.699286
114.019228	-3.008800	3.847500	-11.575000	21.589300	0.000448	20.689149
115.018662	-3.024500	3.847000	-11.634000	21.580852	0.000451	20.706300
116.021882	-3.020600	3.846000	-11.616000	21.604870	0.000452	20.699040
117.020323	-3.003500	3.847800	-11.555000	21.600100	0.000452	20.692844
118.019342	-3.006700	3.846500	-11.564000	21.607614	0.000452	20.686138
119.021072	-2.988500	3.845300	-11.491000	21.620260	0.000453	20.702588
120.020591	-2.997500	3.845500	-11.526000	21.619835	0.000455	20.689834
121.022540	-2.985700	3.846800	-11.485000	21.631811	0.000452	20.681428
122.025755	-2.994600	3.845500	-11.515000	21.629915	0.000452	20.686644
123.021842	-2.980400	3.846700	-11.464000	21.665746	0.000454	20.685042
124.021134	-2.997900	3.845900	-11.529000	21.634303	0.000455	20.719012
125.023212	-2.998600	3.845600	-11.531000	21.657814	0.000457	20.703659
126.042229	-2.967500	3.845900	-11.411000	21.656677	0.000455	20.710582
127.038438	-3.008300	3.845000	-11.566000	21.675376	0.000457	20.690413
128.023025	-2.965700	3.846200	-11.405000	21.680286	0.000458	20.701018
129.043905	-3.000200	3.843400	-11.530000	21.675130	0.000457	20.708187
130.040598	-2.985700	3.844500	-11.478000	21.696826	0.000458	20.688172
131.038005	-3.011000	3.843700	-11.573000	21.708074	0.000460	20.710336
132.040557	-2.996300	3.844300	-11.518000	21.739442	0.000461	20.703322
133.023627	-2.980900	3.844100	-11.457000	21.711064	0.000459	20.709061
134.022944	-3.010000	3.841600	-11.562000	21.729942	0.000462	20.715626
135.023873	-3.004000	3.842100	-11.540000	21.756350	0.000462	20.714555
136.025003	-2.979500	3.844400	-11.454000	21.755076	0.000463	20.712806
137.024068	-2.983900	3.843000	-11.466000	21.760115	0.000463	20.705995
138.027713	-3.014400	3.841800	-11.579000	21.769892	0.000465	20.701081
139.024977	-2.987100	3.842100	-11.476000	21.765702	0.000463	20.713009
140.026052	-2.987800	3.841100	-11.476000	21.767042	0.000465	20.712929
141.028831	-2.990000	3.842700	-11.489000	21.769239	0.000466	20.709911
142.027246	-3.009800	3.842000	-11.562000	21.794095	0.000466	20.726729
143.028038	-3.019100	3.841800	-11.597000	21.798882	0.000466	20.699750
144.026426	-2.997200	3.841300	-11.511000	21.832998	0.000466	20.712560
145.026296	-3.022000	3.840100	-11.603000	21.822821	0.000468	20.731773
146.026514	-2.993200	3.841100	-11.496000	21.824267	0.000469	20.735591
147.043289	-2.986800	3.840900	-11.471000	21.852119	0.000469	20.709887
148.035482	-2.997400	3.840600	-11.511000	21.856172	0.000469	20.719160
149.028020	-3.008700	3.838400	-11.547000	21.863888	0.000469	20.726409
150.025872	-2.967900	3.841200	-11.399000	21.910483	0.000469	20.711408
151.025401	-2.993700	3.839400	-11.493000	21.899686	0.000472	20.706764
152.042184	-2.995200	3.840500	-11.502000	21.885777	0.000471	20.707066
153.049627	-3.002800	3.838200	-11.525000	21.879520	0.000470	20.729729
154.054301	-2.989100	3.838800	-11.473000	21.895202	0.000472	20.716027
155.028579	-3.008800	3.838200	-11.548000	21.894328	0.000474	20.694762
156.029031	-3.007500	3.837600	-11.540000	21.908890	0.000473	20.727832
157.033344	-2.992200	3.838500	-11.485000	21.915824	0.000472	20.731453
158.040863	-3.002200	3.838300	-11.523000	21.914729	0.000475	20.733203
159.050060	-3.011800	3.836900	-11.555000	21.931104	0.000476	20.716877
160.049486	-3.019100	3.837200	-11.584000	21.952199	0.000477	20.718078
161.048535	-3.011900	3.836700	-11.555000	21.977925	0.000476	20.736244
162.051011	-2.986800	3.837400	-11.461000	21.971711	0.000476	20.727179
163.031066	-2.997700	3.837100	-11.501000	21.968893	0.000475	20.727677
164.049014	-2.997800	3.836700	-11.501000	21.999664	0.000479	20.721021
165.047082	-3.011600	3.836100	-11.551000	21.993801	0.000479	20.739809
166.047315	-3.020700	3.835500	-11.585000	21.984451	0.000478	20.747045
167.052358	-2.981400	3.836500	-11.437000	21.972511	0.000478	20.725134
168.030688	-2.989800	3.835900	-11.467000	22.008379	0.000480	20.725004
169.050353	-2.995300	3.835700	-11.488000	22.031858	0.000479	20.734284
170.034873	-3.009000	3.833600	-11.534000	22.011621	0.000480	20.718292
171.031436	-2.977000	3.836000	-11.419000	22.013190	0.000483	20.723181
172.032659	-3.006000	3.833500	-11.522000	22.036497	0.000481	20.731815
173.031326	-2.988400	3.835400	-11.461000	22.073433	0.000482	20.725169
174.032211	-3.008200	3.832900	-11.528000	22.063992	0.000482	20.727572
175.036125	-3.004400	3.834600	-11.520000	22.088157	0.000484	20.728057
176.051118	-2.988200	3.833100	-11.453000	22.081257	0.000484	20.731105
177.034861	-2.988900	3.832700	-11.455000	22.095041	0.000484	20.720248
178.051932	-2.995000	3.832000	-11.476000	22.109397	0.000485	20.747898
179.039023	-2.987300	3.833700	-11.452000	22.100601	0.000484	20.730558
180.037050	-3.012900	3.831500	-11.543000	22.104752	0.000486	20.729497
181.033029	-3.001300	3.832500	-11.502000	22.127983	0.000487	20.748014
182.037454	-3.009600	3.832400	-11.533000	22.149523	0.000486	20.759148
183.033792	-3.008300	3.831700	-11.525000	22.169389	0.000488	20.750589
184.034903	-3.016800	3.830000	-11.553000	22.177661	0.000487	20.761242
185.035204	-3.023500	3.830800	-11.582000	22.153785	0.000488	20.744923
186.036202	-2.993200	3.830700	-11.465000	22.188473	0.000488	20.747410
187.035016	-2.999600	3.831100	-11.490000	22.189690	0.000491	20.732981
188.035073	-2.998100	3.830900	-11.484000	22.202656	0.000490	20.752127
189.037777	-2.999900	3.829700	-11.488000	22.198394	0.000491	20.757343
190.035350	-2.990400	3.830800	-11.454000	22.216235	0.000491	20.755766
191.052866	-2.986100	3.829600	-11.435000	22.211099	0.000489	20.753943
192.034440	-3.000600	3.830100	-11.491000	22.231708	0.000491	20.751818
193.055160	-2.997400	3.828600	-11.474000	22.224556	0.000491	20.756985
194.052663	-3.006400	3.829300	-11.512000	22.219378	0.000493	20.755120
195.053845	-2.985900	3.829300	-11.432000	22.224728	0.000494	20.781339
196.054020	-2.993000	3.829200	-11.460000	22.227471	0.000494	20.742359
197.055490	-2.996700	3.828500	-11.471000	22.231080	0.000494	20.763518
198.037277	-3.002800	3.827400	-11.491000	22.239882	0.000495	20.750044
199.054063	-3.008300	3.827500	-11.513000	22.244193	0.000497	20.764793
200.054605	-3.001900	3.827200	-11.488000	22.263184	0.000495	20.751565
201.053793	-3.012100	3.826400	-11.525000	22.284143	0.000495	20.754059
202.048882	-2.984800	3.826700	-11.421000	22.282273	0.000494	20.753609
203.053381	-3.007300	3.827800	-11.510000	22.274542	0.000496	20.770051
204.055850	-2.967600	3.827600	-11.358000	22.275938	0.000496	20.759120
205.053571	-3.000100	3.828500	-11.485000	22.302235	0.000499	20.755580
206.064260	-3.003500	3.826200	-11.492000	22.319005	0.000497	20.760518
207.056705	-2.989000	3.825100	-11.432000	22.320647	0.000498	20.780654
208.037410	-3.005800	3.824600	-11.494000	22.337490	0.000499	20.770967
209.054754	-2.981300	3.826900	-11.409000	22.319815	0.000498	20.753269
210.038322	-2.987600	3.825900	-11.430000	22.329661	0.000500	20.744635
211.037645	-2.992300	3.824500	-11.443000	22.315732	0.000498	20.764828
212.056196	-2.993800	3.823600	-11.446000	22.322730	0.000500	20.771361
213.047664	-3.004100	3.824400	-11.488000	22.354799	0.000502	20.779766
214.040008	-3.010100	3.825000	-11.512000	22.345852	0.000500	20.765116
215.038350	-3.008900	3.825200	-11.509000	22.361927	0.000501	20.762246
216.045996	-3.009300	3.823200	-11.505000	22.376174	0.000502	20.774617
217.039685	-3.019500	3.822200	-11.541000	22.396829	0.000503	20.783921
218.044742	-2.999300	3.822800	-11.465000	22.414341	0.000502	20.787233
219.044626	-3.002900	3.822800	-11.478000	22.432210	0.000504	20.790429
220.055130	-3.014700	3.822300	-11.522000	22.431281	0.000504	20.761523
221.039789	-3.001800	3.823200	-11.476000	22.450841	0.000504	20.764515
222.039501	-3.005000	3.822100	-11.485000	22.435714	0.000505	20.764066
223.040268	-3.002700	3.821500	-11.474000	22.430106	0.000504	20.789270
224.040181	-3.014800	3.822000	-11.521000	22.445022	0.000504	20.780500
225.039950	-3.006900	3.819800	-11.485000	22.477095	0.000505	20.780377
226.040686	-2.999500	3.820400	-11.458000	22.482949	0.000506	20.781023
227.055309	-3.011700	3.820800	-11.506000	22.496125	0.000506	20.783787
228.060886	-2.986300	3.821500	-11.410000	22.518222	0.000504	20.778417
229.057475	-2.983400	3.820100	-11.396000	22.494108	0.000506	20.793148
230.046957	-3.026100	3.818300	-11.553000	22.497293	0.000508	20.784483
231.041894	-3.028700	3.818400	-11.564000	22.486747	0.000508	20.791465
232.044410	-3.005500	3.818700	-11.475000	22.502771	0.000509	20.776693
233.045112	-2.994600	3.819000	-11.435000	22.528010	0.000510	20.792013
234.046238	-2.981600	3.820300	-11.389000	22.513604	0.000513	20.793232
235.047769	-2.997700	3.819000	-11.447000	22.503016	0.000510	20.799224
236.041773	-3.026000	3.817800	-11.551000	22.510535	0.000508	20.798219
237.050318	-3.000600	3.818100	-11.456000	22.519008	0.000510	20.782523
238.043630	-3.003100	3.818300	-11.466000	22.544353	0.000510	20.811699
239.043681	-3.003700	3.817900	-11.467000	22.560221	0.000511	20.783022
240.057067	-2.982300	3.818100	-11.385000	22.552026	0.000510	20.796625
241.042289	-3.011000	3.817800	-11.494000	22.568816	0.000511	20.792105
242.042329	-3.018000	3.817300	-11.520000	22.591916	0.000513	20.794377
243.041704	-3.002900	3.816900	-11.460000	22.572898	0.000511	20.799038
244.069871	-3.007900	3.814700	-11.474000	22.586024	0.000515	20.796537
245.060606	-3.008200	3.815200	-11.475000	22.596089	0.000512	20.793815
246.045484	-2.987600	3.815300	-11.398000	22.603916	0.000512	20.810663
247.072099	-3.001600	3.813800	-11.447000	22.615148	0.000513	20.801999
248.067870	-3.013000	3.813600	-11.490000	22.609172	0.000515	20.790324
249.072372	-2.971000	3.816700	-11.338000	22.611865	0.000515	20.792547
250.059679	-2.998400	3.814300	-11.436000	22.610389	0.000515	20.822837
251.065693	-3.012400	3.813800	-11.488000	22.633235	0.000515	20.826279
252.064233	-3.009100	3.813300	-11.474000	22.652521	0.000517	20.792017
253.071043	-3.000800	3.813800	-11.444000	22.654692	0.000515	20.805096
254.061674	-3.012500	3.812900	-11.486000	22.661238	0.000515	20.827301
255.066795	-2.987400	3.813100	-11.390000	22.658521	0.000516	20.829794
256.061657	-3.017800	3.811600	-11.502000	22.673048	0.000516	20.791715
257.064261	-2.989800	3.813200	-11.400000	22.676436	0.000517	20.807910
258.061209	-3.004900	3.812500	-11.455000	22.674160	0.000516	20.824596
259.064193	-3.001700	3.811400	-11.439000	22.682884	0.000517	20.801093
260.072901	-3.007600	3.812200	-11.465000	22.681562	0.000515	20.824424
261.066424	-3.009600	3.811400	-11.470000	22.702317	0.000519	20.831462
262.071687	-3.007800	3.810900	-11.462000	22.699322	0.000518	20.813765
263.078591	-2.990500	3.811300	-11.397000	22.720273	0.000519	20.827638
264.070126	-2.995200	3.811900	-11.416000	22.723506	0.000521	20.808117
265.064543	-2.995200	3.811100	-11.414000	22.726174	0.000521	20.793246
266.067300	-3.022700	3.809500	-11.514000	22.728737	0.000517	20.825211
267.047606	-3.016000	3.809400	-11.488000	22.732580	0.000520	20.822422
268.065733	-3.010900	3.809300	-11.468000	22.765276	0.000519	20.819613
269.066850	-2.996200	3.811000	-11.417000	22.790885	0.000520	20.821558
270.068279	-3.003900	3.810200	-11.445000	22.781173	0.000520	20.838382
271.063674	-3.004700	3.808200	-11.442000	22.808668	0.000522	20.810924
272.065689	-3.000000	3.808200	-11.424000	22.814600	0.000522	20.841521
273.069137	-3.008400	3.807100	-11.453000	22.812700	0.000523	20.832980
274.092097	-2.982800	3.808900	-11.361000	22.805656	0.000522	20.834933
275.074728	-2.995700	3.808000	-11.407000	22.823765	0.000521	20.836952
276.054919	-3.008400	3.807800	-11.454000	22.842315	0.000523	20.828035
277.050941	-3.011500	3.805800	-11.460000	22.812398	0.000523	20.848799
278.071816	-2.992700	3.808200	-11.396000	22.824151	0.000522	20.826908
279.070130	-2.992000	3.806400	-11.387000	22.837330	0.000522	20.821144
280.068654	-2.995000	3.806800	-11.400000	22.822853	0.000522	20.834617
281.069664	-2.999300	3.806100	-11.415000	22.869654	0.000523	20.821759
282.076246	-2.982700	3.807000	-11.355000	22.869335	0.000521	20.828077
283.054442	-2.986700	3.805000	-11.363000	22.845934	0.000523	20.841617
284.053248	-2.986300	3.805100	-11.362000	22.872487	0.000524	20.850200
285.055847	-3.002000	3.804600	-11.421000	22.861822	0.000523	20.858482
286.060217	-3.021300	3.803600	-11.491000	22.860599	0.000524	20.802730
287.056898	-3.015200	3.804900	-11.471000	22.864729	0.000524	20.854756
288.070673	-2.986400	3.803800	-11.359000	22.878184	0.000524	20.837416
289.082855	-3.007200	3.804300	-11.439000	22.918105	0.000526	20.850383
290.079824	-3.028300	3.803000	-11.515000	22.936089	0.000524	20.833314
291.079954	-2.995700	3.804300	-11.395000	22.927563	0.000526	20.834730
292.055597	-3.028100	3.802000	-11.512000	22.949032	0.000526	20.833005
293.058044	-2.978500	3.802800	-11.326000	22.927507	0.000524	20.841312
294.062603	-2.977800	3.802700	-11.323000	22.904594	0.000527	20.833529
295.055567	-2.982200	3.803200	-11.341000	22.924840	0.000524	20.835794
296.074231	-2.985300	3.802800	-11.352000	22.945337	0.000525	20.854907
297.057912	-3.000200	3.802500	-11.407000	22.976141	0.000524	20.834087
298.056701	-3.009600	3.800100	-11.435000	22.964156	0.000527	20.838674
299.055486	-2.997300	3.800600	-11.390000	23.006348	0.000526	20.833058
300.057154	-3.010800	3.800400	-11.442000	22.989287	0.000525	20.824025
301.059119	-2.990600	3.800400	-11.364000	22.985526	0.000525	20.832584
302.059808	-3.027800	3.799400	-11.503000	23.021166	0.000528	20.834628
303.062527	-3.008700	3.798900	-11.428000	23.057751	0.000526	20.826241
304.059913	-2.997400	3.799800	-11.389000	23.034114	0.000528	20.831007
305.065387	-2.979000	3.799400	-11.317000	23.063170	0.000528	20.843525
306.061411	-2.993900	3.799800	-11.376000	23.042969	0.000525	20.832293
307.060948	-3.020900	3.797400	-11.471000	23.055420	0.000527	20.829122
308.090067	-2.985100	3.798600	-11.338000	23.030413	0.000528	20.821135
309.070338	-3.005500	3.798300	-11.414000	23.040197	0.000529	20.828093
310.071929	-3.003400	3.797900	-11.405000	23.050909	0.000528	20.810377
311.064217	-2.990900	3.797800	-11.358000	23.040694	0.000529	20.809151
312.068280	-3.012600	3.796600	-11.437000	23.023308	0.000528	20.816387
313.065768	-2.989900	3.796800	-11.351000	23.051701	0.000526	20.809749
314.067822	-3.007900	3.795600	-11.416000	23.071594	0.000529	20.815456
315.065496	-2.997300	3.796700	-11.378000	23.078348	0.000528	20.822224
316.076896	-2.989300	3.796200	-11.347000	23.063917	0.000530	20.809661
317.066732	-3.018900	3.795100	-11.456000	23.054225	0.000527	20.804691
318.073875	-3.008600	3.795500	-11.418000	23.087977	0.000531	20.810061
319.070438	-2.995700	3.795600	-11.370000	23.077486	0.000529	20.811877
320.066061	-3.005300	3.794000	-11.401000	23.106947	0.000531	20.814845
321.090495	-3.001900	3.795700	-11.393000	23.111231	0.000531	20.817240
322.092142	-3.013300	3.794100	-11.433000	23.124873	0.000531	20.809573
323.090607	-2.994800	3.795500	-11.366000	23.121062	0.000531	20.802437
324.084641	-3.000100	3.793400	-11.379000	23.138735	0.000530	20.822042
325.084873	-2.990500	3.793900	-11.344000	23.162001	0.000530	20.810743
326.082067	-3.002300	3.793400	-11.388000	23.152545	0.000530	20.816440
327.084199	-3.009400	3.793200	-11.413000	23.152716	0.000533	20.815664
328.084890	-3.004400	3.793300	-11.396000	23.151094	0.000530	20.819253
329.097863	-2.995100	3.792100	-11.357000	23.154325	0.000531	20.800681
330.071345	-3.007600	3.791900	-11.404000	23.145458	0.000530	20.809813
331.068708	-3.026700	3.790900	-11.473000	23.161122	0.000532	20.830250
332.074625	-3.012500	3.791000	-11.419000	23.123169	0.000531	20.796487
333.068454	-3.011500	3.789700	-11.412000	23.135276	0.000531	20.824265
334.069692	-2.981600	3.791200	-11.303000	23.153085	0.000533	20.796592
335.087158	-2.982400	3.790800	-11.305000	23.178229	0.000530	20.802823
336.087112	-3.048000	3.788800	-11.547000	23.161146	0.000531	20.810360
337.083885	-3.001000	3.789200	-11.371000	23.185659	0.000531	20.799838
338.093920	-2.998700	3.790000	-11.364000	23.192922	0.000533	20.794313
339.087696	-3.018300	3.789100	-11.435000	23.192449	0.000532	20.809486
340.094025	-3.013900	3.788600	-11.418000	23.171531	0.000532	20.788051
341.093016	-2.984700	3.788400	-11.306000	23.178352	0.000532	20.819541
342.094628	-2.996700	3.788300	-11.352000	23.160298	0.000533	20.800502
343.074568	-2.995600	3.788100	-11.347000	23.170578	0.000533	20.800846
344.094238	-3.028700	3.786800	-11.468000	23.175408	0.000533	20.797151
345.073909	-2.981000	3.788600	-11.293000	23.179341	0.000535	20.804411
346.073689	-2.995000	3.787300	-11.342000	23.215209	0.000534	20.785353
347.080286	-3.012500	3.787500	-11.409000	23.231338	0.000534	20.801043
348.073844	-2.994200	3.787000	-11.339000	23.275910	0.000535	20.785020
349.078511	-2.986400	3.785900	-11.305000	23.268120	0.000535	20.779109
350.072220	-2.998000	3.786100	-11.350000	23.265453	0.000533	20.784497
351.114009	-3.002900	3.785600	-11.367000	23.298701	0.000535	20.808808
352.096713	-2.956800	3.785000	-11.191000	23.312967	0.000534	20.797977
353.101985	-2.980000	3.785900	-11.281000	23.305447	0.000534	20.799448
354.104452	-2.999500	3.784800	-11.352000	23.288464	0.000532	20.788118
355.073273	-2.995000	3.783400	-11.330000	23.281490	0.000533	20.782077
356.094256	-2.988200	3.783700	-11.305000	23.304795	0.000534	20.783622
357.074400	-2.988800	3.784300	-11.310000	23.315750	0.000535	20.791282
358.072732	-3.001000	3.782900	-11.352000	23.347970	0.000535	20.787064
359.074170	-2.999800	3.783800	-11.350000	23.359723	0.000533	20.781300
360.073686	-3.009700	3.782300	-11.383000	23.376053	0.000533	20.785814
361.084154	-3.012600	3.782600	-11.394000	23.370180	0.000533	20.793204
362.083637	-2.993800	3.782800	-11.325000	23.381436	0.000535	20.788364
363.079536	-2.999300	3.781900	-11.341000	23.342090	0.000533	20.780222
364.075263	-3.021100	3.780600	-11.421000	23.342482	0.000533	20.773978
365.076002	-2.979900	3.781500	-11.268000	23.362653	0.000533	20.776176
366.083657	-2.979700	3.782200	-11.269000	23.352971	0.000533	20.788283
367.075538	-3.011800	3.780400	-11.385000	23.364840	0.000533	20.789274
368.076962	-2.995700	3.780000	-11.323000	23.379334	0.000534	20.774877
369.078707	-3.006900	3.780600	-11.367000	23.366137	0.000534	20.780616
370.087827	-2.998100	3.781000	-11.335000	23.378345	0.000533	20.767722
371.080824	-3.009700	3.779700	-11.375000	23.409782	0.000537	20.785955
372.079544	-2.985300	3.779500	-11.282000	23.405353	0.000535	20.764919
373.105653	-2.991600	3.779500	-11.306000	23.392653	0.000533	20.782537
374.079257	-3.004300	3.777600	-11.348000	23.365762	0.000533	20.780714
375.079201	-2.993200	3.778100	-11.308000	23.368004	0.000534	20.798135
376.085240	-2.999900	3.777400	-11.330000	23.414838	0.000534	20.760202
377.080227	-3.000500	3.777200	-11.333000	23.398558	0.000534	20.776601
378.084327	-2.995100	3.777000	-11.311000	23.410206	0.000535	20.771681
379.102859	-2.995000	3.777700	-11.311000	23.409014	0.000535	20.752942
380.098638	-3.009600	3.777100	-11.367000	23.427863	0.000537	20.783215
381.083467	-2.998200	3.776100	-11.320000	23.424790	0.000536	20.779186
382.097677	-3.010200	3.776100	-11.366000	23.420964	0.000537	20.777247
383.102184	-3.003600	3.775800	-11.340000	23.417947	0.000535	20.784181
384.098605	-3.008500	3.774700	-11.354000	23.441428	0.000534	20.788276
385.102868	-3.009600	3.774300	-11.358000	23.412922	0.000536	20.773454
386.101266	-3.001000	3.773900	-11.325000	23.441396	0.000534	20.785400
387.101019	-3.010200	3.773300	-11.357000	23.444063	0.000535	20.776693
388.096300	-3.013200	3.773100	-11.368000	23.448517	0.000535	20.783528
389.085671	-3.010900	3.772600	-11.358000	23.455391	0.000535	20.773349
390.086196	-3.009100	3.773800	-11.355000	23.443884	0.000535	20.776040
391.084389	-3.026000	3.773000	-11.416000	23.454095	0.000535	20.774420
392.099246	-2.989300	3.773500	-11.280000	23.438688	0.000534	20.763718
393.086999	-3.001300	3.772900	-11.323000	23.475830	0.000538	20.765387
394.089773	-2.980700	3.773100	-11.244000	23.496367	0.000534	20.774592
395.087628	-2.986600	3.773100	-11.267000	23.532243	0.000535	20.765510
396.103769	-3.016800	3.771700	-11.377000	23.519440	0.000533	20.777332
397.105605	-2.998000	3.772300	-11.308000	23.519675	0.000534	20.761446
398.088220	-2.979900	3.771800	-11.239000	23.493701	0.000536	20.761962
399.112062	-2.977900	3.771000	-11.229000	23.508697	0.000535	20.774624
400.090900	-2.983600	3.772100	-11.253000	23.469127	0.000537	20.776212
401.092110	-2.982100	3.771200	-11.244000	23.484345	0.000536	20.753532
402.089453	-2.987000	3.770200	-11.261000	23.484713	0.000536	20.768126
403.087288	-2.993500	3.770200	-11.284000	23.520491	0.000534	20.777437
404.088453	-3.004100	3.770100	-11.324000	23.495151	0.000535	20.761994
405.088998	-3.014400	3.769000	-11.360000	23.522954	0.000535	20.777062
406.088399	-3.000200	3.769500	-11.308000	23.556667	0.000534	20.754906
407.091146	-3.006400	3.769700	-11.332000	23.540831	0.000534	20.774592
408.119373	-3.013200	3.768500	-11.354000	23.533686	0.000535	20.761267
409.089421	-2.999800	3.770200	-11.309000	23.493970	0.000536	20.750378
410.089153	-3.008900	3.768000	-11.337000	23.480154	0.000534	20.766402
411.089495	-2.996900	3.767200	-11.288000	23.502884	0.000537	20.741770
412.087653	-3.023600	3.766900	-11.388000	23.525368	0.000535	20.758618
413.089242	-3.025800	3.767500	-11.399000	23.544461	0.000535	20.775386
414.090074	-2.997800	3.767100	-11.292000	23.559996	0.000537	20.775787
415.093368	-3.009200	3.765500	-11.330000	23.552249	0.000536	20.753322
416.096477	-2.987600	3.765900	-11.251000	23.564873	0.000534	20.768348
417.090965	-2.981000	3.766800	-11.229000	23.570119	0.000534	20.769338
418.092509	-2.988500	3.765600	-11.253000	23.601090	0.000535	20.761980
419.097422	-3.007500	3.765500	-11.324000	23.616551	0.000535	20.757565
420.092262	-3.009800	3.765700	-11.333000	23.639524	0.000534	20.764474
421.091945	-2.991800	3.764700	-11.262000	23.608805	0.000534	20.759757
422.097076	-2.997000	3.765200	-11.284000	23.604345	0.000534	20.739638
423.091566	-2.989600	3.764200	-11.253000	23.595285	0.000535	20.753315
424.091864	-2.978200	3.764900	-11.212000	23.636059	0.000533	20.754362
425.092325	-2.982100	3.764200	-11.224000	23.642011	0.000535	20.733776
426.092804	-2.993200	3.764700	-11.268000	23.643928	0.000535	20.766992
427.109245	-3.005400	3.764100	-11.311000	23.636735	0.000534	20.732279
428.095175	-3.008500	3.762300	-11.318000	23.639279	0.000535	20.754270
429.108014	-3.010900	3.761600	-11.325000	23.653313	0.000534	20.747477
430.112084	-3.011300	3.762000	-11.328000	23.655850	0.000535	20.747175
431.092507	-2.990100	3.762700	-11.250000	23.665880	0.000533	20.744429
432.103461	-2.998400	3.761100	-11.275000	23.668952	0.000534	20.747035
433.112765	-2.991800	3.761900	-11.254000	23.652515	0.000535	20.737667
434.110081	-3.014500	3.759800	-11.333000	23.676341	0.000535	20.748752
435.110475	-2.987400	3.761500	-11.236000	23.705737	0.000532	20.733178
436.096002	-3.005100	3.761000	-11.301000	23.703870	0.000535	20.745532
437.113282	-2.986200	3.760900	-11.229000	23.694393	0.000534	20.745988
438.093810	-3.020300	3.759700	-11.354000	23.652669	0.000534	20.725019
439.095805	-3.003900	3.759700	-11.293000	23.669394	0.000534	20.753167
440.094573	-2.999200	3.758300	-11.271000	23.656526	0.000533	20.741689
441.095818	-3.009700	3.758400	-11.311000	23.677655	0.000535	20.746276
442.099751	-3.001500	3.759000	-11.280000	23.684178	0.000533	20.730530
443.096601	-2.995400	3.758200	-11.256000	23.687520	0.000533	20.741942
444.098644	-3.008300	3.758200	-11.305000	23.697949	0.000533	20.750501
445.119388	-2.999100	3.757600	-11.269000	23.700037	0.000533	20.740741
446.121863	-2.987600	3.759200	-11.230000	23.722419	0.000533	20.743266
447.095267	-2.984500	3.758800	-11.217000	23.679781	0.000532	20.750305
448.097980	-3.018300	3.756600	-11.337000	23.713010	0.000533	20.738573
449.108739	-2.999100	3.757100	-11.267000	23.734267	0.000532	20.748506
450.098210	-2.982200	3.755800	-11.200000	23.722868	0.000531	20.736603
451.095702	-3.003000	3.757200	-11.282000	23.723169	0.000532	20.727895
452.113074	-2.997300	3.755900	-11.255000	23.748448	0.000532	20.729058
453.096555	-3.003700	3.756400	-11.283000	23.748448	0.000533	20.735223
454.112640	-2.998400	3.755900	-11.261000	23.751138	0.000530	20.727488
455.111839	-2.994500	3.755100	-11.244000	23.760744	0.000532	20.739964
456.111336	-2.985300	3.754300	-11.206000	23.780042	0.000533	20.727070
457.100631	-3.004800	3.754800	-11.281000	23.788897	0.000532	20.723621
458.096241	-2.994400	3.753700	-11.239000	23.800727	0.000531	20.718412
459.096846	-2.969900	3.754400	-11.149000	23.797476	0.000529	20.716575
460.098255	-2.997500	3.754700	-11.254000	23.794972	0.000530	20.727815
461.112228	-3.006000	3.754600	-11.286000	23.794572	0.000532	20.723147
462.098751	-3.007400	3.753300	-11.287000	23.815877	0.000531	20.733129
463.102709	-3.013300	3.752200	-11.306000	23.787903	0.000532	20.714088
464.101524	-3.003600	3.752100	-11.269000	23.790243	0.000531	20.735402
465.114442	-3.011000	3.751800	-11.296000	23.779912	0.000532	20.709395
466.103826	-3.017000	3.751200	-11.316000	23.795819	0.000533	20.720129
467.104889	-2.967800	3.752200	-11.135000	23.790568	0.000534	20.734780
468.103004	-2.994700	3.751700	-11.234000	23.792730	0.000531	20.721299
469.103313	-2.981000	3.751300	-11.181000	23.772346	0.000529	20.736898
470.103092	-2.979000	3.751700	-11.175000	23.756120	0.000529	20.726318
471.102342	-3.010500	3.749900	-11.288000	23.792933	0.000529	20.727193
472.110528	-3.001000	3.750400	-11.254000	23.782634	0.000529	20.722082
473.120705	-3.003100	3.750000	-11.260000	23.786834	0.000530	20.730087
474.123747	-3.017500	3.749000	-11.312000	23.789100	0.000531	20.713867
475.124796	-2.990600	3.749500	-11.211000	23.812917	0.000531	20.714039
476.123012	-2.992700	3.749600	-11.220000	23.806678	0.000530	20.713947
477.121061	-3.003000	3.748400	-11.256000	23.805750	0.000529	20.719655
478.135717	-3.009000	3.748000	-11.276000	23.787909	0.000529	20.715043
479.105558	-2.996300	3.749300	-11.233000	23.782382	0.000529	20.714717
480.133274	-2.998700	3.748300	-11.239000	23.770534	0.000529	20.722279
481.113875	-3.004600	3.748100	-11.260000	23.775215	0.000530	20.717014
482.111737	-2.999300	3.746900	-11.236000	23.767280	0.000530	20.713326
483.112833	-3.001700	3.747400	-11.247000	23.802692	0.000527	20.707579
484.118986	-3.002000	3.747900	-11.250000	23.792835	0.000529	20.707653
485.108970	-2.994900	3.746200	-11.219000	23.802870	0.000529	20.688790
486.110326	-2.982000	3.747100	-11.174000	23.810160	0.000527	20.718861
487.113343	-2.992800	3.747200	-11.213000	23.835924	0.000529	20.696328
488.111494	-2.998100	3.745900	-11.230000	23.827086	0.000528	20.686518
489.117111	-2.998300	3.745900	-11.231000	23.827842	0.000529	20.718099
490.110450	-2.998800	3.745300	-11.231000	23.818980	0.000529	20.704945
491.131006	-3.007400	3.743900	-11.259000	23.855182	0.000526	20.709950
492.110970	-2.980700	3.745400	-11.163000	23.867158	0.000527	20.702992
493.110510	-3.001400	3.744900	-11.240000	23.836845	0.000526	20.706736
494.131703	-2.993700	3.745000	-11.211000	23.881915	0.000527	20.711626
495.113567	-3.003500	3.743900	-11.244000	23.884261	0.000528	20.699279
496.132188	-3.007300	3.744200	-11.259000	23.851725	0.000529	20.705061
497.137346	-3.015400	3.743600	-11.288000	23.887792	0.000525	20.708510
498.133312	-2.986500	3.744200	-11.181000	23.861459	0.000527	20.717193
499.119761	-3.010100	3.743500	-11.268000	23.874503	0.000527	20.710357
500.132781	-2.999600	3.743000	-11.227000	23.902310	0.000528	20.700308
501.133897	-2.988300	3.742700	-11.183000	23.909274	0.000526	20.714878
502.116326	-2.971200	3.743300	-11.122000	23.894142	0.000526	20.702549
503.136970	-3.011000	3.742000	-11.266000	23.906934	0.000528	20.702574
504.136666	-2.994500	3.741800	-11.204000	23.906990	0.000526	20.717329
505.142804	-3.011100	3.741200	-11.265000	23.885680	0.000528	20.691692
506.116113	-3.026000	3.741100	-11.320000	23.889715	0.000525	20.706645
507.137032	-2.993400	3.741100	-11.197000	23.933077	0.000527	20.684691
508.132632	-3.010800	3.740600	-11.262000	23.905897	0.000526	20.699163
509.138405	-2.981400	3.741200	-11.154000	23.889992	0.000527	20.695541
510.137105	-3.014800	3.741500	-11.278000	23.928219	0.000526	20.695468
511.132116	-3.006900	3.739000	-11.242000	23.929515	0.000526	20.699138
512.117272	-2.997600	3.738600	-11.205000	23.941182	0.000526	20.699458
513.120421	-3.005700	3.739200	-11.238000	23.936355	0.000525	20.699834
514.117595	-2.982300	3.739800	-11.152000	23.960421	0.000524	20.705475
515.124111	-2.997000	3.739300	-11.206000	23.971744	0.000525	20.694544
516.119310	-3.011900	3.738500	-11.258000	23.994096	0.000526	20.711744
517.119715	-2.993500	3.738500	-11.191000	23.991854	0.000525	20.701909
518.118114	-2.993100	3.738800	-11.190000	23.960249	0.000525	20.689654
519.119777	-2.992500	3.737500	-11.184000	23.931707	0.000524	20.694698
520.146594	-3.006100	3.737700	-11.234000	23.913438	0.000525	20.690603
521.142088	-3.023500	3.737200	-11.299000	23.934593	0.000522	20.688109
522.155794	-2.998400	3.736100	-11.201000	23.939469	0.000523	20.699163
523.143875	-3.012100	3.736000	-11.251000	23.946740	0.000524	20.707403
524.140006	-3.012700	3.736700	-11.256000	23.932408	0.000523	20.681175
525.137054	-2.998100	3.738400	-11.206000	23.962669	0.000524	20.699194
526.141008	-3.001100	3.735900	-11.211000	23.998505	0.000522	20.699570
527.122685	-2.986000	3.737300	-11.160000	23.991038	0.000522	20.709152
528.121994	-3.027600	3.735800	-11.309000	24.010504	0.000522	20.693110
529.123235	-2.978700	3.736700	-11.129000	24.002865	0.000524	20.704891
530.129185	-3.010500	3.735200	-11.243000	23.984646	0.000521	20.699422
531.125499	-2.972200	3.736600	-11.105000	23.983554	0.000522	20.706862
532.125300	-3.005500	3.733500	-11.219000	24.031503	0.000522	20.699472
533.129298	-2.983700	3.734800	-11.142000	24.021158	0.000520	20.719918
534.129896	-3.001300	3.733700	-11.205000	24.036865	0.000522	20.711013
535.125745	-3.006400	3.734000	-11.225000	24.042384	0.000520	20.698056
536.130573	-3.004000	3.734200	-11.216000	24.070832	0.000522	20.703353
537.126385	-2.995100	3.732100	-11.177000	24.024971	0.000521	20.694817
538.126173	-3.013400	3.733200	-11.249000	24.040703	0.000519	20.704905
539.144721	-3.004300	3.732700	-11.212000	24.051252	0.000520	20.706001
540.127364	-2.996800	3.731800	-11.182000	24.083996	0.000520	20.710866
541.129140	-2.976700	3.733500	-11.113000	24.102988	0.000518	20.705730
542.130908	-2.994900	3.732800	-11.178000	24.099261	0.000520	20.697725
543.146025	-3.004500	3.731500	-11.209000	24.122346	0.000518	20.709499
544.130684	-3.005600	3.730600	-11.211000	24.090776	0.000520	20.714821
545.134334	-2.985700	3.731200	-11.139000	24.048177	0.000519	20.696752
546.148453	-3.008600	3.729200	-11.218000	24.013466	0.000520	20.699875
547.152393	-2.995500	3.730300	-11.173000	24.035565	0.000518	20.704020
548.131079	-2.995700	3.731100	-11.176000	24.043610	0.000518	20.724891
549.148635	-2.984700	3.730700	-11.134000	24.050432	0.000516	20.696169
550.130391	-2.997100	3.729600	-11.177000	24.055454	0.000520	20.709267
551.148813	-2.987400	3.729700	-11.142000	24.050652	0.000518	20.701132
552.152939	-2.995900	3.729000	-11.170000	24.062780	0.000516	20.697647
553.146492	-3.000000	3.728300	-11.184000	24.032024	0.000516	20.709952
554.145733	-3.007500	3.728200	-11.211000	24.018386	0.000518	20.696748
555.149869	-2.996200	3.729400	-11.173000	24.036629	0.000517	20.704139
556.154965	-2.989700	3.728400	-11.145000	24.056087	0.000519	20.708954
557.132945	-2.983700	3.728300	-11.123000	24.087273	0.000517	20.702772
558.133717	-3.002300	3.727300	-11.189000	24.091577	0.000517	20.698554
559.133793	-3.006300	3.728300	-11.207000	24.086751	0.000519	20.709362
560.132401	-2.989800	3.726300	-11.141000	24.058010	0.000517	20.700924
561.160990	-3.011500	3.726100	-11.220000	24.066902	0.000516	20.705575
562.150846	-3.007300	3.725900	-11.204000	24.027961	0.000517	20.723896
563.152565	-3.007300	3.727000	-11.207000	24.027163	0.000516	20.712189
564.140990	-3.014300	3.726400	-11.231000	24.056182	0.000516	20.711420
565.139858	-3.002700	3.726000	-11.186000	24.037652	0.000514	20.729821
566.157420	-2.976100	3.726100	-11.088000	24.083081	0.000516	20.724173
567.152989	-3.027900	3.724700	-11.275000	24.105781	0.000515	20.721809
568.157285	-2.993100	3.724800	-11.148000	24.095454	0.000515	20.710029
569.161045	-3.005400	3.723600	-11.188000	24.111706	0.000515	20.709259
570.138000	-3.000700	3.725100	-11.176000	24.075923	0.000515	20.716045
571.156814	-2.998700	3.725200	-11.169000	24.028080	0.000514	20.717851
572.140180	-2.986800	3.723900	-11.122000	24.068887	0.000516	20.717998
573.138793	-3.010800	3.722400	-11.206000	24.082622	0.000514	20.714704
574.156016	-2.976200	3.722900	-11.079000	24.100097	0.000511	20.724644
575.156281	-2.987700	3.723300	-11.123000	24.131993	0.000514	20.717752
576.168601	-3.000000	3.723500	-11.170000	24.134756	0.000514	20.723843
577.158903	-3.015600	3.721600	-11.222000	24.131846	0.000513	20.711440
578.161840	-3.019000	3.722000	-11.235000	24.118265	0.000516	20.710622
579.157901	-3.009200	3.722200	-11.200000	24.108214	0.000513	20.729940
580.157303	-2.990100	3.722600	-11.130000	24.106870	0.000513	20.731911
581.156230	-2.997400	3.722800	-11.158000	24.124859	0.000514	20.721029
582.160317	-3.003500	3.721600	-11.177000	24.147079	0.000511	20.701113
583.163863	-3.000500	3.722000	-11.167000	24.150475	0.000513	20.705469
584.156454	-2.970600	3.722600	-11.056000	24.158015	0.000511	20.726783
585.161172	-2.998300	3.720700	-11.155000	24.120643	0.000513	20.721068
586.160505	-2.997800	3.720800	-11.154000	24.152447	0.000511	20.730681
587.168836	-3.008300	3.720800	-11.192000	24.131982	0.000511	20.733390
588.165154	-2.998400	3.722000	-11.158000	24.141069	0.000512	20.719744
589.160669	-2.989000	3.719000	-11.115000	24.137368	0.000511	20.720773
590.168073	-3.009400	3.719400	-11.193000	24.178521	0.000513	20.720797
591.165116	-3.007300	3.718700	-11.183000	24.184446	0.000510	20.714412
592.162621	-2.980000	3.719600	-11.083000	24.205578	0.000511	20.722806
593.167582	-3.009700	3.720000	-11.195000	24.195325	0.000510	20.724376
594.160345	-2.997500	3.719800	-11.150000	24.208341	0.000509	20.736958
595.163243	-3.001700	3.719100	-11.163000	24.216402	0.000511	20.729870
596.160224	-3.020300	3.717500	-11.227000	24.221976	0.000510	20.732142
597.159941	-2.991600	3.717900	-11.122000	24.229914	0.000510	20.710706
598.163374	-3.027400	3.717600	-11.254000	24.240934	0.000510	20.723182
599.162277	-3.002300	3.718500	-11.164000	24.228521	0.000508	20.739181
600.171973	-3.005000	3.716800	-11.167000	24.228853	0.000510	20.724341
601.173273	-2.999300	3.718100	-11.150000	24.220614	0.000508	20.729353
602.144831	-2.967400	3.718400	-11.032000	24.221640	0.000507	20.737021
603.145000	-2.985400	3.717400	-11.097000	24.214304	0.000509	20.729188
604.145901	-3.013900	3.716200	-11.200000	24.197899	0.000508	20.743554
605.163229	-3.004900	3.716500	-11.167000	24.242292	0.000508	20.736399
606.167193	-2.991000	3.716900	-11.117000	24.237117	0.000508	20.735475
607.161816	-3.011900	3.716900	-11.194000	24.225152	0.000507	20.716361
608.167661	-3.000500	3.715300	-11.147000	24.234809	0.000507	20.730316
609.147954	-2.998200	3.715300	-11.139000	24.234288	0.000505	20.737853
610.155059	-2.987200	3.714800	-11.096000	24.275413	0.000509	20.743543
611.151515	-2.992200	3.715300	-11.117000	24.290710	0.000507	20.732810
612.148376	-2.995000	3.715200	-11.126000	24.226780	0.000506	20.749764
613.172296	-3.011200	3.714200	-11.184000	24.245020	0.000506	20.727755
614.169311	-2.998600	3.714600	-11.138000	24.253823	0.000506	20.713350
615.173537	-3.037700	3.711900	-11.274000	24.264229	0.000503	20.752240
616.154313	-2.997000	3.713900	-11.129000	24.209044	0.000505	20.734818
617.168230	-2.989400	3.714200	-11.103000	24.212753	0.000504	20.730477
618.168242	-2.985000	3.713500	-11.083000	24.215589	0.000505	20.755134
619.153852	-3.022800	3.713300	-11.224000	24.222809	0.000506	20.758583
620.170511	-2.992400	3.712300	-11.108000	24.240447	0.000503	20.734548
621.172194	-3.019900	3.713300	-11.213000	24.235615	0.000505	20.738236
622.171021	-3.010400	3.710400	-11.169000	24.257016	0.000504	20.733624
623.171593	-2.998000	3.711100	-11.125000	24.231220	0.000505	20.747105
624.173853	-2.968400	3.712800	-11.020000	24.240993	0.000503	20.743157
625.172864	-2.989900	3.710700	-11.094000	24.269460	0.000501	20.737572
626.154898	-2.998600	3.710300	-11.125000	24.298441	0.000502	20.747203
627.186235	-3.003000	3.710900	-11.142000	24.348023	0.000502	20.752370
628.184440	-3.010900	3.710800	-11.172000	24.328178	0.000503	20.761386
629.154054	-2.987100	3.711100	-11.085000	24.343776	0.000503	20.744316
630.162639	-2.991400	3.709700	-11.096000	24.292303	0.000503	20.760013
631.155321	-3.013400	3.710700	-11.181000	24.297650	0.000501	20.736926
632.155732	-2.988700	3.709500	-11.085000	24.280787	0.000501	20.743245
633.155714	-2.997000	3.709100	-11.115000	24.255636	0.000501	20.743620
634.155386	-3.008300	3.709200	-11.157000	24.254918	0.000497	20.759971
635.157664	-3.007700	3.708900	-11.155000	24.248178	0.000500	20.738510
636.165572	-2.977500	3.709200	-11.042000	24.251315	0.000500	20.736441
637.158671	-2.983500	3.709400	-11.067000	24.239400	0.000498	20.735394
638.173504	-2.993200	3.708100	-11.098000	24.247957	0.000501	20.735443
639.158696	-3.000300	3.708100	-11.125000	24.247127	0.000502	20.763061
640.160879	-3.006500	3.708600	-11.149000	24.251126	0.000499	20.748580
641.175689	-2.996800	3.707900	-11.111000	24.246742	0.000501	20.743234
642.160422	-2.996400	3.707900	-11.110000	24.264491	0.000500	20.761987
643.162418	-3.017700	3.706600	-11.184000	24.260906	0.000499	20.761235
644.176465	-2.979800	3.708800	-11.050000	24.257947	0.000502	20.756844
645.180132	-3.004800	3.705800	-11.134000	24.271337	0.000498	20.730445
646.184402	-3.008600	3.706200	-11.149000	24.259298	0.000498	20.749191
647.186224	-2.992000	3.705900	-11.087000	24.262607	0.000498	20.769106
648.165112	-3.015100	3.706700	-11.176000	24.247383	0.000497	20.759524
649.164790	-3.005600	3.704900	-11.134000	24.298483	0.000499	20.757677
650.165504	-3.000800	3.706200	-11.120000	24.333615	0.000497	20.745029
651.167364	-3.013500	3.706400	-11.169000	24.328268	0.000498	20.765745
652.181849	-3.002500	3.705800	-11.126000	24.319459	0.000497	20.756908
653.169532	-3.009400	3.706100	-11.152000	24.308595	0.000498	20.763553
654.186046	-2.976200	3.706200	-11.030000	24.278938	0.000500	20.768892
655.170044	-3.014400	3.703900	-11.164000	24.310020	0.000497	20.758344
656.166044	-3.012500	3.703800	-11.156000	24.301904	0.000497	20.765850
657.196044	-2.995100	3.704300	-11.094000	24.341664	0.000497	20.778234
658.165914	-3.005500	3.704000	-11.132000	24.333881	0.000497	20.772797
659.168613	-3.002700	3.703700	-11.119000	24.346041	0.000498	20.780254
660.174527	-3.023900	3.704900	-11.202000	24.378857	0.000496	20.782829
661.185740	-2.978600	3.702900	-11.028000	24.400850	0.000495	20.780236
662.166785	-2.994500	3.704000	-11.090000	24.404257	0.000497	20.778912
663.166424	-2.996800	3.702800	-11.096000	24.432370	0.000495	20.790046
664.171300	-2.986400	3.702800	-11.057000	24.425483	0.000495	20.776499
665.190279	-3.002100	3.702400	-11.114000	24.402373	0.000493	20.792670
666.186675	-2.999900	3.701700	-11.103000	24.407849	0.000494	20.780619
667.188865	-2.979900	3.702200	-11.031000	24.399944	0.000495	20.756093
668.169774	-2.985000	3.702000	-11.050000	24.413699	0.000492	20.770841
669.171876	-3.001400	3.700600	-11.106000	24.425515	0.000493	20.785066
670.170990	-3.011300	3.701700	-11.146000	24.402828	0.000493	20.769893
671.186315	-2.981600	3.701900	-11.037000	24.381714	0.000494	20.780479
672.170940	-3.004000	3.701900	-11.120000	24.393603	0.000492	20.789087
673.172433	-2.993600	3.700900	-11.078000	24.412288	0.000491	20.795978
674.172451	-3.008800	3.700100	-11.132000	24.406126	0.000493	20.778891
675.174761	-3.032200	3.699200	-11.216000	24.405426	0.000491	20.788620
676.190828	-3.026300	3.699100	-11.193000	24.415352	0.000493	20.790043
677.191978	-2.987000	3.700900	-11.054000	24.410104	0.000494	20.772450
678.193189	-2.999600	3.699900	-11.098000	24.421079	0.000493	20.781090
679.188895	-3.008200	3.698700	-11.126000	24.437253	0.000493	20.790204
680.190463	-2.989200	3.700600	-11.060000	24.445158	0.000491	20.813782
681.190268	-3.018800	3.698800	-11.164000	24.474590	0.000492	20.784514
682.191188	-2.976900	3.699200	-11.010000	24.495262	0.000490	20.776805
683.195257	-3.012500	3.697500	-11.137000	24.502008	0.000490	20.783573
684.196201	-3.001900	3.698600	-11.102000	24.516480	0.000489	20.788610
685.191626	-2.995400	3.697800	-11.076000	24.487406	0.000489	20.779355
686.178347	-3.004800	3.698000	-11.112000	24.462040	0.000489	20.787096
687.200194	-3.002100	3.696600	-11.096000	24.462586	0.000491	20.797601
688.194097	-3.001500	3.697200	-11.096000	24.484203	0.000485	20.788943
689.193083	-3.015900	3.696600	-11.148000	24.436525	0.000489	20.803698
690.197224	-2.990300	3.696200	-11.052000	24.423593	0.000488	20.800207
691.180975	-2.995500	3.695900	-11.070000	24.428638	0.000487	20.775396
692.176697	-2.991700	3.696600	-11.058000	24.432198	0.000486	20.792719
693.177803	-2.997400	3.696300	-11.078000	24.401208	0.000488	20.805251
694.180537	-3.000900	3.696100	-11.091000	24.403791	0.000488	20.808317
695.177469	-2.985600	3.695200	-11.032000	24.441062	0.000485	20.803983
696.195287	-3.004700	3.696200	-11.105000	24.455567	0.000486	20.792456
697.192752	-2.995000	3.695500	-11.067000	24.466363	0.000487	20.812770
698.177700	-2.978600	3.696000	-11.008000	24.439946	0.000485	20.809501
699.177742	-2.973900	3.694700	-10.987000	24.471740	0.000485	20.804415
700.177422	-3.000300	3.693700	-11.081000	24.487263	0.000487	20.794858
701.178762	-3.008200	3.694000	-11.111000	24.511194	0.000486	20.804643
702.181846	-2.981200	3.694800	-11.013000	24.488737	0.000487	20.802501
703.194296	-2.976900	3.693700	-10.995000	24.483808	0.000485	20.805142
704.179076	-3.018100	3.693700	-11.146000	24.506450	0.000485	20.812686
705.190305	-3.025500	3.693100	-11.173000	24.541502	0.000484	20.794275
706.180027	-2.994200	3.693700	-11.059000	24.533566	0.000483	20.802908
707.182384	-3.001000	3.692800	-11.081000	24.511957	0.000485	20.803987
708.197138	-2.979500	3.691800	-10.999000	24.489143	0.000482	20.820452
709.181376	-3.015700	3.691500	-11.132000	24.491187	0.000485	20.811123
710.198117	-2.988800	3.693000	-11.036000	24.518500	0.000482	20.822879
711.180850	-2.986500	3.691900	-11.025000	24.504697	0.000483	20.813297
712.182008	-2.970600	3.693200	-10.970000	24.492507	0.000480	20.819085
713.181591	-2.984300	3.692700	-11.019000	24.488408	0.000481	20.823507
714.185647	-2.999500	3.690800	-11.069000	24.506391	0.000483	20.812152
715.183856	-2.984800	3.691300	-11.017000	24.508852	0.000482	20.812251
716.195586	-3.001400	3.690700	-11.076000	24.497387	0.000480	20.827775
717.182609	-3.006000	3.689600	-11.090000	24.521734	0.000481	20.804787
718.197514	-3.012100	3.689300	-11.112000	24.527430	0.000483	20.825674
719.199171	-2.990700	3.690100	-11.034000	24.553894	0.000481	20.824252
720.202160	-3.001200	3.689900	-11.073000	24.497062	0.000480	20.820810
721.196769	-3.019700	3.689200	-11.139000	24.506881	0.000481	20.831136
722.210660	-3.009000	3.689000	-11.099000	24.466465	0.000480	20.826623
723.199049	-3.001800	3.688400	-11.071000	24.509888	0.000480	20.828937
724.203744	-3.013000	3.690100	-11.118000	24.481704	0.000482	20.830532
725.199876	-2.997600	3.688400	-11.056000	24.456060	0.000479	20.824245
726.200462	-2.997200	3.688900	-11.056000	24.451303	0.000479	20.809515
727.202512	-2.994300	3.689300	-11.047000	24.486773	0.000479	20.833721
728.185620	-3.026900	3.687300	-11.160000	24.560496	0.000477	20.815703
729.186542	-3.009100	3.686500	-11.092000	24.576563	0.000478	20.836565
730.206256	-3.018600	3.686500	-11.127000	24.591360	0.000477	20.811109
731.186254	-3.005200	3.686900	-11.079000	24.609310	0.000478	20.850456
732.187480	-2.985200	3.687200	-11.006000	24.648131	0.000478	20.827771
733.186560	-2.997500	3.686300	-11.049000	24.640270	0.000477	20.831736
734.187969	-2.991200	3.687100	-11.028000	24.624651	0.000479	20.819384
735.204504	-2.971700	3.687600	-10.957000	24.609653	0.000477	20.823300
736.205612	-2.993000	3.687000	-11.035000	24.567098	0.000478	20.833232
737.206503	-2.991900	3.686000	-11.027000	24.570798	0.000476	20.848798
738.188779	-2.997900	3.683900	-11.044000	24.600310	0.000477	20.833366
739.188996	-2.986300	3.685700	-11.006000	24.554195	0.000476	20.836407
740.189285	-3.018000	3.684200	-11.118000	24.544849	0.000477	20.846944
741.190740	-3.009300	3.684800	-11.087000	24.564052	0.000475	20.827806
742.206343	-3.002700	3.685200	-11.064000	24.584170	0.000476	20.856525
743.208370	-3.007200	3.684900	-11.080000	24.596547	0.000476	20.846659
744.205929	-2.990700	3.685000	-11.020000	24.590883	0.000475	20.821537
745.206728	-2.991700	3.683900	-11.020000	24.562621	0.000474	20.840594
746.189583	-2.990400	3.684100	-11.016000	24.547400	0.000473	20.833857
747.190171	-2.989400	3.683600	-11.011000	24.580326	0.000474	20.821375
748.193245	-3.005900	3.683000	-11.070000	24.607514	0.000473	20.830637
749.192936	-3.014700	3.682900	-11.103000	24.627532	0.000474	20.834128
750.211288	-3.003600	3.682700	-11.059000	24.647085	0.000473	20.838100
751.210434	-2.985700	3.682700	-10.995000	24.666948	0.000474	20.847126
752.192813	-2.978800	3.682100	-10.968000	24.629349	0.000472	20.836899
753.211987	-3.008400	3.682000	-11.076000	24.590698	0.000471	20.830833
754.214929	-2.982100	3.683200	-10.983000	24.592613	0.000472	20.817582
755.208101	-3.009600	3.680800	-11.077000	24.579535	0.000470	20.820581
756.193339	-2.969900	3.682400	-10.936000	24.594429	0.000472	20.837896
757.196900	-2.992900	3.680700	-11.015000	24.631687	0.000472	20.825495
758.192571	-3.008900	3.680000	-11.071000	24.655688	0.000470	20.826345
759.194523	-3.011500	3.678400	-11.077000	24.662402	0.000469	20.831659
760.193351	-3.018200	3.678600	-11.102000	24.656878	0.000467	20.813315
761.192565	-2.989900	3.681400	-11.006000	24.619646	0.000468	20.816732
762.196228	-2.977300	3.679600	-10.954000	24.625071	0.000470	20.834978
763.194654	-2.998100	3.678500	-11.027000	24.641064	0.000469	20.812145
764.219668	-3.010600	3.680100	-11.079000	24.592865	0.000469	20.809300
765.211021	-2.978400	3.679200	-10.957000	24.581002	0.000468	20.819208
766.219273	-3.025400	3.678700	-11.128000	24.568838	0.000467	20.811745
767.224189	-3.029600	3.677800	-11.140000	24.599302	0.000468	20.813389
768.216879	-3.010200	3.677700	-11.070000	24.612988	0.000469	20.803414
769.210858	-3.019900	3.676000	-11.100000	24.645797	0.000466	20.814049
770.210670	-2.990400	3.676500	-10.993000	24.665146	0.000466	20.820188
771.211769	-2.984100	3.677400	-10.973000	24.646269	0.000466	20.805514
772.212689	-2.984800	3.678100	-10.977000	24.595210	0.000463	20.809757
773.215232	-2.994900	3.676200	-11.008000	24.594443	0.000465	20.827954
774.197750	-2.985700	3.676700	-10.977000	24.577683	0.000464	20.799758
775.198534	-2.992900	3.677200	-11.004000	24.597979	0.000466	20.812061
776.196542	-2.984500	3.676600	-10.971000	24.592756	0.000467	20.793544
777.197280	-3.010800	3.675000	-11.063000	24.557566	0.000466	20.817031
778.211724	-3.007900	3.675300	-11.053000	24.572069	0.000467	20.801236
779.214207	-3.008300	3.674100	-11.051000	24.606100	0.000466	20.800295
780.201035	-2.994700	3.674500	-11.003000	24.657134	0.000464	20.803614
781.197789	-2.984900	3.675100	-10.969000	24.666388	0.000466	20.794883
782.197188	-3.015200	3.674900	-11.080000	24.643861	0.000465	20.786028
783.196627	-2.999500	3.673300	-11.018000	24.684278	0.000465	20.795764
784.197989	-2.997700	3.673400	-11.011000	24.660897	0.000466	20.789846
785.198053	-3.012900	3.673600	-11.067000	24.646924	0.000463	20.795266
786.202285	-2.992400	3.673000	-10.989000	24.677767	0.000462	20.788283
787.198114	-3.012500	3.673700	-11.064000	24.694207	0.000464	20.789607
788.226623	-3.000200	3.673800	-11.022000	24.714175	0.000464	20.793049
789.215781	-3.024900	3.672000	-11.107000	24.760658	0.000463	20.793703
790.201807	-3.007800	3.671200	-11.042000	24.787817	0.000462	20.792509
791.199259	-2.996600	3.671700	-11.002000	24.788909	0.000462	20.781276
792.199588	-3.000100	3.672400	-11.017000	24.800223	0.000465	20.811597
793.202689	-3.010100	3.672200	-11.053000	24.805973	0.000463	20.773746
794.200657	-2.994700	3.671500	-10.995000	24.763629	0.000462	20.782934
795.201260	-2.979300	3.672400	-10.940000	24.719362	0.000461	20.782133
796.200711	-2.988200	3.672400	-10.973000	24.675198	0.000461	20.803249
797.199909	-3.004600	3.670200	-11.026000	24.679003	0.000460	20.781462
798.202814	-3.004400	3.669500	-11.024000	24.640175	0.000460	20.791813
799.226474	-3.001700	3.670300	-11.016000	24.620742	0.000460	20.794598
800.218928	-3.002600	3.669300	-11.016000	24.633574	0.000459	20.773809
801.220376	-2.995500	3.670600	-10.994000	24.619723	0.000461	20.795473
802.219358	-3.035000	3.667500	-11.130000	24.631855	0.000459	20.776826
803.223866	-3.008800	3.670500	-11.043000	24.684736	0.000458	20.783422
804.203178	-2.999900	3.669100	-11.007000	24.723457	0.000461	20.783872
805.204310	-3.018000	3.668800	-11.072000	24.731245	0.000460	20.774617
806.208153	-2.985800	3.668800	-10.954000	24.703563	0.000461	20.793780
807.206568	-3.012700	3.668500	-11.051000	24.697729	0.000461	20.796460
808.203840	-3.012000	3.667800	-11.047000	24.692230	0.000459	20.762493
809.206038	-3.020800	3.667800	-11.079000	24.680669	0.000456	20.793092
810.207224	-2.965400	3.667900	-10.876000	24.704547	0.000460	20.768214
811.203753	-2.987200	3.668300	-10.957000	24.712475	0.000460	20.766212
812.204876	-3.005900	3.666700	-11.021000	24.752521	0.000458	20.777002
813.207618	-2.998600	3.667200	-10.996000	24.742004	0.000457	20.784940
814.205335	-3.004700	3.667200	-11.017000	24.749735	0.000455	20.766146
815.205027	-2.995500	3.665900	-10.980000	24.756301	0.000456	20.771786
816.205169	-3.001300	3.665100	-11.000000	24.781318	0.000457	20.782667
817.211737	-2.961600	3.666900	-10.858000	24.758590	0.000456	20.776928
818.206754	-2.972300	3.665800	-10.895000	24.722698	0.000455	20.772678
819.206334	-2.980100	3.666500	-10.926000	24.714599	0.000457	20.783517
820.207014	-2.996600	3.664400	-10.980000	24.723171	0.000455	20.790222
821.209044	-2.997200	3.665300	-10.985000	24.708562	0.000453	20.758966
822.208012	-3.001400	3.665100	-10.999000	24.746711	0.000456	20.763585
823.207735	-3.001000	3.665200	-10.998000	24.756431	0.000453	20.781400
824.208952	-2.967100	3.664000	-10.871000	24.762653	0.000455	20.768204
825.207705	-2.982600	3.665400	-10.932000	24.787793	0.000452	20.771147
826.210960	-2.979600	3.664600	-10.919000	24.797413	0.000455	20.775587
827.229508	-2.998800	3.662800	-10.983000	24.772145	0.000453	20.771091
828.225495	-3.008300	3.663400	-11.019000	24.802016	0.000452	20.750333
829.228613	-2.985600	3.662700	-10.934000	24.781741	0.000451	20.753220
830.224638	-2.994400	3.663400	-10.969000	24.745017	0.000452	20.768049
831.225354	-3.013200	3.662900	-11.036000	24.793161	0.000451	20.776061
832.227782	-3.026600	3.662200	-11.083000	24.789878	0.000451	20.765654
833.227106	-3.015600	3.660900	-11.039000	24.795524	0.000449	20.761362
834.228488	-3.018000	3.661000	-11.048000	24.746361	0.000451	20.775088
835.227826	-3.036800	3.661000	-11.116000	24.760364	0.000450	20.766381
836.210845	-2.993800	3.661500	-10.961000	24.786620	0.000447	20.767600
837.213757	-2.991800	3.661400	-10.953000	24.773391	0.000449	20.771867
838.231437	-3.012100	3.660400	-11.024000	24.754394	0.000449	20.749009
839.228893	-2.992700	3.660800	-10.954000	24.774189	0.000448	20.757020
840.215141	-2.976600	3.660700	-10.895000	24.746018	0.000449	20.757200
841.211770	-2.976700	3.660200	-10.894000	24.760455	0.000447	20.758885
842.216225	-3.002300	3.658300	-10.982000	24.764641	0.000450	20.755500
843.217860	-3.010700	3.659600	-11.018000	24.767378	0.000447	20.763462
844.229434	-3.014200	3.657800	-11.023000	24.765089	0.000446	20.758320
845.233014	-3.024700	3.657700	-11.063000	24.784485	0.000445	20.764035
846.213132	-2.985500	3.658400	-10.921000	24.788290	0.000445	20.744144
847.235083	-2.983700	3.658400	-10.915000	24.831406	0.000446	20.761337
848.234257	-3.018400	3.658400	-11.042000	24.833646	0.000447	20.746989
849.229248	-3.003000	3.657900	-10.983000	24.820067	0.000445	20.752802
850.213239	-2.988200	3.657500	-10.928000	24.807685	0.000445	20.751281
851.236541	-3.033200	3.656100	-11.089000	24.821631	0.000446	20.765278
852.233234	-2.988900	3.657100	-10.930000	24.809803	0.000446	20.759096
853.219073	-2.991300	3.656700	-10.937000	24.790635	0.000442	20.757878
854.215472	-2.998100	3.655900	-10.960000	24.829842	0.000444	20.755500
855.214748	-3.010600	3.657200	-11.009000	24.825964	0.000445	20.762514
856.215924	-2.981300	3.656300	-10.899000	24.853195	0.000443	20.764238
857.217479	-3.018700	3.655300	-11.033000	24.851851	0.000442	20.752458
858.217578	-2.969500	3.657000	-10.859000	24.827161	0.000441	20.764663
859.233770	-2.981100	3.655700	-10.897000	24.840691	0.000444	20.752637
860.216999	-3.003100	3.656500	-10.980000	24.792752	0.000443	20.736294
861.233849	-3.023700	3.653000	-11.044000	24.758132	0.000441	20.738061
862.232846	-3.011800	3.655100	-11.008000	24.730661	0.000441	20.754590
863.238424	-3.002600	3.654100	-10.971000	24.713465	0.000442	20.746343
864.217350	-3.007400	3.653900	-10.988000	24.774147	0.000440	20.739908
865.233170	-2.995100	3.653200	-10.940000	24.804914	0.000441	20.748974
866.238855	-2.998100	3.654100	-10.955000	24.817288	0.000440	20.749539
867.217749	-2.960700	3.654800	-10.819000	24.856411	0.000439	20.740913
868.218904	-3.002000	3.651800	-10.961000	24.871756	0.000440	20.755841
869.236804	-2.995700	3.654400	-10.946000	24.849772	0.000440	20.742311
870.219509	-3.002600	3.653500	-10.969000	24.893464	0.000440	20.734952
871.221838	-3.014300	3.651700	-11.007000	24.925189	0.000439	20.749725
872.223172	-2.985000	3.653900	-10.906000	24.914373	0.000438	20.736024
873.220083	-2.985600	3.651800	-10.902000	24.839704	0.000438	20.734576
874.238184	-3.008400	3.652300	-10.987000	24.829807	0.000439	20.745981
875.241615	-2.992200	3.651900	-10.927000	24.791611	0.000438	20.748426
876.238659	-2.997200	3.650200	-10.939000	24.762066	0.000437	20.744854
877.243784	-2.996100	3.649900	-10.934000	24.768533	0.000440	20.723842
878.223113	-3.014200	3.650200	-11.002000	24.774448	0.000436	20.735943
879.225546	-3.010700	3.649000	-10.985000	24.778049	0.000436	20.735764
880.223854	-2.993700	3.649600	-10.925000	24.821523	0.000439	20.748099
881.239878	-3.008700	3.648800	-10.978000	24.837555	0.000436	20.728626
882.223442	-2.995800	3.649400	-10.932000	24.863987	0.000435	20.738085
883.225738	-2.988800	3.650700	-10.910000	24.883374	0.000436	20.740474
884.228682	-3.000000	3.648100	-10.943000	24.918512	0.000435	20.737808
885.225097	-3.007700	3.649000	-10.975000	24.887707	0.000435	20.724907
886.225320	-2.984600	3.648400	-10.887000	24.886087	0.000433	20.739402
887.224205	-3.006600	3.647300	-10.965000	24.908038	0.000434	20.734882
888.225750	-2.970100	3.648200	-10.834000	24.899853	0.000431	20.734727
889.227381	-2.981100	3.647200	-10.872000	24.907185	0.000433	20.740663
890.241632	-3.003100	3.646900	-10.951000	24.935984	0.000434	20.728317
891.225397	-2.972800	3.647400	-10.842000	24.902012	0.000434	20.745904
892.226174	-3.021400	3.645500	-11.013000	24.941646	0.000433	20.722146
893.251861	-2.998700	3.646700	-10.934000	24.897736	0.000432	20.732602
894.243358	-2.995600	3.645200	-10.919000	24.893404	0.000434	20.707390
895.248270	-3.008300	3.645800	-10.967000	24.881152	0.000433	20.729234
896.247362	-2.977900	3.645800	-10.855000	24.880127	0.000431	20.735317
897.245522	-2.992100	3.645900	-10.908000	24.850608	0.000432	20.741727
898.244764	-2.991400	3.645700	-10.905000	24.864830	0.000428	20.734190
899.246842	-2.995800	3.643600	-10.915000	24.877978	0.000430	20.725574
900.250509	-3.006400	3.644300	-10.955000	24.867959	0.000430	20.725949
901.244194	-3.003700	3.644100	-10.945000	24.870493	0.000429	20.753150
902.249085	-3.005900	3.643300	-10.950000	24.884820	0.000430	20.735286
903.245538	-3.008100	3.642600	-10.956000	24.880554	0.000429	20.734323
904.228807	-3.005600	3.643500	-10.950000	24.907881	0.000427	20.736620
905.231833	-3.036300	3.641900	-11.057000	24.884700	0.000427	20.715250
906.244368	-2.992700	3.641600	-10.898000	24.854423	0.000427	20.751246
907.250329	-2.984200	3.641600	-10.866000	24.818859	0.000427	20.718398
908.247106	-3.008300	3.641300	-10.953000	24.793770	0.000427	20.731625
909.249090	-2.993500	3.641800	-10.901000	24.787131	0.000427	20.710737
910.232258	-3.001300	3.642600	-10.930000	24.832358	0.000425	20.720091
911.253367	-3.005300	3.640600	-10.941000	24.868582	0.000425	20.722307
912.252003	-2.992100	3.641500	-10.894000	24.904836	0.000427	20.701320
913.249130	-3.000000	3.640600	-10.921000	24.906866	0.000424	20.718531
914.248816	-3.030700	3.639600	-11.029000	24.890681	0.000425	20.706553
915.252937	-2.998000	3.640700	-10.914000	24.873852	0.000424	20.708155
916.258006	-3.025200	3.639900	-11.010000	24.925339	0.000422	20.727590
917.251395	-3.012100	3.638500	-10.959000	24.900546	0.000423	20.723568
918.251396	-2.995100	3.638000	-10.895000	24.909049	0.000424	20.710765
919.250253	-3.005700	3.639000	-10.936000	24.900147	0.000423	20.705622
920.252209	-3.017900	3.637700	-10.978000	24.917381	0.000424	20.728137
921.253113	-3.008400	3.638600	-10.946000	24.928492	0.000423	20.712261
922.236474	-3.018500	3.637800	-10.979000	24.934731	0.000422	20.700030
923.237436	-3.002600	3.637100	-10.919000	24.986915	0.000422	20.708313
924.237930	-2.995500	3.637000	-10.894000	24.987282	0.000421	20.690188
925.251194	-3.014500	3.637700	-10.965000	24.967092	0.000421	20.712598
926.242615	-2.976200	3.636000	-10.821000	24.929503	0.000419	20.711854
927.251494	-2.989300	3.636500	-10.870000	24.880224	0.000421	20.729251
928.251745	-2.982800	3.636700	-10.847000	24.887213	0.000418	20.713030
929.255358	-2.990000	3.635500	-10.870000	24.927736	0.000420	20.713399
930.249011	-2.975400	3.635900	-10.817000	24.941387	0.000422	20.713350
931.235305	-3.001100	3.636500	-10.912000	24.952399	0.000418	20.693581
932.239703	-3.000000	3.635400	-10.905000	24.939994	0.000419	20.712426
933.254324	-3.000600	3.633900	-10.902000	24.950460	0.000419	20.697800
934.237111	-3.009500	3.633800	-10.935000	24.988797	0.000419	20.714470
935.241957	-3.005600	3.633200	-10.919000	24.957497	0.000419	20.705812
936.236486	-2.993900	3.633300	-10.877000	24.946153	0.000420	20.701063
937.269140	-2.990200	3.634500	-10.867000	24.963729	0.000417	20.724871
938.254013	-3.001500	3.633900	-10.906000	24.947920	0.000416	20.701414
939.239667	-3.015600	3.632000	-10.952000	24.955730	0.000417	20.705461
940.240302	-3.010500	3.632400	-10.935000	24.919127	0.000416	20.727045
941.240623	-3.005400	3.631500	-10.913000	24.947202	0.000417	20.726775
942.270451	-2.998800	3.632300	-10.892000	24.920293	0.000419	20.715886
943.239511	-3.019900	3.631500	-10.965000	24.919673	0.000415	20.714790
944.240503	-3.015300	3.632600	-10.953000	24.932012	0.000415	20.708682
945.240844	-2.999900	3.630100	-10.889000	24.957620	0.000414	20.697400
946.241329	-3.013300	3.631900	-10.943000	24.953043	0.000415	20.690434
947.258667	-3.004100	3.630600	-10.906000	24.961049	0.000412	20.672390
948.260801	-3.015200	3.630300	-10.945000	24.970675	0.000416	20.713824
949.258825	-2.995200	3.630800	-10.874000	24.958369	0.000411	20.704790
950.262026	-2.991800	3.631200	-10.863000	24.967767	0.000414	20.709483
951.264730	-3.015800	3.630400	-10.948000	24.913693	0.000411	20.703571
952.262469	-2.984400	3.629800	-10.832000	24.944547	0.000414	20.701822
953.265433	-2.979300	3.629800	-10.813000	24.973737	0.000412	20.693188
954.259732	-3.004100	3.628200	-10.898000	25.019533	0.000411	20.709286
955.263686	-2.976000	3.628300	-10.797000	24.984350	0.000412	20.682029
956.264522	-2.997800	3.627400	-10.873000	24.999270	0.000410	20.691316
957.247078	-3.011500	3.628100	-10.925000	24.971960	0.000413	20.693775
958.249607	-2.999000	3.627100	-10.876000	24.963100	0.000409	20.693416
959.266176	-3.029900	3.627100	-10.989000	24.962645	0.000411	20.686321
960.277557	-3.023600	3.626100	-10.962000	24.977695	0.000409	20.707593
961.247814	-3.002900	3.626100	-10.888000	24.998259	0.000410	20.707372
962.248822	-2.998100	3.625700	-10.869000	25.010541	0.000408	20.695043
963.250483	-3.014200	3.624100	-10.923000	25.010989	0.000408	20.694070
964.249420	-2.987500	3.625700	-10.831000	25.022277	0.000407	20.696866
965.249180	-3.012800	3.626000	-10.923000	25.017357	0.000406	20.715162
966.252490	-3.015500	3.624900	-10.930000	25.048834	0.000407	20.687487
967.268014	-2.967300	3.625400	-10.757000	25.007087	0.000407	20.698215
968.267663	-2.996700	3.624500	-10.861000	25.012210	0.000406	20.687234
969.252166	-2.980800	3.623900	-10.801000	25.031430	0.000406	20.704158
970.269676	-3.005100	3.623300	-10.887000	24.996646	0.000406	20.692001
971.272866	-2.991300	3.622700	-10.835000	25.005702	0.000405	20.701566
972.266178	-3.012000	3.622800	-10.911000	25.005579	0.000407	20.701917
973.256584	-2.996500	3.622200	-10.853000	24.971519	0.000405	20.685271
974.271637	-2.988000	3.621800	-10.821000	24.974696	0.000403	20.712644
975.266453	-2.995300	3.622800	-10.850000	24.975746	0.000405	20.698998
976.268491	-3.003800	3.622400	-10.880000	25.001003	0.000404	20.699693
977.277556	-2.989700	3.621300	-10.826000	24.965777	0.000403	20.690887
978.267272	-3.005900	3.621600	-10.885000	24.968912	0.000402	20.699251
979.266998	-2.988000	3.619900	-10.816000	25.012193	0.000401	20.689114
980.275243	-2.993100	3.620500	-10.835000	25.015800	0.000402	20.696054
981.250521	-3.017800	3.620300	-10.924000	25.014285	0.000403	20.700224
982.261285	-3.023600	3.618400	-10.939000	25.005800	0.000402	20.720631
983.266069	-3.025300	3.618900	-10.947000	25.013267	0.000402	20.682605
984.252028	-3.006400	3.618200	-10.876000	25.006808	0.000399	20.681811
985.255134	-3.000900	3.618500	-10.858000	25.046658	0.000400	20.704270
986.253718	-3.023100	3.618900	-10.939000	25.079771	0.000399	20.707639
987.252829	-3.015400	3.618200	-10.909000	25.116068	0.000399	20.708988
988.276980	-3.017200	3.618500	-10.916000	25.109382	0.000400	20.708914
989.267861	-3.014600	3.618000	-10.906000	25.096156	0.000399	20.698007
990.273849	-2.978700	3.619100	-10.780000	25.079673	0.000400	20.714179
991.270966	-2.991400	3.617200	-10.820000	25.055265	0.000400	20.697737
992.253035	-2.995900	3.616500	-10.833000	25.053554	0.000400	20.699339
993.254734	-3.022800	3.616100	-10.930000	25.070632	0.000398	20.716957
994.254060	-3.033600	3.615700	-10.967000	25.075307	0.000399	20.691776
995.270050	-2.997000	3.615400	-10.834000	25.056347	0.000398	20.705935
996.274551	-3.012300	3.614700	-10.887000	25.084086	0.000397	20.693476
997.281096	-3.005700	3.615900	-10.868000	25.085601	0.000398	20.688833
998.271464	-2.984200	3.615500	-10.789000	25.097066	0.000397	20.704137
999.272961	-2.990700	3.614200	-10.808000	25.079044	0.000396	20.705011
1000.255992	-3.003100	3.612900	-10.849000	25.077725	0.000396	20.714594
1001.275882	-3.008900	3.614400	-10.875000	25.065745	0.000396	20.701144
1002.256793	-3.008300	3.613600	-10.870000	25.069523	0.000395	20.698299
1003.275681	-3.007100	3.613300	-10.864000	25.021220	0.000397	20.692486
1004.278110	-3.014200	3.614400	-10.894000	25.008123	0.000394	20.706367
1005.257211	-3.005300	3.612400	-10.855000	24.992234	0.000395	20.707488
1006.259025	-3.017200	3.612700	-10.899000	25.000044	0.000393	20.705844
1007.259993	-3.008800	3.612800	-10.869000	24.965829	0.000394	20.684776
1008.259068	-2.997700	3.611200	-10.825000	24.976001	0.000392	20.681235
1009.258299	-3.027400	3.610300	-10.929000	25.004449	0.000393	20.690824
1010.258246	-3.013000	3.610400	-10.877000	25.042361	0.000392	20.701380
1011.274621	-3.007900	3.611400	-10.862000	25.026847	0.000392	20.708566
1012.261293	-2.992300	3.609900	-10.801000	25.036864	0.000392	20.693016
1013.276279	-3.006200	3.610200	-10.852000	24.994358	0.000392	20.711043
1014.260059	-2.994300	3.611200	-10.812000	25.057722	0.000390	20.697358
1015.260832	-3.001500	3.609300	-10.831000	25.037582	0.000392	20.718868
1016.260714	-3.011800	3.610000	-10.871000	25.043519	0.000390	20.687368
1017.266979	-2.983600	3.609000	-10.766000	25.070566	0.000393	20.708355
1018.280488	-2.982800	3.609200	-10.765000	25.101611	0.000391	20.693051
1019.274399	-2.968400	3.609600	-10.714000	25.105845	0.000390	20.735711
1020.267475	-3.006100	3.608900	-10.847000	25.116554	0.000388	20.712795
1021.263027	-2.992400	3.609000	-10.799000	25.083834	0.000389	20.678049
1022.264174	-2.988600	3.606900	-10.779000	25.117467	0.000389	20.708496
1023.269352	-2.991400	3.608400	-10.794000	25.133649	0.000387	20.704825
1024.273041	-2.974500	3.609000	-10.734000	25.108738	0.000387	20.722967
1025.264185	-2.992800	3.607900	-10.797000	25.121939	0.000387	20.694017
1026.269464	-2.998300	3.608300	-10.817000	25.088777	0.000385	20.720948
1027.264142	-3.011300	3.605900	-10.858000	25.059737	0.000386	20.717874
1028.280615	-3.008000	3.606000	-10.846000	25.038033	0.000386	20.723589
1029.266045	-2.987100	3.606000	-10.770000	25.052994	0.000386	20.722486
1030.285306	-2.987800	3.606400	-10.774000	25.091034	0.000387	20.715152
1031.277884	-2.979500	3.605800	-10.743000	25.131427	0.000386	20.722985
1032.283486	-3.009600	3.604900	-10.848000	25.076937	0.000383	20.710010
1033.286082	-3.004100	3.604800	-10.828000	25.056791	0.000385	20.719658
1034.284799	-2.968400	3.604600	-10.699000	25.078305	0.000384	20.712806
1035.278520	-2.980200	3.603500	-10.739000	25.101142	0.000386	20.732412
1036.271865	-2.976000	3.605200	-10.728000	25.110515	0.000382	20.729493
1037.287518	-2.965900	3.603000	-10.685000	25.112772	0.000382	20.716585
1038.289845	-2.998700	3.602800	-10.803000	25.136210	0.000381	20.720673
1039.287023	-3.000000	3.601300	-10.804000	25.118440	0.000381	20.698092
1040.289689	-2.993900	3.601900	-10.783000	25.085499	0.000380	20.722398
1041.290604	-3.019100	3.601600	-10.873000	25.054096	0.000381	20.739714
1042.287873	-2.969300	3.602400	-10.695000	25.065702	0.000380	20.730501
1043.272085	-2.982800	3.601800	-10.742000	25.095883	0.000382	20.718598
1044.289630	-3.013100	3.600300	-10.847000	25.116813	0.000381	20.734393
1045.272022	-2.999100	3.601600	-10.800000	25.123646	0.000380	20.723234
1046.272652	-2.984100	3.601300	-10.745000	25.127652	0.000382	20.711608
1047.272943	-2.968600	3.601000	-10.689000	25.090761	0.000378	20.722465
1048.281719	-3.009500	3.599700	-10.832000	25.119867	0.000380	20.726079
1049.275757	-2.982900	3.600100	-10.738000	25.137238	0.000378	20.728819
1050.273917	-3.012000	3.599200	-10.840000	25.117799	0.000380	20.713571
1051.275012	-2.998000	3.599400	-10.790000	25.072805	0.000378	20.737632
1052.275853	-2.991400	3.597900	-10.762000	25.036752	0.000379	20.730838
1053.277026	-3.000300	3.598600	-10.796000	25.011650	0.000377	20.727453
1054.297943	-2.975500	3.597700	-10.705000	25.039065	0.000377	20.735531
1055.278911	-2.989400	3.597700	-10.754000	25.062193	0.000377	20.735039
1056.294677	-2.997000	3.597200	-10.780000	25.082479	0.000375	20.736912
1057.292902	-3.025800	3.596400	-10.881000	25.068921	0.000375	20.744639
1058.292633	-2.994000	3.595700	-10.765000	25.081185	0.000377	20.729448
1059.276973	-2.996600	3.596100	-10.775000	25.111862	0.000375	20.731794
1060.280273	-3.013600	3.596000	-10.835000	25.111960	0.000374	20.745643
1061.295707	-3.016900	3.594700	-10.844000	25.165699	0.000372	20.729416
1062.299032	-3.021200	3.595900	-10.863000	25.177668	0.000376	20.723887
1063.295802	-3.020300	3.593900	-10.854000	25.140926	0.000375	20.747220
1064.303351	-3.004400	3.594600	-10.799000	25.121861	0.000374	20.733297
1065.303662	-2.996800	3.594100	-10.770000	25.110102	0.000373	20.740459
1066.279764	-2.996200	3.593900	-10.767000	25.172871	0.000375	20.734246
1067.282721	-3.011800	3.593000	-10.820000	25.202854	0.000371	20.743957
1068.285561	-2.994300	3.593800	-10.760000	25.177227	0.000371	20.749050
1069.298988	-3.012100	3.593600	-10.824000	25.185386	0.000371	20.736852
1070.285303	-2.992500	3.593100	-10.751000	25.169457	0.000371	20.738404
1071.282939	-3.006600	3.593200	-10.803000	25.179743	0.000372	20.739722
1072.299989	-3.010400	3.592700	-10.815000	25.218324	0.000373	20.742893
1073.283297	-3.008700	3.590900	-10.803000	25.217176	0.000371	20.741741
1074.304932	-3.016300	3.592100	-10.834000	25.232174	0.000370	20.743522
1075.286489	-2.985700	3.593200	-10.727000	25.211810	0.000368	20.771442
1076.285111	-3.014200	3.590000	-10.820000	25.194268	0.000370	20.749089
1077.288041	-3.000000	3.591000	-10.772000	25.157576	0.000369	20.754453
1078.290950	-3.006900	3.590700	-10.796000	25.174285	0.000371	20.728078
1079.285067	-3.003700	3.589600	-10.781000	25.164318	0.000368	20.737038
1080.286001	-3.000900	3.590000	-10.773000	25.156589	0.000368	20.735918
1081.286647	-3.014700	3.588900	-10.818000	25.165808	0.000365	20.747070
1082.300955	-2.987900	3.589000	-10.722000	25.196539	0.000365	20.755162
1083.304025	-3.009600	3.589700	-10.802000	25.212327	0.000367	20.740192
1084.304543	-2.991100	3.589000	-10.735000	25.240885	0.000365	20.745630
1085.286517	-3.007800	3.588000	-10.791000	25.212474	0.000365	20.748875
1086.315028	-2.991200	3.588600	-10.733000	25.227521	0.000367	20.758292
1087.305937	-3.013900	3.587200	-10.810000	25.211757	0.000363	20.752897
1088.304458	-3.002600	3.588000	-10.773000	25.201944	0.000363	20.739251
1089.286220	-2.998600	3.586300	-10.753000	25.194632	0.000363	20.761309
1090.314471	-2.995400	3.587300	-10.744000	25.177875	0.000363	20.748278
1091.303224	-2.994000	3.586500	-10.737000	25.202147	0.000364	20.746093
1092.303968	-3.010300	3.585200	-10.791000	25.166546	0.000364	20.749233
1093.287384	-2.987900	3.585800	-10.713000	25.200828	0.000364	20.752356
1094.287930	-2.974700	3.586700	-10.669000	25.217488	0.000364	20.769082
1095.290973	-3.002600	3.585800	-10.766000	25.222788	0.000363	20.762075
1096.290140	-3.012400	3.583600	-10.795000	25.190641	0.000360	20.735489
1097.293952	-2.985600	3.585100	-10.702000	25.208619	0.000363	20.755436
1098.305902	-2.987900	3.584100	-10.708000	25.229848	0.000361	20.760153
1099.310168	-3.035100	3.582900	-10.874000	25.235190	0.000361	20.764094
1100.309693	-3.001200	3.582400	-10.750000	25.272824	0.000364	20.763947
1101.313104	-3.004900	3.582700	-10.765000	25.234497	0.000361	20.779520
1102.315655	-3.031600	3.582200	-10.859000	25.243463	0.000360	20.757228
1103.310462	-2.979400	3.583700	-10.676000	25.202235	0.000361	20.762777
1104.295985	-2.998500	3.582900	-10.742000	25.154060	0.000361	20.784115
1105.312327	-3.012300	3.581600	-10.789000	25.157163	0.000359	20.766367
1106.293669	-2.987600	3.582600	-10.703000	25.183539	0.000357	20.771509
1107.311567	-3.024600	3.581500	-10.831000	25.204596	0.000357	20.760881
1108.295503	-2.999700	3.581100	-10.741000	25.218618	0.000357	20.775906
1109.311141	-2.997900	3.580900	-10.734000	25.204824	0.000358	20.766799
1110.295107	-2.995200	3.581300	-10.725000	25.209620	0.000358	20.769243
1111.314134	-3.006800	3.580400	-10.764000	25.253069	0.000358	20.763079
1112.312803	-3.010600	3.580000	-10.777000	25.255896	0.000358	20.775400
1113.310990	-2.976700	3.581100	-10.659000	25.291984	0.000357	20.781761
1114.313922	-3.014700	3.579200	-10.789000	25.314977	0.000354	20.765018
1115.316020	-3.025800	3.578700	-10.828000	25.296006	0.000357	20.795283
1116.300302	-3.009500	3.580100	-10.773000	25.237740	0.000356	20.777086
1117.318505	-3.019200	3.577900	-10.802000	25.220591	0.000354	20.766507
1118.299970	-3.006500	3.577200	-10.754000	25.256851	0.000356	20.773988
1119.318517	-3.007800	3.576600	-10.757000	25.251729	0.000356	20.756518
1120.321424	-2.996700	3.578800	-10.724000	25.251135	0.000355	20.774413
1121.312290	-3.013700	3.576300	-10.777000	25.210365	0.000354	20.775681
1122.318410	-2.992300	3.577300	-10.703000	25.201195	0.000354	20.786390
1123.300845	-2.993400	3.576100	-10.704000	25.243774	0.000351	20.743315
1124.298750	-3.007000	3.576400	-10.753000	25.274912	0.000353	20.774104
1125.299565	-2.995900	3.575300	-10.711000	25.237260	0.000353	20.771863
1126.301720	-3.004500	3.576000	-10.744000	25.254808	0.000352	20.787584
1127.315890	-2.986700	3.575200	-10.677000	25.209315	0.000354	20.788852
1128.325501	-3.015000	3.574800	-10.777000	25.222466	0.000351	20.770760
1129.300655	-2.993900	3.575600	-10.704000	25.177353	0.000352	20.800387
1130.305058	-2.997800	3.574200	-10.714000	25.172900	0.000349	20.777423
1131.301841	-2.998200	3.573800	-10.714000	25.188013	0.000352	20.786907
1132.301428	-2.982400	3.573900	-10.657000	25.197858	0.000350	20.788255
1133.301612	-2.966100	3.574900	-10.602000	25.202451	0.000351	20.792867
1134.318870	-3.018600	3.573500	-10.786000	25.188583	0.000351	20.791272
1135.315897	-3.012100	3.572200	-10.759000	25.208056	0.000351	20.795648
1136.300303	-3.003200	3.572400	-10.727000	25.216498	0.000352	20.782312
1137.319008	-2.986800	3.572700	-10.670000	25.222532	0.000349	20.776991
1138.317972	-3.015100	3.571500	-10.767000	25.268489	0.000351	20.785674
1139.320389	-3.014700	3.571200	-10.765000	25.311660	0.000347	20.787767
1140.319823	-2.996600	3.572600	-10.705000	25.333855	0.000348	20.786819
1141.322453	-2.993000	3.571200	-10.688000	25.294733	0.000346	20.791160
1142.303362	-3.015400	3.570100	-10.765000	25.314004	0.000345	20.785853
1143.318614	-2.995800	3.571000	-10.697000	25.279873	0.000347	20.800896
1144.323244	-3.000700	3.569600	-10.710000	25.242361	0.000345	20.790261
1145.302591	-2.997100	3.569600	-10.697000	25.209147	0.000345	20.789158
1146.321861	-2.985400	3.567800	-10.650000	25.245838	0.000345	20.801812
1147.304420	-2.986200	3.568900	-10.657000	25.285207	0.000345	20.817157
1148.320941	-3.013900	3.567800	-10.752000	25.292218	0.000346	20.792428
1149.306063	-3.002700	3.568900	-10.715000	25.273076	0.000345	20.804029
1150.305472	-3.007200	3.568200	-10.729000	25.225579	0.000345	20.792379
1151.322017	-3.011300	3.567700	-10.743000	25.241262	0.000343	20.831831
1152.305089	-2.999200	3.568000	-10.700000	25.264575	0.000343	20.820150
1153.307580	-3.010000	3.567200	-10.736000	25.231939	0.000343	20.803031
1154.307152	-3.007700	3.565000	-10.721000	25.236669	0.000342	20.825323
1155.308389	-2.992800	3.566800	-10.674000	25.194629	0.000342	20.794971
1156.331884	-3.010100	3.566700	-10.735000	25.196721	0.000339	20.808925
1157.327906	-2.999200	3.564900	-10.691000	25.220937	0.000342	20.818063
1158.330276	-3.010300	3.564600	-10.729000	25.268482	0.000342	20.824073
1159.327572	-3.005900	3.564200	-10.712000	25.255021	0.000341	20.811980
1160.313860	-2.985100	3.565100	-10.642000	25.277910	0.000340	20.814098
1161.309734	-2.996700	3.563800	-10.678000	25.274482	0.000340	20.816820
1162.327920	-2.996300	3.564700	-10.680000	25.263441	0.000339	20.828969
1163.309786	-3.006000	3.563000	-10.710000	25.265428	0.000338	20.807256
1164.310307	-3.015700	3.562700	-10.743000	25.260608	0.000339	20.821857
1165.314852	-2.991100	3.564400	-10.661000	25.276647	0.000339	20.824210
1166.314034	-2.988500	3.563400	-10.648000	25.239933	0.000338	20.828600
1167.311005	-3.025900	3.563000	-10.781000	25.257830	0.000340	20.820965
1168.328384	-3.002200	3.562300	-10.694000	25.255396	0.000338	20.819943
1169.329005	-3.001700	3.562800	-10.694000	25.280947	0.000338	20.819992
1170.329719	-2.970000	3.562200	-10.578000	25.283584	0.000339	20.837338
1171.329817	-3.025500	3.561900	-10.776000	25.301432	0.000340	20.795041
1172.328299	-3.003500	3.561200	-10.696000	25.293379	0.000338	20.820620
1173.332485	-2.988200	3.560200	-10.638000	25.297930	0.000337	20.828509
1174.329859	-2.969600	3.561000	-10.573000	25.273422	0.000337	20.826187
1175.313605	-2.995000	3.560300	-10.662000	25.270319	0.000337	20.827813
1176.316036	-3.014000	3.560600	-10.731000	25.311234	0.000337	20.815788
1177.315084	-3.006200	3.559800	-10.700000	25.334422	0.000333	20.826742
1178.315024	-2.994800	3.559300	-10.658000	25.402495	0.000336	20.842462
1179.313725	-3.006300	3.559800	-10.701000	25.383502	0.000332	20.802055
1180.313749	-2.999300	3.558900	-10.673000	25.360916	0.000335	20.822998
1181.313714	-2.996100	3.558600	-10.661000	25.357341	0.000336	20.841693
1182.316017	-2.978300	3.559700	-10.601000	25.321305	0.000333	20.829692
1183.314450	-3.011100	3.557000	-10.710000	25.317062	0.000332	20.831122
1184.316097	-3.010100	3.557000	-10.706000	25.303269	0.000332	20.828653
1185.320173	-2.984500	3.558400	-10.619000	25.304857	0.000332	20.838782
1186.330834	-3.006500	3.556800	-10.693000	25.317730	0.000332	20.839379
1187.317089	-2.979500	3.556500	-10.596000	25.360776	0.000331	20.829022
1188.314466	-2.995700	3.555500	-10.651000	25.367468	0.000331	20.848542
1189.338266	-3.031100	3.555200	-10.775000	25.392495	0.000330	20.849964
1190.336421	-3.005300	3.556700	-10.688000	25.369535	0.000332	20.827385
1191.337162	-3.000400	3.555500	-10.667000	25.324373	0.000330	20.847471
1192.318064	-3.005000	3.555300	-10.683000	25.297031	0.000328	20.824761
1193.316270	-2.993800	3.554600	-10.641000	25.267573	0.000329	20.844496
1194.316925	-2.985200	3.554800	-10.610000	25.301509	0.000330	20.821197
1195.337411	-2.984500	3.554900	-10.608000	25.353161	0.000330	20.828014
1196.316582	-2.971600	3.554000	-10.559000	25.329403	0.000329	20.837823
1197.318915	-2.975900	3.554300	-10.576000	25.332254	0.000326	20.824091
1198.318639	-3.005600	3.553800	-10.681000	25.356638	0.000329	20.839565
1199.318114	-3.005200	3.553400	-10.678000	25.389302	0.000326	20.837275
1200.319374	-3.018900	3.551500	-10.719000	25.377349	0.000327	20.836180
1201.318172	-2.989500	3.551900	-10.618000	25.372302	0.000326	20.859560
1202.319371	-3.011000	3.550500	-10.689000	25.368752	0.000326	20.859788
1203.321500	-3.032000	3.551100	-10.765000	25.327342	0.000326	20.836229
1204.318830	-2.997700	3.551700	-10.646000	25.349667	0.000326	20.839204
1205.339815	-3.007300	3.551000	-10.678000	25.339897	0.000325	20.832239
1206.342233	-3.005100	3.550600	-10.670000	25.323166	0.000326	20.823027
1207.319727	-2.970000	3.551500	-10.548000	25.312164	0.000324	20.836636
1208.323559	-2.994400	3.549800	-10.629000	25.327496	0.000328	20.830220
1209.334928	-3.029000	3.547600	-10.744000	25.403303	0.000324	20.839007
1210.342246	-2.983900	3.549900	-10.591000	25.402034	0.000325	20.828723
1211.321255	-2.996600	3.548900	-10.633000	25.439418	0.000324	20.831175
1212.335814	-2.990400	3.549500	-10.614000	25.420897	0.000324	20.829173
1213.337581	-2.990200	3.548200	-10.609000	25.389186	0.000322	20.826254
1214.337115	-3.003500	3.548000	-10.656000	25.378602	0.000323	20.807092
1215.336212	-2.989900	3.547400	-10.606000	25.295618	0.000323	20.827610
1216.346374	-3.009400	3.547500	-10.675000	25.277396	0.000323	20.824962
1217.340447	-2.987200	3.547000	-10.594000	25.272845	0.000322	20.806642
1218.320845	-2.977000	3.546800	-10.559000	25.295139	0.000320	20.835189
1219.325285	-3.009500	3.547000	-10.674000	25.296287	0.000322	20.819272
1220.337671	-2.965400	3.546000	-10.514000	25.316464	0.000321	20.806340
1221.342128	-2.996300	3.545400	-10.622000	25.337910	0.000322	20.821710
1222.340252	-3.012900	3.545500	-10.682000	25.356107	0.000320	20.811057
1223.338740	-3.009900	3.543600	-10.665000	25.326332	0.000321	20.797282
1224.343398	-2.994400	3.545200	-10.614000	25.296955	0.000320	20.814727
1225.338784	-3.008900	3.544500	-10.664000	25.257953	0.000319	20.815398
1226.339503	-2.990200	3.543300	-10.593000	25.293226	0.000320	20.808613
1227.322540	-2.987600	3.544700	-10.589000	25.327699	0.000319	20.813354
1228.339327	-2.981700	3.543700	-10.565000	25.317034	0.000319	20.784627
1229.338996	-3.000300	3.543100	-10.628000	25.322309	0.000318	20.812683
1230.341461	-3.001800	3.541400	-10.630000	25.309779	0.000318	20.807689
1231.338860	-3.000400	3.542200	-10.628000	25.278488	0.000320	20.808040
1232.343446	-3.024000	3.541400	-10.708000	25.333643	0.000316	20.791346
1233.325294	-3.002800	3.541800	-10.634000	25.339733	0.000319	20.805048
1234.325572	-3.032900	3.540400	-10.736000	25.426840	0.000316	20.832769
1235.326971	-3.009200	3.540800	-10.654000	25.402562	0.000317	20.800805
1236.341821	-3.008000	3.541200	-10.651000	25.399036	0.000316	20.804851
1237.326066	-2.979500	3.541100	-10.549000	25.411786	0.000315	20.780195
1238.324836	-3.003400	3.539400	-10.629000	25.386636	0.000315	20.800935
1239.328742	-3.002000	3.539500	-10.624000	25.354274	0.000313	20.794992
1240.329032	-2.999300	3.538800	-10.613000	25.318164	0.000313	20.818004
1241.329298	-2.992500	3.539200	-10.590000	25.311007	0.000313	20.784740
1242.335148	-2.992200	3.540100	-10.592000	25.317863	0.000312	20.788305
1243.345929	-3.016900	3.538700	-10.675000	25.283991	0.000313	20.773262
1244.327506	-3.007500	3.538300	-10.641000	25.327087	0.000313	20.807998
1245.353540	-3.010600	3.538300	-10.652000	25.368773	0.000314	20.799593
1246.329922	-3.007200	3.536700	-10.635000	25.332663	0.000310	20.786096
1247.329684	-3.004900	3.537300	-10.629000	25.327990	0.000312	20.789938
1248.326881	-2.988300	3.537000	-10.569000	25.342458	0.000311	20.764161
1249.329731	-3.004500	3.536000	-10.623000	25.322096	0.000312	20.793503
1250.328204	-2.972500	3.537200	-10.514000	25.354295	0.000308	20.773676
1251.347178	-2.992900	3.536000	-10.582000	25.366111	0.000313	20.790282
1252.347612	-2.987300	3.534800	-10.559000	25.343255	0.000311	20.800050
1253.344269	-2.969100	3.535400	-10.496000	25.374625	0.000311	20.798831
1254.328933	-2.991300	3.535800	-10.576000	25.419257	0.000311	20.806664
1255.329973	-2.991700	3.535800	-10.578000	25.437942	0.000309	20.777536
1256.330724	-2.992600	3.534000	-10.576000	25.441996	0.000309	20.804841
1257.334245	-2.989300	3.533200	-10.560000	25.426714	0.000310	20.786177
1258.330105	-2.999900	3.532600	-10.596000	25.380837	0.000309	20.787051
1259.331528	-3.006900	3.532100	-10.620000	25.354963	0.000308	20.800900
1260.334068	-3.019800	3.533000	-10.668000	25.343385	0.000309	20.795439
1261.347139	-3.006300	3.531800	-10.616000	25.359612	0.000307	20.788024
1262.339860	-3.016200	3.531800	-10.651000	25.373012	0.000308	20.780143
1263.347449	-3.008400	3.531700	-10.624000	25.386347	0.000308	20.771246
1264.346869	-2.991600	3.532400	-10.567000	25.372002	0.000309	20.765377
1265.353925	-3.008500	3.530800	-10.622000	25.406994	0.000306	20.768271
1266.350723	-3.008400	3.530000	-10.618000	25.383310	0.000308	20.784793
1267.354567	-3.013700	3.529600	-10.636000	25.371953	0.000307	20.782398
1268.360335	-2.976900	3.532300	-10.514000	25.353820	0.000306	20.776044
1269.347988	-2.993700	3.530000	-10.566000	25.343472	0.000305	20.781302
1270.351654	-2.997300	3.531600	-10.584000	25.382226	0.000305	20.797455
1271.351405	-3.001400	3.530500	-10.595000	25.361970	0.000304	20.774270
1272.353834	-3.006000	3.528200	-10.604000	25.366398	0.000303	20.759276
1273.351336	-2.979900	3.529700	-10.518000	25.386711	0.000303	20.766870
1274.351906	-2.989400	3.528100	-10.545000	25.453577	0.000305	20.779486
1275.354574	-3.015100	3.526700	-10.632000	25.471901	0.000305	20.783662
1276.351816	-3.006700	3.528600	-10.608000	25.453818	0.000303	20.767401
1277.354271	-2.996000	3.527300	-10.567000	25.438929	0.000304	20.759561
1278.357020	-2.988200	3.527600	-10.541000	25.463979	0.000301	20.780449
1279.349653	-3.004200	3.527300	-10.596000	25.414105	0.000303	20.780154
1280.334177	-2.995000	3.526900	-10.562000	25.395641	0.000302	20.782950
1281.334769	-3.008200	3.526000	-10.606000	25.376906	0.000301	20.779785
1282.334245	-3.018500	3.526300	-10.643000	25.365695	0.000302	20.756200
1283.335757	-3.005500	3.524600	-10.592000	25.375269	0.000301	20.757278
1284.337646	-2.988400	3.524300	-10.531000	25.371037	0.000302	20.760615
1285.354095	-2.992600	3.525400	-10.550000	25.416774	0.000301	20.791843
1286.337412	-2.997600	3.525100	-10.566000	25.378078	0.000299	20.772901
1287.355628	-2.997000	3.524900	-10.563000	25.377403	0.000301	20.777913
1288.343229	-2.986600	3.524800	-10.526000	25.363789	0.000298	20.763295
1289.339120	-3.010600	3.522600	-10.604000	25.364881	0.000298	20.774822
1290.353253	-2.998600	3.523400	-10.564000	25.385658	0.000300	20.777667
1291.353761	-3.005100	3.522100	-10.584000	25.423532	0.000299	20.766386
1292.359659	-3.019100	3.521800	-10.632000	25.398481	0.000297	20.773473
1293.356804	-3.025700	3.522200	-10.657000	25.397960	0.000298	20.766312
1294.357372	-3.006500	3.519800	-10.581000	25.384273	0.000298	20.769164
1295.357517	-3.016600	3.520400	-10.618000	25.391657	0.000298	20.767569
1296.361082	-3.013800	3.520800	-10.610000	25.382881	0.000295	20.770137
1297.338814	-2.997000	3.520700	-10.550000	25.405407	0.000297	20.741072
1298.340152	-2.997200	3.520000	-10.550000	25.384427	0.000299	20.758413
1299.338009	-3.012500	3.520400	-10.605000	25.436817	0.000295	20.746060
1300.339691	-3.019200	3.520300	-10.628000	25.401794	0.000296	20.761626
1301.339170	-3.045600	3.518400	-10.715000	25.438160	0.000294	20.748357
1302.339345	-3.012400	3.519900	-10.602000	25.441815	0.000293	20.761037
1303.340560	-2.991000	3.519500	-10.525000	25.456981	0.000293	20.738807
1304.340034	-3.001100	3.517000	-10.554000	25.456582	0.000292	20.750261
1305.342696	-3.039700	3.515900	-10.685000	25.475070	0.000295	20.750809
1306.339922	-3.011100	3.516700	-10.588000	25.461727	0.000291	20.765385
1307.340166	-2.975900	3.517600	-10.467000	25.487501	0.000293	20.745747
1308.358906	-2.985200	3.518800	-10.504000	25.479596	0.000292	20.747767
1309.340652	-2.986000	3.517700	-10.503000	25.482405	0.000292	20.734940
1310.358972	-2.995800	3.516100	-10.532000	25.456914	0.000291	20.745379
1311.341629	-2.979100	3.516000	-10.474000	25.440119	0.000292	20.732306
1312.340953	-3.021500	3.514800	-10.618000	25.436953	0.000292	20.754258
1313.341345	-3.003700	3.514200	-10.554000	25.440829	0.000292	20.760995
1314.345557	-3.030400	3.513100	-10.646000	25.446852	0.000292	20.739067
1315.344009	-3.014600	3.514400	-10.594000	25.457534	0.000291	20.745526
1316.344589	-3.005800	3.515400	-10.566000	25.442522	0.000291	20.735667
1317.344384	-2.996400	3.514700	-10.531000	25.461913	0.000290	20.734750
1318.344378	-3.001400	3.514900	-10.548000	25.497692	0.000290	20.767837
1319.344962	-3.019000	3.513700	-10.607000	25.495087	0.000290	20.724915
1320.366931	-3.006900	3.512400	-10.561000	25.459146	0.000286	20.722488
1321.364364	-3.012000	3.511700	-10.577000	25.409297	0.000287	20.741185
1322.350408	-2.999800	3.513000	-10.537000	25.373115	0.000290	20.748951
1323.347514	-2.992000	3.513100	-10.511000	25.338195	0.000289	20.744708
1324.363025	-3.001400	3.510200	-10.534000	25.336901	0.000287	20.748150
1325.366133	-3.027600	3.511100	-10.629000	25.408555	0.000287	20.713886
1326.349433	-2.987600	3.512600	-10.493000	25.443375	0.000289	20.737947
1327.366064	-2.985300	3.510600	-10.480000	25.449017	0.000288	20.749302
1328.371538	-2.976200	3.511600	-10.450000	25.421280	0.000286	20.744209
1329.366990	-3.001700	3.510700	-10.537000	25.410672	0.000287	20.742091
1330.362530	-2.976900	3.510600	-10.449000	25.380702	0.000285	20.746612
1331.367109	-3.022700	3.509000	-10.606000	25.424072	0.000285	20.731839
1332.374022	-3.026300	3.508300	-10.615000	25.457922	0.000288	20.755400
1333.371239	-3.006700	3.509400	-10.551000	25.452053	0.000286	20.725323
1334.368736	-3.005800	3.507300	-10.541000	25.427751	0.000285	20.713721
1335.369182	-3.027100	3.508100	-10.618000	25.379800	0.000284	20.740964
1336.367979	-2.999300	3.508200	-10.521000	25.339577	0.000283	20.738509
1337.353327	-3.008600	3.507100	-10.551000	25.333218	0.000284	20.747771
1338.367002	-2.986700	3.508100	-10.477000	25.344495	0.000284	20.719738
1339.365760	-3.001400	3.505900	-10.522000	25.375686	0.000285	20.746791
1340.350851	-2.996800	3.506900	-10.509000	25.369083	0.000285	20.725460
1341.350882	-3.002500	3.505400	-10.524000	25.374049	0.000284	20.742776
1342.374350	-2.991000	3.507000	-10.489000	25.428801	0.000284	20.719517
1343.366302	-3.002300	3.505900	-10.525000	25.477467	0.000282	20.718600
1344.369828	-2.986700	3.504700	-10.466000	25.486886	0.000282	20.711463
1345.377986	-2.994900	3.505100	-10.497000	25.482458	0.000280	20.739735
1346.352250	-2.983300	3.504700	-10.455000	25.475106	0.000280	20.741361
1347.354689	-2.983500	3.504800	-10.456000	25.483059	0.000281	20.712836
1348.352808	-2.992900	3.503600	-10.485000	25.447923	0.000282	20.723546
1349.351744	-3.002700	3.502800	-10.517000	25.448321	0.000280	20.707350
1350.351825	-3.001500	3.504200	-10.517000	25.443698	0.000280	20.731158
1351.353757	-3.008500	3.502400	-10.536000	25.439203	0.000278	20.747034
1352.357204	-3.004300	3.502700	-10.523000	25.424369	0.000280	20.713170
1353.370985	-2.985700	3.502800	-10.457000	25.419868	0.000278	20.721453
1354.369394	-3.007000	3.501100	-10.526000	25.434082	0.000280	20.716760
1355.377639	-3.009300	3.501300	-10.535000	25.430190	0.000278	20.718067
1356.368690	-3.010800	3.501100	-10.540000	25.429840	0.000278	20.716293
1357.373461	-3.025700	3.500800	-10.592000	25.387741	0.000277	20.712900
1358.375609	-2.998200	3.501300	-10.497000	25.375267	0.000278	20.733567
1359.382578	-2.991800	3.500300	-10.471000	25.405366	0.000278	20.721590
1360.355545	-2.999900	3.501400	-10.503000	25.474778	0.000275	20.704993
1361.356721	-3.021600	3.498600	-10.570000	25.478482	0.000277	20.703971
1362.360618	-3.018400	3.498200	-10.558000	25.507959	0.000278	20.723143
1363.362447	-3.017600	3.499100	-10.557000	25.461263	0.000275	20.737891
1364.377262	-2.996700	3.498300	-10.483000	25.477520	0.000276	20.729086
1365.356758	-2.994100	3.498900	-10.475000	25.514275	0.000277	20.698664
1366.374766	-3.021900	3.497700	-10.569000	25.501901	0.000275	20.711369
1367.357092	-2.979800	3.498400	-10.424000	25.478440	0.000275	20.722897
1368.389186	-3.016000	3.497100	-10.547000	25.458591	0.000275	20.688738
1369.377517	-2.996400	3.496200	-10.476000	25.484333	0.000275	20.714590
1370.376335	-2.995700	3.497300	-10.477000	25.480091	0.000274	20.725978
1371.378761	-2.997200	3.495900	-10.477000	25.443181	0.000273	20.696497
1372.364274	-3.005700	3.495100	-10.504000	25.417641	0.000272	20.711155
1373.376655	-2.994700	3.496100	-10.469000	25.400715	0.000271	20.694632
1374.384845	-3.025700	3.495000	-10.574000	25.394982	0.000273	20.707369
1375.377810	-2.984700	3.496400	-10.435000	25.393191	0.000271	20.712209
1376.360845	-2.971500	3.496200	-10.387000	25.434174	0.000272	20.718275
1377.380628	-3.003900	3.495100	-10.498000	25.484240	0.000273	20.696002
1378.382082	-3.016500	3.493700	-10.538000	25.483883	0.000273	20.709395
1379.391951	-2.995900	3.494300	-10.468000	25.477818	0.000270	20.712314
1380.383364	-3.008900	3.492600	-10.508000	25.511307	0.000273	20.693786
1381.382343	-3.011600	3.493900	-10.521000	25.532865	0.000271	20.707850
1382.366337	-2.974600	3.493000	-10.390000	25.504795	0.000270	20.710481
1383.362385	-2.996700	3.491400	-10.460000	25.506683	0.000271	20.699101
1384.366452	-3.025800	3.491500	-10.564000	25.520701	0.000270	20.674295
1385.383760	-2.993300	3.492200	-10.451000	25.538489	0.000270	20.701644
1386.386977	-3.028400	3.490200	-10.568000	25.536412	0.000268	20.713783
1387.385787	-2.983600	3.490200	-10.413000	25.530917	0.000268	20.678865
1388.367914	-2.986800	3.492300	-10.430000	25.533407	0.000269	20.678521
1389.367834	-2.975200	3.490200	-10.383000	25.480501	0.000267	20.704103
1390.372717	-3.009100	3.489100	-10.497000	25.467581	0.000268	20.700611
1391.367875	-3.011100	3.489800	-10.508000	25.449964	0.000270	20.678651
1392.367246	-3.022700	3.488800	-10.545000	25.469673	0.000270	20.697970
1393.371330	-2.994000	3.489600	-10.447000	25.513388	0.000266	20.709154
1394.368318	-2.976800	3.488600	-10.384000	25.482894	0.000267	20.687538
1395.371487	-3.000400	3.487100	-10.462000	25.470519	0.000266	20.687440
1396.370447	-3.024500	3.488400	-10.550000	25.470502	0.000266	20.686474
1397.370399	-3.037600	3.486600	-10.590000	25.472562	0.000267	20.692336
1398.388724	-2.992300	3.487500	-10.434000	25.492264	0.000266	20.686990
1399.390170	-3.017000	3.486100	-10.516000	25.506778	0.000263	20.693506
1400.391613	-3.009000	3.486900	-10.491000	25.504075	0.000264	20.698378
1401.387881	-2.983500	3.487800	-10.404000	25.472782	0.000263	20.696825
1402.393276	-2.986700	3.486300	-10.412000	25.468792	0.000264	20.711785
1403.391093	-2.994500	3.485200	-10.435000	25.497416	0.000267	20.688371
1404.394989	-3.005500	3.484300	-10.470000	25.504302	0.000264	20.686277
1405.396071	-2.984800	3.486700	-10.406000	25.500574	0.000264	20.682059
1406.391700	-3.014300	3.484000	-10.501000	25.547757	0.000263	20.695778
1407.374291	-3.011900	3.483800	-10.492000	25.572690	0.000263	20.689049
1408.394978	-3.019800	3.484300	-10.522000	25.557630	0.000261	20.681985
1409.391748	-2.994500	3.483000	-10.428000	25.520600	0.000261	20.709758
1410.391113	-3.003400	3.483100	-10.459000	25.504229	0.000261	20.689523
1411.392569	-2.999500	3.482400	-10.444000	25.510301	0.000261	20.687560
1412.392193	-2.994800	3.483200	-10.430000	25.479253	0.000260	20.693840
1413.395730	-2.982700	3.481300	-10.383000	25.446705	0.000261	20.691501
1414.395081	-2.986300	3.483400	-10.400000	25.459079	0.000260	20.687331
1415.393468	-2.986400	3.481700	-10.396000	25.480995	0.000261	20.691795
1416.398507	-2.969000	3.481700	-10.336000	25.513459	0.000260	20.688360
1417.395884	-3.029100	3.479700	-10.539000	25.506223	0.000259	20.687257
1418.396542	-3.012100	3.481000	-10.485000	25.467733	0.000258	20.684166
1419.399232	-3.004000	3.478700	-10.449000	25.401756	0.000259	20.680503
1420.382306	-2.991900	3.480300	-10.412000	25.462416	0.000261	20.682621
1421.379458	-3.010800	3.479700	-10.475000	25.479887	0.000258	20.689734
1422.381981	-2.989600	3.481000	-10.405000	25.484909	0.000259	20.678655
1423.379402	-3.038600	3.477500	-10.565000	25.484444	0.000260	20.702372
1424.381285	-3.014100	3.478200	-10.482000	25.503705	0.000258	20.666709
1425.381837	-2.995400	3.478300	-10.418000	25.502086	0.000257	20.679783
1426.380484	-2.995700	3.478700	-10.421000	25.510731	0.000256	20.692260
1427.399693	-2.976400	3.478100	-10.351000	25.512106	0.000255	20.668034
1428.380261	-3.009900	3.478000	-10.468000	25.505618	0.000257	20.677640
1429.380367	-2.995000	3.477300	-10.414000	25.506514	0.000257	20.666685
1430.382292	-2.990200	3.476700	-10.395000	25.503737	0.000258	20.675751
1431.382742	-2.961800	3.477900	-10.300000	25.509826	0.000255	20.669537
1432.383524	-2.995500	3.477800	-10.417000	25.495018	0.000255	20.700188
1433.385591	-2.960100	3.476100	-10.288000	25.491786	0.000255	20.689355
1434.384184	-3.010800	3.475500	-10.464000	25.489653	0.000256	20.686739
1435.383445	-2.996700	3.475700	-10.415000	25.516265	0.000253	20.682643
1436.383837	-2.967400	3.476300	-10.315000	25.520742	0.000254	20.697097
1437.383609	-2.991000	3.476000	-10.396000	25.530356	0.000255	20.690630
1438.404279	-2.993500	3.474500	-10.400000	25.547458	0.000255	20.678407
1439.401718	-2.996700	3.473900	-10.409000	25.554792	0.000254	20.681979
1440.405898	-3.013400	3.473800	-10.467000	25.520700	0.000253	20.705591
1441.402063	-3.001200	3.472400	-10.420000	25.579840	0.000253	20.676788
1442.400714	-3.022500	3.472500	-10.495000	25.585481	0.000255	20.695257
1443.387931	-2.975500	3.472000	-10.330000	25.540936	0.000251	20.683711
1444.390288	-2.994400	3.471800	-10.395000	25.532959	0.000252	20.688502
1445.385501	-2.956300	3.475000	-10.272000	25.502782	0.000251	20.698502
1446.386086	-2.989000	3.472100	-10.377000	25.529132	0.000252	20.693669
1447.402888	-2.991300	3.471900	-10.385000	25.520487	0.000252	20.700161
1448.387668	-2.970800	3.471900	-10.314000	25.530255	0.000249	20.684365
1449.401849	-3.015000	3.469400	-10.459000	25.518672	0.000248	20.669886
1450.391952	-3.015600	3.471100	-10.466000	25.470575	0.000248	20.690814
1451.385344	-3.019800	3.469900	-10.477000	25.470242	0.000249	20.680048
1452.389145	-3.015400	3.469200	-10.461000	25.453170	0.000249	20.685665
1453.386572	-2.996900	3.468700	-10.395000	25.456556	0.000248	20.683375
1454.404010	-3.021500	3.468700	-10.480000	25.475972	0.000248	20.680112
1455.400937	-3.013700	3.468400	-10.452000	25.465356	0.000249	20.691264
1456.401922	-3.019400	3.469200	-10.472000	25.491756	0.000250	20.686480
1457.405376	-2.970500	3.469100	-10.304000	25.537198	0.000248	20.686121
1458.388266	-2.972200	3.468500	-10.308000	25.565834	0.000248	20.697337
1459.389775	-2.983000	3.468400	-10.345000	25.587104	0.000249	20.687404
1460.392248	-2.999700	3.467800	-10.402000	25.562057	0.000249	20.699234
1461.389142	-3.000600	3.466600	-10.401000	25.542203	0.000248	20.712013
1462.389434	-2.985900	3.466100	-10.349000	25.581691	0.000248	20.692399
1463.392525	-2.997100	3.466900	-10.389000	25.582594	0.000247	20.673389
1464.388995	-2.986700	3.466100	-10.351000	25.619964	0.000247	20.715192
1465.394074	-3.009900	3.466600	-10.433000	25.642283	0.000248	20.704416
1466.390407	-3.008300	3.464300	-10.420000	25.664268	0.000247	20.691883
1467.408644	-2.988500	3.465700	-10.356000	25.675126	0.000245	20.680976
1468.395691	-3.005600	3.464700	-10.413000	25.707503	0.000246	20.695480
1469.389512	-2.986200	3.464800	-10.346000	25.694863	0.000244	20.699853
1470.392140	-2.995200	3.464300	-10.375000	25.646336	0.000246	20.710384
1471.391771	-3.006000	3.463000	-10.409000	25.604392	0.000245	20.704293
1472.392882	-3.000800	3.463900	-10.394000	25.626459	0.000244	20.697057
1473.391066	-3.028500	3.462700	-10.485000	25.642429	0.000244	20.699821
1474.392505	-2.972500	3.463300	-10.294000	25.672430	0.000246	20.694866
1475.394924	-3.007600	3.463000	-10.414000	25.652400	0.000242	20.715052
1476.413042	-2.982200	3.463400	-10.328000	25.663632	0.000244	20.704521
1477.406158	-3.002400	3.461400	-10.392000	25.611872	0.000242	20.684777
1478.409948	-3.008000	3.461000	-10.410000	25.614208	0.000243	20.690443
1479.415489	-2.994500	3.460800	-10.363000	25.630536	0.000242	20.703998
1480.398866	-3.018200	3.460300	-10.443000	25.639947	0.000243	20.691637
1481.393350	-2.993200	3.460100	-10.356000	25.648850	0.000243	20.693942
1482.394672	-2.989400	3.460600	-10.344000	25.619475	0.000242	20.708536
1483.394571	-2.993900	3.459800	-10.357000	25.573777	0.000240	20.706263
1484.395393	-2.978200	3.461500	-10.308000	25.505268	0.000240	20.711905
1485.394638	-2.991200	3.458700	-10.344000	25.519236	0.000243	20.697482
1486.398552	-2.984700	3.460500	-10.327000	25.576267	0.000240	20.711610
1487.395986	-3.020900	3.458100	-10.446000	25.603332	0.000238	20.721722
1488.396078	-2.989200	3.459600	-10.340000	25.625676	0.000240	20.705755
1489.399693	-2.982700	3.458400	-10.314000	25.608323	0.000239	20.712509
1490.397597	-3.009300	3.457100	-10.402000	25.603511	0.000238	20.705305
1491.399104	-2.978800	3.458200	-10.300000	25.538675	0.000238	20.711789
1492.397271	-3.012200	3.456300	-10.410000	25.542809	0.000237	20.714993
1493.396628	-2.973200	3.458100	-10.280000	25.610421	0.000239	20.701814
1494.397216	-3.000800	3.455000	-10.367000	25.610715	0.000236	20.724395
1495.395896	-2.994900	3.457200	-10.353000	25.601808	0.000238	20.714501
1496.396886	-2.987800	3.456600	-10.327000	25.566245	0.000236	20.693482
1497.414715	-2.988800	3.456100	-10.329000	25.576209	0.000237	20.698273
1498.398417	-2.994700	3.455100	-10.346000	25.569256	0.000235	20.708361
1499.398604	-2.987500	3.454900	-10.321000	25.598283	0.000237	20.729454
1500.398400	-2.989600	3.454600	-10.327000	25.619025	0.000236	20.718516
1501.399615	-2.991900	3.455600	-10.338000	25.648977	0.000236	20.715882
1502.400517	-3.002300	3.454300	-10.370000	25.619210	0.000235	20.731031
1503.399466	-3.023300	3.453500	-10.440000	25.622620	0.000234	20.728766
1504.399020	-3.002400	3.453600	-10.368000	25.667218	0.000234	20.730410
1505.423084	-2.981200	3.454200	-10.297000	25.694630	0.000235	20.718587
1506.414784	-2.985700	3.452900	-10.308000	25.715939	0.000233	20.716283
1507.405838	-3.023900	3.452700	-10.440000	25.675250	0.000235	20.731840
1508.404117	-3.013700	3.452800	-10.405000	25.638126	0.000233	20.705931
1509.417164	-3.005400	3.452500	-10.375000	25.628090	0.000231	20.722405
1510.420165	-2.994900	3.451700	-10.336000	25.664221	0.000232	20.719339
1511.416873	-2.992700	3.451000	-10.327000	25.673834	0.000232	20.717614
1512.418462	-3.001600	3.452300	-10.361000	25.599837	0.000232	20.722953
1513.405681	-2.997400	3.450400	-10.340000	25.597288	0.000232	20.740308
1514.401791	-2.981000	3.451000	-10.286000	25.609409	0.000230	20.732093
1515.403050	-2.975000	3.449700	-10.261000	25.627747	0.000231	20.725380
1516.407023	-2.981400	3.450500	-10.286000	25.647796	0.000231	20.739353
1517.403731	-2.999200	3.449500	-10.345000	25.669064	0.000231	20.719462
1518.428689	-2.987100	3.448700	-10.300000	25.708743	0.000231	20.732289
1519.403921	-3.011500	3.449100	-10.385000	25.671628	0.000231	20.745746
1520.405449	-3.017000	3.448300	-10.402000	25.642113	0.000229	20.732223
1521.428822	-2.984500	3.448800	-10.291000	25.589181	0.000229	20.724105
1522.420874	-3.007400	3.446600	-10.364000	25.595693	0.000230	20.728275
1523.406748	-3.016500	3.448200	-10.399000	25.643376	0.000230	20.729223
1524.404222	-2.992000	3.447300	-10.314000	25.663025	0.000229	20.757020
1525.404846	-2.989100	3.446900	-10.302000	25.673037	0.000230	20.740048
1526.404745	-3.011000	3.446200	-10.376000	25.663123	0.000227	20.730565
1527.405893	-3.012100	3.446500	-10.380000	25.656863	0.000228	20.738503
1528.406233	-2.999000	3.445700	-10.333000	25.711104	0.000228	20.742721
1529.407255	-3.014100	3.445200	-10.382000	25.669862	0.000228	20.737333
1530.406519	-2.997900	3.445600	-10.328000	25.647967	0.000225	20.735257
1531.406811	-3.013800	3.445000	-10.380000	25.663717	0.000225	20.744439
1532.406965	-2.997300	3.444700	-10.324000	25.630174	0.000227	20.740621
1533.405396	-2.994700	3.444500	-10.315000	25.626894	0.000226	20.735903
1534.407869	-3.008400	3.442900	-10.356000	25.645428	0.000226	20.737923
1535.405770	-2.994700	3.443900	-10.313000	25.668348	0.000226	20.729174
1536.414428	-2.999100	3.443000	-10.325000	25.705617	0.000226	20.743849
1537.406049	-3.000800	3.442500	-10.330000	25.728220	0.000226	20.745689
1538.407206	-2.996300	3.443000	-10.315000	25.728130	0.000224	20.752237
1539.423835	-3.004600	3.441600	-10.340000	25.747785	0.000226	20.736891
1540.426857	-2.996100	3.441800	-10.310000	25.765544	0.000223	20.739082
1541.408309	-3.016800	3.440500	-10.378000	25.766097	0.000224	20.755285
1542.407240	-3.010300	3.440900	-10.357000	25.718094	0.000224	20.741682
1543.410583	-3.016600	3.440600	-10.378000	25.665840	0.000224	20.755106
1544.408706	-3.011800	3.440500	-10.361000	25.658182	0.000224	20.758794
1545.424833	-2.990100	3.441500	-10.290000	25.694376	0.000222	20.724970
1546.431937	-2.996300	3.441000	-10.309000	25.744211	0.000225	20.754165
1547.409043	-3.011700	3.439800	-10.358000	25.757527	0.000221	20.748573
1548.412037	-3.001700	3.438300	-10.319000	25.705754	0.000222	20.751573
1549.427165	-3.020800	3.438700	-10.386000	25.671114	0.000221	20.735746
1550.412706	-3.003500	3.437600	-10.324000	25.672538	0.000221	20.767523
1551.410414	-3.015400	3.438000	-10.365000	25.704671	0.000223	20.741475
1552.409380	-3.002500	3.438800	-10.324000	25.711923	0.000222	20.753502
1553.410307	-2.985100	3.438800	-10.265000	25.722959	0.000222	20.759845
1554.410997	-2.988300	3.437000	-10.270000	25.724889	0.000221	20.775535
1555.410721	-2.964200	3.438700	-10.192000	25.754017	0.000221	20.761644
1556.413489	-3.000000	3.436600	-10.309000	25.766045	0.000220	20.773726
1557.411065	-2.992000	3.437400	-10.284000	25.760640	0.000219	20.756917
1558.411441	-2.989100	3.435300	-10.267000	25.793742	0.000220	20.755553
1559.412308	-3.013100	3.435500	-10.350000	25.709927	0.000220	20.756239
1560.433202	-3.000600	3.435200	-10.307000	25.648109	0.000219	20.765747
1561.415876	-2.999400	3.434900	-10.302000	25.663932	0.000220	20.740861
1562.413660	-3.000600	3.435300	-10.308000	25.674472	0.000218	20.760457
1563.431897	-3.011000	3.433900	-10.338000	25.665583	0.000218	20.746313
1564.429115	-2.996300	3.434000	-10.288000	25.716340	0.000217	20.767896
1565.481626	-2.997400	3.434600	-10.294000	25.729737	0.000216	20.751480
1566.438673	-3.000800	3.434100	-10.304000	25.764588	0.000218	20.740967
1567.429049	-2.975200	3.433100	-10.212000	25.754584	0.000217	20.774542
1568.414090	-3.016500	3.431200	-10.349000	25.728191	0.000215	20.776480
1569.432114	-2.998600	3.432200	-10.291000	25.719302	0.000215	20.754276
1570.429222	-3.015100	3.432500	-10.349000	25.661716	0.000215	20.768034
1571.432436	-2.985600	3.432400	-10.246000	25.663817	0.000216	20.768248
1572.432095	-3.007300	3.431400	-10.318000	25.651298	0.000214	20.764683
1573.412421	-3.001400	3.432100	-10.301000	25.622777	0.000214	20.780608
1574.436197	-2.983800	3.431500	-10.238000	25.678036	0.000214	20.759295
1575.430290	-2.990100	3.431600	-10.260000	25.682561	0.000216	20.765263
1576.432686	-2.993800	3.430800	-10.271000	25.674690	0.000214	20.776797
1577.434954	-2.995600	3.430700	-10.276000	25.646585	0.000213	20.777018
1578.431099	-2.991100	3.431600	-10.264000	25.594702	0.000215	20.772800
1579.433449	-2.974900	3.429900	-10.202000	25.639080	0.000214	20.766162
1580.433092	-3.019300	3.429300	-10.353000	25.657401	0.000214	20.787882
1581.431309	-3.014800	3.428600	-10.336000	25.679687	0.000212	20.785136
1582.433279	-3.020300	3.427200	-10.350000	25.669571	0.000212	20.769284
1583.429877	-2.999400	3.430000	-10.287000	25.662920	0.000211	20.773510
1584.414464	-2.988700	3.427500	-10.242000	25.713408	0.000211	20.793874
1585.415158	-2.985300	3.428500	-10.234000	25.763194	0.000209	20.781293
1586.415383	-2.992300	3.428600	-10.258000	25.781929	0.000212	20.787784
1587.433811	-2.997400	3.426900	-10.271000	25.820953	0.000213	20.780991
1588.439558	-2.995800	3.426500	-10.264000	25.825810	0.000210	20.784448
1589.430726	-3.006000	3.425600	-10.296000	25.841729	0.000210	20.787637
1590.433757	-3.004000	3.426500	-10.292000	25.834698	0.000209	20.768245
1591.442334	-3.001100	3.425500	-10.280000	25.795618	0.000210	20.783517
1592.438375	-3.008300	3.424800	-10.302000	25.748812	0.000212	20.776805
1593.446298	-3.002400	3.423500	-10.278000	25.743473	0.000212	20.790882
1594.435151	-2.989700	3.426100	-10.242000	25.740071	0.000208	20.778930
1595.438262	-2.988700	3.424000	-10.232000	25.744539	0.000209	20.790057
1596.437909	-2.999600	3.424600	-10.271000	25.760882	0.000208	20.791774
1597.443078	-3.007400	3.422600	-10.292000	25.780488	0.000208	20.775431
1598.440833	-3.005600	3.422900	-10.287000	25.808330	0.000207	20.785381
1599.435992	-3.009000	3.422700	-10.298000	25.778959	0.000211	20.801871
1600.437937	-2.997700	3.423300	-10.261000	25.802512	0.000205	20.806563
1601.438528	-2.986700	3.423500	-10.224000	25.777592	0.000209	20.790541
1602.438126	-3.004800	3.423300	-10.285000	25.737346	0.000205	20.793737
1603.441732	-2.999000	3.422400	-10.263000	25.753371	0.000208	20.797505
1604.447215	-3.004500	3.421000	-10.277000	25.783452	0.000204	20.785047
1605.444217	-3.000700	3.421800	-10.267000	25.792323	0.000206	20.785897
1606.426537	-3.023200	3.420900	-10.341000	25.763732	0.000206	20.793213
1607.427146	-3.020300	3.421200	-10.332000	25.729565	0.000209	20.811526
1608.428033	-3.023500	3.419200	-10.338000	25.714802	0.000206	20.793852
1609.427793	-3.000100	3.419500	-10.258000	25.713931	0.000206	20.810995
1610.427371	-3.002300	3.420900	-10.270000	25.726652	0.000206	20.816186
1611.427402	-3.002400	3.419700	-10.267000	25.744339	0.000205	20.823994
1612.427325	-2.988000	3.418300	-10.212000	25.748384	0.000203	20.806721
1613.427612	-2.997800	3.420700	-10.254000	25.739178	0.000204	20.806957
1614.430989	-3.005600	3.419300	-10.275000	25.747821	0.000203	20.826070
1615.431745	-2.985200	3.418900	-10.206000	25.753909	0.000204	20.797572
1616.427770	-2.989700	3.418700	-10.220000	25.725106	0.000204	20.809892
1617.428677	-3.016900	3.418100	-10.311000	25.793602	0.000201	20.813260
1618.430765	-3.023000	3.416200	-10.326000	25.816333	0.000202	20.809541
1619.428201	-3.015700	3.417100	-10.304000	25.811116	0.000203	20.809516
1620.437381	-3.010300	3.416500	-10.284000	25.829224	0.000202	20.811111
1621.446466	-3.003500	3.416600	-10.261000	25.860548	0.000202	20.822662
1622.449938	-3.007100	3.415600	-10.270000	25.878533	0.000202	20.825556
1623.445169	-2.994800	3.415800	-10.229000	25.857398	0.000202	20.825662
1624.453949	-3.012000	3.414300	-10.283000	25.875603	0.000200	20.820717
1625.447161	-3.005600	3.414900	-10.262000	25.860027	0.000201	20.830674
1626.449525	-3.002500	3.415500	-10.254000	25.820581	0.000202	20.816653
1627.429767	-2.998500	3.414300	-10.237000	25.820297	0.000200	20.806885
1628.431286	-2.981400	3.414800	-10.179000	25.785766	0.000198	20.826726
1629.447813	-2.995700	3.414300	-10.228000	25.784098	0.000200	20.839274
1630.432134	-3.050000	3.412300	-10.407000	25.791602	0.000200	20.824527
1631.449836	-3.016500	3.413800	-10.296000	25.785766	0.000200	20.819614
1632.452076	-2.966000	3.413800	-10.124000	25.717147	0.000199	20.833192
1633.454093	-2.991000	3.412100	-10.205000	25.714951	0.000200	20.830511
1634.451297	-2.988800	3.413300	-10.200000	25.763573	0.000198	20.822451
1635.453174	-2.985900	3.412200	-10.187000	25.756321	0.000198	20.846460
1636.452729	-3.011600	3.410500	-10.270000	25.772811	0.000196	20.847376
1637.452393	-2.998600	3.410700	-10.226000	25.805584	0.000197	20.823399
1638.455166	-2.993000	3.410500	-10.207000	25.840961	0.000197	20.856090
1639.454452	-2.980700	3.411400	-10.168000	25.817556	0.000198	20.827364
1640.458423	-2.987500	3.410700	-10.189000	25.840310	0.000196	20.842635
1641.439589	-2.992200	3.411200	-10.206000	25.845373	0.000197	20.832074
1642.437962	-3.030500	3.409100	-10.330000	25.867134	0.000199	20.846821
1643.457688	-2.993800	3.408100	-10.202000	25.922283	0.000196	20.846748
1644.441839	-3.005100	3.410200	-10.247000	25.886933	0.000196	20.852486
1645.439934	-3.003000	3.409300	-10.237000	25.901093	0.000196	20.843004
1646.446158	-3.006900	3.408300	-10.248000	25.888041	0.000196	20.853125
1647.440073	-2.998500	3.408900	-10.221000	25.849345	0.000195	20.840805
1648.458399	-3.016800	3.407600	-10.279000	25.854334	0.000194	20.845817
1649.457901	-3.004100	3.408700	-10.240000	25.797073	0.000194	20.830497
1650.460246	-2.995900	3.407100	-10.207000	25.752799	0.000194	20.839130
1651.457511	-2.999300	3.408400	-10.221000	25.754044	0.000193	20.844647
1652.456351	-2.998300	3.406600	-10.213000	25.738109	0.000192	20.847607
1653.441456	-3.012900	3.406000	-10.261000	25.734567	0.000194	20.838835
1654.462697	-3.002700	3.406400	-10.226000	25.767408	0.000192	20.834838
1655.460125	-3.014000	3.406500	-10.266000	25.782195	0.000191	20.847794
1656.456708	-2.993500	3.406200	-10.195000	25.797716	0.000191	20.844893
1657.441562	-2.997800	3.406900	-10.212000	25.785940	0.000191	20.834486
1658.439805	-3.002000	3.404700	-10.220000	25.769719	0.000189	20.837633
1659.440313	-3.010900	3.404600	-10.250000	25.783377	0.000191	20.843291
1660.439669	-3.013800	3.403800	-10.258000	25.778216	0.000191	20.833840
1661.440813	-3.006400	3.404600	-10.234000	25.815034	0.000191	20.838582
1662.440453	-2.998200	3.405400	-10.209000	25.854236	0.000191	20.836710
1663.466938	-3.001800	3.403800	-10.217000	25.901785	0.000186	20.849863
1664.442630	-2.990400	3.404300	-10.179000	25.915602	0.000190	20.835295
1665.447765	-3.030300	3.403000	-10.311000	25.875141	0.000189	20.845856
1666.459083	-2.996800	3.403200	-10.198000	25.877347	0.000188	20.832425
1667.441403	-2.988800	3.403000	-10.169000	25.899317	0.000186	20.831263
1668.459446	-2.988700	3.401900	-10.166000	25.875588	0.000186	20.815486
1669.441922	-3.009000	3.402000	-10.235000	25.895705	0.000187	20.826686
1670.441759	-2.995700	3.400400	-10.185000	25.855610	0.000187	20.829556
1671.442862	-3.006400	3.400700	-10.223000	25.849401	0.000186	20.836594
1672.442080	-2.990500	3.401000	-10.170000	25.890472	0.000186	20.838498
1673.447743	-3.020200	3.399700	-10.266000	25.902174	0.000186	20.824650
1674.444428	-3.016600	3.400100	-10.256000	25.850010	0.000186	20.821085
1675.443571	-3.022400	3.400200	-10.276000	25.852052	0.000184	20.823611
1676.444073	-3.024000	3.398000	-10.275000	25.847185	0.000184	20.797859
1677.462094	-2.984400	3.400300	-10.146000	25.886036	0.000184	20.833568
1678.460293	-2.982000	3.398700	-10.134000	25.904663	0.000184	20.823358
1679.447839	-2.995900	3.398700	-10.181000	25.949386	0.000182	20.825613
1680.444541	-2.981900	3.400000	-10.138000	25.950134	0.000185	20.817356
1681.446066	-3.010500	3.398400	-10.230000	25.939369	0.000182	20.807964
1682.469620	-3.016800	3.398400	-10.252000	25.939311	0.000183	20.823077
1683.463801	-3.019400	3.396600	-10.255000	25.922792	0.000184	20.790361
1684.462802	-2.999100	3.396900	-10.187000	25.938863	0.000184	20.826421
1685.460706	-3.025500	3.395700	-10.273000	25.930717	0.000182	20.810177
1686.445842	-3.009300	3.396300	-10.220000	25.912188	0.000183	20.813848
1687.446332	-3.008000	3.396200	-10.215000	25.898574	0.000182	20.817240
1688.447377	-2.989200	3.397200	-10.153000	25.903343	0.000180	20.807807
1689.448077	-3.019300	3.395600	-10.251000	25.894033	0.000181	20.800350
1690.446642	-2.998900	3.394900	-10.180000	25.894952	0.000181	20.815024
1691.465924	-3.009200	3.394900	-10.215000	25.899476	0.000183	20.779266
1692.461673	-2.997200	3.393200	-10.169000	25.932190	0.000180	20.814975
1693.446217	-2.996800	3.394600	-10.172000	25.884820	0.000180	20.813381
1694.447201	-2.991700	3.393900	-10.152000	25.861025	0.000181	20.806072
1695.445679	-3.003900	3.392800	-10.190000	25.890443	0.000182	20.806701
1696.448066	-3.010900	3.394100	-10.218000	25.951963	0.000181	20.805443
1697.472927	-3.013200	3.393100	-10.222000	25.968545	0.000181	20.802662
1698.464048	-3.002900	3.392500	-10.186000	25.976261	0.000179	20.790499
1699.469219	-3.006700	3.393800	-10.203000	25.970979	0.000179	20.802262
1700.466357	-3.001100	3.391700	-10.177000	25.925394	0.000179	20.791079
1701.465929	-3.014500	3.393200	-10.228000	25.955673	0.000181	20.783092
1702.470094	-3.002800	3.390300	-10.180000	25.945468	0.000181	20.793228
1703.467104	-3.002200	3.390100	-10.177000	25.958585	0.000179	20.816837
1704.469728	-3.000000	3.392200	-10.174000	25.971580	0.000178	20.786271
1705.453654	-3.009600	3.390900	-10.205000	26.026416	0.000179	20.809121
1706.469686	-3.000200	3.389400	-10.168000	25.951848	0.000177	20.802483
1707.449956	-3.015000	3.389900	-10.219000	25.954159	0.000176	20.781571
1708.456103	-2.998200	3.389600	-10.162000	25.986228	0.000176	20.791029
1709.467721	-2.996900	3.389700	-10.158000	26.008759	0.000175	20.798967
1710.467174	-3.022800	3.387900	-10.239000	26.014772	0.000177	20.824448
1711.465183	-2.999700	3.388700	-10.164000	26.025602	0.000178	20.796923
1712.465681	-2.985100	3.388800	-10.115000	26.037896	0.000178	20.813069
1713.473933	-2.984200	3.387900	-10.109000	26.074786	0.000177	20.782804
1714.470175	-2.986100	3.388000	-10.116000	26.086853	0.000175	20.794454
1715.469913	-3.006300	3.388400	-10.186000	26.048327	0.000174	20.796523
1716.466230	-2.992600	3.386800	-10.134000	26.029979	0.000173	20.795157
1717.466494	-2.965600	3.387800	-10.045000	26.007424	0.000174	20.783401
1718.450155	-2.988600	3.386000	-10.118000	26.036456	0.000174	20.781750
1719.451089	-3.003300	3.385200	-10.166000	26.036407	0.000174	20.772692
1720.468107	-3.001500	3.386000	-10.163000	26.076625	0.000174	20.781807
1721.471565	-2.995600	3.385400	-10.140000	26.054078	0.000174	20.779542
1722.452165	-3.001900	3.384700	-10.159000	26.049775	0.000175	20.770002
1723.455813	-2.999200	3.385400	-10.152000	26.036789	0.000171	20.771179
1724.452517	-3.024900	3.382100	-10.229000	26.025015	0.000173	20.785428
1725.452932	-3.010700	3.383100	-10.185000	25.995926	0.000172	20.769479
1726.455412	-3.006400	3.383200	-10.170000	26.030353	0.000172	20.769454
1727.452504	-3.012300	3.383600	-10.191000	26.060808	0.000172	20.772552
1728.452990	-3.016000	3.383700	-10.205000	26.056780	0.000170	20.785575
1729.453069	-2.998700	3.383200	-10.144000	25.992679	0.000171	20.785182
1730.453930	-3.009100	3.381700	-10.175000	25.983264	0.000170	20.772405
1731.455689	-2.996700	3.382000	-10.134000	25.999660	0.000169	20.766592
1732.470110	-2.983400	3.383800	-10.094000	26.005421	0.000168	20.795140
1733.472441	-2.975900	3.383400	-10.068000	25.963792	0.000170	20.780343
1734.477961	-2.993100	3.381000	-10.119000	26.001076	0.000169	20.761376
1735.474392	-2.997600	3.382200	-10.137000	26.013346	0.000167	20.771333
1736.473305	-3.007700	3.380400	-10.166000	26.007463	0.000169	20.776802
1737.470713	-2.988500	3.380700	-10.103000	25.995738	0.000170	20.770712
1738.455353	-2.993700	3.380500	-10.119000	25.996241	0.000167	20.783546
1739.454117	-3.038800	3.378600	-10.265000	26.008756	0.000167	20.763403
1740.457055	-3.008200	3.379700	-10.166000	25.946630	0.000167	20.768791
1741.454939	-2.985800	3.379200	-10.089000	25.911418	0.000167	20.774193
1742.458391	-3.019000	3.378900	-10.199000	25.928548	0.000166	20.771962
1743.474386	-3.019200	3.377600	-10.197000	25.944749	0.000167	20.773540
1744.469832	-2.983600	3.377200	-10.076000	25.982450	0.000165	20.757361
1745.457791	-2.992000	3.379500	-10.111000	25.992522	0.000166	20.759895
1746.472883	-2.992400	3.378300	-10.108000	25.988551	0.000165	20.772500
1747.457825	-3.019200	3.377600	-10.196000	25.994703	0.000166	20.772518
1748.462321	-3.012800	3.376800	-10.172000	26.023768	0.000164	20.763312
1749.458513	-3.003500	3.376700	-10.141000	25.995858	0.000165	20.787902
1750.459501	-2.999900	3.375300	-10.125000	25.988079	0.000166	20.758750
1751.463333	-3.002000	3.376300	-10.135000	26.039097	0.000164	20.760221
1752.482710	-2.993200	3.376400	-10.105000	26.019357	0.000164	20.761251
1753.486973	-2.980800	3.375500	-10.061000	26.013816	0.000164	20.776547
1754.482220	-2.999200	3.376300	-10.126000	26.061805	0.000166	20.760752
1755.480042	-2.983800	3.375900	-10.071000	26.055467	0.000162	20.770980
1756.484009	-3.002500	3.374600	-10.131000	26.073928	0.000164	20.762975
1757.492088	-3.015900	3.374900	-10.178000	26.103113	0.000164	20.765747
1758.480487	-2.995400	3.373400	-10.103000	26.106294	0.000162	20.776530
1759.483261	-3.003600	3.373400	-10.132000	26.057069	0.000162	20.757416
1760.480712	-2.975200	3.373500	-10.036000	26.052489	0.000162	20.756133
1761.487882	-3.014200	3.373700	-10.167000	25.989453	0.000161	20.777200
1762.465353	-3.020700	3.373400	-10.189000	26.008509	0.000161	20.750352
1763.465615	-2.987700	3.373900	-10.079000	25.959280	0.000161	20.753998
1764.465402	-3.002400	3.373400	-10.127000	25.931613	0.000162	20.780257
1765.466283	-3.003600	3.372800	-10.130000	25.931686	0.000160	20.754725
1766.467453	-3.000000	3.371900	-10.114000	25.929025	0.000156	20.762958
1767.468236	-2.999300	3.371000	-10.109000	25.951834	0.000158	20.769277
1768.467809	-3.019600	3.371000	-10.177000	26.019574	0.000159	20.756728
1769.471052	-2.985500	3.370200	-10.060000	26.028013	0.000158	20.760465
1770.467484	-3.005400	3.369600	-10.126000	26.067263	0.000158	20.759123
1771.469014	-3.015000	3.370300	-10.160000	26.070160	0.000158	20.756819
1772.469845	-3.001200	3.369100	-10.111000	26.060478	0.000157	20.766056
1773.468751	-3.016200	3.368400	-10.159000	26.043188	0.000157	20.750581
1774.494373	-3.014900	3.368800	-10.156000	26.020169	0.000157	20.754006
1775.469832	-2.985700	3.369200	-10.058000	26.022602	0.000158	20.728948
1776.469496	-2.985400	3.367800	-10.053000	26.031617	0.000157	20.769776
1777.470525	-2.995300	3.368600	-10.089000	26.054668	0.000156	20.760693
1778.470048	-3.021400	3.368400	-10.176000	26.033554	0.000156	20.757971
1779.486148	-2.999100	3.368400	-10.101000	26.036116	0.000158	20.755330
1780.495029	-3.011500	3.366500	-10.137000	26.024814	0.000155	20.745871
1781.486514	-3.001000	3.365800	-10.100000	26.080403	0.000155	20.745773
1782.488251	-3.006200	3.366100	-10.117000	26.102013	0.000156	20.726707
1783.486849	-3.006800	3.366100	-10.121000	26.088408	0.000155	20.744807
1784.489361	-2.992900	3.365800	-10.073000	26.116341	0.000155	20.744898
1785.474442	-2.981100	3.365900	-10.034000	26.114013	0.000156	20.733550
1786.490594	-3.024600	3.365100	-10.177000	26.124891	0.000152	20.753964
1787.474538	-3.017000	3.364200	-10.149000	26.081403	0.000154	20.737294
1788.474900	-2.988700	3.365900	-10.059000	26.072787	0.000152	20.740965
1789.473334	-3.008100	3.364600	-10.120000	26.088709	0.000152	20.717133
1790.492724	-2.994200	3.364200	-10.072000	26.078295	0.000152	20.736542
1791.474802	-3.002400	3.364000	-10.099000	26.085203	0.000152	20.720248
1792.490013	-2.989300	3.363400	-10.054000	26.079816	0.000152	20.733803
1793.493769	-2.998000	3.363000	-10.081000	26.081851	0.000150	20.749124
1794.490808	-3.007200	3.363700	-10.114000	26.054927	0.000154	20.723020
1795.503487	-3.030500	3.361100	-10.185000	26.074479	0.000152	20.745036
1796.485807	-3.014800	3.362300	-10.136000	26.130568	0.000148	20.733115
1797.475164	-2.992300	3.361600	-10.058000	26.136703	0.000151	20.727899
1798.492412	-3.010700	3.362400	-10.122000	26.193173	0.000151	20.744341
1799.492193	-3.020800	3.360600	-10.150000	26.218384	0.000151	20.730319
1800.474735	-3.020700	3.360000	-10.149000	26.219010	0.000151	20.724784
1801.478789	-2.997000	3.360600	-10.070000	26.194173	0.000150	20.736336
1802.474752	-3.011200	3.360200	-10.118000	26.198818	0.000148	20.727727
1803.475357	-3.017500	3.360200	-10.138000	26.183548	0.000148	20.738935
1804.476544	-3.003300	3.360000	-10.090000	26.164306	0.000148	20.730506
1805.490538	-3.013700	3.359300	-10.123000	26.195897	0.000148	20.740913
1806.476116	-3.002200	3.360400	-10.087000	26.190454	0.000149	20.729280
1807.476401	-3.015400	3.358600	-10.127000	26.160482	0.000147	20.732828
1808.476518	-3.020000	3.357700	-10.140000	26.189063	0.000148	20.743056
1809.476778	-3.006400	3.358800	-10.097000	26.193496	0.000147	20.727595
1810.475943	-2.986900	3.359200	-10.033000	26.203974	0.000145	20.722477
1811.476438	-2.994700	3.357500	-10.054000	26.169651	0.000147	20.742041
1812.476582	-3.003000	3.358300	-10.084000	26.139801	0.000147	20.749031
1813.474264	-3.001000	3.356600	-10.072000	26.153087	0.000144	20.732508
1814.479206	-3.001000	3.356500	-10.071000	26.187711	0.000143	20.736481
1815.478992	-2.989400	3.356500	-10.033000	26.146121	0.000146	20.726457
1816.476703	-2.998600	3.355100	-10.060000	26.120136	0.000142	20.732115
1817.480624	-2.997400	3.355900	-10.059000	26.126515	0.000146	20.712919
1818.477388	-3.026100	3.355200	-10.152000	26.191714	0.000143	20.732442
1819.478001	-2.974000	3.356700	-9.981800	26.156600	0.000141	20.714227
1820.478617	-2.998200	3.355000	-10.057000	26.198523	0.000143	20.707514
1821.479376	-3.003000	3.355400	-10.075000	26.221000	0.000143	20.720145
1822.481017	-2.961000	3.356000	-9.936200	26.256706	0.000143	20.717145
1823.496968	-2.991200	3.355400	-10.036000	26.305782	0.000142	20.693443
1824.498382	-2.979300	3.353400	-9.990200	26.284160	0.000142	20.718657
1825.480430	-2.998500	3.353700	-10.055000	26.314974	0.000141	20.724020
1826.495344	-3.000500	3.353400	-10.061000	26.332357	0.000141	20.709721
1827.501046	-3.011100	3.352000	-10.092000	26.350928	0.000142	20.724592
1828.507998	-3.000900	3.351900	-10.058000	26.327297	0.000141	20.724077
1829.496027	-3.010100	3.351300	-10.087000	26.276618	0.000140	20.720561
1830.498711	-3.005000	3.351000	-10.069000	26.284810	0.000140	20.712197
1831.502071	-2.981900	3.350900	-9.991300	26.297053	0.000140	20.709802
1832.487259	-3.028000	3.349400	-10.141000	26.286494	0.000140	20.712942
1833.483905	-2.980900	3.350100	-9.984700	26.257371	0.000140	20.719237
1834.482686	-2.993700	3.351300	-10.032000	26.190313	0.000142	20.697367
1835.498321	-2.978800	3.351300	-9.981400	26.178353	0.000139	20.693883
1836.503242	-2.979400	3.350200	-9.981000	26.239018	0.000138	20.697473
1837.498858	-3.009400	3.348300	-10.076000	26.246120	0.000136	20.713620
1838.499939	-2.986500	3.348700	-9.999500	26.275894	0.000138	20.686166
1839.486348	-3.002600	3.349700	-10.058000	26.259112	0.000138	20.702493
1840.498366	-3.015600	3.347700	-10.094000	26.257623	0.000137	20.700048
1841.483783	-2.985100	3.348500	-9.994200	26.266196	0.000137	20.699181
1842.503704	-2.997000	3.347200	-10.030000	26.284216	0.000135	20.710652
1843.505063	-3.021000	3.348300	-10.114000	26.291521	0.000138	20.701397
1844.502676	-3.008900	3.347200	-10.070000	26.294701	0.000137	20.704119
1845.498966	-3.040900	3.346500	-10.174000	26.271631	0.000134	20.691839
1846.504556	-3.023900	3.346400	-10.118000	26.295921	0.000136	20.712932
1847.504920	-3.009800	3.346400	-10.071000	26.324855	0.000135	20.700758
1848.502183	-3.017000	3.346500	-10.095000	26.315891	0.000135	20.722097
1849.488113	-3.010300	3.345600	-10.071000	26.304396	0.000137	20.685886
1850.507764	-2.997200	3.345500	-10.026000	26.240278	0.000133	20.712964
1851.485658	-3.003200	3.346100	-10.048000	26.230596	0.000134	20.693751
1852.485879	-2.988800	3.345000	-9.996800	26.241546	0.000133	20.687685
1853.485780	-3.000300	3.345800	-10.037000	26.270661	0.000130	20.716945
1854.487350	-3.006500	3.343800	-10.052000	26.253423	0.000133	20.696301
1855.503999	-3.031300	3.343600	-10.135000	26.298953	0.000132	20.686105
1856.504863	-2.996100	3.344500	-10.020000	26.332516	0.000135	20.693758
1857.487140	-3.003000	3.342600	-10.036000	26.323032	0.000133	20.697029
1858.506719	-3.031900	3.341700	-10.131000	26.280185	0.000132	20.686211
1859.506434	-3.023800	3.342700	-10.107000	26.262346	0.000131	20.705269
1860.504567	-3.004000	3.343600	-10.043000	26.266877	0.000129	20.709348
1861.489091	-3.006500	3.340600	-10.042000	26.239437	0.000131	20.710697
1862.509610	-3.003800	3.341800	-10.037000	26.239503	0.000130	20.689899
1863.507578	-2.992500	3.341700	-9.999100	26.286018	0.000132	20.710567
1864.506111	-2.986400	3.342000	-9.980000	26.329749	0.000132	20.677700
1865.504947	-2.977300	3.340800	-9.945900	26.360374	0.000131	20.670545
1866.489764	-2.988600	3.341000	-9.984300	26.347612	0.000129	20.682850
1867.507355	-3.014800	3.339800	-10.068000	26.313772	0.000130	20.704793
1868.513804	-3.002800	3.338500	-10.024000	26.311259	0.000131	20.689464
1869.490140	-2.982600	3.341200	-9.965100	26.265322	0.000130	20.689766
1870.491427	-3.006400	3.339500	-10.039000	26.257968	0.000129	20.693756
1871.490258	-2.992900	3.339100	-9.993100	26.253551	0.000129	20.693584
1872.490420	-3.002600	3.337700	-10.021000	26.284163	0.000125	20.695899
1873.492249	-2.991400	3.338100	-9.985000	26.315464	0.000128	20.689897
1874.518069	-2.995800	3.338100	-9.999800	26.315618	0.000127	20.683887
1875.508706	-2.998100	3.337800	-10.006000	26.304353	0.000127	20.672091
1876.490321	-2.993200	3.337300	-9.988500	26.287725	0.000125	20.678614
1877.489962	-2.991000	3.337700	-9.982600	26.305849	0.000126	20.677862
1878.510960	-2.984600	3.337500	-9.960300	26.293428	0.000125	20.669646
1879.493328	-3.004200	3.336000	-10.021000	26.329642	0.000125	20.675221
1880.509917	-3.018000	3.335400	-10.065000	26.326787	0.000126	20.693216
1881.497397	-3.027900	3.334200	-10.094000	26.361968	0.000124	20.674518
1882.508477	-2.998800	3.334700	-9.998900	26.416897	0.000125	20.669506
1883.493012	-3.006300	3.336000	-10.028000	26.438524	0.000124	20.677019
1884.513309	-3.014800	3.334900	-10.053000	26.393235	0.000126	20.685081
1885.518508	-3.027500	3.334000	-10.093000	26.353728	0.000124	20.671452
1886.514337	-2.966600	3.334700	-9.891200	26.353508	0.000122	20.685457
1887.509854	-2.993000	3.333400	-9.976200	26.335548	0.000122	20.704393
1888.495793	-2.993700	3.332900	-9.976800	26.328405	0.000125	20.696739
1889.494726	-3.015700	3.332900	-10.050000	26.354703	0.000122	20.697091
1890.497518	-2.986800	3.331900	-9.950600	26.315569	0.000121	20.659179
1891.498577	-3.001300	3.333400	-10.004000	26.334807	0.000123	20.673774
1892.523290	-2.977400	3.333300	-9.923700	26.334661	0.000123	20.685956
1893.516336	-3.020900	3.332000	-10.065000	26.398652	0.000123	20.691000
1894.513766	-2.977500	3.331700	-9.919100	26.398798	0.000122	20.668386
1895.515890	-3.020600	3.332400	-10.066000	26.376926	0.000120	20.680069
1896.540012	-2.980600	3.332400	-9.931600	26.369004	0.000121	20.662147
1897.550046	-2.980300	3.331400	-9.928200	26.387549	0.000121	20.695963
1898.499091	-3.022000	3.329200	-10.059000	26.382433	0.000122	20.683707
1899.543310	-3.024500	3.328900	-10.067000	26.384271	0.000119	20.663268
1900.498981	-2.990200	3.330600	-9.957700	26.384320	0.000120	20.673749
1901.499289	-2.999400	3.330900	-9.989300	26.387175	0.000119	20.704122
1902.516572	-3.008800	3.328700	-10.014000	26.397351	0.000117	20.687322
1903.516898	-2.995800	3.330100	-9.974800	26.390331	0.000119	20.686430
1904.501485	-3.015300	3.328700	-10.036000	26.386833	0.000118	20.681491
1905.504859	-2.987100	3.327500	-9.938700	26.386501	0.000117	20.684476
1906.502028	-3.030900	3.327700	-10.085000	26.368451	0.000118	20.694786
1907.505821	-2.980600	3.328800	-9.920000	26.359658	0.000116	20.684526
1908.501493	-3.026700	3.326400	-10.067000	26.334824	0.000117	20.675213
1909.503800	-3.001100	3.325400	-9.978600	26.376635	0.000115	20.694950
1910.503608	-2.987900	3.326900	-9.938400	26.326056	0.000116	20.686317
1911.503501	-2.975300	3.326900	-9.897900	26.364613	0.000115	20.684764
1912.518722	-2.984000	3.326400	-9.925200	26.414921	0.000115	20.675582
1913.503985	-2.982700	3.325600	-9.918900	26.397718	0.000115	20.682948
1914.517550	-3.011300	3.325200	-10.012000	26.423877	0.000114	20.691697
1915.519449	-2.989500	3.325100	-9.939900	26.405730	0.000115	20.688157
1916.520137	-2.999600	3.324600	-9.970300	26.367583	0.000114	20.691542
1917.523444	-2.987100	3.323800	-9.927800	26.404706	0.000116	20.686179
1918.519021	-2.995700	3.322500	-9.952600	26.464870	0.000116	20.688803
1919.527700	-3.000100	3.322600	-9.966800	26.464440	0.000113	20.696906
1920.526273	-2.998600	3.322800	-9.962900	26.501130	0.000113	20.692532
1921.535632	-3.006700	3.323300	-9.991800	26.542046	0.000114	20.697151
1922.503125	-3.017600	3.321800	-10.023000	26.525886	0.000111	20.696554
1923.507159	-3.019900	3.321400	-10.029000	26.537776	0.000112	20.697601
1924.504758	-2.989800	3.321300	-9.929200	26.565306	0.000113	20.692083
1925.518173	-3.020300	3.321300	-10.030000	26.589883	0.000112	20.689761
1926.507124	-3.005800	3.321000	-9.981600	26.560508	0.000113	20.701485
1927.505914	-2.978000	3.321600	-9.891000	26.571731	0.000111	20.702336
1928.522838	-3.001400	3.320500	-9.965500	26.554946	0.000111	20.686884
1929.506345	-2.991300	3.320500	-9.931500	26.515745	0.000111	20.691576
1930.536337	-3.003200	3.319300	-9.967800	26.484116	0.000112	20.686336
1931.505572	-2.986500	3.320400	-9.915100	26.494567	0.000111	20.707748
1932.509122	-2.988200	3.319100	-9.917500	26.526196	0.000112	20.687857
1933.504251	-3.016400	3.318500	-10.009000	26.563062	0.000111	20.695992
1934.508102	-3.018300	3.316900	-10.010000	26.582776	0.000110	20.695419
1935.504845	-3.014800	3.318700	-10.004000	26.560054	0.000110	20.685854
1936.505990	-2.978700	3.318200	-9.882500	26.601367	0.000109	20.707945
1937.506434	-2.996200	3.317900	-9.940300	26.562185	0.000109	20.681358
1938.505783	-2.990000	3.317000	-9.917200	26.603026	0.000110	20.694913
1939.507857	-3.013000	3.315900	-9.989800	26.649867	0.000109	20.698854
1940.505653	-3.015200	3.316600	-9.999700	26.623552	0.000108	20.709384
1941.521668	-3.013000	3.314900	-9.986500	26.640508	0.000108	20.709360
1942.528197	-2.998300	3.315300	-9.939600	26.629261	0.000108	20.724607
1943.505242	-3.042200	3.314700	-10.082000	26.615786	0.000109	20.691618
1944.507779	-3.022700	3.315500	-10.020000	26.620649	0.000107	20.703620
1945.539377	-3.002200	3.314100	-9.948200	26.627724	0.000108	20.717846
1946.508827	-2.975100	3.314300	-9.859800	26.664530	0.000109	20.696999
1947.509165	-2.986200	3.313800	-9.895200	26.700204	0.000107	20.697301
1948.511676	-2.990600	3.313700	-9.908900	26.699089	0.000106	20.701871
1949.509300	-2.989100	3.314000	-9.904700	26.620299	0.000106	20.708011
1950.512888	-2.994700	3.313300	-9.921500	26.614737	0.000104	20.722335
1951.526691	-3.010900	3.312900	-9.974200	26.576702	0.000106	20.708281
1952.527202	-2.999700	3.311800	-9.932400	26.591991	0.000104	20.712745
1953.529606	-3.019200	3.311300	-9.996900	26.578190	0.000105	20.702665
1954.526073	-3.027000	3.310000	-10.018000	26.621015	0.000104	20.705886
1955.528669	-3.020700	3.310800	-9.999800	26.665498	0.000107	20.701291
1956.533318	-2.997100	3.310700	-9.922000	26.697447	0.000103	20.708281
1957.539166	-3.003900	3.310600	-9.943000	26.677118	0.000105	20.698274
1958.529485	-2.981600	3.310000	-9.867000	26.660781	0.000103	20.714094
1959.515733	-2.982100	3.310400	-9.870700	26.634026	0.000104	20.707112
1960.530168	-3.013800	3.310300	-9.976100	26.617965	0.000102	20.699974
1961.515246	-2.967200	3.309500	-9.819100	26.619129	0.000103	20.724853
1962.528180	-3.006900	3.308500	-9.948000	26.663919	0.000104	20.722465
1963.531563	-3.023300	3.308200	-10.001000	26.681834	0.000102	20.707284
1964.532278	-3.011500	3.308400	-9.963100	26.698163	0.000101	20.730813
1965.530683	-3.003300	3.308100	-9.934600	26.720858	0.000101	20.719490
1966.513699	-3.007300	3.310000	-9.953000	26.705863	0.000102	20.714846
1967.512474	-3.014800	3.307200	-9.969700	26.733762	0.000100	20.712075
1968.516129	-3.020000	3.305200	-9.981100	26.783240	0.000102	20.734794
1969.532559	-3.005100	3.307100	-9.937300	26.782736	0.000101	20.718165
1970.515046	-3.005100	3.306000	-9.934300	26.750741	9.988182E-5	20.730094
1971.538610	-3.002000	3.305200	-9.921600	26.709937	0.000101	20.699974
1972.535376	-3.019000	3.305400	-9.977800	26.732917	9.935378E-5	20.728769
1973.515130	-3.025600	3.304600	-9.997800	26.809641	9.866073E-5	20.719138
1974.516301	-3.013700	3.304600	-9.958400	26.829895	9.819870E-5	20.727175
1975.516740	-3.001400	3.305500	-9.920600	26.805583	9.908977E-5	20.703677
1976.516504	-2.973400	3.304100	-9.823800	26.848342	9.892475E-5	20.705893
1977.520176	-2.977100	3.304400	-9.836300	26.779997	9.859473E-5	20.727740
1978.515165	-3.034900	3.301600	-10.019000	26.726021	9.998083E-5	20.730371
1979.515746	-3.005700	3.303000	-9.927400	26.693283	9.889175E-5	20.715949
1980.520968	-2.975200	3.302400	-9.824400	26.666197	9.651558E-5	20.720013
1981.515893	-3.014000	3.301500	-9.950100	26.655926	9.714262E-5	20.726283
1982.519181	-2.988400	3.302900	-9.869700	26.621592	9.694461E-5	20.720691
1983.525845	-3.003100	3.302000	-9.915800	26.655031	9.753865E-5	20.724435
1984.517800	-3.000200	3.300900	-9.902900	26.734965	9.592153E-5	20.722767
1985.517759	-2.995700	3.302200	-9.891400	26.778475	9.707662E-5	20.707716
1986.517244	-3.035300	3.300500	-10.017000	26.742039	9.552551E-5	20.726087
1987.518303	-3.002400	3.301800	-9.912300	26.752163	9.430442E-5	20.695960
1988.519553	-3.005200	3.299800	-9.915500	26.779775	9.519548E-5	20.735103
1989.518056	-3.013700	3.299200	-9.942400	26.836658	9.503047E-5	20.728286
1990.517446	-3.002200	3.299300	-9.904700	26.834447	9.371037E-5	20.728433
1991.518434	-3.005200	3.298800	-9.911800	26.818340	9.578952E-5	20.730256
1992.518779	-3.015500	3.298900	-9.946700	26.800696	9.166422E-5	20.728163
1993.519251	-3.004600	3.298300	-9.908400	26.799037	9.479945E-5	20.717485
1994.540104	-3.014700	3.297000	-9.938000	26.832407	9.113618E-5	20.723536
1995.518364	-3.005500	3.297900	-9.910400	26.864488	9.295132E-5	20.714067
1996.546400	-3.004900	3.297600	-9.907900	26.830755	9.143321E-5	20.727092
1997.539229	-3.006800	3.296500	-9.910600	26.841081	9.311633E-5	20.740794
1998.538241	-3.025500	3.297000	-9.974200	26.781515	9.189524E-5	20.758191
1999.522202	-2.988300	3.297500	-9.853200	26.783223	9.146621E-5	20.734302
2000.519754	-2.996600	3.295500	-9.874100	26.796330	9.275330E-5	20.745110
2001.519991	-2.992800	3.294900	-9.860300	26.767091	9.169723E-5	20.732308
2002.519355	-3.018400	3.294800	-9.943400	26.818819	9.074016E-5	20.747808
2003.523295	-2.983800	3.295500	-9.831700	26.789353	9.215926E-5	20.754218
2004.524350	-2.998600	3.294800	-9.878800	26.765058	8.859500E-5	20.738324
2005.521160	-3.007800	3.293200	-9.904600	26.735143	9.107018E-5	20.755665
2006.539005	-3.005200	3.293500	-9.896700	26.742574	8.948606E-5	20.730418
2007.543193	-2.972200	3.294300	-9.790900	26.730109	8.899103E-5	20.747285
2008.545566	-2.985500	3.293300	-9.831000	26.677433	8.994810E-5	20.752174
2009.525046	-3.011200	3.292700	-9.914900	26.650452	8.842999E-5	20.742592
2010.525142	-2.981700	3.292700	-9.817000	26.687272	9.017911E-5	20.743098
2011.524724	-3.009500	3.291100	-9.904500	26.735972	8.803396E-5	20.730892
2012.527670	-3.010100	3.290300	-9.902300	26.805329	8.790195E-5	20.738986
2013.526048	-3.024700	3.290500	-9.951800	26.806939	9.034413E-5	20.724957
2014.527226	-3.011500	3.288900	-9.902800	26.857080	8.842999E-5	20.767313
2015.540783	-3.009700	3.289500	-9.899700	26.940072	8.889202E-5	20.739337
2016.541559	-3.011600	3.289100	-9.904500	26.927666	8.743991E-5	20.719748
2017.526305	-3.008200	3.290200	-9.895800	26.902870	9.057514E-5	20.722316
2018.528113	-3.007900	3.288300	-9.890200	26.828095	8.915604E-5	20.753341
2019.527472	-2.974100	3.291400	-9.787800	26.796125	8.562478E-5	20.759604
2020.543766	-3.003400	3.288800	-9.876600	26.736361	8.635083E-5	20.719903
2021.547540	-2.990500	3.289000	-9.835000	26.778033	8.724190E-5	20.738568
2022.549736	-2.972700	3.287800	-9.773100	26.818687	8.760493E-5	20.754314
2023.546495	-3.028300	3.287000	-9.953700	26.864665	8.635083E-5	20.745541
2024.544779	-2.974500	3.288000	-9.779300	26.860022	8.582280E-5	20.760788
2025.547608	-3.013000	3.287200	-9.903400	26.857120	8.565778E-5	20.746489
2026.529381	-2.999300	3.286900	-9.857200	26.814597	8.390866E-5	20.770591
2027.529089	-3.006000	3.285600	-9.875800	26.850818	8.433769E-5	20.751059
2028.530640	-2.980400	3.285400	-9.790300	26.832549	8.598781E-5	20.744543
2029.529705	-2.973400	3.285800	-9.769100	26.860770	8.479972E-5	20.740202
2030.531981	-2.995100	3.284900	-9.837600	26.936542	8.394166E-5	20.747641
2031.529672	-2.981800	3.284700	-9.793600	26.890437	8.410667E-5	20.760076
2032.530835	-2.952600	3.285500	-9.699400	26.920615	8.239055E-5	20.761498
2033.547673	-2.980400	3.283500	-9.785300	26.948809	8.407367E-5	20.764245
2034.547998	-3.005600	3.284400	-9.871000	26.938362	8.539376E-5	20.756110
2035.547395	-2.968800	3.284500	-9.750000	26.918509	8.314960E-5	20.752268
2036.530412	-2.998900	3.283600	-9.846400	26.909948	8.169749E-5	20.763574
2037.550635	-3.000900	3.282200	-9.848700	26.898289	8.305059E-5	20.764179
2038.557936	-2.975700	3.283000	-9.767800	26.875704	8.229154E-5	20.755219
2039.548856	-2.983900	3.283100	-9.795200	26.904818	8.248955E-5	20.749406
2040.532650	-3.013900	3.280500	-9.886400	26.988351	8.100444E-5	20.755169
2041.552366	-2.974800	3.281000	-9.759500	27.028281	8.262156E-5	20.778256
2042.531449	-2.981700	3.281100	-9.782500	27.043020	8.394166E-5	20.767947
2043.552058	-3.017300	3.280300	-9.897200	27.034086	8.140047E-5	20.749479
2044.548767	-2.987100	3.279900	-9.797000	27.004585	8.083943E-5	20.776711
2045.534362	-3.019700	3.278700	-9.899600	26.994732	8.126846E-5	20.750681
2046.552722	-2.995500	3.279500	-9.822900	27.020696	8.031139E-5	20.757351
2047.536156	-3.002100	3.278500	-9.840700	27.021932	8.229154E-5	20.766655
2048.536172	-3.002400	3.277400	-9.838500	27.018754	8.034440E-5	20.783848
2049.537005	-3.023300	3.276300	-9.904100	27.025980	7.942033E-5	20.769778
2050.536685	-2.996200	3.277700	-9.819900	27.036255	8.054241E-5	20.773473
2051.537808	-2.995000	3.276100	-9.811300	27.045409	7.885929E-5	20.771773
2052.555768	-2.975400	3.277100	-9.750100	27.081492	7.991536E-5	20.767758
2053.557233	-3.017400	3.275500	-9.881900	27.099579	7.889229E-5	20.784526
2054.555500	-3.000700	3.277600	-9.834000	27.120005	7.876028E-5	20.787052
2055.537781	-2.991400	3.275600	-9.798400	27.053749	8.014638E-5	20.774470
2056.569121	-3.008600	3.273000	-9.846400	27.019680	7.711016E-5	20.771503
2057.564696	-2.995500	3.275300	-9.810400	26.997048	7.437096E-5	20.753958
2058.561729	-3.000200	3.275200	-9.825100	27.003454	7.691214E-5	20.763720
2059.562704	-2.995800	3.273600	-9.806600	27.005884	7.697815E-5	20.777544
2060.558694	-3.029800	3.273800	-9.916800	27.000024	7.572406E-5	20.775917
2061.556545	-2.991500	3.273400	-9.791700	27.003251	7.546004E-5	20.793388
2062.570040	-2.973000	3.273900	-9.732600	27.040872	7.592207E-5	20.773375
2063.540175	-3.010100	3.271600	-9.846700	27.040750	7.536103E-5	20.787003
2064.540058	-3.011500	3.269900	-9.846900	27.038019	7.697815E-5	20.776669
2065.541934	-3.008300	3.272000	-9.841900	27.042954	7.565805E-5	20.790641
2066.541446	-2.998400	3.270100	-9.804300	27.091540	7.585607E-5	20.773122
2067.542405	-2.997900	3.271400	-9.805800	27.105561	7.433796E-5	20.785327
2068.544904	-3.041300	3.269800	-9.943300	27.063674	7.645011E-5	20.785875
2069.543805	-3.016600	3.270100	-9.864000	27.060276	7.367791E-5	20.794786
2070.561582	-2.982000	3.269800	-9.749100	27.077183	7.387592E-5	20.780495
2071.560114	-2.995700	3.269900	-9.795300	27.105830	7.083970E-5	20.787020
2072.546507	-2.989700	3.268700	-9.771600	27.116705	7.374391E-5	20.788948
2073.550076	-2.991500	3.269200	-9.779000	27.092092	7.423895E-5	20.789324
2074.545017	-2.989600	3.268500	-9.770100	27.053659	7.479999E-5	20.793346
2075.547537	-2.990500	3.267000	-9.769400	27.103439	7.126873E-5	20.795046
2076.547397	-3.006400	3.267200	-9.821700	27.165564	7.169776E-5	20.787828
2077.546542	-3.011600	3.266700	-9.837100	27.162540	7.291885E-5	20.787157
2078.548180	-2.995500	3.267500	-9.786700	27.149389	7.196178E-5	20.775353
2079.547823	-2.993300	3.265200	-9.773100	27.125370	7.169776E-5	20.794344
2080.549497	-3.000900	3.263900	-9.793800	27.099789	7.149975E-5	20.785686
2081.550591	-2.996800	3.264300	-9.781700	27.113014	7.130173E-5	20.801358
2082.564959	-2.977600	3.264200	-9.718500	27.079736	7.054268E-5	20.796813
2083.550332	-3.015300	3.264100	-9.841500	27.068079	7.186278E-5	20.802633
2084.552701	-2.992900	3.263800	-9.767600	27.113217	6.978362E-5	20.801087
2085.550365	-3.003400	3.263700	-9.801300	27.127881	7.054268E-5	20.807300
2086.549868	-2.997400	3.262600	-9.778300	27.125890	7.133474E-5	20.805298
2087.550103	-3.019800	3.261500	-9.848100	27.199489	7.008064E-5	20.814838
2088.551580	-3.014200	3.262300	-9.832000	27.225067	7.044367E-5	20.808797
2089.559298	-2.997000	3.261700	-9.774400	27.258414	7.090571E-5	20.799191
2090.552145	-2.992200	3.261900	-9.758700	27.264542	7.041067E-5	20.828588
2091.552902	-2.997800	3.260900	-9.774900	27.199115	6.869454E-5	20.793599
2092.552750	-2.996700	3.260000	-9.767900	27.188036	6.925558E-5	20.826077
2093.555330	-2.997800	3.260300	-9.772500	27.208446	6.915658E-5	20.815786
2094.553674	-2.958400	3.260200	-9.643700	27.224613	6.965161E-5	20.809762
2095.573112	-2.986900	3.259700	-9.735500	27.199497	6.852953E-5	20.832863
2096.574271	-3.002800	3.260500	-9.789800	27.193116	6.806750E-5	20.803687
2097.577096	-3.013300	3.257900	-9.816100	27.168830	6.965161E-5	20.819562
2098.577391	-2.973200	3.258100	-9.686200	27.187679	6.819951E-5	20.813865
2099.572372	-3.005900	3.256900	-9.789000	27.147308	6.559232E-5	20.812140
2100.569607	-2.996800	3.256500	-9.758700	27.144056	6.909057E-5	20.834474
2101.556242	-2.988200	3.257300	-9.732300	27.164035	6.905757E-5	20.820903
2102.575319	-3.009100	3.255200	-9.794500	27.137976	6.645038E-5	20.815083
2103.575188	-2.986500	3.255400	-9.721500	27.129986	6.661539E-5	20.815582
2104.575012	-3.012900	3.255100	-9.807000	27.157232	6.618636E-5	20.817855
2105.576714	-3.005200	3.255100	-9.781400	27.252652	6.674740E-5	20.816154
2106.576976	-2.986900	3.254400	-9.719100	27.220297	6.414021E-5	20.804947
2107.572025	-3.013100	3.253700	-9.802500	27.268606	6.588934E-5	20.823193
2108.576558	-3.017500	3.253800	-9.817000	27.327779	6.631837E-5	20.822498
2109.575210	-2.973300	3.255100	-9.677500	27.382594	6.704442E-5	20.817422
2110.575793	-3.002700	3.251600	-9.762700	27.392702	6.562532E-5	20.844659
2111.561141	-3.004500	3.253100	-9.773000	27.383194	6.737445E-5	20.825613
2112.560652	-3.009700	3.253300	-9.790300	27.324179	6.539430E-5	20.840213
2113.560816	-2.979000	3.251700	-9.685300	27.276871	6.282011E-5	20.845256
2114.563190	-2.985200	3.251700	-9.705600	27.230602	6.420621E-5	20.845657
2115.563826	-2.992100	3.251200	-9.727300	27.245484	6.440423E-5	20.811315
2116.565404	-2.991600	3.250700	-9.723800	27.279196	6.489927E-5	20.835742
2117.562316	-3.008200	3.250600	-9.777500	27.285942	6.539430E-5	20.836363
2118.564292	-3.002000	3.248600	-9.751600	27.335159	6.364517E-5	20.834663
2119.579986	-2.991100	3.249200	-9.717600	27.330055	6.437123E-5	20.848020
2120.584403	-3.012100	3.248000	-9.782800	27.326731	6.595534E-5	20.836616
2121.583806	-3.021000	3.247700	-9.810400	27.286096	6.400820E-5	20.836044
2122.581969	-3.021600	3.246600	-9.809500	27.319482	6.361217E-5	20.845445
2123.587971	-2.999800	3.247600	-9.741300	27.354760	6.489927E-5	20.829251
2124.585874	-3.025900	3.248000	-9.827100	27.405591	6.364517E-5	20.823013
2125.566949	-3.020000	3.245500	-9.800400	27.423655	6.146701E-5	20.829332
2126.567259	-3.001600	3.245500	-9.741000	27.393612	6.192905E-5	20.829455
2127.568840	-2.998700	3.245300	-9.729800	27.446651	6.258910E-5	20.842984
2128.567952	-3.013500	3.244000	-9.774800	27.466617	6.315014E-5	20.841259
2129.568044	-2.985600	3.245300	-9.688000	27.403860	6.219307E-5	20.828858
2130.569884	-2.970400	3.245200	-9.638500	27.330917	6.123600E-5	20.836085
2131.567274	-2.985700	3.244500	-9.686800	27.287185	6.031193E-5	20.848519
2132.572868	-3.008900	3.243000	-9.757500	27.304106	5.978389E-5	20.848470
2133.568800	-3.019300	3.243000	-9.790800	27.343179	6.288612E-5	20.846998
2134.584167	-2.993000	3.243700	-9.707200	27.426702	6.166503E-5	20.839984
2135.589110	-3.025400	3.242100	-9.807300	27.451657	6.047694E-5	20.842804
2136.593449	-2.990800	3.242800	-9.698100	27.413774	5.968488E-5	20.827453
2137.586621	-2.981400	3.243100	-9.668300	27.399139	5.803476E-5	20.841178
2138.585685	-2.986500	3.241000	-9.677600	27.372451	5.836479E-5	20.858426
2139.568961	-2.977400	3.242000	-9.651200	27.415569	5.872781E-5	20.833052
2140.569860	-3.003700	3.239400	-9.729000	27.440216	5.909084E-5	20.849786
2141.571129	-2.999600	3.241100	-9.721200	27.489117	5.882682E-5	20.825490
2142.571723	-2.998400	3.238600	-9.709700	27.467884	5.753973E-5	20.858655
2143.572327	-3.010100	3.239900	-9.752000	27.440290	5.697869E-5	20.852705
2144.572387	-3.020600	3.237800	-9.779800	27.391776	5.737471E-5	20.841358
2145.573519	-3.020900	3.237700	-9.780200	27.443523	5.704469E-5	20.836044
2146.571917	-3.001400	3.237200	-9.716000	27.476587	5.885982E-5	20.851290
2147.577884	-2.986200	3.236500	-9.663400	27.476856	5.763873E-5	20.835913
2148.575360	-2.992000	3.236700	-9.683300	27.483478	5.661566E-5	20.823610
2149.572976	-2.972600	3.236600	-9.619600	27.492034	5.651665E-5	20.832219
2150.575511	-2.992300	3.237200	-9.685500	27.454973	5.621963E-5	20.827175
2151.575311	-2.989700	3.234900	-9.671000	27.468170	5.400847E-5	20.821011
2152.577718	-2.992400	3.234800	-9.678900	27.476076	5.737471E-5	20.829914
2153.575942	-2.987200	3.235100	-9.662000	27.454673	5.460251E-5	20.825924
2154.578920	-2.991400	3.234000	-9.672800	27.458304	5.605462E-5	20.830526
2155.580815	-3.017400	3.233700	-9.756200	27.404145	5.397547E-5	20.818714
2156.575334	-3.014300	3.232300	-9.741900	27.401171	5.608762E-5	20.837058
2157.579785	-3.026500	3.232500	-9.782500	27.438153	5.727571E-5	20.807882
2158.577302	-2.983300	3.232300	-9.641500	27.454031	5.516355E-5	20.820063
2159.575781	-3.003200	3.231200	-9.702000	27.452690	5.486653E-5	20.837206
2160.583113	-3.004500	3.231500	-9.708500	27.454348	5.404147E-5	20.817537
2161.583015	-2.999900	3.231200	-9.692600	27.462246	5.489953E-5	20.833069
2162.579812	-3.002500	3.231500	-9.702200	27.458915	5.519655E-5	20.811226
2163.583304	-2.986100	3.231000	-9.647300	27.488679	5.483353E-5	20.808455
2164.583121	-2.980000	3.229900	-9.623900	27.475857	5.443750E-5	20.815469
2165.584396	-2.983200	3.230200	-9.635100	27.441435	5.282038E-5	20.818771
2166.584495	-2.984500	3.228700	-9.634700	27.394621	5.371145E-5	20.819090
2167.586761	-2.980200	3.229100	-9.621700	27.385568	5.166530E-5	20.820414
2168.585736	-3.009700	3.227400	-9.712400	27.372192	5.130227E-5	20.799372
2169.585848	-3.004500	3.227100	-9.695300	27.381902	5.249036E-5	20.813882
2170.586524	-2.988200	3.226400	-9.640400	27.398269	5.219333E-5	20.812329
2171.588120	-2.994300	3.227600	-9.663400	27.395197	5.315040E-5	20.812558
2172.585942	-3.004700	3.226300	-9.693100	27.389217	5.351343E-5	20.808912
2173.584702	-2.989900	3.226800	-9.646400	27.401649	5.229234E-5	20.802927
2174.584225	-2.988700	3.226300	-9.641200	27.374019	5.196232E-5	20.808322
2175.587117	-2.994500	3.225900	-9.659200	27.411799	5.291939E-5	20.806500
2176.584949	-3.006200	3.224000	-9.691400	27.480707	5.037820E-5	20.809443
2177.590764	-2.992900	3.222700	-9.643800	27.541777	5.381045E-5	20.804979
2178.599339	-3.008100	3.223300	-9.695800	27.546409	5.315040E-5	20.799208
2179.585983	-2.970900	3.226000	-9.583700	27.522682	5.169830E-5	20.808052
2180.589506	-2.986800	3.224200	-9.629100	27.491424	5.239135E-5	20.775655
2181.589858	-3.014600	3.222200	-9.712600	27.422476	5.291939E-5	20.801119
2182.589126	-3.000000	3.222500	-9.667000	27.435990	5.014718E-5	20.801439
2183.587596	-2.971600	3.222400	-9.575200	27.481185	4.796902E-5	20.808976
2184.590047	-2.995300	3.221900	-9.649300	27.529434	4.912411E-5	20.806785
2185.589988	-2.988400	3.220300	-9.621800	27.512639	4.856307E-5	20.787042
2186.587189	-2.999900	3.220000	-9.658900	27.488775	4.869508E-5	20.777257
2187.590879	-2.997600	3.218200	-9.645800	27.478910	4.971815E-5	20.792462
2188.590297	-2.997200	3.219600	-9.648600	27.478958	4.862907E-5	20.800098
2189.588294	-3.009100	3.217400	-9.679700	27.492528	4.886009E-5	20.791939
2190.592360	-3.007900	3.218800	-9.681100	27.530450	4.846406E-5	20.786470
2191.592708	-3.014700	3.217100	-9.698000	27.573830	4.922312E-5	20.795977
2192.588342	-2.994700	3.216600	-9.632000	27.560269	4.909111E-5	20.782333
2193.589046	-3.006600	3.216300	-9.669100	27.565233	4.866208E-5	20.810087
2194.592068	-3.021300	3.216100	-9.716500	27.643775	4.753999E-5	20.778164
2195.590496	-3.002500	3.215400	-9.653700	27.652581	4.753999E-5	20.782284
2196.590892	-3.003200	3.216700	-9.659200	27.636982	4.839806E-5	20.784131
2197.593289	-2.986400	3.218800	-9.612000	27.610489	4.813404E-5	20.808681
2198.591951	-2.969700	3.217100	-9.553300	27.596010	4.994917E-5	20.799329
2199.595874	-3.017800	3.213200	-9.696400	27.578606	4.823304E-5	20.787033
2200.593070	-2.981700	3.214400	-9.583800	27.632002	4.747399E-5	20.770110
2201.593188	-2.975900	3.216700	-9.571800	27.671405	4.773801E-5	20.782733
2202.597395	-2.975900	3.213600	-9.562500	27.620668	4.730898E-5	20.768663
2203.593038	-2.966300	3.215100	-9.534700	27.547081	4.816704E-5	20.791823
2204.593786	-3.006400	3.212000	-9.655300	27.514881	4.707796E-5	20.767960
2205.596072	-2.994100	3.210300	-9.611400	27.531798	4.734198E-5	20.785455
2206.596153	-2.999200	3.210800	-9.628600	27.547479	4.631890E-5	20.779422
2207.593881	-3.004300	3.209400	-9.641700	27.557480	4.605488E-5	20.769570
2208.594837	-2.996000	3.209600	-9.614000	27.575681	4.539484E-5	20.782193
2209.594641	-2.978100	3.209700	-9.558200	27.553288	4.648392E-5	20.790956
2210.590380	-3.000900	3.208600	-9.627700	27.552914	4.635191E-5	20.763079
2211.594898	-2.980900	3.209700	-9.567300	27.549413	4.678094E-5	20.774729
2212.593517	-2.983800	3.208000	-9.571700	27.601355	4.427275E-5	20.800914
2213.593773	-2.991300	3.208700	-9.596800	27.677717	4.592287E-5	20.772014
2214.591565	-2.993000	3.205900	-9.594100	27.703933	4.357970E-5	20.774213
2215.595152	-2.968800	3.206900	-9.519900	27.696345	4.443777E-5	20.759939
2216.596765	-2.977400	3.206700	-9.546700	27.629157	4.202859E-5	20.786689
2217.594818	-2.969500	3.205700	-9.519000	27.629507	4.377772E-5	20.748159
2218.595238	-2.988900	3.204000	-9.575300	27.676879	4.351370E-5	20.775914
2219.599888	-3.010400	3.205100	-9.648000	27.738214	4.357970E-5	20.782633
2220.595783	-2.993900	3.204600	-9.594100	27.725615	4.298566E-5	20.784178
2221.597810	-2.998200	3.204500	-9.606700	27.674304	4.113752E-5	20.771899
2222.597166	-3.021000	3.202100	-9.672700	27.678894	4.315067E-5	20.741904
2223.593810	-3.009900	3.202800	-9.638900	27.637930	4.308467E-5	20.766119
2224.593752	-3.003400	3.203700	-9.621300	27.641310	4.183057E-5	20.762881
2225.594625	-3.000100	3.201700	-9.604500	27.666552	4.107152E-5	20.752245
2226.596295	-2.975900	3.203000	-9.531500	27.688081	4.565886E-5	20.759210
2227.593751	-2.982100	3.201200	-9.545300	27.657875	4.153355E-5	20.756790
2228.594162	-3.003200	3.199400	-9.608000	27.637938	4.011445E-5	20.757591
2229.597095	-3.009200	3.198400	-9.623800	27.615156	4.133554E-5	20.761694
2230.593565	-2.999200	3.198000	-9.590800	27.605975	4.004844E-5	20.763362
2231.594544	-2.990400	3.198200	-9.562500	27.559745	4.018045E-5	20.748614
2232.597840	-2.981600	3.198400	-9.534800	27.552034	4.130254E-5	20.755080
2233.594544	-2.973700	3.198000	-9.508700	27.497123	4.031246E-5	20.764792
2234.595656	-2.994100	3.196100	-9.568500	27.540682	4.209459E-5	20.760729
2235.599510	-2.993700	3.196100	-9.567800	27.576871	4.001544E-5	20.762053
2236.596669	-2.983000	3.197100	-9.536400	27.583688	3.975142E-5	20.773180
2237.604424	-3.014700	3.194600	-9.629300	27.568186	3.909137E-5	20.766117
2238.599998	-2.974400	3.196800	-9.507900	27.599491	3.948740E-5	20.757311
2239.598315	-3.027200	3.192900	-9.664900	27.599937	4.169856E-5	20.746855
2240.597924	-2.973400	3.192700	-9.492900	27.595152	4.011445E-5	20.784715
2241.598424	-2.984400	3.192700	-9.527300	27.597069	4.011445E-5	20.752030
2242.600965	-3.012900	3.192100	-9.616400	27.675835	3.899237E-5	20.749732
2243.597942	-3.012800	3.191600	-9.614700	27.664478	3.866234E-5	20.734984
2244.597809	-2.974800	3.191200	-9.492300	27.687843	3.856333E-5	20.743797
2245.597886	-2.999100	3.190000	-9.566300	27.671099	3.889336E-5	20.745440
2246.606743	-2.992400	3.190300	-9.546000	27.617161	4.001544E-5	20.757073
2247.597654	-2.986900	3.190400	-9.528200	27.646848	3.905837E-5	20.756599
2248.602076	-3.025200	3.189200	-9.647400	27.709964	3.777128E-5	20.746143
2249.599906	-3.023600	3.187700	-9.637200	27.691637	3.800229E-5	20.740976
2250.606161	-3.010700	3.188700	-9.598500	27.664900	3.658319E-5	20.739202
2251.599571	-3.024200	3.188300	-9.641600	27.702896	3.829932E-5	20.754204
2252.599041	-3.006900	3.186000	-9.579400	27.735139	3.833232E-5	20.764840
2253.599513	-2.986200	3.186600	-9.515200	27.794237	3.889336E-5	20.752241
2254.602284	-2.997900	3.186500	-9.551500	27.820028	3.928939E-5	20.734100
2255.597807	-2.970100	3.186500	-9.463500	27.795399	3.879435E-5	20.755307
2256.599436	-2.990600	3.183500	-9.519800	27.759250	3.701222E-5	20.753067
2257.602474	-2.992300	3.183000	-9.523500	27.738316	3.490007E-5	20.741957
2258.599268	-2.998800	3.182900	-9.544200	27.730582	3.889336E-5	20.735122
2259.599485	-2.994100	3.182000	-9.526300	27.799396	3.691321E-5	20.744156
2260.602622	-2.997200	3.181600	-9.534200	27.846453	3.615416E-5	20.729874
2261.599882	-3.003400	3.182200	-9.555800	27.826243	3.443803E-5	20.723758
2262.600238	-3.036300	3.180600	-9.656500	27.815414	3.526309E-5	20.735146
2263.602866	-2.982000	3.180600	-9.482300	27.798502	3.658319E-5	20.723815
2264.605186	-3.017600	3.180200	-9.595700	27.742727	3.688021E-5	20.730274
2265.600554	-2.979800	3.179200	-9.472700	27.722840	3.536210E-5	20.731598
2266.602742	-2.995800	3.178700	-9.522000	27.709119	3.328295E-5	20.749560
2267.600296	-2.995500	3.177900	-9.518600	27.743840	3.410801E-5	20.749413
2268.604224	-2.995500	3.176000	-9.512700	27.851010	3.542810E-5	20.743470
2269.607676	-3.020900	3.176700	-9.595300	27.913270	3.532910E-5	20.738802
2270.603036	-3.004800	3.175000	-9.539100	27.944930	3.311794E-5	20.741745
2271.602398	-2.998800	3.176000	-9.523500	27.913351	3.242488E-5	20.745996
2272.608033	-2.980700	3.174400	-9.460500	27.817917	3.219387E-5	20.735768
2273.603584	-2.972800	3.174000	-9.434300	27.811159	3.255689E-5	20.738450
2274.603989	-2.993000	3.172300	-9.493500	27.868930	3.288692E-5	20.746332
2275.607397	-3.017300	3.170400	-9.563900	27.879724	3.400900E-5	20.740600
2276.606999	-2.994700	3.171100	-9.494900	27.864892	3.367898E-5	20.726146
2277.602995	-2.995000	3.170400	-9.494600	27.808000	3.258990E-5	20.727210
2278.614433	-3.021300	3.169600	-9.574300	27.791534	3.229287E-5	20.736718
2279.610456	-2.990700	3.170200	-9.479700	27.837560	3.163283E-5	20.731355
2280.604354	-2.991200	3.168400	-9.476600	27.851320	3.225987E-5	20.733824
2281.606969	-3.006500	3.167900	-9.523700	27.898058	3.222687E-5	20.743406
2282.609095	-3.006900	3.167900	-9.524500	27.895053	3.136881E-5	20.730423
2283.608325	-2.997800	3.167300	-9.493600	27.847519	3.126980E-5	20.711979
2284.606339	-3.011400	3.166100	-9.533700	27.830136	3.212786E-5	20.727676
2285.610844	-2.999000	3.164600	-9.490300	27.797652	2.952067E-5	20.713475
2286.609721	-2.996900	3.164500	-9.483600	27.735581	2.938866E-5	20.737782
2287.605898	-3.011600	3.163100	-9.525100	27.729780	3.034573E-5	20.694009
2288.608795	-3.003300	3.161900	-9.495000	27.755199	2.856360E-5	20.756577
2289.608601	-3.005600	3.162700	-9.504600	27.725564	2.902563E-5	20.714424
2290.605954	-3.000200	3.160600	-9.480500	27.733964	2.968568E-5	20.708652
2291.608969	-2.978300	3.161700	-9.415400	27.720398	2.879462E-5	20.714441
2292.611174	-3.018500	3.160900	-9.540400	27.747457	2.905864E-5	20.727448
2293.610806	-3.010300	3.159200	-9.509500	27.761885	2.935566E-5	20.729165
2294.616615	-2.997400	3.158500	-9.466500	27.792559	2.994970E-5	20.739646
2295.610927	-2.985500	3.159000	-9.430900	27.830404	2.839859E-5	20.726050
2296.608028	-3.004600	3.156900	-9.484400	27.932311	2.994970E-5	20.728094
2297.608985	-3.010300	3.155100	-9.496700	27.986086	2.763953E-5	20.737651
2298.612457	-2.982600	3.156700	-9.414500	28.009542	2.849760E-5	20.725698
2299.609241	-2.994100	3.155100	-9.445500	28.016600	2.853060E-5	20.721897
2300.608057	-2.975300	3.155800	-9.387900	27.949936	2.750752E-5	20.720229
2301.611712	-3.006600	3.152700	-9.478200	27.932481	2.846459E-5	20.736801
2302.611866	-3.020700	3.152600	-9.521400	27.990594	2.862961E-5	20.717532
2303.611208	-2.992800	3.153000	-9.435500	28.005846	2.922365E-5	20.707753
2304.612594	-3.008700	3.150100	-9.476600	28.068439	2.622043E-5	20.729509
2305.612460	-3.019700	3.149600	-9.509700	28.055006	2.730951E-5	20.714564
2306.611133	-2.993000	3.150600	-9.429200	28.105649	2.595641E-5	20.706274
2307.611105	-3.012000	3.147900	-9.480800	28.148664	2.678147E-5	20.727293
2308.612724	-2.997600	3.148800	-9.436800	28.117741	2.612142E-5	20.717025
2309.616187	-3.006600	3.146800	-9.460100	28.007057	2.526336E-5	20.726042
2310.612269	-3.007500	3.146000	-9.460100	27.995842	2.539537E-5	20.714753
2311.614524	-3.005700	3.146600	-9.456800	27.995988	2.344822E-5	20.719168
2312.617040	-2.970200	3.145600	-9.342300	27.982310	2.407527E-5	20.713460
2313.616389	-3.003400	3.144000	-9.442000	28.048355	2.615442E-5	20.714033
2314.619534	-3.002500	3.142600	-9.434300	28.031642	2.628643E-5	20.718072
2315.617626	-3.021300	3.142700	-9.494200	28.021815	2.622043E-5	20.710077
2316.614832	-2.994100	3.142700	-9.408900	28.023853	2.668246E-5	20.696006
2317.618686	-3.018100	3.140100	-9.476300	28.093834	2.404227E-5	20.711924
2318.618248	-2.995000	3.141100	-9.406600	28.090593	2.486733E-5	20.715775
2319.621198	-2.982400	3.138900	-9.359800	28.062942	2.394326E-5	20.705482
2320.619988	-3.003600	3.137700	-9.423700	28.040835	2.400927E-5	20.733017
2321.618265	-2.969000	3.138700	-9.317300	28.023546	2.427329E-5	20.725096
2322.623441	-2.994000	3.136600	-9.390300	27.952635	2.397626E-5	20.721049
2323.620872	-2.998400	3.135100	-9.399400	28.009438	2.473532E-5	20.721327
2324.616699	-3.002000	3.134700	-9.409100	28.045287	2.645145E-5	20.706202
2325.615676	-3.004000	3.133700	-9.411200	28.052726	2.410827E-5	20.709423
2326.615406	-2.981300	3.134700	-9.344900	28.057980	2.344822E-5	20.735103
2327.615371	-2.988300	3.133100	-9.361200	28.051361	2.470232E-5	20.708998
2328.627204	-3.013300	3.131800	-9.435100	28.019282	2.367924E-5	20.705630
2329.619793	-3.010500	3.130400	-9.423400	28.000383	2.259016E-5	20.713160
2330.617719	-3.006700	3.130800	-9.412300	28.007003	2.206212E-5	20.699433
2331.615234	-3.011500	3.128200	-9.419200	28.040772	2.143508E-5	20.722995
2332.618852	-2.990900	3.127700	-9.354000	28.089012	2.354723E-5	20.708966
2333.617198	-2.991800	3.127700	-9.356600	28.055635	2.094004E-5	20.706187
2334.615885	-3.003200	3.125200	-9.384500	28.014068	2.094004E-5	20.693743
2335.619326	-3.004100	3.125000	-9.386800	27.996712	2.311820E-5	20.708042
2336.621626	-3.002000	3.124600	-9.378900	28.081492	2.199612E-5	20.711828
2337.632750	-2.999000	3.123500	-9.366300	28.032115	2.130307E-5	20.718074
2338.620897	-3.010400	3.122500	-9.399400	28.072299	2.295319E-5	20.699254
2339.622741	-3.013600	3.122500	-9.409200	28.071706	1.813483E-5	20.704821
2340.622596	-2.981900	3.120700	-9.304400	28.045694	2.123706E-5	20.712302
2341.620502	-2.980200	3.121400	-9.301500	28.051622	2.087404E-5	20.724909
2342.620282	-3.003500	3.119200	-9.367800	28.111783	2.031299E-5	20.707708
2343.623600	-2.998300	3.118400	-9.348600	28.088777	2.097304E-5	20.711575
2344.620554	-3.003600	3.117200	-9.361700	28.091684	2.070902E-5	20.714976
2345.625582	-3.009000	3.116400	-9.375600	28.088980	2.080803E-5	20.720789
2346.625034	-2.993600	3.114300	-9.322300	28.080023	2.351423E-5	20.697546
2347.623681	-2.998600	3.113800	-9.336400	28.069368	2.031299E-5	20.715270
2348.623197	-3.012900	3.112000	-9.375700	28.077197	2.146808E-5	20.721255
2349.624490	-2.983200	3.113600	-9.286600	28.050023	1.958694E-5	20.705280
2350.623159	-2.995500	3.112200	-9.321500	28.044305	1.787081E-5	20.697627
2351.627296	-2.993800	3.111300	-9.313700	28.029549	1.985096E-5	20.717862
2352.635513	-3.036000	3.108500	-9.436300	27.994042	1.955394E-5	20.711518
2353.628339	-3.000500	3.109900	-9.330300	28.040627	2.219413E-5	20.714314
2354.627969	-3.023600	3.107800	-9.395700	28.027089	2.034600E-5	20.722498
2355.631260	-3.011800	3.106900	-9.356600	28.054409	1.968595E-5	20.714911
2356.629657	-2.990600	3.105800	-9.287700	28.036834	2.133607E-5	20.711445
2357.629898	-2.986700	3.104800	-9.272200	28.059615	2.054401E-5	20.719204
2358.632380	-2.990600	3.105100	-9.284600	28.100294	2.011498E-5	20.722221
2359.629711	-3.019400	3.102100	-9.365200	28.169977	2.004897E-5	20.705600
2360.632182	-3.019500	3.101800	-9.365200	28.202401	1.810183E-5	20.716906
2361.631285	-2.992300	3.100600	-9.276800	28.152372	1.925692E-5	20.718697
2362.630792	-2.999900	3.099900	-9.297400	28.086236	1.754079E-5	20.718027
2363.632553	-2.989200	3.098900	-9.262100	28.035999	1.740878E-5	20.705388
2364.639285	-2.980600	3.097400	-9.231700	28.103227	1.866287E-5	20.710000
2365.631829	-2.996500	3.097500	-9.280100	28.178513	2.044500E-5	20.709452
2366.634086	-3.000300	3.096000	-9.288200	28.238723	2.064302E-5	20.723604
2367.638019	-2.988300	3.096400	-9.252000	28.180721	1.998297E-5	20.692708
2368.636838	-2.997700	3.094600	-9.274700	28.198066	2.047801E-5	20.697843
2369.633026	-2.970800	3.093700	-9.189300	28.214526	1.697975E-5	20.711095
2370.635814	-2.995400	3.092700	-9.263000	28.211075	2.070902E-5	20.711889
2371.635106	-3.008800	3.089600	-9.295300	28.246243	2.044500E-5	20.704147
2372.633806	-3.000300	3.089800	-9.269100	28.249264	1.714476E-5	20.706714
2373.635301	-3.011700	3.086500	-9.295100	28.204621	1.730977E-5	20.717245
2374.635298	-2.999000	3.086500	-9.255400	28.198564	1.859687E-5	20.709724
2375.634257	-3.000700	3.085300	-9.257200	28.228056	1.572566E-5	20.685835
2376.640596	-2.989800	3.086100	-9.225400	28.279494	2.008198E-5	20.707279
2377.634969	-3.024900	3.083100	-9.324500	28.286080	1.942193E-5	20.719127
2378.635381	-2.997600	3.082900	-9.240500	28.246245	1.691374E-5	20.719323
2379.638940	-3.012500	3.081300	-9.281100	28.201748	1.595667E-5	20.729052
2380.636041	-2.992000	3.080700	-9.216500	28.178102	1.648471E-5	20.723264
2381.636433	-2.998700	3.081100	-9.238300	28.185005	1.612169E-5	20.713144
2382.644265	-3.022600	3.079000	-9.304400	28.193344	1.575866E-5	20.707314
2383.636335	-2.987500	3.077400	-9.192200	28.175910	1.622069E-5	20.729593
2384.635761	-3.019600	3.075800	-9.286300	28.193507	1.625370E-5	20.709375
2385.636591	-3.003500	3.074600	-9.233900	28.245110	1.575866E-5	20.699687
2386.637223	-3.002300	3.073000	-9.225300	28.268211	1.506561E-5	20.728637
2387.638469	-3.002700	3.072600	-9.225000	28.291806	1.473558E-5	20.740066
2388.640185	-3.006900	3.072200	-9.237000	28.333393	1.612169E-5	20.713185
2389.638531	-3.016700	3.070000	-9.260700	28.312803	1.843186E-5	20.724222
2390.639724	-2.999000	3.069600	-9.205300	28.267562	1.526362E-5	20.729880
2391.643782	-2.985400	3.068600	-9.160400	28.239483	1.493360E-5	20.730059
2392.644429	-2.987300	3.067600	-9.163400	28.243519	1.410854E-5	20.722269
2393.643898	-3.015800	3.065700	-9.244900	28.239086	1.658372E-5	20.723495
2394.647532	-3.004100	3.065700	-9.208500	28.267513	1.450457E-5	20.730779
2395.646665	-3.025700	3.063500	-9.268100	28.288656	1.457057E-5	20.719350
2396.642438	-2.999700	3.061600	-9.183000	28.266969	1.869588E-5	20.741137
2397.642030	-2.987700	3.062100	-9.147600	28.259329	1.470258E-5	20.734867
2398.646494	-2.962600	3.061800	-9.069900	28.243634	1.704575E-5	20.731393
2399.643528	-3.012500	3.059200	-9.215000	28.247758	1.565965E-5	20.734123
2400.643099	-3.009400	3.057600	-9.200400	28.247702	1.674873E-5	20.717944
2401.646304	-3.027500	3.056900	-9.254000	28.293407	1.734278E-5	20.729823
2402.642941	-3.026700	3.055400	-9.246800	28.338615	1.483459E-5	20.722711
2403.643978	-2.986700	3.054700	-9.122900	28.347018	1.803583E-5	20.727853
2404.644170	-3.006800	3.053600	-9.180700	28.353806	1.674873E-5	20.729472
2405.647226	-2.978300	3.051200	-9.086600	28.342894	1.655072E-5	20.720856
2406.643891	-2.981800	3.051000	-9.096400	28.389911	1.790382E-5	20.712247
2407.648069	-2.990200	3.049600	-9.117800	28.312959	1.651772E-5	20.730069
2408.645342	-2.992800	3.048000	-9.121300	28.291101	1.648471E-5	20.712802
2409.645588	-2.990400	3.048400	-9.114000	28.274831	1.697975E-5	20.732457
2410.648460	-2.999200	3.047100	-9.137500	28.247914	1.565965E-5	20.730012
2411.653476	-3.000800	3.046100	-9.140600	28.258518	1.549464E-5	20.735474
2412.648703	-3.015900	3.042900	-9.176100	28.275528	1.562665E-5	20.732686
2413.648573	-3.016000	3.041600	-9.172700	28.292426	1.628670E-5	20.739268
2414.649093	-2.975800	3.041700	-9.050200	28.249961	1.628670E-5	20.726858
2415.648369	-2.997700	3.039100	-9.109900	28.274474	1.252442E-5	20.741108
2416.649374	-2.993000	3.037400	-9.090400	28.296113	1.592367E-5	20.734919
2417.648132	-3.011400	3.036000	-9.141500	28.313163	1.493360E-5	20.726482
2418.647233	-2.998500	3.035400	-9.099700	28.279996	1.348149E-5	20.743822
2419.652001	-2.998400	3.035500	-9.100800	28.311897	1.410854E-5	20.755554
2420.650782	-2.995300	3.033500	-9.085500	28.413059	1.325048E-5	20.739351
2421.652045	-2.993400	3.032200	-9.074500	28.417507	1.440556E-5	20.742882
2422.650119	-3.017700	3.029200	-9.140600	28.420008	1.585767E-5	20.723113
2423.649366	-2.981400	3.029900	-9.032600	28.367505	1.549464E-5	20.744215
2424.649800	-2.999200	3.027600	-9.079700	28.273622	1.351449E-5	20.749259
2425.652791	-3.003000	3.026400	-9.087500	28.274906	1.384452E-5	20.743913
2426.652640	-2.985700	3.025400	-9.032100	28.327454	1.668273E-5	20.741346
2427.648857	-2.988500	3.025000	-9.039500	28.433924	1.358050E-5	20.751353
2428.655858	-2.969500	3.022900	-8.976100	28.470399	1.526362E-5	20.742564
2429.656121	-2.993700	3.020200	-9.040500	28.535155	1.532963E-5	20.757043
2430.655049	-2.985700	3.020500	-9.017700	28.574127	1.361350E-5	20.751247
2431.652948	-3.012200	3.017700	-9.088800	28.582277	1.305246E-5	20.762774
2432.655013	-3.001500	3.017100	-9.054600	28.522930	1.417454E-5	20.748999
2433.652093	-2.992300	3.016700	-9.026300	28.481180	1.575866E-5	20.741567
2434.653214	-2.982700	3.015400	-8.993500	28.514934	1.493360E-5	20.753274
2435.654659	-3.016700	3.013500	-9.090200	28.489111	1.420755E-5	20.761883
2436.652797	-2.998900	3.013000	-9.034800	28.481546	1.381152E-5	20.741461
2437.653688	-3.002900	3.011000	-9.040700	28.443634	1.559365E-5	20.763027
2438.655167	-2.982500	3.009300	-8.974700	28.424628	1.239241E-5	20.732508
2439.656723	-2.991500	3.008700	-8.999900	28.409512	1.717776E-5	20.758065
2440.656389	-3.012600	3.005400	-9.052900	28.456744	1.651772E-5	20.767221
2441.655530	-2.979100	3.006900	-8.956700	28.412752	1.476859E-5	20.763698
2442.658445	-3.002700	3.004300	-9.020100	28.378580	1.516462E-5	20.757738
2443.658244	-3.011400	3.002600	-9.040700	28.390359	1.387752E-5	20.753478
2444.658571	-3.029000	2.999800	-9.085300	28.363260	1.206239E-5	20.774081
2445.659229	-2.998400	2.999700	-8.993500	28.397366	1.344849E-5	20.755792
2446.656955	-2.980100	2.998600	-8.935300	28.404869	1.374551E-5	20.765243
2447.660672	-3.012500	2.995500	-9.023300	28.392779	1.466958E-5	20.743586
2448.656109	-3.005300	2.995300	-9.001000	28.369950	1.344849E-5	20.756161
2449.659265	-3.022800	2.994400	-9.050800	28.383947	1.453757E-5	20.763143
2450.657804	-3.027300	2.992900	-9.059100	28.450487	1.443856E-5	20.767084
2451.657350	-3.010300	2.991000	-9.002400	28.487237	1.414154E-5	20.749090
2452.658173	-3.019300	2.990100	-9.027200	28.499203	1.447156E-5	20.768727
2453.656296	-3.000500	2.989600	-8.969700	28.513628	1.384452E-5	20.775668
2454.660106	-3.029800	2.986900	-9.049200	28.468818	1.582466E-5	20.755672
2455.658941	-3.015100	2.985600	-9.000900	28.447029	1.430655E-5	20.735152
2456.656708	-2.981600	2.984200	-8.896500	28.483934	1.513161E-5	20.754772
2457.657642	-2.990600	2.982500	-8.918900	28.509505	1.262343E-5	20.773886
2458.656447	-2.983600	2.982100	-8.896900	28.514514	1.315147E-5	20.769921
2459.657139	-2.977200	2.980500	-8.872700	28.525587	1.361350E-5	20.775857
2460.658484	-3.019500	2.978000	-8.991400	28.543624	1.671573E-5	20.769366
2461.661097	-2.996500	2.977000	-8.920200	28.590380	1.671573E-5	20.771884
2462.660109	-3.028200	2.975400	-9.008400	28.580120	1.443856E-5	20.761076
2463.657483	-3.022700	2.973300	-8.985800	28.547335	1.354750E-5	20.773103
2464.665276	-3.020300	2.972400	-8.976100	28.612054	1.595667E-5	20.773324
2465.661532	-3.014000	2.971400	-8.955100	28.673449	1.348149E-5	20.786797
2466.657065	-2.971800	2.971200	-8.828700	28.642525	1.697975E-5	20.766555
2467.657089	-2.995700	2.967600	-8.889100	28.643118	1.595667E-5	20.790386
2468.660673	-2.982900	2.968000	-8.853000	28.565859	1.453757E-5	20.782276
2469.656930	-2.988600	2.964700	-8.859800	28.477888	1.466958E-5	20.770496
2470.657403	-2.994400	2.963500	-8.872800	28.471670	1.404253E-5	20.759966
2471.660813	-2.987200	2.963700	-8.852200	28.505587	1.397653E-5	20.781795
2472.661154	-2.995200	2.961000	-8.868100	28.565852	1.701275E-5	20.776105
2473.658549	-3.006700	2.959100	-8.896100	28.580674	1.572566E-5	20.755944
2474.657395	-2.987000	2.957400	-8.833100	28.687881	1.430655E-5	20.772410
2475.660005	-2.999600	2.957100	-8.869900	28.715631	1.430655E-5	20.801309
2476.657158	-3.001800	2.954000	-8.865900	28.737724	1.582466E-5	20.785630
2477.661415	-3.027700	2.951600	-8.935400	28.698896	1.447156E-5	20.784453
2478.663221	-3.025700	2.951900	-8.930400	28.700130	1.579166E-5	20.774316
2479.661059	-3.010900	2.949700	-8.879200	28.705040	1.407554E-5	20.771675
2480.659452	-3.022200	2.947700	-8.907100	28.617893	1.265643E-5	20.782998
2481.660844	-3.021000	2.948000	-8.905200	28.530519	1.325048E-5	20.779402
2482.670443	-2.990200	2.946500	-8.809400	28.532215	1.179837E-5	20.788221
2483.663893	-2.988600	2.943800	-8.797400	28.615149	1.371251E-5	20.789718
2484.663499	-3.002600	2.942900	-8.835600	28.625701	1.351449E-5	20.803665
2485.663358	-2.986900	2.942200	-8.787300	28.651813	1.348149E-5	20.781600
2486.663740	-2.983700	2.940200	-8.771500	28.646213	1.387752E-5	20.789710
2487.667823	-2.985700	2.938900	-8.773900	28.641773	1.321747E-5	20.814162
2488.662649	-2.973800	2.937700	-8.735500	28.566259	1.414154E-5	20.801645
2489.667503	-2.995500	2.934200	-8.788600	28.597730	1.245842E-5	20.802520
2490.668290	-3.014000	2.933300	-8.839500	28.607975	1.047827E-5	20.786285
2491.666808	-2.999000	2.931200	-8.789200	28.640117	1.229340E-5	20.817236
2492.666723	-2.969500	2.928900	-8.696400	28.626531	1.219440E-5	20.799758
2493.664855	-2.976900	2.928400	-8.716500	28.695164	1.420755E-5	20.785910
2494.668003	-3.019800	2.924500	-8.830400	28.747570	1.242541E-5	20.806927
2495.665597	-2.983100	2.925000	-8.724700	28.767364	1.268943E-5	20.806003
2496.667464	-3.015200	2.922500	-8.811400	28.816269	1.189738E-5	20.805954
2497.670967	-2.984100	2.921700	-8.717700	28.787500	1.301946E-5	20.800682
2498.666290	-3.029500	2.918700	-8.840300	28.778386	1.447156E-5	20.822321
2499.665686	-2.994100	2.918200	-8.735700	28.701316	1.196338E-5	20.805856
2500.670281	-3.007600	2.916200	-8.769500	28.727792	1.077529E-5	20.791273
2501.667197	-3.006000	2.914500	-8.760200	28.708889	1.341549E-5	20.792147
2502.669772	-2.976400	2.913900	-8.671600	28.752845	1.466958E-5	20.808448
2503.673485	-2.966500	2.912300	-8.638800	28.799348	1.391052E-5	20.814514
2504.666018	-2.986400	2.910000	-8.689500	28.730819	1.447156E-5	20.791477
2505.677145	-2.989400	2.909200	-8.695700	28.776479	1.212839E-5	20.802856
2506.674969	-2.970800	2.906500	-8.633500	28.741199	1.226040E-5	20.810467
2507.669076	-2.981500	2.903400	-8.655800	28.776828	1.539563E-5	20.811268
2508.668502	-3.005400	2.902200	-8.721400	28.807179	1.292045E-5	20.805807
2509.672747	-3.007100	2.901000	-8.722900	28.815450	1.499960E-5	20.812241
2510.667544	-3.026500	2.897600	-8.768700	28.820310	1.506561E-5	20.797697
2511.669186	-3.019700	2.896500	-8.746300	28.798926	1.338248E-5	20.811244
2512.671441	-2.983300	2.895600	-8.637600	28.814167	1.440556E-5	20.797673
2513.674685	-3.024800	2.892400	-8.747600	28.867971	1.470258E-5	20.792604
2514.674004	-2.998200	2.891100	-8.667500	28.848600	1.199638E-5	20.824773
2515.672962	-2.986300	2.890900	-8.632200	28.821081	1.440556E-5	20.816965
2516.672751	-3.020000	2.887400	-8.718500	28.857445	1.321747E-5	20.812347
2517.670250	-2.996900	2.885800	-8.646800	28.882966	1.163336E-5	20.819090
2518.677486	-2.991900	2.884200	-8.627500	28.814150	1.344849E-5	20.803345
2519.674733	-2.990400	2.883200	-8.620600	28.792515	1.179837E-5	20.819009
2520.672023	-3.001400	2.881200	-8.647100	28.820983	1.295345E-5	20.823979
2521.673493	-3.015200	2.878400	-8.678100	28.787466	1.308546E-5	20.811079
2522.677521	-3.009000	2.876100	-8.653100	28.828400	1.516462E-5	20.818174
2523.677575	-3.011800	2.875800	-8.660400	28.915864	1.249142E-5	20.808610
2524.676293	-2.995200	2.873400	-8.605600	28.938908	1.407554E-5	20.836093
2525.678014	-2.995100	2.871300	-8.598800	28.952362	1.404253E-5	20.823569
2526.677029	-3.003200	2.868500	-8.612800	28.885100	1.367951E-5	20.818395
2527.672994	-2.991800	2.867800	-8.579400	28.834446	1.407554E-5	20.841333
2528.682598	-3.005400	2.865300	-8.610600	28.858750	1.420755E-5	20.842110
2529.675985	-3.009800	2.863500	-8.617300	28.826444	1.153435E-5	20.831851
2530.673732	-3.015500	2.860700	-8.626000	28.830070	1.305246E-5	20.837874
2531.676598	-2.992000	2.860300	-8.556200	28.829105	1.417454E-5	20.827419
2532.677201	-2.988200	2.858100	-8.539800	28.854943	1.321747E-5	20.838275
2533.673922	-2.989100	2.856600	-8.537900	28.842633	1.275544E-5	20.816865
2534.676994	-3.015100	2.852300	-8.598800	28.857297	1.242541E-5	20.811249
2535.679821	-3.014400	2.850600	-8.592100	28.910879	1.295345E-5	20.837253
2536.680542	-2.991300	2.849800	-8.523800	28.853068	1.094031E-5	20.827851
2537.679235	-3.020400	2.847600	-8.599600	28.845610	1.262343E-5	20.849735
2538.678641	-2.999000	2.845100	-8.531500	28.835677	1.183137E-5	20.828350
2539.674565	-2.976000	2.843900	-8.462300	28.850154	1.202939E-5	20.820648
2540.687460	-2.987800	2.842000	-8.490900	28.882459	1.453757E-5	20.834700
2541.678989	-3.005200	2.839100	-8.530000	28.845918	1.358050E-5	20.822071
2542.676524	-2.998700	2.836300	-8.504300	28.878353	1.179837E-5	20.831986
2543.676814	-3.004000	2.835400	-8.517200	28.853083	1.278844E-5	20.838771
2544.683974	-3.016600	2.832400	-8.542900	28.860840	1.245842E-5	20.841844
2545.684159	-3.018500	2.829500	-8.539400	28.966096	1.235941E-5	20.835035
2546.683030	-2.999300	2.827200	-8.479200	28.992370	1.298646E-5	20.822626
2547.684914	-2.993000	2.826100	-8.457700	29.029799	1.536263E-5	20.830465
2548.682546	-2.987700	2.824200	-8.436200	29.061604	1.278844E-5	20.840226
2549.682961	-3.005300	2.819900	-8.473300	29.120994	1.397653E-5	20.852651
2550.683925	-3.022700	2.817600	-8.515800	29.150687	1.387752E-5	20.840847
2551.681558	-3.008200	2.815400	-8.468300	29.082205	1.361350E-5	20.842016
2552.680256	-3.005100	2.815200	-8.459200	28.990275	1.331648E-5	20.839955
2553.682766	-3.007800	2.810500	-8.452200	29.005732	1.232641E-5	20.850313
2554.685310	-2.959000	2.809900	-8.313400	29.013384	1.565965E-5	20.840005
2555.682821	-2.988500	2.806800	-8.387000	28.939374	1.407554E-5	20.843675
2556.681610	-3.000600	2.804000	-8.412700	29.020889	1.460357E-5	20.856575
2557.681880	-3.003600	2.800400	-8.410600	29.050334	1.384452E-5	20.852103
2558.685217	-3.022400	2.798000	-8.456300	29.086106	1.397653E-5	20.861593
2559.684124	-3.017700	2.795400	-8.434100	29.084199	1.420755E-5	20.845923
2560.684931	-3.009000	2.793200	-8.404000	29.082463	1.272244E-5	20.846544
2561.685921	-2.986300	2.790700	-8.332600	29.058317	1.262343E-5	20.851612
2562.685989	-3.014200	2.787900	-8.402800	29.076792	1.420755E-5	20.852683
2563.686219	-2.981100	2.786800	-8.306800	29.089327	1.133633E-5	20.841132
2564.686537	-2.990100	2.783000	-8.320100	29.084743	1.288745E-5	20.844100
2565.685783	-2.999500	2.778200	-8.332000	29.125690	1.420755E-5	20.856435
2566.685981	-2.995800	2.776400	-8.316300	29.105034	1.391052E-5	20.845105
2567.687629	-3.019100	2.774100	-8.375000	29.082812	1.539563E-5	20.844051
2568.682053	-2.997200	2.772000	-8.307000	29.109813	1.453757E-5	20.856557
2569.683032	-3.006800	2.767800	-8.321200	29.154288	1.374551E-5	20.833096
2570.685681	-3.005700	2.763800	-8.306600	29.200701	1.552764E-5	20.860424
2571.686130	-2.984100	2.763200	-8.245200	29.218256	1.559365E-5	20.855830
2572.683057	-3.001200	2.759900	-8.281000	29.229110	1.648471E-5	20.840690
2573.683480	-3.016200	2.755500	-8.310600	29.267618	1.727677E-5	20.863849
2574.688173	-2.996600	2.752400	-8.247100	29.313903	1.450457E-5	20.827994
2575.690204	-3.000400	2.749200	-8.248300	29.340193	1.265643E-5	20.829834
2576.687205	-2.997500	2.745100	-8.227000	29.275007	1.572566E-5	20.828149
2577.687118	-3.018400	2.742600	-8.277300	29.234293	1.219440E-5	20.841172
2578.687162	-3.012200	2.739100	-8.250100	29.229117	1.295345E-5	20.837379
2579.684716	-3.001500	2.735700	-8.210400	29.233449	1.417454E-5	20.820408
2580.686569	-2.999100	2.733700	-8.198400	29.211708	1.226040E-5	20.834534
2581.694718	-2.965500	2.730500	-8.097200	29.222457	1.245842E-5	20.836831
2582.688163	-3.002600	2.727100	-8.187600	29.271713	1.232641E-5	20.825778
2583.690949	-2.999500	2.722400	-8.164800	29.212973	1.262343E-5	20.843869
2584.688991	-3.037600	2.716700	-8.250700	29.175899	1.166636E-5	20.829269
2585.689093	-2.998100	2.714000	-8.134900	29.198687	1.229340E-5	20.815249
2586.691569	-2.994500	2.712200	-8.120800	29.235492	1.433956E-5	20.837639
2587.690331	-3.026900	2.707100	-8.193400	29.276889	1.490060E-5	20.826726
2588.693170	-2.981500	2.704900	-8.063900	29.255441	1.427355E-5	20.831190
2589.692614	-2.998600	2.698500	-8.090500	29.250419	1.212839E-5	20.820914
2590.691156	-3.013900	2.696600	-8.126700	29.214368	1.476859E-5	20.837214
2591.692249	-2.998000	2.691900	-8.069500	29.255984	1.457057E-5	20.828893
2592.692857	-3.016300	2.687100	-8.104100	29.360503	1.622069E-5	20.817587
2593.696562	-2.970500	2.684500	-7.972800	29.344344	1.579166E-5	20.834018
2594.694153	-2.977400	2.679300	-7.976700	29.264290	1.275544E-5	20.833470
2595.695580	-2.996200	2.674700	-8.012500	29.303431	1.424055E-5	20.827871
2596.696258	-2.980100	2.671300	-7.959800	29.309327	1.499960E-5	20.804417
2597.691367	-2.988600	2.666500	-7.967800	29.338643	1.529663E-5	20.825901
2598.695948	-2.996000	2.661700	-7.973700	29.322995	1.460357E-5	20.819614
2599.697709	-3.003700	2.656700	-7.978500	29.376944	1.272244E-5	20.829416
2600.693545	-3.022000	2.652200	-8.014200	29.430525	1.199638E-5	20.821781
2601.698256	-2.999200	2.649200	-7.945000	29.450331	1.499960E-5	20.812347
2602.702335	-3.006700	2.644400	-7.949800	29.428748	1.189738E-5	20.810981
2603.695911	-3.005200	2.638100	-7.927100	29.518156	1.447156E-5	20.812436
2604.696209	-3.006300	2.633600	-7.916700	29.473308	1.529663E-5	20.808955
2605.694720	-3.008000	2.629800	-7.909400	29.381705	1.470258E-5	20.788696
2606.699284	-3.012600	2.623900	-7.902700	29.385371	1.595667E-5	20.806142
2607.702089	-2.968800	2.619500	-7.776100	29.370504	1.361350E-5	20.810124
2608.700688	-2.998100	2.614700	-7.838500	29.412227	1.397653E-5	20.813296
2609.699845	-2.978900	2.609800	-7.773900	29.508887	1.252442E-5	20.805938
2610.696344	-3.009800	2.603500	-7.835500	29.585606	1.516462E-5	20.820211
2611.697351	-3.002000	2.598400	-7.799600	29.692962	1.391052E-5	20.825550
2612.699680	-3.021900	2.592600	-7.833100	29.718634	1.582466E-5	20.800223
2613.700842	-3.020800	2.587200	-7.814000	29.715147	1.295345E-5	20.788173
2614.698094	-3.018900	2.581500	-7.791800	29.693287	1.480159E-5	20.798850
2615.698398	-3.020700	2.575900	-7.780000	29.691210	1.414154E-5	20.816671
2616.702188	-2.993200	2.570200	-7.692300	29.676307	1.282144E-5	20.805439
2617.703666	-2.997800	2.564400	-7.686500	29.625885	1.351449E-5	20.802970
2618.697884	-2.997400	2.558400	-7.667400	29.666252	1.410854E-5	20.804785
2619.702308	-3.055300	2.552400	-7.797700	29.606033	1.282144E-5	20.800027
2620.700008	-2.999100	2.545300	-7.633300	29.573304	1.199638E-5	20.805439
2621.699917	-3.028600	2.540700	-7.693700	29.582297	1.701275E-5	20.798857
2622.703812	-3.018700	2.534400	-7.649500	29.604006	1.400953E-5	20.793241
2623.701962	-2.992800	2.528300	-7.565900	29.703195	1.565965E-5	20.796511
2624.703408	-2.987000	2.522300	-7.533500	29.654494	1.480159E-5	20.787716
2625.704188	-2.977800	2.516700	-7.493200	29.734478	1.334948E-5	20.795809
2626.699498	-3.004100	2.508700	-7.535400	29.835284	1.707876E-5	20.793610
2627.702251	-2.969100	2.505700	-7.438500	29.868371	1.760680E-5	20.798523
2628.705667	-3.015300	2.497200	-7.528300	29.831700	1.519762E-5	20.796160
