LabVIEW Measurement	
Writer_Version	2
Reader_Version	2
Separator	Tab
Decimal_Separator	.
Multi_Headings	No
X_Columns	One
Time_Pref	Absolute
Operator	admin
Description	Clolumns are: time, Current, Voltage, Power, Battery Temp, and Chamber Temp
Date	2024/05/20
Time	16:31:59.8575258255004882812
***End_of_Header***	
	
Channels	6						
Samples	1	1	1	1	1	1	
Date	2024/05/30	2024/05/30	2024/05/30	2024/05/30	2024/05/30	2024/05/30	
Time	14:04:42.7907838821411132813	14:04:42.7956705093383789063	14:04:42.8006815910339355469	14:04:42.774936676025390625	14:04:42.774936676025390625	14:04:42.774936676025390625	
X_Dimension	Time	Time	Time	Time	Time	Time	
X0	0.0000000000000000E+0	0.0000000000000000E+0	0.0000000000000000E+0	0.0000000000000000E+0	0.0000000000000000E+0	0.0000000000000000E+0	
Delta_X	1.000000	1.000000	1.000000	1.000000	1.000000	1.000000	
***End_of_Header***							
X_Value	Untitled	Untitled 1	Untitled 2	Untitled 3	Untitled 4	Untitled 5	Comment
0.000000	-0.000625	4.123700	-0.002504	20.857794	8.905703E-5	20.898094
1.000062	-3.012800	4.034700	-12.155000	20.841301	8.559178E-5	20.891558
2.000502	-3.009000	4.029900	-12.125000	20.840655	8.625183E-5	20.892809
3.001960	-3.014900	4.026900	-12.139000	20.858793	8.509674E-5	20.893404
4.004659	-3.006500	4.025000	-12.101000	20.857390	8.575679E-5	20.909543
5.003237	-3.014600	4.021000	-12.121000	20.864552	8.592180E-5	20.895370
6.002572	-2.994600	4.019600	-12.036000	20.847655	8.496473E-5	20.913557
7.004167	-3.017500	4.016400	-12.118000	20.872657	8.344662E-5	20.901104
8.003127	-3.001200	4.015000	-12.049000	20.862877	8.486573E-5	20.902229
9.006826	-2.992200	4.013200	-12.007000	20.880338	8.371064E-5	20.887450
10.003135	-2.987800	4.011500	-11.984000	20.880319	8.536076E-5	20.882689
11.004465	-3.007400	4.009900	-12.058000	20.859648	8.305059E-5	20.878139
12.003445	-2.983800	4.007400	-11.956000	20.876736	8.486573E-5	20.887166
13.005492	-2.974300	4.007600	-11.919000	20.861634	8.661485E-5	20.856418
14.008921	-3.002100	4.005400	-12.024000	20.888830	8.473372E-5	20.894519
15.007943	-2.969400	4.005100	-11.891000	20.861754	8.595481E-5	20.895891
16.005638	-2.968200	4.002600	-11.879000	20.877167	8.380965E-5	20.881434
17.006781	-3.003200	4.002400	-12.019000	20.870605	8.397466E-5	20.888622
18.006564	-3.000800	4.000600	-12.004000	20.873969	8.364464E-5	20.877287
19.006698	-3.002700	4.000000	-12.010000	20.870795	8.559178E-5	20.876485
20.007732	-3.014800	3.998100	-12.053000	20.875581	8.417268E-5	20.880797
21.008228	-2.983100	3.997100	-11.924000	20.873932	8.463471E-5	20.883414
22.007164	-3.005500	3.995500	-12.008000	20.875228	8.460171E-5	20.861478
23.007884	-3.004000	3.994100	-11.997000	20.861321	8.206052E-5	20.866536
24.008992	-2.996600	3.994200	-11.968000	20.890192	8.516275E-5	20.875494
25.006369	-2.992800	3.993100	-11.950000	20.860139	8.281958E-5	20.855398
26.008430	-2.991500	3.993000	-11.944000	20.895774	8.446970E-5	20.885818
27.007966	-2.986800	3.991400	-11.921000	20.888960	8.354563E-5	20.862409
28.008934	-2.988800	3.990600	-11.926000	20.897721	8.364464E-5	20.855050
29.009734	-2.982200	3.991300	-11.901000	20.890825	8.321561E-5	20.850525
30.009264	-2.984700	3.989900	-11.908000	20.920644	8.298459E-5	20.864224
31.009112	-3.003600	3.989000	-11.980000	20.899289	8.305059E-5	20.867997
32.008005	-3.009500	3.988500	-12.003000	20.922913	8.324861E-5	20.855589
33.012015	-3.013100	3.985300	-12.007000	20.929399	8.255556E-5	20.859230
34.012126	-2.985900	3.986800	-11.904000	20.933685	8.140047E-5	20.861146
35.011805	-3.021600	3.985400	-12.041000	20.911801	8.083943E-5	20.863915
36.011783	-3.002500	3.986800	-11.970000	20.905694	8.116946E-5	20.872031
37.011509	-2.994800	3.984700	-11.932000	20.933337	8.110345E-5	20.853212
38.013215	-3.001400	3.983400	-11.955000	20.919482	8.265456E-5	20.859269
39.013994	-2.995200	3.983500	-11.931000	20.931017	8.288558E-5	20.858952
40.017608	-3.013400	3.983100	-12.002000	20.935253	8.070742E-5	20.841852
41.013834	-2.988500	3.982200	-11.900000	20.924949	8.199452E-5	20.853358
42.012614	-2.998800	3.981400	-11.938000	20.936277	8.130147E-5	20.871798
43.014342	-2.985500	3.980400	-11.882000	20.947908	8.377665E-5	20.843129
44.013602	-3.011300	3.979400	-11.983000	20.926922	8.133447E-5	20.849641
45.013499	-2.997900	3.980600	-11.932000	20.950974	8.182950E-5	20.861368
46.017087	-2.988200	3.979000	-11.889000	20.962927	8.295159E-5	20.852934
47.014453	-3.007000	3.976900	-11.957000	20.954096	7.998137E-5	20.863542
48.014725	-2.990800	3.978700	-11.899000	20.965677	8.093844E-5	20.849994
49.019857	-2.990900	3.977700	-11.896000	20.948761	7.928832E-5	20.834025
50.014551	-3.010700	3.976400	-11.971000	20.951277	8.090544E-5	20.865938
51.019702	-2.998800	3.975400	-11.920000	20.972440	8.070742E-5	20.854862
52.015200	-3.021000	3.976000	-12.010000	20.975537	8.050941E-5	20.852744
53.016174	-3.001800	3.976000	-11.934000	20.964204	8.192851E-5	20.858478
54.015297	-3.006500	3.975200	-11.951000	20.988578	7.978335E-5	20.860571
55.016719	-3.013800	3.975000	-11.979000	20.984791	8.149948E-5	20.818853
56.016703	-3.000700	3.973700	-11.924000	21.019146	7.737418E-5	20.849893
57.016421	-3.016500	3.973500	-11.985000	20.986707	7.988236E-5	20.838786
58.016925	-3.016100	3.974000	-11.985000	20.986410	8.146648E-5	20.841808
59.016597	-3.020600	3.972900	-12.000000	21.005443	7.895829E-5	20.856576
60.017645	-2.992100	3.972400	-11.885000	20.996954	7.770420E-5	20.832440
61.016148	-2.988400	3.972000	-11.869000	21.009880	7.859527E-5	20.835411
62.018542	-3.010400	3.970800	-11.953000	20.994730	7.687914E-5	20.844439
63.016829	-3.006500	3.971500	-11.939000	21.001709	7.694515E-5	20.840988
64.016723	-2.993500	3.969600	-11.882000	21.026057	7.829825E-5	20.832624
65.019365	-3.005400	3.970600	-11.932000	21.015395	7.658212E-5	20.839503
66.016088	-2.980600	3.970600	-11.833000	21.019232	7.882628E-5	20.846660
67.019760	-3.004300	3.968000	-11.920000	21.023417	7.800122E-5	20.823346
68.017806	-2.998700	3.969000	-11.901000	21.038833	7.750619E-5	20.833550
69.017393	-2.988900	3.968700	-11.861000	21.029265	7.707716E-5	20.829195
70.019645	-2.998200	3.967800	-11.896000	21.033924	7.711016E-5	20.815363
71.018836	-3.004200	3.967900	-11.920000	21.027711	7.783621E-5	20.832856
72.020858	-3.006000	3.967900	-11.927000	21.030373	7.717616E-5	20.833148
73.021533	-3.000300	3.967500	-11.903000	21.030765	7.621909E-5	20.816945
74.020836	-3.002600	3.967900	-11.913000	21.041366	7.711016E-5	20.820436
75.020615	-2.996700	3.966400	-11.885000	21.038990	7.803423E-5	20.834180
76.024149	-2.992200	3.966900	-11.869000	21.059817	7.852926E-5	20.809493
77.021139	-3.001100	3.964600	-11.896000	21.066316	7.654912E-5	20.814097
78.025286	-3.007600	3.965500	-11.925000	21.067965	7.753919E-5	20.833290
79.021897	-2.991600	3.965800	-11.864000	21.071954	7.691214E-5	20.818788
80.021260	-2.984000	3.966400	-11.835000	21.065432	7.621909E-5	20.825541
81.023790	-2.986400	3.965000	-11.840000	21.063258	7.437096E-5	20.803927
82.021988	-2.995900	3.964600	-11.876000	21.058739	7.473399E-5	20.804623
83.023242	-2.987100	3.965100	-11.843000	21.060700	7.618609E-5	20.813696
84.023132	-2.984900	3.965100	-11.835000	21.070231	7.526202E-5	20.814695
85.021712	-2.987100	3.964300	-11.841000	21.087089	7.509701E-5	20.811642
86.022806	-2.996400	3.963000	-11.874000	21.062408	7.826524E-5	20.809714
87.022796	-3.013800	3.961400	-11.938000	21.082065	7.697815E-5	20.814678
88.023411	-3.027200	3.961400	-11.991000	21.095439	7.466798E-5	20.817149
89.025594	-3.005300	3.962200	-11.907000	21.109851	7.615309E-5	20.796003
90.023598	-3.006700	3.962700	-11.913000	21.099700	7.555905E-5	20.790117
91.024201	-3.010500	3.961700	-11.926000	21.091711	7.678014E-5	20.803463
92.024004	-2.996400	3.961000	-11.867000	21.095403	7.390893E-5	20.811897
93.024052	-3.000600	3.961000	-11.885000	21.106502	7.760520E-5	20.811145
94.026731	-3.027300	3.959500	-11.986000	21.115029	7.486600E-5	20.795493
95.024193	-3.005800	3.959500	-11.901000	21.107722	7.549304E-5	20.803831
96.024472	-2.996100	3.961500	-11.869000	21.104751	7.681314E-5	20.837843
97.023078	-2.991300	3.960800	-11.847000	21.127120	7.661512E-5	20.795734
98.027221	-3.003600	3.958900	-11.890000	21.136177	7.562505E-5	20.800052
99.025778	-3.005200	3.960200	-11.900000	21.122576	7.635110E-5	20.797353
100.023599	-2.996800	3.959100	-11.863000	21.117059	7.602108E-5	20.794679
101.024286	-3.008400	3.958500	-11.908000	21.138491	7.433796E-5	20.799521
102.024050	-2.994000	3.958200	-11.850000	21.131633	7.437096E-5	20.777963
103.028422	-2.980800	3.958000	-11.797000	21.127387	7.582307E-5	20.790785
104.025652	-3.002400	3.957000	-11.879000	21.140034	7.592207E-5	20.781150
105.026276	-2.980200	3.957100	-11.792000	21.145868	7.503101E-5	20.787460
106.025218	-2.991500	3.957500	-11.838000	21.144047	7.427195E-5	20.801286
107.025350	-2.967500	3.958000	-11.745000	21.155449	7.483299E-5	20.784242
108.026079	-2.985500	3.956000	-11.810000	21.168665	7.430495E-5	20.793195
109.029452	-2.979300	3.957100	-11.789000	21.160259	7.308386E-5	20.799485
110.026250	-2.983100	3.956600	-11.802000	21.158711	7.334788E-5	20.781341
111.026319	-3.012500	3.955600	-11.916000	21.175730	7.529503E-5	20.783192
112.027668	-2.983300	3.955900	-11.801000	21.161510	7.423895E-5	20.779873
113.030783	-2.974700	3.955600	-11.766000	21.177873	7.275384E-5	20.791026
114.031329	-3.003500	3.955300	-11.879000	21.174706	7.169776E-5	20.799712
115.030779	-3.010800	3.955000	-11.906000	21.160764	7.189578E-5	20.785765
116.030105	-2.980300	3.955500	-11.788000	21.177107	7.562505E-5	20.796898
117.030772	-2.993300	3.954300	-11.836000	21.182644	7.149975E-5	20.785367
118.030837	-2.996600	3.954100	-11.847000	21.194196	7.219280E-5	20.792182
119.034562	-2.999500	3.955100	-11.862000	21.187661	7.179677E-5	20.780903
120.032015	-2.986300	3.954000	-11.807000	21.190909	7.357890E-5	20.795058
121.031763	-2.979200	3.953700	-11.778000	21.187762	7.130173E-5	20.795229
122.034967	-2.985700	3.954200	-11.805000	21.202551	7.397493E-5	20.779203
123.032382	-3.006500	3.953900	-11.886000	21.213534	7.074069E-5	20.778336
124.033996	-3.002000	3.952100	-11.863000	21.202083	7.153275E-5	20.797701
125.033211	-2.992500	3.953500	-11.830000	21.217604	7.215980E-5	20.787623
126.036341	-2.993700	3.953900	-11.835000	21.206626	7.103771E-5	20.792763
127.038111	-3.006200	3.952400	-11.881000	21.217825	7.285285E-5	20.784525
128.038411	-2.995000	3.951500	-11.833000	21.231046	7.116972E-5	20.794432
129.040297	-2.983400	3.951500	-11.788000	21.231882	7.245682E-5	20.764922
130.043543	-2.997900	3.952400	-11.848000	21.251175	7.275384E-5	20.801766
131.040943	-2.982300	3.952600	-11.787000	21.241765	7.278684E-5	20.800888
132.040178	-3.004600	3.950900	-11.870000	21.237772	7.371091E-5	20.775555
133.043602	-3.005300	3.952100	-11.876000	21.237892	7.176377E-5	20.783737
134.042219	-3.007000	3.952000	-11.882000	21.235553	7.341389E-5	20.775707
135.045698	-3.003200	3.950000	-11.862000	21.233601	7.186278E-5	20.773280
136.043540	-2.975800	3.951400	-11.758000	21.249963	7.420595E-5	20.783958
137.043147	-2.991200	3.950800	-11.817000	21.257774	7.278684E-5	20.784186
138.046131	-3.005200	3.950600	-11.871000	21.273142	7.394193E-5	20.755938
139.045898	-3.014700	3.949900	-11.907000	21.260682	6.951960E-5	20.767180
140.047771	-3.011400	3.949700	-11.893000	21.278451	7.384292E-5	20.799182
141.044322	-3.002800	3.949100	-11.857000	21.277750	7.024566E-5	20.780937
142.044919	-3.008200	3.948700	-11.878000	21.276177	7.305086E-5	20.772724
143.045008	-3.001000	3.948300	-11.848000	21.289024	7.371091E-5	20.756653
144.045955	-2.996100	3.948300	-11.829000	21.270736	7.509701E-5	20.769178
145.046109	-3.010700	3.947600	-11.884000	21.284481	7.380992E-5	20.786248
146.049404	-2.988800	3.948200	-11.799000	21.290269	7.430495E-5	20.755054
147.046595	-2.996000	3.948200	-11.828000	21.292810	7.377692E-5	20.783675
148.046677	-2.983800	3.948300	-11.780000	21.308551	7.371091E-5	20.773345
149.046503	-2.975800	3.948700	-11.750000	21.320299	7.229181E-5	20.782727
150.049142	-2.990400	3.949400	-11.810000	21.325582	7.196178E-5	20.765253
151.047410	-3.002000	3.946900	-11.848000	21.315403	7.602108E-5	20.761232
152.046947	-3.005000	3.946800	-11.859000	21.289083	7.239081E-5	20.766670
153.047497	-3.000500	3.947000	-11.841000	21.318639	7.390893E-5	20.776324
154.048731	-2.995700	3.946200	-11.821000	21.292375	7.268784E-5	20.769490
155.048956	-2.993200	3.946300	-11.812000	21.315265	7.324888E-5	20.757776
156.048944	-2.999800	3.947000	-11.840000	21.322299	7.295185E-5	20.771451
157.049338	-3.002800	3.946200	-11.848000	21.329528	7.097171E-5	20.764459
158.050586	-2.987200	3.946500	-11.788000	21.336012	7.258883E-5	20.754824
159.052150	-3.005100	3.944500	-11.853000	21.339279	7.093871E-5	20.764731
160.051046	-2.986200	3.946100	-11.783000	21.310262	7.318287E-5	20.735700
161.051925	-3.002100	3.944800	-11.842000	21.354837	7.074069E-5	20.748054
162.049699	-3.004600	3.944400	-11.851000	21.352013	7.202779E-5	20.764195
163.051155	-2.996300	3.946100	-11.823000	21.357246	7.027866E-5	20.737187
164.051744	-3.016200	3.944300	-11.896000	21.342852	7.206079E-5	20.728475
165.051492	-2.988300	3.945600	-11.790000	21.340950	7.394193E-5	20.739376
166.051586	-3.012700	3.944200	-11.882000	21.363270	7.110372E-5	20.738946
167.051458	-3.026800	3.944400	-11.937000	21.372420	7.202779E-5	20.758059
168.050947	-3.007700	3.943200	-11.859000	21.366310	7.044367E-5	20.756213
169.058347	-3.011900	3.943000	-11.874000	21.362406	7.202779E-5	20.763214
170.052967	-2.999600	3.944100	-11.830000	21.372137	6.882655E-5	20.747818
171.058166	-2.993900	3.943600	-11.806000	21.377819	7.199478E-5	20.733588
172.054408	-3.017800	3.943600	-11.900000	21.378691	6.938759E-5	20.757695
173.055416	-3.025800	3.942500	-11.928000	21.369036	7.235781E-5	20.721481
174.056328	-3.002400	3.943200	-11.838000	21.398564	7.239081E-5	20.749129
175.057436	-3.023900	3.943100	-11.923000	21.402350	7.324888E-5	20.744856
176.059652	-3.009200	3.942500	-11.863000	21.393623	7.041067E-5	20.746556
177.058255	-3.013500	3.941400	-11.876000	21.406635	7.252282E-5	20.744401
178.059342	-2.995200	3.942200	-11.807000	21.368974	7.047667E-5	20.735170
179.059073	-2.984500	3.942600	-11.766000	21.385012	7.262183E-5	20.741259
180.060658	-2.992600	3.942300	-11.797000	21.404310	7.136774E-5	20.735437
181.062232	-2.998800	3.941200	-11.818000	21.384583	7.232481E-5	20.743201
182.059555	-2.992800	3.941300	-11.794000	21.404184	7.070769E-5	20.731992
183.060256	-3.001900	3.942000	-11.832000	21.403015	7.318287E-5	20.721812
184.063550	-3.012800	3.940800	-11.872000	21.409795	7.008064E-5	20.739977
185.061309	-2.988400	3.939400	-11.772000	21.419178	7.090571E-5	20.725656
186.062744	-2.973800	3.940500	-11.717000	21.424511	7.239081E-5	20.725777
187.061231	-2.982000	3.942300	-11.755000	21.418926	7.090571E-5	20.725403
188.059781	-2.990200	3.941200	-11.784000	21.415179	7.100471E-5	20.739674
189.063390	-2.997700	3.940300	-11.811000	21.419223	7.014665E-5	20.724278
190.060679	-3.005200	3.940400	-11.841000	21.450474	7.202779E-5	20.718563
191.065501	-2.970600	3.941400	-11.708000	21.437307	7.258883E-5	20.720561
192.062999	-2.989400	3.938900	-11.774000	21.450878	7.044367E-5	20.728451
193.062284	-3.013500	3.939900	-11.871000	21.433989	7.044367E-5	20.727673
194.062591	-3.005400	3.939400	-11.839000	21.450449	6.984963E-5	20.747463
195.062979	-2.995800	3.940400	-11.804000	21.447631	7.057568E-5	20.740849
196.063596	-2.993000	3.939400	-11.790000	21.467287	7.176377E-5	20.735861
197.064615	-3.007200	3.938800	-11.844000	21.478288	7.011365E-5	20.743074
198.064492	-3.018500	3.938100	-11.886000	21.487987	7.285285E-5	20.742348
199.063533	-3.012300	3.937900	-11.862000	21.470408	7.242382E-5	20.713852
200.066207	-3.022500	3.938000	-11.902000	21.476070	7.275384E-5	20.714775
201.065510	-3.002400	3.938400	-11.824000	21.498524	7.268784E-5	20.726812
202.068002	-2.987600	3.937800	-11.763000	21.484453	7.103771E-5	20.716052
203.064889	-3.010700	3.937600	-11.854000	21.472783	7.149975E-5	20.718125
204.065520	-2.999700	3.938700	-11.814000	21.489489	7.176377E-5	20.731997
205.066652	-3.004600	3.938600	-11.834000	21.483834	6.998164E-5	20.738666
206.068231	-3.004200	3.940200	-11.836000	21.495933	6.981663E-5	20.718055
207.067271	-2.993000	3.938000	-11.785000	21.501398	7.050968E-5	20.723049
208.067258	-2.986800	3.938200	-11.762000	21.488376	7.067469E-5	20.744160
209.067395	-3.006000	3.936800	-11.833000	21.474160	7.377692E-5	20.736099
210.068333	-3.011100	3.935600	-11.850000	21.504185	7.136774E-5	20.731528
211.067620	-3.019500	3.936300	-11.884000	21.511394	7.252282E-5	20.728310
212.068291	-3.028400	3.936900	-11.922000	21.495826	7.166476E-5	20.741183
213.069534	-3.004400	3.935900	-11.824000	21.511640	7.331488E-5	20.722867
214.070259	-3.010300	3.935200	-11.845000	21.518975	7.295185E-5	20.715033
215.070222	-3.010800	3.935700	-11.849000	21.511792	7.189578E-5	20.750521
216.071562	-3.000700	3.936200	-11.810000	21.545133	7.156575E-5	20.707067
217.070403	-2.989300	3.936400	-11.766000	21.528579	7.146675E-5	20.719427
218.075786	-3.016600	3.934700	-11.869000	21.528921	7.341389E-5	20.712656
219.070611	-2.996000	3.935900	-11.791000	21.520719	7.582307E-5	20.707294
220.069702	-2.995700	3.936200	-11.791000	21.538897	7.133474E-5	20.728804
221.069952	-2.975300	3.935600	-11.708000	21.549619	7.295185E-5	20.740482
222.070892	-2.989800	3.936000	-11.767000	21.568996	7.328188E-5	20.732370
223.069224	-3.019800	3.933800	-11.878000	21.557643	7.308386E-5	20.726700
224.073800	-2.987100	3.935100	-11.754000	21.543983	7.143374E-5	20.718246
225.070519	-2.983600	3.934600	-11.738000	21.554674	7.140074E-5	20.714245
226.069865	-2.998300	3.934200	-11.795000	21.581638	7.097171E-5	20.741702
227.078217	-3.015000	3.934500	-11.861000	21.565648	7.212679E-5	20.740400
228.075354	-3.014900	3.933800	-11.859000	21.598161	7.305086E-5	20.722674
229.073243	-2.978400	3.933200	-11.714000	21.560551	7.179677E-5	20.708745
230.072161	-2.987600	3.933300	-11.749000	21.569131	7.235781E-5	20.724918
231.072449	-2.995700	3.932400	-11.779000	21.581394	7.163176E-5	20.739088
232.071739	-2.994300	3.933600	-11.778000	21.596305	7.351290E-5	20.715126
233.071799	-2.994000	3.933000	-11.774000	21.591289	7.196178E-5	20.723384
234.072454	-2.987900	3.933900	-11.753000	21.571912	7.384292E-5	20.727228
235.071487	-3.009700	3.932600	-11.835000	21.607817	7.008064E-5	20.725224
236.071126	-2.986500	3.933700	-11.747000	21.599636	7.285285E-5	20.716563
237.075250	-3.014700	3.931300	-11.851000	21.619788	7.272084E-5	20.707332
238.070994	-2.985500	3.931800	-11.737000	21.607610	7.179677E-5	20.714585
239.077272	-3.001000	3.932500	-11.800000	21.598329	7.390893E-5	20.726162
240.072922	-2.988900	3.931700	-11.751000	21.591045	7.423895E-5	20.740211
241.073683	-2.994400	3.931500	-11.772000	21.627005	7.440396E-5	20.737789
242.074941	-3.009900	3.932500	-11.835000	21.612191	7.334788E-5	20.734344
243.073584	-3.002500	3.931300	-11.803000	21.628749	7.252282E-5	20.725309
244.075219	-3.006600	3.932900	-11.823000	21.622060	7.354590E-5	20.739004
245.078269	-3.012800	3.931200	-11.843000	21.621339	7.483299E-5	20.734016
246.075232	-3.016800	3.931000	-11.857000	21.620064	7.460198E-5	20.718514
247.077007	-2.978400	3.931500	-11.709000	21.616394	7.318287E-5	20.745663
248.079302	-3.002000	3.930700	-11.800000	21.641955	7.255583E-5	20.709599
249.076894	-2.960400	3.931300	-11.637000	21.639126	7.420595E-5	20.722417
250.078061	-3.002700	3.929600	-11.799000	21.646808	7.262183E-5	20.710189
251.076283	-2.986600	3.932000	-11.743000	21.637251	7.044367E-5	20.727653
252.076259	-3.009800	3.930500	-11.829000	21.646202	7.341389E-5	20.734715
253.075625	-2.992800	3.931200	-11.764000	21.648193	7.041067E-5	20.710153
254.077219	-3.011200	3.929100	-11.830000	21.655124	7.328188E-5	20.726098
255.079426	-2.984100	3.930400	-11.728000	21.644770	7.149975E-5	20.728540
256.078051	-3.002800	3.929900	-11.800000	21.625742	7.311687E-5	20.755966
257.077012	-3.010500	3.929000	-11.827000	21.647678	7.354590E-5	20.730027
258.081709	-2.981200	3.929100	-11.713000	21.630691	7.136774E-5	20.725355
259.077032	-3.005000	3.929200	-11.806000	21.680566	7.341389E-5	20.720266
260.083644	-2.992900	3.928800	-11.758000	21.664583	7.278684E-5	20.721340
261.080766	-3.018700	3.929100	-11.859000	21.658393	7.361190E-5	20.725103
262.081639	-3.013000	3.927600	-11.833000	21.668741	7.192878E-5	20.744943
263.081346	-3.006100	3.929100	-11.811000	21.678696	7.522902E-5	20.743526
264.082556	-3.014300	3.927900	-11.838000	21.684819	7.239081E-5	20.731161
265.082398	-3.015400	3.927600	-11.842000	21.677738	7.489900E-5	20.744463
266.084134	-3.018000	3.928300	-11.854000	21.674351	7.446997E-5	20.721158
267.082688	-3.006500	3.927500	-11.807000	21.684996	7.417294E-5	20.732286
268.082770	-3.007800	3.926700	-11.810000	21.683524	7.466798E-5	20.742668
269.083031	-2.992200	3.927600	-11.751000	21.686291	7.285285E-5	20.725047
270.084257	-2.976600	3.927800	-11.691000	21.694870	7.404093E-5	20.761609
271.083283	-2.999500	3.926600	-11.778000	21.704890	7.387592E-5	20.729436
272.082551	-2.991500	3.928300	-11.751000	21.734737	7.470098E-5	20.742238
273.083126	-2.996700	3.927900	-11.770000	21.720398	7.367791E-5	20.736896
274.082448	-2.992300	3.926600	-11.749000	21.719052	7.575706E-5	20.721798
275.083831	-3.003100	3.925900	-11.788000	21.707702	7.602108E-5	20.712334
276.085138	-3.014500	3.925900	-11.834000	21.727207	7.331488E-5	20.730909
277.083482	-2.993500	3.927300	-11.756000	21.715131	7.486600E-5	20.732099
278.086043	-2.998800	3.925600	-11.771000	21.743083	7.608708E-5	20.744901
279.086881	-2.999500	3.926100	-11.776000	21.730594	7.215980E-5	20.737143
280.086632	-2.983300	3.925700	-11.710000	21.748990	7.489900E-5	20.744649
281.089573	-2.995100	3.926000	-11.758000	21.770531	7.380992E-5	20.740129
282.087371	-2.998200	3.926000	-11.770000	21.762653	7.585607E-5	20.731770
283.087388	-2.986300	3.927000	-11.726000	21.762679	7.546004E-5	20.741279
284.086159	-2.982700	3.925600	-11.708000	21.767966	7.489900E-5	20.716698
285.086566	-2.976700	3.924900	-11.683000	21.753158	7.367791E-5	20.723690
286.088566	-3.003200	3.925600	-11.789000	21.784275	7.526202E-5	20.751515
287.089154	-3.008000	3.924800	-11.805000	21.804797	7.328188E-5	20.736967
288.086491	-2.996600	3.924200	-11.758000	21.814423	7.641711E-5	20.726686
289.089365	-2.974100	3.925600	-11.674000	21.790414	7.189578E-5	20.746279
290.089946	-2.968400	3.924900	-11.650000	21.811208	7.522902E-5	20.757608
291.090446	-2.999100	3.923000	-11.765000	21.823752	7.493200E-5	20.736972
292.093275	-3.001900	3.924400	-11.779000	21.802010	7.651612E-5	20.746032
293.089270	-3.000700	3.923600	-11.773000	21.783933	7.681314E-5	20.726989
294.090252	-3.012700	3.922300	-11.816000	21.807746	7.585607E-5	20.759833
295.093801	-3.008900	3.924000	-11.806000	21.816677	7.532803E-5	20.746960
296.091230	-3.018900	3.923200	-11.843000	21.805453	7.565805E-5	20.731459
297.093137	-2.993700	3.924000	-11.746000	21.814409	7.456897E-5	20.768399
298.090932	-2.997500	3.922200	-11.757000	21.817276	7.582307E-5	20.740922
299.091582	-2.990800	3.922200	-11.729000	21.815009	7.503101E-5	20.746239
300.091785	-3.007300	3.923500	-11.798000	21.819242	7.522902E-5	20.748579
301.091455	-3.003000	3.922600	-11.778000	21.804385	7.641711E-5	20.750779
302.092358	-3.021500	3.922300	-11.850000	21.814056	7.539403E-5	20.768994
303.096486	-3.001500	3.920500	-11.767000	21.806033	7.526202E-5	20.763809
304.092563	-2.997000	3.921000	-11.751000	21.822911	7.572406E-5	20.754149
305.092525	-3.005400	3.921600	-11.785000	21.832783	7.486600E-5	20.752650
306.095780	-3.023000	3.921400	-11.853000	21.825823	7.905730E-5	20.738571
307.092196	-3.006700	3.921500	-11.790000	21.823163	7.522902E-5	20.746814
308.094100	-3.003900	3.922100	-11.780000	21.817865	7.569106E-5	20.754314
309.093314	-2.989300	3.921800	-11.722000	21.827769	7.684614E-5	20.755692
310.093873	-3.019900	3.921500	-11.842000	21.839461	7.506401E-5	20.750325
311.094654	-2.988000	3.922100	-11.718000	21.843674	7.658212E-5	20.738894
312.094251	-3.006200	3.920900	-11.786000	21.856369	7.645011E-5	20.761559
313.097164	-2.985000	3.921700	-11.705000	21.852428	7.697815E-5	20.770416
314.096290	-3.001200	3.920100	-11.765000	21.865243	7.579006E-5	20.745311
315.095427	-3.000600	3.920600	-11.763000	21.851298	7.968435E-5	20.742732
316.097388	-3.001300	3.920000	-11.763000	21.858757	7.433796E-5	20.765846
317.095552	-3.007400	3.920000	-11.788000	21.883138	7.658212E-5	20.758007
318.100127	-3.001300	3.919300	-11.762000	21.883062	7.635110E-5	20.742758
319.097415	-2.990500	3.919900	-11.721000	21.891645	7.747319E-5	20.755616
320.096607	-3.008100	3.919900	-11.791000	21.903286	7.628510E-5	20.751621
321.098378	-3.011100	3.919200	-11.800000	21.890919	7.678014E-5	20.764847
322.100706	-2.999400	3.919300	-11.755000	21.895858	7.714316E-5	20.769791
323.100405	-3.025900	3.918300	-11.855000	21.903412	7.717616E-5	20.746531
324.098669	-2.983300	3.919000	-11.691000	21.905080	7.592207E-5	20.754839
325.098320	-3.004800	3.919200	-11.775000	21.908521	7.909030E-5	20.755914
326.098182	-2.991900	3.917800	-11.720000	21.919910	7.793522E-5	20.779168
327.098464	-3.004700	3.917700	-11.770000	21.933148	7.975035E-5	20.778194
328.099403	-3.017900	3.917800	-11.823000	21.919290	7.796822E-5	20.768116
329.098761	-3.008300	3.917600	-11.784000	21.917098	7.925532E-5	20.746007
330.099093	-3.017800	3.917100	-11.820000	21.949732	8.008038E-5	20.773932
331.101501	-3.003700	3.917200	-11.766000	21.954197	7.928832E-5	20.777453
332.099838	-2.988500	3.917300	-11.706000	21.939810	7.869428E-5	20.760206
333.104191	-2.986700	3.918700	-11.703000	21.965944	7.968435E-5	20.776883
334.100879	-2.993000	3.917600	-11.724000	21.950590	8.080643E-5	20.756298
335.100415	-3.005200	3.916800	-11.770000	21.971109	7.978335E-5	20.762613
336.100623	-3.005300	3.916400	-11.769000	21.968388	7.852926E-5	20.770321
337.100019	-2.998800	3.917100	-11.746000	21.949794	7.925532E-5	20.758346
338.100300	-2.990400	3.916400	-11.711000	21.941570	7.714316E-5	20.774770
339.103141	-2.995400	3.916200	-11.729000	21.954909	8.116946E-5	20.780062
340.100506	-3.009500	3.916900	-11.786000	21.959001	7.938733E-5	20.782261
341.100291	-3.033500	3.914100	-11.872000	21.959267	8.077343E-5	20.782054
342.100074	-3.000400	3.915800	-11.748000	21.961490	7.849626E-5	20.772899
343.100979	-3.001400	3.915000	-11.749000	21.987149	7.843026E-5	20.779144
344.103529	-2.990100	3.916000	-11.709000	21.998220	8.080643E-5	20.779321
345.101513	-3.007100	3.915100	-11.773000	21.974183	7.879328E-5	20.775174
346.101110	-3.007500	3.915100	-11.774000	22.007345	8.080643E-5	20.769964
347.105838	-3.008500	3.914500	-11.775000	22.000638	7.958534E-5	20.793596
348.102549	-2.998700	3.916100	-11.743000	22.018340	8.166449E-5	20.766746
349.105201	-3.010600	3.916100	-11.789000	22.003948	7.899130E-5	20.769883
350.102329	-3.019000	3.914500	-11.817000	22.002166	8.060842E-5	20.797970
351.101231	-3.000000	3.916000	-11.747000	22.023575	8.110345E-5	20.789531
352.102749	-3.025300	3.914000	-11.841000	22.014702	7.975035E-5	20.788234
353.104248	-2.988400	3.915500	-11.701000	22.047288	8.070742E-5	20.798096
354.103407	0.000000	0.000000	0.000000	22.029068	8.097144E-5	20.804038
