LabVIEW Measurement	
Writer_Version	2
Reader_Version	2
Separator	Tab
Decimal_Separator	.
Multi_Headings	No
X_Columns	One
Time_Pref	Absolute
Operator	admin
Description	Clolumns are: time, Current, Voltage, Power, Battery Temp, and Chamber Temp
Date	2024/05/20
Time	16:31:59.8575258255004882812
***End_of_Header***	
	
Channels	6						
Samples	1	1	1	1	1	1	
Date	2024/06/07	2024/06/07	2024/06/07	2024/06/07	2024/06/07	2024/06/07	
Time	07:07:20.5085911750793457031	07:07:20.5135903358459472656	07:07:20.51842498779296875	07:07:20.4869055747985839844	07:07:20.4869055747985839844	07:07:20.4869055747985839844	
X_Dimension	Time	Time	Time	Time	Time	Time	
X0	0.0000000000000000E+0	0.0000000000000000E+0	0.0000000000000000E+0	0.0000000000000000E+0	0.0000000000000000E+0	0.0000000000000000E+0	
Delta_X	1.000000	1.000000	1.000000	1.000000	1.000000	1.000000	
***End_of_Header***							
X_Value	Untitled	Untitled 1	Untitled 2	Untitled 3	Untitled 4	Untitled 5	Comment
0.000000	0.017286	3.860700	0.066941	20.719394	5.225934E-5	20.751164
0.999229	-2.988700	3.770500	-11.268000	20.709574	5.324941E-5	20.753673
2.002561	-2.984900	3.764900	-11.237000	20.718365	5.331542E-5	20.759144
2.995836	-3.025800	3.760100	-11.377000	20.721776	5.153329E-5	20.759710
4.004529	-2.992800	3.757200	-11.244000	20.716826	5.361244E-5	20.753337
4.997729	-2.977100	3.755000	-11.178000	20.698821	5.225934E-5	20.751455
6.006724	-2.990900	3.752600	-11.223000	20.726569	5.348043E-5	20.779676
7.004882	-3.001000	3.750700	-11.255000	20.722954	5.143428E-5	20.763259
8.006651	-2.993200	3.747600	-11.217000	20.740509	5.423948E-5	20.753312
9.007439	-3.009200	3.746000	-11.272000	20.748504	5.130227E-5	20.784067
10.009015	-3.000000	3.743700	-11.231000	20.733433	5.087324E-5	20.768048
11.004914	-3.003100	3.741600	-11.235000	20.751619	5.077423E-5	20.763000
12.000581	-2.996900	3.740700	-11.210000	20.740137	5.265537E-5	20.763372
13.006728	-3.028400	3.738800	-11.322000	20.757820	5.156629E-5	20.768726
14.005177	-3.021000	3.737600	-11.289000	20.740112	5.117026E-5	20.785158
15.007033	-2.999100	3.734800	-11.199000	20.760833	5.324941E-5	20.768420
16.005715	-2.982200	3.736100	-11.141000	20.752053	5.179731E-5	20.771968
17.006053	-3.005100	3.734500	-11.222000	20.761577	5.305140E-5	20.784337
18.008977	-2.983300	3.732600	-11.135000	20.756708	4.961915E-5	20.753389
19.009281	-3.011100	3.731200	-11.234000	20.783491	5.037820E-5	20.760257
20.010295	-2.978600	3.730700	-11.111000	20.747031	4.839806E-5	20.763627
21.007244	-3.002900	3.729000	-11.197000	20.743121	5.361244E-5	20.746914
22.007585	-3.010900	3.728200	-11.225000	20.780029	5.123626E-5	20.760114
23.009280	-3.001900	3.725800	-11.184000	20.784490	5.117026E-5	20.777852
24.009068	-3.014200	3.725700	-11.229000	20.792434	5.008118E-5	20.764458
25.013050	-3.001600	3.725600	-11.182000	20.779530	5.206132E-5	20.760089
26.013575	-2.999800	3.725300	-11.174000	20.795217	5.179731E-5	20.780518
27.013504	-2.997700	3.722900	-11.160000	20.784465	5.219333E-5	20.783042
28.011126	-3.022700	3.721200	-11.246000	20.777761	5.060922E-5	20.772071
29.020216	-2.991100	3.721700	-11.131000	20.810237	5.001517E-5	20.778942
30.009763	-2.984300	3.722000	-11.107000	20.799112	4.912411E-5	20.762602
31.011909	-2.992200	3.720400	-11.131000	20.797201	5.011418E-5	20.762587
32.012493	-3.009500	3.719100	-11.192000	20.800867	4.879409E-5	20.773840
33.016147	-2.984700	3.717600	-11.095000	20.818359	5.126927E-5	20.764779
34.016858	-2.997600	3.718700	-11.146000	20.800443	5.113726E-5	20.761088
35.021616	-3.002200	3.716700	-11.157000	20.811604	5.242435E-5	20.779362
36.015034	-3.018400	3.717200	-11.219000	20.812206	5.156629E-5	20.785179
37.017256	-2.994700	3.716100	-11.128000	20.819818	5.027919E-5	20.791843
38.020373	-2.988700	3.715000	-11.103000	20.803591	5.077423E-5	20.791737
39.012961	-3.028000	3.713800	-11.244000	20.802260	5.189631E-5	20.788983
40.016461	-3.003700	3.714600	-11.156000	20.812946	5.057622E-5	20.784497
41.017683	-3.006200	3.713800	-11.164000	20.821236	4.856307E-5	20.791365
42.021101	-3.023800	3.712700	-11.225000	20.809740	5.100525E-5	20.790774
43.016207	-2.988800	3.712900	-11.096000	20.821134	5.064222E-5	20.798375
44.023970	-3.020300	3.712400	-11.211000	20.824862	5.067522E-5	20.771282
45.019555	-2.972800	3.713100	-11.038000	20.836394	4.985016E-5	20.803678
46.018161	-2.990100	3.711100	-11.096000	20.833768	5.008118E-5	20.767861
47.025549	-3.000200	3.710400	-11.131000	20.844812	4.925612E-5	20.801191
48.016626	-3.008200	3.710000	-11.160000	20.828487	5.100525E-5	20.795297
49.019640	-3.001200	3.709800	-11.133000	20.836981	4.767200E-5	20.785773
50.021523	-2.996200	3.709400	-11.113000	20.838852	5.024619E-5	20.804714
51.019213	-3.005500	3.708400	-11.145000	20.852285	4.889309E-5	20.796810
52.013994	-3.017300	3.707700	-11.186000	20.840071	4.942113E-5	20.793604
53.024313	-3.017000	3.706400	-11.181000	20.850334	5.004818E-5	20.792014
54.021148	-3.002200	3.708400	-11.132000	20.858471	4.919011E-5	20.797306
55.022121	-3.016600	3.706700	-11.181000	20.840286	4.876108E-5	20.806622
56.023602	-2.988000	3.706400	-11.074000	20.859587	5.018019E-5	20.819759
57.020199	-2.998500	3.706100	-11.112000	20.862931	4.948714E-5	20.808879
58.022344	-2.991200	3.706100	-11.085000	20.869054	4.770501E-5	20.814529
59.023047	-2.987300	3.704300	-11.064000	20.857701	4.876108E-5	20.813606
60.023512	-2.988000	3.705000	-11.070000	20.860571	4.965215E-5	20.802252
61.019078	-3.005700	3.705000	-11.136000	20.867541	5.143428E-5	20.794998
62.027164	-3.000900	3.703200	-11.113000	20.860520	4.836505E-5	20.799830
63.030132	-2.991800	3.703700	-11.079000	20.877600	5.169830E-5	20.819281
64.027725	-3.000000	3.703900	-11.111000	20.890441	5.077423E-5	20.804623
65.027617	-2.963900	3.703600	-10.976000	20.886991	4.905810E-5	20.804017
66.022103	-3.005200	3.701900	-11.123000	20.874842	5.067522E-5	20.809412
67.029193	-3.013200	3.701600	-11.153000	20.900623	4.859607E-5	20.795840
68.027868	-3.016500	3.700600	-11.161000	20.891075	5.103825E-5	20.811895
69.029632	-2.988200	3.702000	-11.061000	20.908209	5.163229E-5	20.819073
70.020471	-3.005000	3.700300	-11.119000	20.887669	5.143428E-5	20.802325
71.025157	-3.015400	3.699600	-11.155000	20.888420	4.919011E-5	20.799757
72.026970	-3.004100	3.699300	-11.113000	20.913242	4.909111E-5	20.814149
73.026143	-3.006700	3.698700	-11.120000	20.880247	5.047721E-5	20.829515
74.033035	-3.005000	3.699200	-11.115000	20.911830	4.892610E-5	20.836445
75.023441	-3.004500	3.699100	-11.113000	20.927221	5.047721E-5	20.819595
76.026464	-2.999300	3.698900	-11.094000	20.898275	5.202832E-5	20.820518
77.034997	-2.999300	3.698600	-11.093000	20.919237	4.866208E-5	20.825361
78.034851	-3.038100	3.696800	-11.230000	20.912651	4.925612E-5	20.811188
79.028600	-3.002800	3.698600	-11.106000	20.939379	5.001517E-5	20.825591
80.031186	-3.008900	3.697000	-11.123000	20.929219	4.806803E-5	20.827757
81.029969	-2.987500	3.697100	-11.045000	20.945338	5.051021E-5	20.842930
82.029918	-3.007300	3.696100	-11.115000	20.940634	4.932212E-5	20.831587
83.030689	-2.983900	3.696700	-11.030000	20.923800	4.737498E-5	20.838932
84.025895	-2.998600	3.697700	-11.086000	20.928103	5.031220E-5	20.815736
85.029905	-2.988800	3.694900	-11.042000	20.924015	4.859607E-5	20.812121
86.029284	-2.999100	3.694200	-11.078000	20.946644	4.740798E-5	20.848503
87.026478	-2.996200	3.694400	-11.068000	20.967157	4.859607E-5	20.844363
88.029700	-3.003500	3.693500	-11.093000	20.938161	5.252336E-5	20.842864
89.030185	-2.989600	3.695000	-11.046000	20.947016	4.988317E-5	20.863098
90.026778	-3.018400	3.693900	-11.148000	20.970439	4.856307E-5	20.841008
91.033117	-3.010000	3.692200	-11.113000	20.946888	5.011418E-5	20.812712
92.028646	-2.982000	3.692900	-11.011000	20.964634	4.859607E-5	20.830934
93.032216	-3.004600	3.692300	-11.093000	20.957767	4.793602E-5	20.837342
94.031219	-3.012600	3.693200	-11.126000	20.967259	5.008118E-5	20.843517
95.034572	-3.025300	3.691500	-11.166000	20.971862	5.027919E-5	20.828680
96.032124	-3.017100	3.691400	-11.136000	20.969644	4.826605E-5	20.854911
97.030122	-2.998200	3.690900	-11.065000	20.990774	4.961915E-5	20.857551
98.038207	-3.018400	3.690500	-11.139000	20.966249	4.737498E-5	20.828757
99.034105	-2.993200	3.690100	-11.045000	20.982638	4.767200E-5	20.834242
100.034995	-3.002100	3.691400	-11.081000	20.997604	4.826605E-5	20.843046
101.039721	-2.986000	3.690200	-11.018000	20.991069	4.750699E-5	20.860217
102.036101	-2.995400	3.689400	-11.050000	20.977988	5.021319E-5	20.851876
103.036374	-3.013400	3.689300	-11.117000	21.000230	4.935513E-5	20.858948
104.034731	-3.006000	3.690700	-11.093000	20.992338	4.760600E-5	20.870495
105.037439	-3.017100	3.688500	-11.127000	20.993082	5.044421E-5	20.860808
106.033670	-3.029300	3.688600	-11.173000	20.972325	4.836505E-5	20.840997
107.041814	-3.001800	3.688100	-11.070000	20.993403	4.971815E-5	20.850224
108.040342	-2.975900	3.688000	-10.974000	20.988152	4.882709E-5	20.853507
109.040984	-2.987100	3.688100	-11.016000	20.995737	4.621990E-5	20.856826
110.042232	-3.012800	3.686200	-11.105000	20.997644	4.849706E-5	20.837871
111.036353	-3.007400	3.686700	-11.086000	20.996685	4.711096E-5	20.852084
112.033065	-3.007600	3.686000	-11.084000	20.994173	4.971815E-5	20.850045
113.038821	-2.996500	3.686100	-11.044000	21.005051	4.757300E-5	20.859502
114.042169	-2.991300	3.686000	-11.025000	20.991394	4.853007E-5	20.860542
115.040512	-2.996800	3.685500	-11.044000	21.011739	4.796902E-5	20.842959
116.049023	-2.990800	3.686100	-11.024000	21.003144	4.674794E-5	20.834363
117.045619	-2.996100	3.685000	-11.040000	21.002349	4.869508E-5	20.842576
118.043815	-3.018900	3.684700	-11.123000	20.993173	4.671493E-5	20.832925
119.046313	-2.986700	3.685000	-11.005000	21.024487	4.971815E-5	20.854287
120.037465	-3.004300	3.682700	-11.063000	21.023346	4.598888E-5	20.844611
121.037906	-2.995500	3.684300	-11.036000	21.023794	5.024619E-5	20.836999
122.042377	-2.972000	3.684000	-10.948000	21.011968	4.899210E-5	20.824223
123.041855	-3.019400	3.682800	-11.119000	21.033658	4.846406E-5	20.847813
124.047602	-3.018600	3.682300	-11.114000	21.006225	5.120326E-5	20.847875
125.042310	-2.985600	3.684000	-10.998000	21.030311	4.975116E-5	20.841620
126.044554	-3.002000	3.683000	-11.055000	21.041254	4.862907E-5	20.849247
127.045549	-2.998900	3.681200	-11.039000	21.047326	4.938813E-5	20.832561
128.048097	-3.019100	3.681300	-11.113000	21.028287	4.919011E-5	20.827269
129.045143	-3.020800	3.680900	-11.117000	21.040547	5.044421E-5	20.836211
130.049920	-2.999700	3.681100	-11.041000	21.034884	5.097225E-5	20.852832
131.044380	-3.008400	3.679400	-11.068000	21.052026	4.621990E-5	20.836314
132.048294	-2.998300	3.680100	-11.034000	21.052781	4.915711E-5	20.828060
133.055220	-2.981300	3.680900	-10.973000	21.060585	4.806803E-5	20.816425
134.053126	-2.979100	3.680600	-10.964000	21.062251	5.179731E-5	20.844170
135.048760	-2.996400	3.679300	-11.024000	21.053051	4.945413E-5	20.817425
136.049677	-2.997600	3.680100	-11.031000	21.067517	4.816704E-5	20.818617
137.049962	-3.019400	3.678100	-11.104000	21.045699	5.100525E-5	20.829512
138.046670	-3.018800	3.677800	-11.102000	21.060676	5.044421E-5	20.824103
139.052184	-3.020900	3.677700	-11.109000	21.057985	4.886009E-5	20.808609
140.051424	-3.005500	3.677800	-11.053000	21.069402	4.882709E-5	20.829512
141.051754	-3.002200	3.677200	-11.038000	21.052876	5.117026E-5	20.819620
142.044576	-2.988200	3.677700	-10.989000	21.055093	4.968515E-5	20.815674
143.053034	-3.016200	3.676600	-11.089000	21.080192	5.031220E-5	20.829399
144.049375	-2.994800	3.677100	-11.011000	21.074222	4.971815E-5	20.806833
145.050111	-3.002600	3.676600	-11.039000	21.083269	4.826605E-5	20.816356
146.050911	-3.015400	3.676500	-11.085000	21.086777	4.886009E-5	20.845942
147.048937	-2.987900	3.675800	-10.981000	21.060811	4.905810E-5	20.817126
148.052994	-2.997800	3.675600	-11.018000	21.092571	4.704496E-5	20.804324
149.054426	-3.004800	3.674400	-11.041000	21.078059	4.813404E-5	20.804506
150.047293	-3.001000	3.675500	-11.029000	21.090679	4.753999E-5	20.823767
151.049976	-3.010300	3.674500	-11.060000	21.091627	4.882709E-5	20.821871
152.055316	-3.001700	3.674200	-11.028000	21.093614	4.846406E-5	20.811531
153.048540	-2.996700	3.675100	-11.013000	21.102570	5.024619E-5	20.812428
154.058545	-2.970700	3.674900	-10.916000	21.077329	4.905810E-5	20.813260
155.055551	-2.999200	3.672200	-11.012000	21.081844	4.994917E-5	20.789326
156.052373	-3.001400	3.673500	-11.025000	21.090646	4.691295E-5	20.811881
157.055994	-2.988700	3.674100	-10.980000	21.098949	4.740798E-5	20.805013
158.056865	-3.017800	3.672400	-11.082000	21.117462	4.938813E-5	20.808832
159.057710	-3.025200	3.671700	-11.106000	21.084025	4.866208E-5	20.793404
160.057710	-3.005200	3.672600	-11.036000	21.119745	5.140128E-5	20.794520
161.055751	-2.990400	3.672700	-10.982000	21.093943	5.080723E-5	20.801428
162.051119	-2.976000	3.670500	-10.923000	21.106691	4.958614E-5	20.813231
163.061275	-2.999800	3.670600	-11.011000	21.133582	4.998217E-5	20.793189
164.057163	-2.994200	3.670800	-10.991000	21.115508	4.902510E-5	20.792653
165.054089	-2.985700	3.671000	-10.960000	21.137313	5.001517E-5	20.786963
166.060668	-3.011500	3.667700	-11.044000	21.127552	5.087324E-5	20.792846
167.059407	-3.006700	3.669300	-11.032000	21.135905	4.988317E-5	20.803573
168.058590	-3.007800	3.668300	-11.032000	21.113061	5.080723E-5	20.796844
169.061861	-2.993000	3.669500	-10.982000	21.138760	4.826605E-5	20.802161
170.057606	-3.002800	3.667600	-11.012000	21.134126	5.044421E-5	20.787569
171.054223	-2.984500	3.667800	-10.945000	21.132062	4.892610E-5	20.792142
172.054776	-2.985400	3.667500	-10.949000	21.152842	5.021319E-5	20.799652
173.055376	-2.983200	3.668300	-10.942000	21.115333	4.760600E-5	20.802909
174.058583	-3.008800	3.667200	-11.033000	21.123479	4.816704E-5	20.802048
175.059190	-3.009600	3.667600	-11.038000	21.129732	4.994917E-5	20.794553
176.059765	-2.995000	3.666900	-10.981000	21.134615	4.777101E-5	20.795170
177.066892	-2.995300	3.666000	-10.980000	21.160787	4.787002E-5	20.776306
178.064763	-3.004900	3.666200	-11.016000	21.158432	4.833205E-5	20.781536
179.065620	-2.985100	3.665800	-10.942000	21.145262	4.760600E-5	20.765042
180.063390	-3.011100	3.666200	-11.039000	21.150057	4.859607E-5	20.793073
181.056162	-2.997900	3.665900	-10.989000	21.154873	5.074123E-5	20.771812
182.066236	-3.007300	3.664600	-11.020000	21.175704	4.866208E-5	20.796917
183.063872	-2.990700	3.663700	-10.955000	21.161754	4.747399E-5	20.784385
184.063752	-2.971100	3.664400	-10.886000	21.159836	4.945413E-5	20.782941
185.065977	-2.972800	3.665000	-10.894000	21.174275	4.823304E-5	20.780315
186.062116	-3.010600	3.664000	-11.030000	21.166089	4.704496E-5	20.772600
187.063676	-3.004900	3.664700	-11.011000	21.178979	4.879409E-5	20.791184
188.060687	-2.995400	3.663000	-10.971000	21.156369	4.810103E-5	20.764773
189.061139	-3.006800	3.662100	-11.011000	21.175023	4.915711E-5	20.786278
190.060059	-2.986300	3.662600	-10.937000	21.173014	4.793602E-5	20.780950
191.059597	-2.979600	3.663300	-10.915000	21.182097	4.816704E-5	20.787665
192.061610	-2.989900	3.661700	-10.947000	21.179114	4.912411E-5	20.782785
193.061561	-2.977400	3.661900	-10.902000	21.160628	4.770501E-5	20.746748
194.060580	-3.013400	3.661100	-11.032000	21.197319	4.651692E-5	20.780133
195.066344	-2.998400	3.660400	-10.975000	21.198369	4.503181E-5	20.775019
196.060947	-3.013100	3.658900	-11.024000	21.171585	4.651692E-5	20.766718
197.064003	-3.024300	3.660700	-11.070000	21.180591	4.773801E-5	20.766718
198.064959	-2.978800	3.659900	-10.901000	21.183435	4.895910E-5	20.770986
199.060633	-2.984800	3.660300	-10.924000	21.185204	4.661593E-5	20.771332
200.062895	-3.014900	3.658400	-11.028000	21.199157	4.605488E-5	20.758738
201.065733	-2.996000	3.658500	-10.960000	21.197313	4.493280E-5	20.759737
202.065701	-3.010800	3.658100	-11.013000	21.198046	4.483379E-5	20.771376
203.064096	-3.012700	3.657400	-11.017000	21.197072	4.509781E-5	20.772299
204.065001	-2.969800	3.657800	-10.862000	21.202632	4.734198E-5	20.759843
205.066512	-2.987800	3.657400	-10.926000	21.220017	4.605488E-5	20.754474
206.071520	-3.015600	3.656700	-11.026000	21.216316	4.678094E-5	20.756462
207.070597	-2.997200	3.656200	-10.957000	21.205812	4.687994E-5	20.761127
208.067420	-2.995500	3.656400	-10.952000	21.197703	4.674794E-5	20.740213
209.065728	-2.995900	3.656200	-10.953000	21.243501	4.833205E-5	20.754259
210.075769	-2.998700	3.656800	-10.965000	21.227809	4.621990E-5	20.757528
211.071642	-3.005200	3.655400	-10.984000	21.201703	4.701195E-5	20.784993
212.072208	-2.996900	3.655300	-10.954000	21.216193	4.737498E-5	20.745433
213.073100	-3.017300	3.654500	-11.026000	21.214246	4.595588E-5	20.736847
214.071138	-3.016800	3.654100	-11.023000	21.244106	4.377772E-5	20.768616
215.074651	-3.014500	3.654200	-11.014000	21.236548	4.674794E-5	20.758210
216.073689	-3.035800	3.652100	-11.086000	21.237022	4.711096E-5	20.755365
217.066023	-3.003000	3.653800	-10.971000	21.236589	4.503181E-5	20.750189
218.068985	-2.989500	3.653500	-10.921000	21.233230	4.714396E-5	20.752046
219.073882	-3.006100	3.652200	-10.977000	21.248733	4.674794E-5	20.748114
220.068337	-3.026000	3.652600	-11.050000	21.264757	4.753999E-5	20.757506
221.072264	-3.015600	3.651100	-11.009000	21.253280	4.598888E-5	20.759301
222.072478	-3.011600	3.651900	-10.997000	21.277065	4.678094E-5	20.755120
223.069673	-3.018600	3.652300	-11.024000	21.276846	4.674794E-5	20.751582
224.072137	-3.002900	3.650000	-10.960000	21.268931	4.605488E-5	20.757415
225.076289	-2.987500	3.651600	-10.908000	21.271928	4.559285E-5	20.767525
226.070649	-3.013200	3.649900	-10.997000	21.268508	4.697895E-5	20.751302
227.078105	-3.003500	3.649100	-10.959000	21.282319	4.509781E-5	20.769386
228.072079	-3.007500	3.649800	-10.976000	21.266368	4.318367E-5	20.761963
229.077045	-2.999900	3.649300	-10.946000	21.272978	4.747399E-5	20.773792
230.077671	-3.004300	3.647900	-10.959000	21.284816	4.453677E-5	20.750547
231.073109	-2.988700	3.647700	-10.901000	21.273416	4.579087E-5	20.749099
232.076509	-2.988300	3.649900	-10.906000	21.296420	4.433876E-5	20.754096
233.073148	-2.980600	3.648800	-10.875000	21.295473	4.621990E-5	20.753621
234.076320	-3.006300	3.648300	-10.967000	21.305440	4.430576E-5	20.745575
235.075255	-2.999800	3.647200	-10.940000	21.268818	4.542784E-5	20.742603
236.077862	-3.025800	3.646300	-11.032000	21.284922	4.641791E-5	20.754446
237.077111	-3.014000	3.645500	-10.986000	21.295706	4.536183E-5	20.756700
238.087755	-3.017400	3.647400	-11.004000	21.303381	4.318367E-5	20.756791
239.084985	-2.990400	3.645600	-10.901000	21.295415	4.559285E-5	20.744080
240.078458	-3.005500	3.644900	-10.954000	21.279377	4.585687E-5	20.743683
241.079636	-2.988200	3.645600	-10.893000	21.310596	4.258963E-5	20.739827
242.079292	-2.965000	3.646700	-10.812000	21.311737	4.364571E-5	20.748556
243.084047	-2.957900	3.645900	-10.783000	21.320742	4.516382E-5	20.749978
244.076770	-3.041200	3.644100	-11.081000	21.319401	4.443777E-5	20.748162
245.079851	-2.982500	3.642900	-10.864000	21.312664	4.433876E-5	20.744741
246.082311	-2.999400	3.644000	-10.929000	21.313896	4.245762E-5	20.742655
247.078613	-3.006600	3.644000	-10.956000	21.314075	4.612089E-5	20.732876
248.088007	-3.009300	3.641800	-10.958000	21.311144	4.602188E-5	20.748911
249.079687	-3.007500	3.642100	-10.953000	21.304957	4.328268E-5	20.729444
250.083066	-2.980100	3.642000	-10.853000	21.331411	4.245762E-5	20.736469
251.090423	-3.000600	3.641300	-10.926000	21.321972	4.219360E-5	20.724181
252.085207	-2.987800	3.640700	-10.877000	21.318731	4.291965E-5	20.734690
253.079247	-2.990800	3.642300	-10.893000	21.315418	4.278764E-5	20.719520
254.081658	-3.007700	3.641500	-10.951000	21.330212	4.288665E-5	20.720096
255.084165	-2.999400	3.641200	-10.921000	21.342523	4.206159E-5	20.729569
256.077135	-2.979500	3.640300	-10.846000	21.342819	4.041147E-5	20.715639
257.086236	-2.996500	3.639400	-10.905000	21.343884	4.367871E-5	20.737569
258.081985	-2.999500	3.639400	-10.916000	21.355018	4.080750E-5	20.706032
259.081730	-3.006200	3.639500	-10.940000	21.333538	4.315067E-5	20.736701
260.088541	-3.014000	3.638800	-10.967000	21.352831	4.239162E-5	20.715225
261.086138	-2.992700	3.638700	-10.888000	21.335550	4.133554E-5	20.728283
262.081285	-2.999200	3.637400	-10.909000	21.371445	4.209459E-5	20.732901
263.082678	-3.013500	3.637900	-10.963000	21.360520	4.321668E-5	20.720547
264.084189	-3.030900	3.638300	-11.026000	21.374763	4.031246E-5	20.737169
265.083236	-3.015000	3.638000	-10.967000	21.368413	4.027946E-5	20.745040
266.083193	-3.020300	3.636000	-10.981000	21.375460	4.262263E-5	20.710364
267.086135	-3.002900	3.635900	-10.917000	21.389101	4.381072E-5	20.705994
268.088118	-3.005500	3.636300	-10.928000	21.386120	4.265564E-5	20.721978
269.087983	-3.008500	3.635400	-10.936000	21.397351	4.126953E-5	20.729897
270.089541	-2.998900	3.635400	-10.901000	21.381279	4.008145E-5	20.709073
271.085811	-2.993100	3.634800	-10.878000	21.397126	4.239162E-5	20.701694
272.090596	-2.960300	3.635300	-10.760000	21.387867	4.014745E-5	20.700965
273.092998	-2.995800	3.635000	-10.889000	21.375687	4.074149E-5	20.705849
274.086327	-3.016500	3.633500	-10.960000	21.382322	4.357970E-5	20.726713
275.091605	-2.999400	3.633300	-10.897000	21.407954	4.252363E-5	20.715848
276.088506	-2.972900	3.635100	-10.806000	21.410364	4.169856E-5	20.724898
277.089958	-2.997600	3.633300	-10.889000	21.428285	3.988343E-5	20.720069
278.088409	-3.022000	3.632900	-10.978000	21.395086	4.070849E-5	20.721940
279.090539	-3.008600	3.631800	-10.926000	21.411239	4.123653E-5	20.696848
280.083914	-2.990500	3.631800	-10.860000	21.402123	4.242462E-5	20.679665
281.088144	-3.008500	3.630800	-10.922000	21.418673	4.021346E-5	20.700019
282.087223	-3.004400	3.630900	-10.908000	21.400756	4.044447E-5	20.691101
283.088149	-2.999000	3.631800	-10.891000	21.409021	3.968542E-5	20.694154
284.090844	-3.000300	3.630700	-10.892000	21.438301	4.206159E-5	20.714443
285.091101	-3.017500	3.629300	-10.951000	21.419145	4.067549E-5	20.707130
286.090919	-3.017100	3.630200	-10.952000	21.416276	3.853033E-5	20.705208
287.088005	-3.034200	3.629100	-11.010000	21.427665	3.932239E-5	20.707119
288.088888	-2.992400	3.629100	-10.859000	21.444755	3.740825E-5	20.687233
289.083221	-3.003100	3.628800	-10.896000	21.431781	3.942140E-5	20.692745
290.089991	-2.984100	3.629400	-10.830000	21.461177	4.077450E-5	20.688018
291.089431	-2.973200	3.629200	-10.788000	21.465804	3.849733E-5	20.690751
292.086319	-3.029600	3.627700	-10.989000	21.473620	3.770527E-5	20.682449
293.089475	-3.008600	3.627600	-10.913000	21.461350	3.909137E-5	20.701942
294.085005	-2.979600	3.628300	-10.810000	21.462491	3.869534E-5	20.690281
295.091002	-2.983600	3.627500	-10.822000	21.435036	3.994944E-5	20.689363
296.088258	-2.993800	3.627000	-10.857000	21.447703	4.090651E-5	20.693029
297.089680	-3.026200	3.626700	-10.974000	21.467341	4.153355E-5	20.690392
298.088097	-2.991100	3.625800	-10.844000	21.466047	4.166556E-5	20.718497
299.092950	-2.980600	3.626500	-10.809000	21.491304	4.080750E-5	20.712001
300.092281	-3.000900	3.624600	-10.876000	21.445761	3.892636E-5	20.711950
301.095203	-3.013900	3.624000	-10.921000	21.477231	3.892636E-5	20.674682
302.096841	-2.982100	3.624400	-10.807000	21.475799	3.638517E-5	20.696485
303.091121	-2.984000	3.625300	-10.817000	21.464798	4.001544E-5	20.673621
304.100143	-2.966300	3.623900	-10.748000	21.484073	3.813430E-5	20.694807
305.093394	-2.995700	3.624100	-10.856000	21.486356	3.932239E-5	20.677649
306.099561	-3.002800	3.622500	-10.877000	21.479722	3.938840E-5	20.675278
307.094398	-2.999300	3.624000	-10.868000	21.503813	4.051048E-5	20.683263
308.108613	-2.981800	3.623300	-10.803000	21.501010	3.823331E-5	20.675716
309.105126	-3.005200	3.622100	-10.884000	21.486422	3.773827E-5	20.670602
310.097181	-2.964300	3.622100	-10.736000	21.507017	3.678120E-5	20.679357
311.101933	-3.012600	3.620300	-10.906000	21.508362	3.684721E-5	20.671219
312.097018	-3.014700	3.621800	-10.918000	21.515853	3.928939E-5	20.670179
313.096333	-2.996000	3.622000	-10.851000	21.499461	3.836532E-5	20.669424
314.096096	-2.999000	3.620800	-10.857000	21.510309	3.641818E-5	20.663208
315.101483	-2.985000	3.620700	-10.806000	21.488602	3.853033E-5	20.662351
316.098341	-3.016500	3.618300	-10.914000	21.499512	3.754026E-5	20.671846
317.104547	-3.014600	3.618800	-10.908000	21.504816	3.862934E-5	20.685689
318.100908	-2.995900	3.619300	-10.842000	21.519618	3.839832E-5	20.666834
319.101347	-3.005500	3.618200	-10.874000	21.531439	3.701222E-5	20.673921
320.105191	-3.014400	3.618400	-10.906000	21.536819	3.823331E-5	20.671718
321.103433	-3.000300	3.617700	-10.854000	21.553108	3.684721E-5	20.689442
322.099662	-3.019700	3.617600	-10.923000	21.545705	3.826631E-5	20.692940
323.102393	-2.987400	3.616400	-10.803000	21.554810	3.727624E-5	20.677868
324.103143	-2.999100	3.616100	-10.843000	21.563182	3.589014E-5	20.678659
325.102533	-3.010000	3.616600	-10.885000	21.567345	3.641818E-5	20.678082
326.107484	-2.985400	3.617300	-10.799000	21.565541	3.651718E-5	20.668690
327.104782	-3.001900	3.615200	-10.851000	21.562417	3.932239E-5	20.674100
328.105529	-3.017600	3.614800	-10.907000	21.589808	3.691321E-5	20.683492
329.108611	-2.993400	3.615600	-10.822000	21.558560	3.655019E-5	20.676405
330.102253	-3.005500	3.615500	-10.866000	21.597721	3.724324E-5	20.672443
331.104780	-2.992500	3.614000	-10.813000	21.578808	3.615416E-5	20.679597
332.101023	-3.019800	3.614300	-10.914000	21.604507	3.579113E-5	20.680658
333.109113	-2.998800	3.614400	-10.837000	21.582365	3.671520E-5	20.689795
334.107930	-2.984900	3.614300	-10.787000	21.578538	3.480106E-5	20.689759
335.107002	-2.997900	3.613300	-10.832000	21.575272	3.717723E-5	20.675584
336.106023	-2.985700	3.613200	-10.787000	21.597119	3.862934E-5	20.661883
337.110597	-3.019300	3.611800	-10.904000	21.613474	3.691321E-5	20.660231
338.110529	-2.999900	3.611400	-10.833000	21.609556	3.780428E-5	20.691875
339.113443	-3.016900	3.611600	-10.895000	21.624794	3.460304E-5	20.684838
340.109000	-2.999100	3.612300	-10.833000	21.615985	3.572513E-5	20.671754
341.106017	-2.998900	3.612300	-10.832000	21.639187	3.427302E-5	20.678852
342.115451	-2.999300	3.612200	-10.834000	21.623811	3.417401E-5	20.673422
343.107192	-3.001400	3.611000	-10.837000	21.647720	3.552711E-5	20.671270
344.111869	-2.980200	3.610400	-10.759000	21.625900	3.579113E-5	20.664131
345.111660	-2.995300	3.610300	-10.813000	21.654649	3.549411E-5	20.676782
346.114022	-2.988300	3.608800	-10.783000	21.629807	3.486706E-5	20.689381
347.110395	-2.983800	3.609900	-10.770000	21.637709	3.509808E-5	20.687805
348.114146	-2.988300	3.609800	-10.786000	21.634611	3.612116E-5	20.678540
349.112203	-3.004500	3.607800	-10.839000	21.664731	3.516409E-5	20.668852
350.110840	-3.023900	3.607700	-10.908000	21.654541	3.321694E-5	20.652489
351.113678	-2.990100	3.607700	-10.786000	21.650751	3.282091E-5	20.671457
352.115685	-2.996600	3.607100	-10.808000	21.648957	3.559312E-5	20.669663
353.112119	-2.971100	3.607600	-10.718000	21.655810	3.275491E-5	20.677469
354.108581	-3.004600	3.606200	-10.835000	21.663212	3.338195E-5	20.673971
355.106658	-3.031300	3.605900	-10.929000	21.640892	3.225987E-5	20.671549
356.114196	-2.993800	3.605800	-10.794000	21.651907	3.219387E-5	20.656017
357.113386	-3.018200	3.606300	-10.884000	21.665571	3.291992E-5	20.666848
358.116104	-2.999700	3.604500	-10.811000	21.666391	3.272191E-5	20.662452
359.115322	-2.992900	3.605100	-10.789000	21.669590	3.390999E-5	20.670397
360.112850	-3.010900	3.604800	-10.852000	21.676004	3.493307E-5	20.669703
361.117919	-2.987800	3.603700	-10.766000	21.684548	3.414101E-5	20.682522
362.117544	-2.997900	3.604200	-10.804000	21.673304	3.410801E-5	20.695927
363.115598	-3.013800	3.603600	-10.860000	21.684191	3.189685E-5	20.685010
364.119759	-3.005400	3.603500	-10.829000	21.680579	3.331595E-5	20.679498
365.116112	-3.004300	3.603200	-10.824000	21.674985	3.107178E-5	20.680064
366.114725	-3.013600	3.602900	-10.857000	21.687278	3.159982E-5	20.681461
367.111776	-3.007900	3.603300	-10.837000	21.693616	3.466905E-5	20.674052
368.110262	-2.997400	3.601300	-10.793000	21.670940	3.450404E-5	20.670799
369.118269	-3.012800	3.601500	-10.850000	21.700840	3.212786E-5	20.681282
370.112564	-2.998700	3.601400	-10.799000	21.694502	3.126980E-5	20.676836
371.116599	-2.989800	3.602100	-10.769000	21.688409	3.381099E-5	20.676428
372.115409	-2.969700	3.600500	-10.691000	21.723112	3.176484E-5	20.664216
373.116664	-3.006400	3.600200	-10.822000	21.703895	3.242488E-5	20.666795
374.118196	-2.981300	3.601200	-10.736000	21.724293	3.311794E-5	20.667295
375.115679	-2.983400	3.600200	-10.740000	21.715562	3.216086E-5	20.665194
376.113780	-2.969800	3.599000	-10.688000	21.712423	3.529610E-5	20.674383
377.113439	-2.997000	3.599300	-10.786000	21.732979	3.245789E-5	20.678834
378.120526	-3.010000	3.599300	-10.833000	21.736871	3.301893E-5	20.685575
379.115306	-2.986700	3.598600	-10.747000	21.749999	3.282091E-5	20.680221
380.121562	-2.984800	3.598300	-10.739000	21.737028	3.222687E-5	20.679094
381.125573	-3.006300	3.597000	-10.813000	21.757594	3.153382E-5	20.684029
382.121091	-3.042600	3.596200	-10.941000	21.742189	3.232588E-5	20.684733
383.122499	-2.984600	3.596900	-10.734000	21.774175	3.169883E-5	20.696833
384.124483	-3.021300	3.595700	-10.863000	21.749183	3.150082E-5	20.679879
385.121560	-2.999400	3.596600	-10.787000	21.758750	3.222687E-5	20.672857
386.123622	-2.988800	3.595300	-10.745000	21.780797	3.430602E-5	20.669319
387.121463	-3.000400	3.595300	-10.786000	21.762504	3.153382E-5	20.697954
388.118269	-2.981700	3.595100	-10.719000	21.785586	3.196285E-5	20.674586
389.121192	-2.980700	3.595600	-10.717000	21.777507	3.001571E-5	20.696848
390.119302	-3.001700	3.595600	-10.792000	21.763335	3.417401E-5	20.678395
391.120545	-2.989900	3.596100	-10.751000	21.787430	3.196285E-5	20.686864
392.120823	-3.016200	3.594400	-10.839000	21.777394	3.219387E-5	20.661170
393.124517	-2.999400	3.593400	-10.778000	21.788301	3.268890E-5	20.671139
394.125100	-3.003900	3.592600	-10.791000	21.788123	3.150082E-5	20.682815
395.126049	-2.983000	3.594400	-10.721000	21.802961	2.965268E-5	20.700988
396.121705	-3.019200	3.592500	-10.845000	21.784898	3.305193E-5	20.666310
397.131785	-3.023600	3.591200	-10.857000	21.772540	3.123680E-5	20.683815
398.129793	-2.988800	3.592300	-10.736000	21.782769	2.958668E-5	20.685518
399.128473	-2.984100	3.593800	-10.723000	21.798581	3.084077E-5	20.689490
400.128726	-3.001500	3.590600	-10.776000	21.772397	2.859660E-5	20.686517
401.126010	-2.982800	3.590600	-10.709000	21.808876	3.087377E-5	20.696001
402.124128	-2.984000	3.591600	-10.717000	21.828335	2.839859E-5	20.689398
403.128952	-2.993300	3.591300	-10.749000	21.821473	3.192985E-5	20.685375
404.129127	-3.016800	3.589200	-10.827000	21.824122	2.922365E-5	20.700356
405.122372	-3.001600	3.590600	-10.777000	21.823225	2.859660E-5	20.673378
406.131987	-3.014700	3.588800	-10.818000	21.811754	2.902563E-5	20.678966
407.126374	-2.983900	3.589400	-10.710000	21.829960	2.922365E-5	20.702880
408.127608	-2.984300	3.589300	-10.710000	21.832033	2.919065E-5	20.688358
409.130607	-2.976600	3.589500	-10.683000	21.852658	2.895963E-5	20.708055
410.128495	-3.005300	3.588600	-10.784000	21.842236	3.057675E-5	20.697623
411.129193	-3.006200	3.587700	-10.785000	21.849367	2.820057E-5	20.679629
412.130295	-3.005800	3.588200	-10.784000	21.863268	2.938866E-5	20.694967
413.136290	-2.997500	3.587200	-10.752000	21.856422	2.760653E-5	20.691907
414.125593	-2.975300	3.586800	-10.671000	21.866650	2.909164E-5	20.712578
415.135239	-3.014300	3.587000	-10.811000	21.880261	2.899263E-5	20.693957
416.124332	-3.012000	3.585500	-10.798000	21.882986	2.763953E-5	20.716127
417.128942	-3.028800	3.585800	-10.859000	21.870608	2.876162E-5	20.692830
418.137053	-3.010800	3.584700	-10.792000	21.879339	2.688048E-5	20.691612
419.131060	-2.991500	3.586100	-10.727000	21.854960	2.869561E-5	20.688073
420.137793	-2.987800	3.585400	-10.712000	21.877352	2.889362E-5	20.695788
421.135156	-2.994900	3.584300	-10.734000	21.892394	2.562638E-5	20.714638
422.135302	-3.010700	3.584800	-10.791000	21.892099	2.645145E-5	20.713394
423.131440	-3.006700	3.584300	-10.776000	21.898399	2.922365E-5	20.707847
424.135881	-3.001500	3.583400	-10.755000	21.916675	2.826658E-5	20.712864
425.133498	-3.000000	3.582700	-10.747000	21.906717	2.757353E-5	20.685351
426.136993	-2.999000	3.582400	-10.743000	21.895578	2.579140E-5	20.688426
427.132544	-3.014300	3.582600	-10.798000	21.923409	2.876162E-5	20.705379
428.135494	-3.014600	3.581900	-10.796000	21.923562	3.153382E-5	20.687987
429.142582	-2.998500	3.581800	-10.739000	21.930947	2.526336E-5	20.702019
430.137465	-3.008600	3.581600	-10.774000	21.928691	2.899263E-5	20.711142
431.142878	-2.997700	3.581100	-10.733000	21.935246	2.684747E-5	20.700633
432.140135	-3.000900	3.581100	-10.745000	21.942194	2.886062E-5	20.711856
433.140633	-3.017100	3.579900	-10.800000	21.967503	2.806856E-5	20.710637
434.136824	-3.021100	3.579200	-10.812000	21.956517	2.688048E-5	20.727616
435.138426	-2.991900	3.580100	-10.711000	21.952942	2.664946E-5	20.712657
436.135402	-2.995200	3.580300	-10.722000	21.956935	2.582440E-5	20.710016
437.140845	-2.982200	3.579600	-10.674000	21.952825	2.747452E-5	20.717282
438.133152	-3.017900	3.577600	-10.796000	21.979248	2.823358E-5	20.705325
439.145012	-3.038800	3.577000	-10.869000	21.949250	2.688048E-5	20.718445
440.138590	-3.015000	3.578900	-10.790000	21.944615	2.625343E-5	20.733246
441.140961	-3.005500	3.578600	-10.755000	21.958311	2.598941E-5	20.708548
442.141965	-3.000100	3.578200	-10.734000	21.965900	2.734251E-5	20.708084
443.141281	-3.006000	3.577200	-10.752000	21.973851	2.671546E-5	20.707034
444.141023	-2.976300	3.578200	-10.649000	21.970917	2.562638E-5	20.729229
445.136921	-2.993800	3.577200	-10.709000	21.983447	2.668246E-5	20.734660
446.146347	-2.987900	3.576300	-10.684000	22.009946	2.559338E-5	20.734160
447.134853	-3.010700	3.574900	-10.762000	21.993893	2.750752E-5	20.738479
448.140676	-2.986600	3.575600	-10.678000	22.023030	2.404227E-5	20.731610
449.146064	-3.006200	3.575200	-10.747000	21.990741	2.384425E-5	20.720623
450.144298	-2.997400	3.574300	-10.713000	21.995620	2.754053E-5	20.714127
451.149974	-3.026500	3.574800	-10.819000	22.000789	2.681447E-5	20.724519
452.140953	-2.985200	3.573900	-10.668000	22.018686	2.585740E-5	20.725365
453.146531	-3.005100	3.572900	-10.735000	22.022949	2.466931E-5	20.737694
454.142787	-3.034400	3.573300	-10.842000	22.022155	2.361324E-5	20.725518
455.146297	-3.004100	3.573700	-10.734000	22.031755	2.460331E-5	20.720904
456.141596	-3.007400	3.573200	-10.745000	22.028990	2.721050E-5	20.738525
457.146106	-3.018000	3.572600	-10.781000	22.038870	2.516435E-5	20.720440
458.148912	-3.021500	3.571900	-10.792000	22.048674	2.417428E-5	20.720298
459.152617	-2.998600	3.572600	-10.712000	22.048343	2.671546E-5	20.754107
460.143155	-3.013600	3.571900	-10.762000	22.046281	2.516435E-5	20.741136
461.145065	-3.023500	3.571500	-10.798000	22.059247	2.506534E-5	20.731831
462.150031	-3.000900	3.572300	-10.720000	22.035744	2.721050E-5	20.752399
463.145262	-2.987300	3.571000	-10.667000	22.053818	2.707849E-5	20.758640
464.145076	-2.995700	3.570000	-10.693000	22.064264	2.711149E-5	20.739224
465.144604	-2.987100	3.569800	-10.663000	22.043358	2.740852E-5	20.733942
466.148679	-3.001200	3.568500	-10.709000	22.050065	2.496634E-5	20.743502
467.144599	-2.993900	3.569900	-10.687000	22.049409	2.618743E-5	20.744742
468.148784	-3.006900	3.568100	-10.728000	22.051970	2.463631E-5	20.747780
469.150162	-2.976400	3.570200	-10.625000	22.063786	2.694648E-5	20.744910
470.152126	-2.995900	3.567800	-10.688000	22.039921	2.539537E-5	20.750417
471.149292	-2.993600	3.569200	-10.684000	22.060043	2.671546E-5	20.749224
472.148035	-2.991600	3.568000	-10.673000	22.060710	2.351423E-5	20.746573
473.157366	-3.002100	3.566700	-10.707000	22.058393	2.341522E-5	20.739037
474.154139	-2.990600	3.567100	-10.667000	22.072546	2.529636E-5	20.751310
475.150194	-3.001000	3.565800	-10.700000	22.063792	2.374525E-5	20.764357
476.151574	-2.979700	3.567300	-10.628000	22.079228	2.605542E-5	20.741403
477.153008	-2.991300	3.566200	-10.667000	22.092041	2.397626E-5	20.770353
478.150460	-2.982900	3.567000	-10.639000	22.087178	2.638544E-5	20.753155
479.152618	-3.005000	3.565800	-10.714000	22.102945	2.556038E-5	20.757087
480.155319	-2.998900	3.564000	-10.687000	22.106541	2.509835E-5	20.764480
481.150294	-2.992700	3.564300	-10.666000	22.104850	2.381125E-5	20.749985
482.153000	-3.016800	3.564100	-10.752000	22.105644	2.483433E-5	20.769747
483.153172	-2.979300	3.564000	-10.617000	22.108756	2.344822E-5	20.756266
484.152238	-3.002300	3.563200	-10.697000	22.114949	2.592341E-5	20.757251
485.151061	-2.982700	3.564300	-10.631000	22.127838	2.361324E-5	20.762094
486.155102	-2.996700	3.564200	-10.681000	22.146207	2.608842E-5	20.771476
487.150247	-2.999700	3.562700	-10.686000	22.156636	2.463631E-5	20.772434
488.152463	-3.001200	3.563000	-10.693000	22.160654	2.457031E-5	20.769345
489.155582	-3.000100	3.562500	-10.687000	22.156942	2.424028E-5	20.768947
490.152386	-3.029800	3.561000	-10.788000	22.158836	2.513135E-5	20.754722
491.154881	-2.993200	3.562900	-10.664000	22.147674	2.542837E-5	20.762039
492.156005	-3.013600	3.560200	-10.727000	22.155904	2.321721E-5	20.788296
493.155599	-3.002900	3.560600	-10.692000	22.152166	2.315120E-5	20.772226
494.157124	-3.016700	3.560800	-10.741000	22.145357	2.397626E-5	20.751184
495.159307	-3.022300	3.559500	-10.756000	22.151295	2.315120E-5	20.756181
496.160357	-3.013700	3.559700	-10.727000	22.165630	2.397626E-5	20.784284
497.162593	-3.015500	3.560800	-10.737000	22.143870	2.219413E-5	20.777197
498.163732	-3.012400	3.558100	-10.718000	22.164719	2.206212E-5	20.769147
499.163415	-3.009900	3.558900	-10.711000	22.178122	2.245815E-5	20.771660
500.159050	-2.996900	3.559100	-10.666000	22.216915	2.526336E-5	20.770672
501.161194	-2.987200	3.559000	-10.630000	22.186657	2.265617E-5	20.769300
502.161694	-3.005300	3.556800	-10.688000	22.188500	2.252416E-5	20.775413
503.158452	-2.995200	3.557800	-10.655000	22.207647	2.387726E-5	20.781307
504.162188	-2.971800	3.558000	-10.573000	22.199953	2.414128E-5	20.779768
505.163802	-3.016400	3.554800	-10.722000	22.225195	2.490033E-5	20.763789
506.160544	-3.002200	3.556200	-10.675000	22.196806	2.552738E-5	20.767133
507.169982	-3.008700	3.556000	-10.698000	22.189356	2.460331E-5	20.770106
508.161140	-2.986800	3.556100	-10.620000	22.203446	2.295319E-5	20.786585
509.167001	-3.004800	3.554800	-10.680000	22.230811	2.463631E-5	20.781267
510.167761	-3.017300	3.555000	-10.725000	22.207632	2.295319E-5	20.788405
511.166367	-3.028600	3.554700	-10.765000	22.235303	2.529636E-5	20.799040
512.165508	-2.993200	3.556000	-10.643000	22.240833	2.437229E-5	20.780395
513.162955	-3.007200	3.554700	-10.689000	22.262423	2.334922E-5	20.771192
514.165235	-3.001800	3.553100	-10.665000	22.248894	2.526336E-5	20.786570
515.169085	-3.002300	3.553200	-10.668000	22.244173	2.427329E-5	20.773782
516.170245	-2.994800	3.553600	-10.641000	22.246566	2.245815E-5	20.779972
517.166075	-2.966600	3.554900	-10.545000	22.251058	2.179810E-5	20.796323
518.165785	-3.004600	3.552400	-10.673000	22.268466	2.288718E-5	20.806167
519.172971	-2.998200	3.550900	-10.645000	22.234763	2.292019E-5	20.777637
520.171789	-3.019700	3.550200	-10.719000	22.255808	2.229314E-5	20.814830
521.165856	-2.998400	3.551400	-10.647000	22.289684	2.582440E-5	20.797541
522.167500	-2.975100	3.552000	-10.567000	22.250049	2.351423E-5	20.789623
523.169771	-3.005400	3.550700	-10.670000	22.279434	2.407527E-5	20.770682
524.171995	-3.025100	3.549500	-10.736000	22.289419	2.209513E-5	20.802017
525.166878	-3.010900	3.550300	-10.689000	22.286476	2.183111E-5	20.790061
526.168653	-3.018800	3.550000	-10.716000	22.290570	2.268917E-5	20.809333
527.171523	-3.007800	3.547500	-10.670000	22.308208	2.268917E-5	20.811347
528.170198	-3.002800	3.550100	-10.660000	22.304266	2.374525E-5	20.782270
529.178056	-2.989200	3.548200	-10.605000	22.283125	2.361324E-5	20.789077
530.177781	-3.002600	3.548200	-10.653000	22.304806	2.282118E-5	20.789449
531.170033	-3.022400	3.546600	-10.719000	22.303604	2.252416E-5	20.794409
532.176956	-3.020600	3.547300	-10.714000	22.302300	2.453730E-5	20.811596
533.174204	-2.992600	3.548300	-10.618000	22.299408	2.315120E-5	20.810122
534.169443	-2.992700	3.547900	-10.616000	22.288237	2.090704E-5	20.805100
535.177577	-2.988700	3.546000	-10.597000	22.301674	2.235914E-5	20.798641
536.177771	-2.989600	3.547500	-10.605000	22.316750	2.196312E-5	20.784814
537.174771	-3.017500	3.547000	-10.702000	22.326006	2.552738E-5	20.811626
538.175167	-3.019200	3.545400	-10.703000	22.315640	2.100605E-5	20.812625
539.172316	-3.024000	3.543500	-10.715000	22.308206	2.384425E-5	20.810397
540.173959	-2.990900	3.545600	-10.603000	22.311032	2.212813E-5	20.815597
541.189185	-2.993500	3.543700	-10.607000	22.298247	2.216113E-5	20.811330
542.173914	-3.008300	3.544200	-10.661000	22.295380	2.245815E-5	20.810830
543.182111	-2.989000	3.543700	-10.591000	22.303547	2.160009E-5	20.807154
544.179543	-2.994400	3.543600	-10.610000	22.295380	2.331622E-5	20.807986
545.182194	-2.982400	3.542600	-10.565000	22.347722	2.189711E-5	20.800654
546.184762	-3.006900	3.543200	-10.653000	22.326990	2.298619E-5	20.795541
547.181136	-2.987000	3.543200	-10.582000	22.329739	2.400927E-5	20.835752
548.185178	-2.997200	3.544100	-10.622000	22.346032	2.298619E-5	20.825040
549.187132	-3.014200	3.541600	-10.674000	22.361989	2.341522E-5	20.804035
550.181130	-3.003300	3.541900	-10.637000	22.354235	2.252416E-5	20.799589
551.182874	-2.998400	3.541100	-10.616000	22.363970	2.506534E-5	20.827829
552.187371	-3.009500	3.541600	-10.658000	22.358583	2.249115E-5	20.826702
553.182099	-3.006200	3.539700	-10.640000	22.386520	2.156709E-5	20.830970
554.177567	-3.013800	3.540500	-10.670000	22.383435	2.242515E-5	20.815553
555.186766	-2.995700	3.540400	-10.605000	22.406789	1.968595E-5	20.811438
556.185133	-3.008000	3.539000	-10.645000	22.413443	2.318421E-5	20.830904
557.181823	-2.974200	3.539900	-10.527000	22.419059	2.315120E-5	20.827519
558.182746	-2.984800	3.539800	-10.565000	22.406789	2.189711E-5	20.813335
559.183733	-3.003500	3.538700	-10.628000	22.400313	2.163309E-5	20.817281
560.187147	-3.000100	3.537800	-10.613000	22.395130	2.341522E-5	20.810669
561.185398	-3.020100	3.537300	-10.682000	22.394117	2.292019E-5	20.836680
562.180481	-2.989100	3.536800	-10.571000	22.428885	2.311820E-5	20.829298
563.180060	-3.006300	3.536800	-10.631000	22.426824	1.889389E-5	20.824389
564.186318	-3.014000	3.537700	-10.662000	22.433824	2.127006E-5	20.819545
565.185047	-3.008700	3.536200	-10.639000	22.431212	2.196312E-5	20.827361
566.187000	-2.984900	3.535800	-10.553000	22.440769	2.232614E-5	20.819862
567.184779	-3.001600	3.535000	-10.609000	22.442087	2.245815E-5	20.835881
568.183534	-2.996900	3.535700	-10.595000	22.429879	2.216113E-5	20.821759
569.181653	-3.011400	3.535300	-10.645000	22.410889	2.272217E-5	20.835932
570.181787	-2.995700	3.534900	-10.588000	22.441111	2.186411E-5	20.842489
571.187542	-3.007400	3.534100	-10.628000	22.439639	2.189711E-5	20.848128
572.184339	-2.999300	3.535600	-10.603000	22.462071	2.480132E-5	20.850677
573.189011	-2.980200	3.535500	-10.535000	22.470400	2.216113E-5	20.829621
574.185176	-2.972400	3.534400	-10.505000	22.463476	2.275517E-5	20.835964
575.189903	-2.988800	3.533000	-10.559000	22.454695	2.480132E-5	20.848032
576.192870	-3.029900	3.531800	-10.701000	22.438393	2.400927E-5	20.847354
577.187391	-3.018600	3.532400	-10.662000	22.459287	2.457031E-5	20.829872
578.183949	-3.010100	3.532000	-10.630000	22.458416	2.318421E-5	20.851285
579.188286	-2.983500	3.531900	-10.536000	22.466003	2.384425E-5	20.820002
580.187358	-3.006000	3.530600	-10.611000	22.479336	2.229314E-5	20.848053
581.185885	-2.999700	3.531000	-10.591000	22.473833	2.414128E-5	20.847757
582.185015	-3.014500	3.529000	-10.637000	22.472591	2.235914E-5	20.841298
583.183203	-2.992000	3.530400	-10.562000	22.488765	2.318421E-5	20.837108
584.183922	-2.996100	3.529000	-10.572000	22.502775	2.252416E-5	20.862991
585.183808	-3.015200	3.528800	-10.639000	22.509424	2.496634E-5	20.863961
586.186903	-2.998600	3.529900	-10.584000	22.533534	2.130307E-5	20.871037
587.185106	-3.002000	3.529000	-10.593000	22.532638	2.216113E-5	20.855915
588.184367	-3.029500	3.529300	-10.691000	22.545457	2.235914E-5	20.857374
589.188596	-2.997500	3.528700	-10.576000	22.561171	2.305220E-5	20.846560
590.189244	-2.984200	3.527200	-10.524000	22.556819	2.239215E-5	20.847417
591.189279	-2.998900	3.527700	-10.578000	22.549732	2.051101E-5	20.832260
592.191694	-2.992000	3.528300	-10.556000	22.535591	2.186411E-5	20.870726
593.189023	-2.991500	3.527500	-10.551000	22.538472	2.044500E-5	20.865551
594.190114	-3.011100	3.526500	-10.618000	22.549987	2.021399E-5	20.870445
595.195977	-2.988600	3.525700	-10.536000	22.525511	2.103905E-5	20.870114
596.192296	-2.989500	3.525200	-10.538000	22.553341	2.084103E-5	20.853891
597.186431	-3.020600	3.525200	-10.647000	22.562122	2.166609E-5	20.857944
598.194240	-2.986300	3.525500	-10.527000	22.552679	2.179810E-5	20.831892
599.188049	-3.026900	3.525500	-10.670000	22.559846	1.942193E-5	20.837648
600.190607	-3.005500	3.523800	-10.590000	22.557647	2.206212E-5	20.838764
601.188005	-3.015700	3.522700	-10.622000	22.541474	2.275517E-5	20.849118
602.190326	-2.999700	3.523300	-10.568000	22.539737	2.311820E-5	20.830310
603.193379	-2.994500	3.523000	-10.549000	22.560630	2.153408E-5	20.838906
604.193126	-3.002200	3.521600	-10.572000	22.561693	2.202912E-5	20.821954
605.191947	-2.999200	3.522700	-10.564000	22.542440	2.216113E-5	20.828750
606.189634	-2.977000	3.523500	-10.488000	22.560558	2.146808E-5	20.824610
607.188190	-3.002400	3.522900	-10.577000	22.558435	2.404227E-5	20.831967
608.194388	-3.007700	3.522000	-10.592000	22.574062	1.938893E-5	20.804945
609.187050	-2.994400	3.521600	-10.545000	22.606494	2.301919E-5	20.836478
610.189097	-3.006000	3.521800	-10.586000	22.597081	2.011498E-5	20.830844
611.191201	-3.012800	3.520300	-10.605000	22.575125	2.156709E-5	20.828295
612.193216	-2.980000	3.520600	-10.490000	22.600908	2.523036E-5	20.830884
613.189023	-3.007500	3.520300	-10.586000	22.613283	2.397626E-5	20.815778
614.193697	-3.021300	3.519200	-10.632000	22.611175	2.206212E-5	20.830736
615.189339	-2.996500	3.520700	-10.549000	22.609791	2.117106E-5	20.816073
616.192837	-3.018800	3.518900	-10.622000	22.598917	2.100605E-5	20.824149
617.195238	-2.976600	3.520200	-10.478000	22.574045	2.169910E-5	20.812988
618.189913	-3.018300	3.517800	-10.617000	22.604256	2.107205E-5	20.806737
619.196216	-3.008400	3.517900	-10.582000	22.587982	1.988396E-5	20.816042
620.196682	-3.010300	3.517300	-10.587000	22.590543	2.047801E-5	20.820028
621.194906	-2.992900	3.517200	-10.525000	22.611627	1.968595E-5	20.810326
622.196882	-2.990800	3.517100	-10.518000	22.570791	2.301919E-5	20.802143
623.194131	-3.005300	3.516800	-10.568000	22.587452	2.123706E-5	20.802708
624.192646	-3.005200	3.516900	-10.568000	22.618875	2.084103E-5	20.814741
625.199768	-3.007200	3.516400	-10.573000	22.610715	2.275517E-5	20.792817
626.195988	-2.983400	3.515300	-10.487000	22.592674	2.021399E-5	20.820741
627.197395	-2.994600	3.516100	-10.529000	22.599892	2.242515E-5	20.789090
628.197913	-2.990300	3.516600	-10.515000	22.609696	2.090704E-5	20.811237
629.194914	-2.982600	3.514300	-10.480000	22.601211	2.064302E-5	20.823127
630.198822	-3.020700	3.515100	-10.617000	22.630907	2.169910E-5	20.809249
631.202455	-3.031400	3.513800	-10.650000	22.635157	2.381125E-5	20.805919
632.201221	-3.009800	3.514000	-10.576000	22.644447	2.222714E-5	20.815698
633.194882	-2.965900	3.515200	-10.425000	22.672839	2.011498E-5	20.819480
634.199370	-3.023200	3.512700	-10.619000	22.675049	2.004897E-5	20.810314
635.198822	-2.996100	3.513300	-10.525000	22.649094	2.031299E-5	20.815137
636.201007	-2.977300	3.513500	-10.460000	22.632576	1.925692E-5	20.807601
637.199718	-2.998800	3.512900	-10.534000	22.664766	1.945493E-5	20.783894
638.198607	-3.005600	3.511700	-10.554000	22.655823	2.140207E-5	20.812394
639.202065	-3.002300	3.510100	-10.538000	22.695999	2.027999E-5	20.793366
640.197823	-3.003000	3.512600	-10.547000	22.670640	2.348123E-5	20.786458
641.196792	-3.006300	3.510400	-10.553000	22.678102	2.130307E-5	20.790613
642.197564	-3.002400	3.510400	-10.538000	22.696538	2.027999E-5	20.815717
643.199590	-3.022500	3.509400	-10.606000	22.702182	2.113806E-5	20.773007
644.206002	-3.012800	3.509300	-10.572000	22.676020	1.826684E-5	20.804648
645.197748	-2.998700	3.509800	-10.524000	22.673205	2.311820E-5	20.791398
646.200289	-3.031800	3.507200	-10.632000	22.687202	2.189711E-5	20.814901
647.204778	-2.993900	3.508700	-10.503000	22.698090	2.084103E-5	20.794513
648.199101	-3.000600	3.508700	-10.528000	22.676472	2.070902E-5	20.793722
649.206985	-3.005100	3.508500	-10.543000	22.669270	1.935592E-5	20.791723
650.205046	-3.010700	3.506800	-10.557000	22.677984	1.876188E-5	20.799503
651.198110	-2.995200	3.507000	-10.504000	22.704289	2.166609E-5	20.809256
652.206170	-2.993500	3.508400	-10.502000	22.715089	2.143508E-5	20.780246
653.203291	-3.011000	3.506700	-10.557000	22.723263	2.021399E-5	20.774209
654.194839	-2.984100	3.506700	-10.463000	22.709281	1.971895E-5	20.779170
655.206563	-3.000000	3.505200	-10.514000	22.713709	2.173210E-5	20.770803
656.201280	-3.011400	3.505700	-10.555000	22.732873	2.130307E-5	20.781464
657.200937	-3.009600	3.505100	-10.548000	22.746691	1.928992E-5	20.783453
658.199512	-3.000500	3.506100	-10.519000	22.752809	1.876188E-5	20.777252
659.197019	-3.011000	3.504700	-10.551000	22.772714	2.196312E-5	20.768269
660.195710	-3.014500	3.503500	-10.560000	22.776013	2.133607E-5	20.797178
661.203025	-2.994800	3.504700	-10.495000	22.768327	2.090704E-5	20.786160
662.205796	-3.030600	3.502900	-10.615000	22.745709	1.958694E-5	20.771563
663.200928	-3.012800	3.503500	-10.553000	22.746157	2.044500E-5	20.785288
664.200418	-2.998100	3.503000	-10.501000	22.739596	1.796982E-5	20.770181
665.203781	-3.013900	3.502400	-10.555000	22.741922	2.080803E-5	20.782468
666.203915	-2.991300	3.503600	-10.478000	22.749663	1.915791E-5	20.758928
667.202989	-3.013500	3.502600	-10.554000	22.744370	1.836585E-5	20.743668
668.209345	-2.996700	3.501900	-10.493000	22.723553	1.945493E-5	20.776870
669.203358	-3.002800	3.501000	-10.512000	22.731589	2.262316E-5	20.769747
670.209038	-3.005000	3.501800	-10.522000	22.754605	2.001597E-5	20.760085
671.206965	-2.984000	3.501400	-10.448000	22.754493	1.922391E-5	20.777517
672.213315	-2.998200	3.500900	-10.496000	22.741392	2.232614E-5	20.777196
673.210924	-3.018600	3.499600	-10.563000	22.750477	1.882789E-5	20.778710
674.216864	-2.992700	3.501500	-10.478000	22.782002	2.011498E-5	20.769037
675.209910	-2.990700	3.501600	-10.472000	22.783218	1.932292E-5	20.771678
676.208186	-2.982900	3.500900	-10.442000	22.772372	1.777181E-5	20.771245
677.211877	-2.980500	3.499900	-10.431000	22.767689	1.793682E-5	20.772718
678.207851	-2.991300	3.500100	-10.469000	22.794007	1.777181E-5	20.755459
679.211269	-3.023800	3.498300	-10.577000	22.788226	1.816784E-5	20.768634
680.221241	-3.010700	3.497700	-10.529000	22.786882	1.836585E-5	20.762072
681.213311	-2.984000	3.498700	-10.439000	22.762441	2.037900E-5	20.763193
682.215075	-2.978000	3.498600	-10.418000	22.780672	1.684774E-5	20.763912
683.214586	-3.002800	3.497500	-10.501000	22.770004	1.747479E-5	20.771718
684.210920	-3.005200	3.495900	-10.504000	22.815983	1.790382E-5	20.745705
685.207479	-2.996500	3.497000	-10.478000	22.815000	1.582466E-5	20.756575
686.219367	-2.987800	3.496000	-10.445000	22.834446	1.763980E-5	20.758512
687.211303	-2.996400	3.496300	-10.476000	22.807778	1.760680E-5	20.760245
688.213213	-2.998000	3.495500	-10.478000	22.807778	1.750779E-5	20.756926
689.218157	-3.016400	3.494200	-10.539000	22.788962	1.612169E-5	20.740447
690.210814	-3.014600	3.494800	-10.534000	22.798469	1.681474E-5	20.751868
691.214365	-2.979900	3.494800	-10.413000	22.803767	1.796982E-5	20.748166
692.211437	-3.015400	3.493500	-10.534000	22.793598	1.787081E-5	20.747463
693.207598	-2.991900	3.493500	-10.452000	22.814770	1.796982E-5	20.755396
694.208884	-2.992900	3.493400	-10.454000	22.830827	1.645171E-5	20.752515
695.212097	-3.002400	3.493900	-10.489000	22.864345	1.595667E-5	20.749583
696.210359	-3.004600	3.492700	-10.493000	22.849749	1.770580E-5	20.751082
697.211652	-3.001300	3.492200	-10.480000	22.832659	1.631970E-5	20.754350
698.212247	-3.000300	3.493900	-10.481000	22.849087	1.628670E-5	20.740462
699.209374	-2.996600	3.491700	-10.462000	22.845942	1.552764E-5	20.742526
700.210589	-2.982100	3.492800	-10.415000	22.853632	1.727677E-5	20.753550
701.217415	-2.991800	3.491200	-10.444000	22.852812	1.532963E-5	20.739926
702.213088	-2.995900	3.490900	-10.458000	22.848848	1.635270E-5	20.745912
703.210731	-3.022800	3.490700	-10.551000	22.845270	1.645171E-5	20.727153
704.219779	-3.010400	3.490100	-10.506000	22.823034	1.671573E-5	20.731431
705.212226	-2.996500	3.489700	-10.455000	22.831747	1.457057E-5	20.738738
706.211431	-2.989600	3.491800	-10.438000	22.838643	1.694675E-5	20.719567
707.220164	-2.998500	3.489900	-10.463000	22.826811	1.460357E-5	20.755604
708.218821	-2.981300	3.489600	-10.403000	22.823599	1.622069E-5	20.746223
709.217125	-2.988900	3.489100	-10.428000	22.843300	1.556064E-5	20.730396
710.222653	-3.004000	3.489300	-10.480000	22.811446	1.711176E-5	20.734995
711.220114	-3.007400	3.489400	-10.493000	22.858843	1.466958E-5	20.754029
712.214010	-3.022200	3.487900	-10.540000	22.862207	1.582466E-5	20.736535
713.225781	-2.990800	3.488800	-10.434000	22.864563	1.605568E-5	20.732257
714.218034	-3.011100	3.487900	-10.501000	22.876227	1.833285E-5	20.741098
715.221966	-2.983600	3.487000	-10.403000	22.877097	1.899290E-5	20.756670
716.226467	-3.016000	3.487000	-10.516000	22.878186	1.523062E-5	20.753019
717.223361	-2.980700	3.487100	-10.393000	22.897820	1.572566E-5	20.739497
718.223526	-2.991400	3.486800	-10.429000	22.920843	1.348149E-5	20.736484
719.226831	-3.002800	3.487600	-10.472000	22.903306	1.391052E-5	20.749735
720.221884	-3.005200	3.485400	-10.472000	22.890813	1.671573E-5	20.727260
721.218296	-2.978900	3.484900	-10.380000	22.877739	1.572566E-5	20.740716
722.227250	-3.013300	3.485200	-10.501000	22.884863	1.579166E-5	20.712290
723.218812	-2.995300	3.485500	-10.439000	22.875092	1.476859E-5	20.742806
724.222820	-2.982300	3.483900	-10.389000	22.870334	1.440556E-5	20.746100
725.223962	-3.016200	3.483400	-10.506000	22.924339	1.750779E-5	20.726710
726.225371	-3.019200	3.483200	-10.515000	22.954704	1.602268E-5	20.757608
727.226454	-2.994200	3.484600	-10.433000	22.949564	1.519762E-5	20.740129
728.221950	-3.007800	3.483400	-10.476000	22.946801	1.572566E-5	20.737361
729.227158	-2.973900	3.484200	-10.359000	22.932847	1.384452E-5	20.721009
730.221156	-2.993200	3.482600	-10.424000	22.924369	1.381152E-5	20.712514
731.220666	-2.995700	3.483800	-10.435000	22.930857	1.443856E-5	20.728499
732.226447	-3.012300	3.481800	-10.487000	22.934735	1.453757E-5	20.721952
733.227507	-3.003300	3.481800	-10.456000	22.949162	1.483459E-5	20.730243
734.229096	-3.016300	3.481000	-10.499000	22.937142	1.410854E-5	20.720570
735.230778	-3.018200	3.481200	-10.506000	22.948897	1.410854E-5	20.704371
736.225277	-3.001100	3.480100	-10.444000	22.946047	1.506561E-5	20.719535
737.228133	-2.986600	3.481100	-10.396000	22.941925	1.562665E-5	20.715879
738.229558	-2.985400	3.481600	-10.393000	22.968331	1.400953E-5	20.718627
739.223906	-3.005000	3.480400	-10.458000	22.965578	1.552764E-5	20.744320
740.230173	-3.023300	3.480100	-10.520000	22.963649	1.311847E-5	20.707772
741.228050	-2.981700	3.480900	-10.377000	22.927824	1.259043E-5	20.730201
742.228757	-3.006800	3.479400	-10.460000	22.940821	1.549464E-5	20.714773
743.228825	-3.005400	3.478500	-10.454000	22.925524	1.374551E-5	20.707507
744.233591	-2.999000	3.479800	-10.435000	22.934847	1.473558E-5	20.713054
745.224843	-3.015300	3.478200	-10.487000	22.933045	1.245842E-5	20.716465
746.229897	-3.023800	3.477100	-10.514000	22.934093	1.674873E-5	20.719887
747.231727	-2.993200	3.478700	-10.412000	22.962581	1.334948E-5	20.722349
748.228134	-2.982400	3.478400	-10.373000	22.969359	1.268943E-5	20.708277
749.229462	-3.023300	3.476700	-10.510000	22.947874	1.226040E-5	20.731323
750.230801	-3.009200	3.476600	-10.461000	22.961227	1.176537E-5	20.721467
751.230716	-3.009800	3.477300	-10.465000	22.969374	1.216140E-5	20.697385
752.231497	-2.997800	3.476400	-10.421000	22.995250	1.460357E-5	20.704820
753.235576	-3.003100	3.476200	-10.438000	23.006144	1.232641E-5	20.723323
754.232842	-3.007900	3.476000	-10.455000	22.984365	1.176537E-5	20.685852
755.236011	-2.998700	3.476000	-10.422000	22.981907	1.334948E-5	20.688131
756.234105	-2.991600	3.475100	-10.395000	23.003524	1.595667E-5	20.704575
757.230688	-2.986800	3.474500	-10.377000	23.013116	1.351449E-5	20.708970
758.235424	-3.005800	3.473100	-10.438000	23.014907	1.559365E-5	20.730681
759.235760	-3.003900	3.474500	-10.436000	22.988212	1.354750E-5	20.718632
760.230969	-2.984900	3.475200	-10.373000	22.988864	1.358050E-5	20.690359
761.235594	-3.004700	3.472800	-10.434000	22.995347	1.232641E-5	20.692588
762.234882	-3.010100	3.472800	-10.453000	23.025125	1.377851E-5	20.706778
763.235611	-3.007800	3.473700	-10.448000	23.033358	1.377851E-5	20.706492
764.235850	-3.011200	3.473100	-10.458000	23.020850	1.140234E-5	20.727627
765.234375	-3.003600	3.473700	-10.433000	23.064397	1.067629E-5	20.710566
766.230877	-3.002100	3.472900	-10.424000	23.055574	1.480159E-5	20.701725
767.234849	-2.998700	3.472500	-10.412000	23.074807	1.143534E-5	20.694444
768.236102	-3.009300	3.471000	-10.444000	23.060983	1.064328E-5	20.705248
769.239502	-3.008100	3.471900	-10.443000	23.074884	1.021425E-5	20.693098
770.242432	-3.016800	3.471100	-10.471000	23.066967	1.160035E-5	20.718357
771.240152	-2.985900	3.470500	-10.361000	23.095181	1.018125E-5	20.715808
772.241183	-2.991300	3.471600	-10.384000	23.085193	1.064328E-5	20.702005
773.236981	-3.018800	3.470300	-10.476000	23.084516	1.301946E-5	20.700379
774.233102	-2.988100	3.470100	-10.368000	23.071699	1.249142E-5	20.696070
775.233401	-2.994200	3.470200	-10.390000	23.091716	1.097331E-5	20.688152
776.235759	-2.960700	3.469200	-10.271000	23.059436	8.927157E-6	20.722191
777.237010	-2.999600	3.468800	-10.404000	23.035709	1.133633E-5	20.687035
778.241966	-2.962000	3.470400	-10.279000	23.042054	1.334948E-5	20.688651
779.237252	-2.978300	3.470300	-10.334000	23.074894	1.090730E-5	20.694056
780.239193	-2.978500	3.469000	-10.331000	23.039057	1.070929E-5	20.687545
781.234943	-2.993300	3.468400	-10.381000	23.091675	1.173236E-5	20.680050
782.234060	-2.996700	3.468100	-10.392000	23.088373	1.206239E-5	20.692863
783.237833	-3.007200	3.467400	-10.426000	23.108837	1.064328E-5	20.708629
784.231136	-3.005500	3.466900	-10.419000	23.113427	1.282144E-5	20.702796
785.241631	-3.011100	3.466400	-10.437000	23.089675	1.364650E-5	20.695591
786.239207	-2.993300	3.467400	-10.377000	23.120077	1.146834E-5	20.689070
787.238891	-2.986400	3.467400	-10.354000	23.117553	1.252442E-5	20.720682
788.236246	-2.992900	3.467200	-10.375000	23.142698	9.917230E-6	20.705575
789.246154	-2.987300	3.466400	-10.355000	23.108807	1.136934E-5	20.706702
790.241080	-3.019200	3.464900	-10.460000	23.120596	1.186437E-5	20.688642
791.248038	-3.032700	3.465400	-10.508000	23.140775	1.166636E-5	20.708864
792.241487	-2.998700	3.464100	-10.387000	23.130355	1.292045E-5	20.687040
793.237484	-2.994800	3.464900	-10.375000	23.145853	1.100631E-5	20.683604
794.244252	-3.009700	3.465000	-10.428000	23.151938	9.158174E-6	20.681641
795.252920	-2.974600	3.465500	-10.308000	23.151694	1.146834E-5	20.698467
796.244746	-2.986800	3.465300	-10.349000	23.149277	1.179837E-5	20.682768
797.247941	-3.032600	3.463500	-10.502000	23.149440	1.097331E-5	20.688147
798.247384	-3.007500	3.463700	-10.417000	23.163879	8.432121E-6	20.695979
799.244444	-3.003900	3.464300	-10.406000	23.179682	8.366116E-6	20.704229
800.245810	-2.999900	3.463200	-10.389000	23.190193	1.054428E-5	20.680621
801.247089	-2.992900	3.463300	-10.364000	23.185309	1.057728E-5	20.690901
802.244442	-3.005100	3.462800	-10.406000	23.157800	9.323186E-6	20.700318
803.251375	-2.994300	3.462100	-10.366000	23.186393	1.014825E-5	20.702419
804.252537	-2.998300	3.462600	-10.381000	23.176686	1.097331E-5	20.693639
805.246745	-2.997400	3.463000	-10.379000	23.170418	1.028026E-5	20.674554
806.247930	-2.996200	3.461600	-10.370000	23.168983	9.719215E-6	20.694455
807.248719	-3.000900	3.461400	-10.386000	23.142842	1.024725E-5	20.697657
808.253341	-3.030900	3.460800	-10.488000	23.159942	7.574058E-6	20.695827
809.246407	-2.975200	3.460300	-10.294000	23.146322	9.521201E-6	20.685971
810.249557	-2.984200	3.461800	-10.330000	23.142201	8.135099E-6	20.695592
811.247098	-3.030900	3.459500	-10.484000	23.169375	1.028026E-5	20.705754
812.248289	-3.019500	3.458900	-10.443000	23.151267	8.168101E-6	20.704679
813.251225	-3.003100	3.460200	-10.390000	23.204760	9.785220E-6	20.699488
814.250926	-3.015400	3.457600	-10.424000	23.214528	9.521201E-6	20.687939
815.248095	-2.955000	3.460200	-10.224000	23.217866	9.026164E-6	20.705984
816.255658	-3.003900	3.458300	-10.388000	23.220908	9.752218E-6	20.702394
817.254395	-2.997400	3.458800	-10.367000	23.240821	7.574058E-6	20.708125
818.248954	-3.008200	3.457000	-10.398000	23.220399	7.970087E-6	20.697617
819.253990	-3.029300	3.456500	-10.469000	23.226459	5.296890E-6	20.703215
820.255634	-3.009100	3.456900	-10.401000	23.255259	8.696140E-6	20.704577
821.251678	-3.007300	3.456400	-10.394000	23.245094	9.059167E-6	20.689647
822.258093	-2.994500	3.457100	-10.351000	23.253417	6.121951E-6	20.711740
823.255460	-3.014900	3.454900	-10.415000	23.247073	7.541055E-6	20.685940
824.252677	-2.998900	3.456800	-10.366000	23.224927	7.475050E-6	20.704526
825.256898	-2.998200	3.456700	-10.362000	23.229542	6.022943E-6	20.699192
826.259377	-3.002800	3.455800	-10.376000	23.246753	8.201104E-6	20.700319
827.255594	-3.007900	3.455500	-10.393000	23.230692	6.022943E-6	20.706983
828.255946	-2.970700	3.456300	-10.267000	23.217800	7.343041E-6	20.708763
829.259181	-3.001500	3.454400	-10.368000	23.215831	6.583985E-6	20.693987
830.259712	-2.974600	3.456000	-10.280000	23.233923	6.715994E-6	20.702160
831.259365	-3.022500	3.454300	-10.440000	23.278051	4.636841E-6	20.699443
832.264332	-3.017200	3.452500	-10.416000	23.278356	3.547761E-6	20.711129
833.262088	-2.989000	3.455300	-10.327000	23.282039	5.857931E-6	20.708656
834.264401	-2.991900	3.454200	-10.334000	23.238578	4.900861E-6	20.697342
835.266598	-3.015700	3.452300	-10.410000	23.235993	4.438827E-6	20.718935
836.258920	-3.011600	3.453300	-10.399000	23.243665	4.570836E-6	20.706708
837.257679	-2.986500	3.453900	-10.314000	23.263379	9.092169E-6	20.715560
838.266122	-3.012100	3.452600	-10.399000	23.295566	4.867858E-6	20.714153
839.262156	-2.971700	3.453900	-10.262000	23.287371	5.329892E-6	20.708784
840.261815	-2.991500	3.453000	-10.329000	23.270979	4.141805E-6	20.702313
841.262858	-3.017600	3.451300	-10.414000	23.292178	5.065873E-6	20.697954
842.258460	-2.992600	3.451800	-10.329000	23.303660	4.042798E-6	20.713730
843.261254	-3.014700	3.451000	-10.403000	23.339641	1.534613E-6	20.708065
844.266048	-2.981900	3.451100	-10.290000	23.344515	4.999868E-6	20.702991
845.259627	-2.980500	3.451800	-10.287000	23.327188	5.296890E-6	20.724983
846.263754	-2.993200	3.450600	-10.327000	23.307689	5.428900E-6	20.704491
847.263326	-3.016100	3.450600	-10.406000	23.286832	5.362895E-6	20.711563
848.266395	-3.005000	3.450000	-10.367000	23.294427	3.580764E-6	20.706846
849.262733	-3.002300	3.449000	-10.354000	23.308585	5.065873E-6	20.712975
850.259286	-2.995200	3.449800	-10.332000	23.333404	7.046019E-6	20.699443
851.264416	-3.004000	3.449300	-10.361000	23.357059	3.646768E-6	20.712720
852.263484	-2.994000	3.447800	-10.322000	23.329070	6.121951E-6	20.724024
853.264916	-3.008500	3.448600	-10.373000	23.329289	3.217737E-6	20.702905
854.260288	-2.992400	3.449100	-10.320000	23.343304	2.425679E-6	20.711736
855.267719	-3.017300	3.448600	-10.404000	23.295943	4.042798E-6	20.707891
856.265779	-3.005100	3.448400	-10.362000	23.282059	3.811781E-6	20.713892
857.264650	-3.002300	3.449300	-10.355000	23.282507	1.666623E-6	20.714341
858.264860	-2.991000	3.448900	-10.314000	23.316790	4.504832E-6	20.737321
859.267909	-2.997100	3.448100	-10.333000	23.331852	2.260666E-6	20.695990
860.266903	-3.009000	3.447800	-10.374000	23.354383	5.362895E-6	20.728056
861.266285	-2.989200	3.446600	-10.302000	23.347251	3.382749E-6	20.712847
862.263524	-3.004700	3.446400	-10.355000	23.332956	8.250607E-8	20.721754
863.263603	-3.011700	3.446500	-10.379000	23.342932	4.108802E-6	20.715630
864.272970	-2.997900	3.446300	-10.331000	23.350959	3.415751E-6	20.704235
865.270967	-2.969100	3.447200	-10.234000	23.360680	1.765630E-6	20.728204
866.268795	-2.995200	3.445200	-10.318000	23.365909	5.775425E-7	20.711159
867.276064	-2.992500	3.444400	-10.306000	23.366754	1.798632E-6	20.724334
868.263259	-3.005300	3.444900	-10.352000	23.334802	5.857931E-6	20.716492
869.274014	-2.991700	3.444500	-10.304000	23.363111	2.722700E-6	20.702664
870.268006	-3.009100	3.444700	-10.365000	23.386063	2.161659E-6	20.706702
871.262792	-2.994900	3.443500	-10.313000	23.413679	3.085727E-6	20.717313
872.264255	-2.974600	3.445400	-10.248000	23.394284	1.996647E-6	20.731538
873.270381	-2.981000	3.444400	-10.267000	23.375798	3.316744E-6	20.712535
874.268046	-2.998000	3.443800	-10.323000	23.346823	2.557688E-6	20.731385
875.269009	-2.991100	3.444400	-10.302000	23.343669	3.712773E-6	20.724905
876.265362	-2.997500	3.443300	-10.320000	23.371220	1.765630E-6	20.743036
877.264652	-2.979400	3.443200	-10.258000	23.394975	2.326671E-6	20.731283
878.271872	-2.979600	3.441300	-10.253000	23.390784	1.963645E-6	20.730401
879.267406	-3.013000	3.442200	-10.370000	23.402392	2.590691E-6	20.724492
880.274770	-3.011500	3.442500	-10.366000	23.415373	6.105450E-7	20.713320
881.267645	-3.010700	3.442000	-10.361000	23.432067	-3.465255E-7	20.740961
882.275346	-2.999100	3.441100	-10.319000	23.434270	2.293669E-6	20.737478
883.274210	-2.989900	3.441900	-10.290000	23.425496	1.815134E-7	20.741960
884.274393	-2.992600	3.440700	-10.296000	23.399619	8.250607E-8	20.720764
885.268908	-2.988000	3.440200	-10.279000	23.439189	4.785352E-7	20.722493
886.272810	-3.001500	3.439800	-10.324000	23.452627	2.062652E-6	20.731222
887.271756	-2.999800	3.439900	-10.317000	23.459199	-2.475182E-7	20.749190
888.267922	-3.004400	3.440700	-10.336000	23.451503	-2.194662E-6	20.728198
889.269367	-3.000400	3.440100	-10.321000	23.443141	-2.029649E-6	20.751586
890.266414	-3.017600	3.439000	-10.377000	23.421395	-7.095522E-7	20.726944
891.275902	-3.004100	3.439300	-10.332000	23.388215	-4.785352E-7	20.742052
892.276183	-3.014900	3.438000	-10.363000	23.396104	-1.666623E-6	20.722931
893.272810	-3.004300	3.437300	-10.326000	23.418466	1.485109E-7	20.730172
894.273286	-3.003600	3.438900	-10.328000	23.420307	-8.415620E-7	20.721585
895.274558	-2.999800	3.438700	-10.314000	23.402844	-4.455328E-7	20.737274
896.275137	-2.988800	3.437800	-10.274000	23.399930	-8.415620E-7	20.736723
897.269444	-3.017400	3.437700	-10.372000	23.406669	-5.445401E-7	20.731150
898.271896	-2.989000	3.437100	-10.272000	23.415658	-1.435606E-6	20.746324
899.274477	-3.003500	3.436300	-10.320000	23.428059	-1.864637E-6	20.744055
900.273387	-2.987500	3.436500	-10.265000	23.450348	-8.085595E-7	20.735576
901.276182	-2.989600	3.435700	-10.271000	23.433252	-7.425547E-7	20.739777
902.272777	-3.012100	3.435600	-10.347000	23.444850	5.445401E-7	20.752350
903.267902	-2.993000	3.436300	-10.284000	23.468242	-2.194662E-6	20.737865
904.274633	-2.991600	3.434900	-10.275000	23.493867	-2.128657E-6	20.743637
905.272098	-3.005300	3.434700	-10.322000	23.518861	3.795279E-7	20.760630
906.268484	-2.994500	3.434900	-10.285000	23.538407	-1.996647E-6	20.752723
907.275450	-2.994800	3.434100	-10.284000	23.540442	6.765498E-7	20.729631
908.271801	-3.009000	3.434300	-10.333000	23.552394	-8.745644E-7	20.740190
909.268823	-2.974600	3.434000	-10.214000	23.565267	-2.128657E-6	20.756888
910.272807	-2.978300	3.433600	-10.226000	23.569127	-2.095654E-6	20.764077
911.271786	-3.000700	3.434500	-10.304000	23.566187	-2.755703E-6	20.749750
912.274097	-3.000300	3.434100	-10.302000	23.581669	-2.788705E-6	20.737294
913.277272	-3.013500	3.434100	-10.347000	23.553188	-1.633620E-6	20.744305
914.275929	-3.007200	3.432800	-10.322000	23.557333	-2.145158E-7	20.735657
915.274873	-3.005900	3.433600	-10.321000	23.566686	-1.237591E-6	20.728912
916.280127	-3.002300	3.433100	-10.306000	23.586221	-8.745644E-7	20.722890
917.273477	-2.995100	3.432600	-10.280000	23.581989	-2.623693E-6	20.760376
918.275002	-2.974200	3.432700	-10.209000	23.554296	-1.831635E-6	20.743045
919.274523	-3.007500	3.430500	-10.315000	23.526725	-1.039577E-6	20.763297
920.277995	-3.002900	3.432600	-10.307000	23.531953	-4.438827E-6	20.757158
921.276329	-3.013200	3.431700	-10.340000	23.552816	-3.382749E-6	20.764796
922.278904	-2.997600	3.431200	-10.284000	23.577488	-2.260666E-6	20.750647
923.278478	-2.999800	3.431300	-10.292000	23.590885	-2.805207E-7	20.737998
924.275215	-3.017400	3.429000	-10.346000	23.582691	-1.336598E-6	20.748277
925.275281	-3.000500	3.430200	-10.291000	23.603142	-1.633620E-6	20.761191
926.279946	-3.013000	3.430300	-10.334000	23.557938	-2.854710E-6	20.766611
927.280919	-2.973800	3.428900	-10.196000	23.564001	-1.963645E-6	20.749929
928.276766	-2.991700	3.429800	-10.260000	23.567632	-2.425679E-6	20.761630
929.280602	-2.993900	3.428300	-10.263000	23.561275	-3.679771E-6	20.757153
930.285891	-2.999700	3.427900	-10.282000	23.583546	-2.029649E-6	20.768100
931.279219	-2.987800	3.429000	-10.244000	23.592874	-4.009795E-6	20.749001
932.280999	-2.994800	3.427700	-10.265000	23.567408	-4.504832E-6	20.787485
933.276596	-2.981000	3.427900	-10.218000	23.590137	-2.095654E-6	20.782294
934.281216	-2.990800	3.427500	-10.250000	23.589934	-3.514759E-6	20.763124
935.282973	-2.993900	3.426400	-10.258000	23.626145	-4.504832E-6	20.779511
936.281915	-3.005600	3.427300	-10.300000	23.620113	-8.564131E-6	20.777731
937.276003	-3.016100	3.425700	-10.331000	23.662553	-3.283742E-6	20.767172
938.277060	-2.982700	3.426800	-10.220000	23.665314	-3.019722E-6	20.771837
939.284070	-2.995000	3.425300	-10.257000	23.636383	-3.976793E-6	20.772704
940.281990	-3.021700	3.426700	-10.354000	23.660402	-5.725922E-6	20.768809
941.281770	-3.005000	3.425900	-10.294000	23.660453	-4.537834E-6	20.787827
942.275204	-3.012100	3.426200	-10.320000	23.667700	-4.933863E-6	20.767116
943.281698	-3.030700	3.424300	-10.376000	23.717679	-4.702846E-6	20.770283
944.282351	-3.011500	3.424100	-10.310000	23.688484	-3.679771E-6	20.783212
945.280144	-3.001500	3.424700	-10.279000	23.712411	-4.504832E-6	20.787760
946.281235	-3.020700	3.425700	-10.348000	23.694922	-6.121951E-6	20.768330
947.277072	-2.984700	3.425500	-10.223000	23.708088	-7.508053E-6	20.784375
948.286628	-2.983400	3.424900	-10.217000	23.711297	-5.461902E-6	20.774790
949.288378	-3.011700	3.423800	-10.311000	23.716113	-5.560910E-6	20.784834
950.283353	-2.999100	3.422400	-10.263000	23.700445	-3.646769E-6	20.793782
951.277766	-3.013700	3.423400	-10.316000	23.662594	-3.217737E-6	20.798982
952.283771	-2.993900	3.423700	-10.249000	23.660804	-5.428900E-6	20.790075
953.282287	-2.994800	3.422900	-10.250000	23.664216	-6.385970E-6	20.779746
954.286332	-3.000100	3.421000	-10.262000	23.687304	-5.890934E-6	20.778236
955.291547	-3.010300	3.421900	-10.300000	23.656985	-5.131878E-6	20.773918
956.281663	-2.997800	3.421300	-10.256000	23.672475	-4.075800E-6	20.781862
957.284094	-2.979300	3.422100	-10.194000	23.705032	-5.659917E-6	20.785104
958.286795	-2.979700	3.422500	-10.197000	23.710122	-7.343041E-6	20.794949
959.287999	-2.999500	3.421500	-10.262000	23.738752	-6.022944E-6	20.793782
960.283019	-2.985900	3.422300	-10.217000	23.731582	-6.121951E-6	20.806507
961.286382	-3.009500	3.420300	-10.293000	23.736886	-6.022944E-6	20.792859
962.289721	-2.980900	3.421100	-10.197000	23.766502	-5.593912E-6	20.797896
963.286607	-3.002600	3.419100	-10.265000	23.725719	-8.333114E-6	20.796361
964.284166	-2.999700	3.420600	-10.259000	23.744738	-6.286963E-6	20.795515
965.283681	-3.009100	3.420200	-10.291000	23.708683	-6.517980E-6	20.787342
966.288630	-3.006200	3.418300	-10.275000	23.714114	-8.465124E-6	20.798951
967.292329	-2.986200	3.420200	-10.213000	23.732981	-7.871080E-6	20.766183
968.287951	-2.998100	3.418300	-10.248000	23.743156	-6.616987E-6	20.802938
969.286791	-2.966700	3.418500	-10.141000	23.715624	-9.389192E-6	20.805207
970.291456	-3.030900	3.417500	-10.357000	23.725531	-9.455196E-6	20.789060
971.290318	-2.995800	3.418500	-10.240000	23.727783	-8.399119E-6	20.795586
972.290017	-2.974300	3.418700	-10.167000	23.736270	-7.871080E-6	20.798405
973.294194	-2.991700	3.416900	-10.221000	23.718838	-8.795148E-6	20.807006
974.287060	-2.984300	3.418300	-10.201000	23.726390	-7.277036E-6	20.803672
975.289658	-3.018900	3.416900	-10.314000	23.725586	-8.366116E-6	20.801918
976.293913	-2.995900	3.416700	-10.235000	23.781685	-7.739070E-6	20.822128
977.292093	-3.002300	3.416900	-10.258000	23.776112	-8.432121E-6	20.817963
978.289291	-2.995800	3.416700	-10.235000	23.760954	-9.686214E-6	20.798971
979.290769	-2.989700	3.415200	-10.210000	23.734099	-9.356189E-6	20.813772
980.292866	-2.995600	3.414100	-10.226000	23.751536	-8.168102E-6	20.817504
981.292789	-3.002700	3.414100	-10.251000	23.795694	-9.785221E-6	20.799190
982.294571	-2.997300	3.414200	-10.232000	23.783796	-9.356189E-6	20.811916
983.292739	-2.997900	3.414800	-10.236000	23.794596	-9.686214E-6	20.800460
984.290308	-2.999800	3.414300	-10.241000	23.772420	-7.904082E-6	20.827063
985.294326	-2.977500	3.414200	-10.164000	23.787096	-8.762145E-6	20.808113
986.293813	-2.984000	3.413100	-10.184000	23.768139	-9.026165E-6	20.826089
987.288853	-2.992800	3.414100	-10.217000	23.758604	-1.037926E-5	20.823642
988.299017	-3.001000	3.413700	-10.244000	23.777343	-1.097331E-5	20.801653
989.297820	-3.006400	3.413300	-10.261000	23.809266	-8.267109E-6	20.809953
990.298029	-3.004200	3.413100	-10.253000	23.811991	-8.993162E-6	20.801306
991.297028	-3.008500	3.412800	-10.266000	23.841295	-9.158175E-6	20.825947
992.299109	-2.982600	3.412600	-10.177000	23.803591	-7.046019E-6	20.819910
993.299362	-3.034800	3.411700	-10.353000	23.815388	-1.001624E-5	20.793332
994.297969	-3.006300	3.412400	-10.258000	23.835656	-1.127033E-5	20.828827
995.305898	-2.982900	3.411900	-10.176000	23.813482	-1.057728E-5	20.825085
996.296819	-2.958000	3.413100	-10.095000	23.826005	-1.163336E-5	20.824841
997.304655	-2.994500	3.411500	-10.215000	23.822446	-1.021425E-5	20.821272
998.300002	-3.002100	3.410300	-10.238000	23.822360	-1.120433E-5	20.823556
999.294482	-3.008200	3.410100	-10.257000	23.841336	-1.331648E-5	20.826462
1000.304794	-3.001700	3.409200	-10.232000	23.831965	-9.983235E-6	20.838402
1001.303334	-2.985600	3.411700	-10.185000	23.864248	-1.004924E-5	20.840426
1002.302918	-3.012900	3.409000	-10.270000	23.836374	-1.259043E-5	20.834762
1003.308118	-2.987800	3.409000	-10.184000	23.844489	-9.455196E-6	20.846692
1004.300651	-3.013500	3.408800	-10.271000	23.862621	-1.183137E-5	20.822200
1005.297285	-3.014400	3.407900	-10.272000	23.867030	-1.041227E-5	20.827095
1006.307339	-2.990800	3.407700	-10.191000	23.883656	-1.265643E-5	20.822430
1007.300101	-2.993000	3.407800	-10.199000	23.919308	-1.127033E-5	20.846800
1008.305887	-2.973800	3.408300	-10.135000	23.939346	-1.334948E-5	20.846504
1009.310312	-2.973200	3.408300	-10.133000	23.911113	-1.094031E-5	20.840478
1010.307065	-2.981600	3.407800	-10.160000	23.847210	-1.506561E-5	20.810067
1011.308967	-2.994600	3.408000	-10.205000	23.824832	-1.272244E-5	20.850690
1012.304332	-2.999500	3.407500	-10.220000	23.842914	-1.490060E-5	20.831837
1013.305902	-2.986100	3.406800	-10.172000	23.858646	-1.367951E-5	20.840499
1014.303478	-2.995500	3.405300	-10.200000	23.886352	-1.216140E-5	20.850262
1015.304769	-3.035900	3.405800	-10.338000	23.875079	-1.212839E-5	20.829002
1016.310907	-2.976500	3.406600	-10.138000	23.911729	-1.344849E-5	20.850104
1017.306926	-3.031300	3.406400	-10.325000	23.933927	-1.305246E-5	20.833010
1018.303741	-3.009600	3.405000	-10.247000	23.923382	-1.325048E-5	20.846143
1019.306368	-3.010600	3.405200	-10.251000	23.929809	-1.222740E-5	20.848794
1020.306983	-3.012100	3.403500	-10.250000	23.942982	-1.212839E-5	20.851099
1021.303009	-2.997200	3.405000	-10.204000	23.952704	-1.202939E-5	20.855631
1022.309039	-2.993400	3.404200	-10.189000	23.979335	-1.483459E-5	20.829233
1023.309729	-3.014300	3.405400	-10.265000	23.976137	-1.265643E-5	20.864431
1024.307096	-3.001900	3.404200	-10.218000	23.939536	-1.166636E-5	20.862341
1025.306154	-3.015400	3.403400	-10.262000	23.973463	-1.265643E-5	20.864595
1026.308413	-3.022200	3.402100	-10.281000	23.942445	-1.361350E-5	20.861939
1027.313397	-2.970400	3.405300	-10.114000	23.960026	-1.427355E-5	20.843535
1028.311487	-2.989000	3.402800	-10.170000	24.000099	-1.338249E-5	20.866650
1029.313934	-2.987200	3.403700	-10.167000	24.021772	-1.506561E-5	20.855668
1030.310817	-2.971800	3.402700	-10.111000	24.000608	-1.433956E-5	20.867634
1031.306290	-3.010400	3.402700	-10.243000	24.029652	-1.338249E-5	20.860252
1032.313605	-3.024400	3.402400	-10.289000	24.037482	-1.259043E-5	20.860992
1033.318657	-2.994800	3.401200	-10.184000	24.023730	-1.443856E-5	20.868537
1034.311560	-2.968700	3.401800	-10.098000	24.001264	-1.321747E-5	20.861655
1035.307356	-3.007400	3.401000	-10.226000	24.006577	-1.400953E-5	20.861293
1036.312159	-2.985400	3.401200	-10.153000	24.023904	-1.308546E-5	20.871556
1037.315184	-2.985700	3.401100	-10.154000	24.036908	-1.509861E-5	20.873218
1038.312690	-2.976600	3.402400	-10.126000	24.050187	-1.509861E-5	20.864250
1039.306965	-2.995900	3.400400	-10.186000	24.022750	-1.308546E-5	20.893157
1040.312613	-3.004600	3.399500	-10.213000	23.989933	-1.364651E-5	20.882058
1041.313798	-2.987700	3.400000	-10.157000	23.985805	-1.552764E-5	20.868911
1042.313541	-2.991000	3.400200	-10.169000	23.978316	-1.668273E-5	20.853341
1043.315195	-3.004700	3.399200	-10.213000	23.985714	-1.466958E-5	20.904852
1044.317379	-3.004100	3.397900	-10.207000	24.026746	-1.645171E-5	20.885785
1045.316588	-3.010000	3.399900	-10.233000	24.051611	-1.740878E-5	20.884644
1046.320157	-3.003800	3.397000	-10.203000	24.075723	-1.813484E-5	20.891281
1047.320007	-2.995100	3.397300	-10.174000	24.093638	-1.592367E-5	20.876058
1048.314148	-2.992400	3.397300	-10.166000	24.099820	-1.658372E-5	20.882732
1049.320075	-2.977100	3.397700	-10.115000	24.120214	-1.694675E-5	20.883746
1050.317380	-3.013800	3.397100	-10.237000	24.115487	-1.585767E-5	20.886591
1051.315685	-3.005300	3.396700	-10.207000	24.108548	-1.724377E-5	20.881055
1052.321206	-2.988100	3.396900	-10.149000	24.068235	-1.717777E-5	20.891832
1053.304532	-3.017600	3.395600	-10.246000	24.035664	-1.579166E-5	20.892357
1054.308086	-2.973400	3.397400	-10.101000	24.043025	-1.829985E-5	20.859913
1055.307166	-2.990000	3.397500	-10.157000	24.042308	-1.684774E-5	20.874366
1056.305762	-2.994900	3.395100	-10.167000	24.045440	-1.773881E-5	20.849059
1057.305653	-2.990000	3.396300	-10.154000	24.086699	-1.565965E-5	20.876686
1058.327835	-2.995800	3.394700	-10.169000	24.082611	-1.770580E-5	20.866897
1059.305218	-2.998000	3.396300	-10.182000	24.099326	-1.829985E-5	20.855212
1060.322759	-3.015800	3.394000	-10.235000	24.090278	-1.688074E-5	20.845663
1061.329765	-3.010100	3.393800	-10.215000	24.103464	-1.826685E-5	20.859362
1062.309192	-2.989200	3.395300	-10.148000	24.110276	-1.717777E-5	20.870935
1063.308227	-2.997800	3.393900	-10.173000	24.129903	-1.747479E-5	20.878765
1064.310371	-3.013500	3.392900	-10.224000	24.143867	-1.955394E-5	20.848676
1065.312569	-3.002600	3.393200	-10.188000	24.161206	-1.796982E-5	20.866540
1066.308816	-2.990900	3.393400	-10.148000	24.147857	-1.717777E-5	20.852678
1067.311642	-2.994400	3.392700	-10.158000	24.101974	-2.008198E-5	20.858342
1068.314125	-2.992100	3.391700	-10.147000	24.117179	-1.645171E-5	20.858418
1069.310381	-2.986000	3.394300	-10.134000	24.105411	-1.589067E-5	20.851357
1070.311614	-3.006600	3.391300	-10.195000	24.121129	-1.674873E-5	20.835828
1071.330774	-2.998500	3.390800	-10.166000	24.098116	-1.975196E-5	20.860636
1072.309930	-2.996800	3.390900	-10.161000	24.091192	-1.942193E-5	20.847528
1073.311711	-3.001900	3.392100	-10.182000	24.064142	-1.872888E-5	20.852168
1074.329613	-2.978900	3.391400	-10.102000	24.096875	-1.856387E-5	20.861763
1075.327999	-2.989300	3.390500	-10.134000	24.106422	-1.965295E-5	20.834355
1076.334821	-2.993400	3.390900	-10.149000	24.096392	-1.932292E-5	20.852270
1077.334821	-3.033700	3.389900	-10.282000	24.150617	-1.803583E-5	20.842170
1078.333625	-2.999600	3.390600	-10.169000	24.144741	-1.932292E-5	20.848604
1079.339015	-2.987700	3.390400	-10.129000	24.110367	-1.955394E-5	20.854906
1080.330961	-2.999200	3.389500	-10.164000	24.110545	-1.754079E-5	20.852714
1081.332241	-3.025900	3.388700	-10.253000	24.149886	-1.928992E-5	20.833376
1082.316302	-3.023600	3.386400	-10.238000	24.159981	-2.090704E-5	20.828329
1083.336296	-2.996900	3.388400	-10.153000	24.165588	-2.084104E-5	20.844383
1084.328035	-3.019000	3.387200	-10.225000	24.211239	-2.057702E-5	20.834697
1085.339082	-3.006500	3.387400	-10.184000	24.175221	-1.892689E-5	20.856889
1086.312730	-3.007200	3.387200	-10.185000	24.185530	-2.064302E-5	20.838307
1087.317574	-2.985900	3.389400	-10.119000	24.207377	-2.153409E-5	20.830822
1088.316506	-2.975800	3.388000	-10.081000	24.219937	-2.186411E-5	20.836308
1089.318389	-3.004300	3.386500	-10.173000	24.196911	-2.249116E-5	20.838343
1090.319319	-2.998000	3.386800	-10.153000	24.220689	-2.113806E-5	20.831373
1091.331032	-2.986800	3.385400	-10.110000	24.205242	-1.965295E-5	20.831052
1092.340234	-2.991400	3.387000	-10.131000	24.243517	-2.107205E-5	20.831037
1093.334153	-2.988200	3.386500	-10.118000	24.256727	-2.189711E-5	20.825322
1094.334477	-3.013400	3.384800	-10.199000	24.274817	-2.044501E-5	20.835880
1095.330859	-3.007200	3.385800	-10.181000	24.267788	-2.209513E-5	20.836890
1096.341662	-2.963100	3.386300	-10.033000	24.265337	-2.084104E-5	20.840596
1097.332472	-2.995500	3.385500	-10.140000	24.228899	-2.100605E-5	20.822538
1098.336347	-3.019400	3.384000	-10.216000	24.203870	-2.420728E-5	20.844848
1099.342369	-2.982800	3.384700	-10.094000	24.186135	-2.315121E-5	20.843656
1100.340030	-2.999900	3.384700	-10.152000	24.228950	-2.146808E-5	20.834917
1101.323479	-3.002600	3.383000	-10.157000	24.228269	-2.265617E-5	20.832338
1102.336860	-3.000500	3.382500	-10.148000	24.263249	-2.242515E-5	20.828545
1103.340999	-3.004700	3.382900	-10.164000	24.286564	-2.140208E-5	20.828224
1104.347450	-2.976900	3.383800	-10.072000	24.288185	-2.381126E-5	20.819419
1105.346787	-2.971300	3.383800	-10.054000	24.282640	-2.305220E-5	20.821917
1106.346234	-2.976700	3.382400	-10.067000	24.291926	-2.268917E-5	20.856835
1107.323228	-3.003700	3.381500	-10.156000	24.282127	-2.400927E-5	20.832782
1108.327338	-3.018900	3.381300	-10.207000	24.298198	-2.255716E-5	20.834679
1109.330669	-2.986900	3.383200	-10.105000	24.319250	-2.268917E-5	20.810278
1110.340691	-2.988900	3.382600	-10.110000	24.287348	-2.209513E-5	20.816208
1111.324402	-2.986200	3.379800	-10.092000	24.296943	-2.216113E-5	20.819670
1112.328293	-3.007400	3.380200	-10.165000	24.263840	-2.226014E-5	20.820129
1113.343996	-2.992000	3.380600	-10.114000	24.274676	-2.265617E-5	20.821515
1114.345798	-2.973000	3.379500	-10.047000	24.279683	-2.420728E-5	20.841235
1115.349222	-3.004400	3.378700	-10.149000	24.292740	-2.602242E-5	20.808815
1116.349441	-3.002000	3.379000	-10.143000	24.284293	-2.430629E-5	20.832110
1117.346611	-3.005700	3.378000	-10.152000	24.310916	-2.189711E-5	20.834159
1118.329046	-3.019500	3.376500	-10.194000	24.329899	-2.400927E-5	20.829969
1119.343270	-2.996700	3.377700	-10.121000	24.314275	-2.513135E-5	20.826150
1120.326614	-2.997400	3.377300	-10.122000	24.309635	-2.384426E-5	20.819599
1121.351168	-2.991000	3.378200	-10.103000	24.311973	-2.358024E-5	20.816729
1122.353007	-2.995500	3.377500	-10.116000	24.353081	-2.361324E-5	20.820033
1123.341974	-3.004400	3.376900	-10.145000	24.378644	-2.552738E-5	20.818177
1124.353753	-2.998700	3.376800	-10.125000	24.349284	-2.714450E-5	20.826182
1125.351882	-3.008500	3.376100	-10.157000	24.361304	-2.229314E-5	20.816903
1126.350484	-3.024700	3.376200	-10.211000	24.381730	-2.582440E-5	20.803255
1127.330227	-3.010400	3.375700	-10.161000	24.393928	-2.631944E-5	20.803163
1128.329423	-2.991600	3.377300	-10.103000	24.392586	-2.506535E-5	20.826473
1129.330313	-3.007900	3.375500	-10.153000	24.401246	-2.678147E-5	20.815721
1130.333735	-2.991300	3.375300	-10.096000	24.415207	-2.684748E-5	20.809812
1131.334358	-3.012600	3.374500	-10.165000	24.418835	-2.480133E-5	20.812504
1132.335694	-2.991000	3.374900	-10.093000	24.399620	-2.341523E-5	20.816460
1133.332438	-2.989300	3.373600	-10.084000	24.395519	-2.519736E-5	20.799070
1134.336776	-2.996500	3.375400	-10.114000	24.417235	-2.549438E-5	20.815166
1135.339651	-2.998200	3.373500	-10.113000	24.404906	-2.414128E-5	20.825556
1136.332343	-3.006800	3.373700	-10.144000	24.398198	-2.717750E-5	20.797490
1137.359172	-3.010500	3.373700	-10.155000	24.384055	-2.721051E-5	20.797052
1138.356750	-3.007700	3.372100	-10.141000	24.417754	-2.763954E-5	20.796246
1139.358210	-3.008200	3.371700	-10.142000	24.455356	-2.552738E-5	20.823064
1140.357935	-3.006700	3.373200	-10.141000	24.448263	-2.542837E-5	20.821637
1141.337230	-2.984700	3.372800	-10.066000	24.446565	-2.655046E-5	20.821357
1142.355249	-3.001200	3.371900	-10.119000	24.479059	-2.793656E-5	20.812231
1143.358486	-2.975100	3.372500	-10.032000	24.474750	-2.701249E-5	20.817391
1144.359005	-2.992200	3.371600	-10.087000	24.477473	-2.694649E-5	20.803528
1145.353314	-2.982700	3.371900	-10.056000	24.459662	-2.757353E-5	20.805574
1146.337767	-3.003100	3.371100	-10.123000	24.477174	-2.701249E-5	20.813660
1147.351810	-3.016600	3.369800	-10.164000	24.451206	-2.737552E-5	20.804202
1148.339293	-3.007200	3.370700	-10.135000	24.435824	-2.701249E-5	20.800150
1149.362178	-3.004000	3.369200	-10.119000	24.432287	-2.806857E-5	20.810351
1150.356854	-3.013700	3.369200	-10.153000	24.454048	-2.688048E-5	20.790932
1151.359286	-3.021900	3.368900	-10.179000	24.462006	-2.767254E-5	20.813615
1152.360410	-2.976400	3.369200	-10.027000	24.461494	-2.783755E-5	20.817842
1153.357749	-2.987000	3.369700	-10.064000	24.489017	-2.872862E-5	20.819851
1154.357592	-3.021100	3.369500	-10.179000	24.478249	-2.869562E-5	20.805255
1155.354422	-3.030600	3.368000	-10.206000	24.505111	-2.777155E-5	20.809920
1156.359090	-2.993800	3.368900	-10.085000	24.535316	-2.800256E-5	20.813198
1157.360102	-2.977900	3.367300	-10.026000	24.513639	-2.886063E-5	20.827010
1158.361807	-2.987500	3.368200	-10.060000	24.527704	-3.018073E-5	20.808406
1159.363194	-3.009600	3.366400	-10.131000	24.539031	-2.879462E-5	20.806494
1160.363554	-2.997800	3.367000	-10.093000	24.516220	-2.721051E-5	20.790246
1161.340408	-3.013400	3.366300	-10.143000	24.501249	-3.031273E-5	20.833072
1162.341088	-3.016800	3.365000	-10.150000	24.499603	-3.107179E-5	20.806290
1163.341458	-2.994200	3.366600	-10.079000	24.486446	-3.004872E-5	20.831971
1164.340423	-3.000000	3.366800	-10.099000	24.509171	-2.810157E-5	20.811623
1165.363220	-2.985000	3.366600	-10.049000	24.485363	-3.199586E-5	20.806703
1166.363624	-3.014600	3.365300	-10.144000	24.517169	-3.074177E-5	20.795940
1167.357779	-2.993800	3.365100	-10.073000	24.535676	-3.107179E-5	20.806448
1168.364899	-3.012800	3.364700	-10.136000	24.515330	-3.097278E-5	20.784137
1169.343099	-2.984200	3.364000	-10.038000	24.559163	-3.001571E-5	20.796348
1170.340830	-2.987700	3.363600	-10.049000	24.554492	-3.074177E-5	20.793558
1171.363235	-3.012200	3.363200	-10.130000	24.568669	-3.272191E-5	20.811576
1172.362667	-2.981800	3.364300	-10.031000	24.523866	-3.202886E-5	20.793650
1173.359728	-3.004400	3.361800	-10.100000	24.505384	-3.278792E-5	20.787909
1174.344605	-3.011300	3.362300	-10.124000	24.552708	-3.183085E-5	20.778017
1175.346050	-2.991000	3.363700	-10.059000	24.601026	-3.278792E-5	20.816541
1176.364055	-3.005400	3.362400	-10.105000	24.586926	-3.249090E-5	20.785798
1177.369820	-3.030600	3.360800	-10.184000	24.621346	-3.133581E-5	20.768177
1178.350449	-3.000300	3.362100	-10.086000	24.626787	-3.447104E-5	20.801613
1179.345216	-3.000700	3.361300	-10.085000	24.593185	-3.496608E-5	20.787337
1180.347527	-3.012800	3.360100	-10.122000	24.584974	-3.410802E-5	20.801857
1181.348378	-2.999600	3.361500	-10.082000	24.540029	-3.377799E-5	20.774779
1182.350310	-3.015800	3.359800	-10.131000	24.534028	-3.486707E-5	20.797207
1183.348395	-3.017400	3.359200	-10.135000	24.554018	-3.282092E-5	20.781228
1184.348173	-3.037500	3.358700	-10.201000	24.568144	-3.622017E-5	20.805359
1185.345853	-3.013600	3.360100	-10.125000	24.555079	-3.582414E-5	20.798889
1186.346419	-3.019400	3.358100	-10.139000	24.549947	-3.440504E-5	20.781885
1187.365229	-2.967700	3.360500	-9.972400	24.577625	-3.338196E-5	20.784052
1188.347756	-2.995300	3.358900	-10.059000	24.572645	-3.562613E-5	20.787590
1189.349879	-2.987200	3.359500	-10.034000	24.577960	-3.460305E-5	20.774905
1190.350454	-3.020400	3.357300	-10.139000	24.593478	-3.565913E-5	20.789527
1191.368883	-3.008200	3.357700	-10.100000	24.588574	-3.334896E-5	20.759476
1192.369098	-3.009000	3.355500	-10.095000	24.642983	-3.437203E-5	20.775664
1193.369418	-2.965800	3.356900	-9.955000	24.646509	-3.457005E-5	20.794849
1194.372593	-3.000800	3.356600	-10.071000	24.611723	-3.585714E-5	20.788868
1195.355849	-2.998900	3.357000	-10.067000	24.566460	-3.559312E-5	20.776642
1196.368373	-2.969100	3.357500	-9.967700	24.561073	-3.565913E-5	20.785936
1197.367610	-2.994300	3.355900	-10.048000	24.607013	-3.414102E-5	20.775607
1198.373602	-3.003700	3.354900	-10.077000	24.646121	-3.424002E-5	20.794935
1199.371566	-2.987800	3.355600	-10.025000	24.696757	-3.572513E-5	20.771777
1200.369821	-3.002500	3.355200	-10.073000	24.724101	-3.377799E-5	20.782147
1201.355099	-3.021800	3.354200	-10.135000	24.729517	-3.334896E-5	20.775254
1202.370038	-3.005500	3.353500	-10.077000	24.702930	-3.318395E-5	20.768014
1203.374975	-2.996400	3.353400	-10.048000	24.662984	-3.440504E-5	20.774871
1204.371984	-2.985800	3.354300	-10.014000	24.656791	-3.490007E-5	20.753009
1205.372318	-3.026300	3.352700	-10.146000	24.700394	-3.288692E-5	20.773530
1206.367788	-2.977000	3.353000	-9.980400	24.685182	-3.381099E-5	20.759687
1207.378495	-2.996000	3.352600	-10.043000	24.641979	-3.252390E-5	20.767070
1208.367556	-3.022400	3.351900	-10.130000	24.624830	-3.341496E-5	20.765509
1209.353382	-2.990100	3.352300	-10.023000	24.634728	-3.523010E-5	20.753155
1210.354208	-3.006600	3.351900	-10.077000	24.650885	-3.262291E-5	20.759411
1211.376253	-3.005700	3.350800	-10.070000	24.664421	-3.516409E-5	20.771097
1212.379411	-3.012600	3.350100	-10.092000	24.710179	-3.569213E-5	20.767227
1213.377329	-2.992900	3.352000	-10.031000	24.755157	-3.674821E-5	20.757361
1214.373754	-3.020700	3.349700	-10.117000	24.750981	-3.391000E-5	20.757912
1215.373528	-2.999800	3.351200	-10.052000	24.733026	-3.707823E-5	20.756015
1216.376635	-2.994600	3.350400	-10.032000	24.710793	-3.800230E-5	20.750774
1217.376428	-2.994900	3.350300	-10.033000	24.666570	-3.796930E-5	20.758554
1218.381073	-3.018600	3.348800	-10.108000	24.712978	-3.542811E-5	20.751070
1219.383958	-3.009600	3.348700	-10.077000	24.708177	-3.572513E-5	20.754787
1220.377894	-2.996200	3.349000	-10.034000	24.730191	-3.800230E-5	20.759335
1221.383043	-2.993000	3.348800	-10.022000	24.748298	-3.734225E-5	20.773713
1222.378370	-3.001800	3.349000	-10.052000	24.744239	-3.763928E-5	20.742611
1223.378023	-3.010000	3.347000	-10.074000	24.751748	-3.711124E-5	20.746828
1224.359545	-2.987900	3.348700	-10.005000	24.690973	-3.915739E-5	20.759335
1225.362451	-2.993300	3.346700	-10.017000	24.698432	-3.681421E-5	20.776303
1226.364421	-3.028600	3.346500	-10.134000	24.720487	-3.767228E-5	20.745329
1227.364283	-2.980400	3.347100	-9.975000	24.744711	-3.582414E-5	20.753991
1228.385944	-3.038000	3.346100	-10.165000	24.734850	-3.615417E-5	20.753104
1229.382478	-3.006400	3.346000	-10.058000	24.767696	-3.711124E-5	20.741021
1230.388021	-3.005900	3.344900	-10.053000	24.800093	-3.866235E-5	20.741291
1231.388224	-2.998900	3.346200	-10.034000	24.816182	-3.846434E-5	20.746532
1232.386861	-3.011400	3.345200	-10.073000	24.811076	-3.826632E-5	20.744253
1233.382568	-2.993600	3.344200	-10.010000	24.816909	-3.681421E-5	20.761012
1234.389988	-3.027200	3.342600	-10.118000	24.752307	-3.763928E-5	20.757821
1235.387075	-2.986500	3.344900	-9.988800	24.731674	-3.605516E-5	20.741382
1236.390084	-3.016600	3.343600	-10.085000	24.726680	-3.985044E-5	20.710290
1237.390094	-3.004900	3.343000	-10.044000	24.746413	-3.998245E-5	20.758070
1238.387301	-2.985100	3.345000	-9.984100	24.775209	-4.004845E-5	20.738603
1239.396232	-2.982900	3.343100	-9.972000	24.817350	-4.014746E-5	20.749601
1240.390605	-2.980300	3.343400	-9.963600	24.836273	-3.836533E-5	20.719753
1241.370241	-2.979800	3.342600	-9.960000	24.835277	-3.747426E-5	20.741040
1242.375287	-3.012300	3.342300	-10.067000	24.830146	-3.575814E-5	20.721665
1243.374160	-3.003500	3.342600	-10.039000	24.809729	-3.803531E-5	20.744323
1244.371657	-2.987000	3.342500	-9.983200	24.820636	-3.912439E-5	20.722551
1245.373308	-2.998300	3.340800	-10.016000	24.800066	-4.024647E-5	20.733203
1246.377173	-3.009000	3.340000	-10.049000	24.830750	-4.090652E-5	20.740290
1247.372046	-3.008000	3.341700	-10.051000	24.782752	-3.697923E-5	20.724835
1248.372803	-3.007200	3.340200	-10.044000	24.763751	-3.671521E-5	20.715250
1249.375214	-2.998300	3.339100	-10.010000	24.763614	-4.031247E-5	20.723173
1250.376767	-3.025500	3.339200	-10.102000	24.776869	-3.942141E-5	20.727466
1251.377520	-2.995700	3.340000	-10.005000	24.780907	-4.014746E-5	20.721087
1252.378290	-3.001200	3.338700	-10.020000	24.741538	-3.928940E-5	20.733263
1253.374393	-3.030200	3.338100	-10.114000	24.726754	-4.140155E-5	20.702303
1254.378860	-2.992600	3.338300	-9.989600	24.735553	-4.133555E-5	20.711608
1255.380338	-3.001500	3.338100	-10.018000	24.756536	-4.064250E-5	20.725553
1256.375766	-3.010800	3.336500	-10.045000	24.793902	-4.123654E-5	20.738396
1257.379359	-3.021100	3.336000	-10.076000	24.843169	-3.965242E-5	20.715293
1258.378700	-3.006800	3.336800	-10.032000	24.911097	-4.093952E-5	20.711872
1259.379519	-3.034000	3.335600	-10.119000	24.863600	-4.018046E-5	20.712565
1260.378270	-2.992200	3.336400	-9.982600	24.875848	-4.229262E-5	20.715374
1261.379105	-2.982000	3.335600	-9.945800	24.860705	-4.146756E-5	20.730049
1262.398063	-2.991400	3.335400	-9.977000	24.855269	-4.054349E-5	20.711790
1263.379300	-3.021800	3.334500	-10.075000	24.857504	-4.486681E-5	20.701704
1264.378135	-3.006100	3.334600	-10.023000	24.890167	-3.895937E-5	20.705090
1265.383458	-3.019800	3.333900	-10.067000	24.898686	-4.374473E-5	20.728340
1266.378591	-3.005700	3.334000	-10.020000	24.846810	-4.311768E-5	20.716577
1267.398118	-2.976900	3.334700	-9.925200	24.837935	-4.209461E-5	20.704350
1268.399566	-2.995000	3.334500	-9.986200	24.857909	-4.196260E-5	20.725346
1269.375931	-3.003300	3.332800	-10.008000	24.897532	-4.315068E-5	20.701575
1270.399211	-3.007300	3.333300	-10.023000	24.915190	-4.301867E-5	20.709815
1271.381276	-2.999900	3.332700	-9.996500	24.897039	-4.037848E-5	20.710090
1272.376225	-2.980500	3.332700	-9.932100	24.908108	-4.018046E-5	20.706501
1273.378090	-3.003200	3.331000	-10.003000	24.923687	-4.305168E-5	20.699852
1274.379276	-3.002900	3.332100	-10.005000	24.926253	-4.324969E-5	20.705746
1275.378633	-2.994500	3.331400	-9.975300	24.947821	-4.192959E-5	20.707479
1276.382290	-3.000700	3.330400	-9.992900	24.954922	-4.282066E-5	20.719349
1277.381699	-2.972200	3.330600	-9.898400	24.930433	-4.414076E-5	20.702829
1278.398043	-2.999100	3.330300	-9.986900	24.911922	-4.440478E-5	20.701794
1279.408380	-2.983400	3.329400	-9.931900	24.928660	-4.159957E-5	20.703420
1280.383569	-3.009400	3.329800	-10.020000	24.911770	-4.437177E-5	20.719660
1281.405969	-2.980300	3.329800	-9.922300	24.876531	-4.588989E-5	20.706102
1282.384388	-2.978800	3.329000	-9.915000	24.923788	-4.384373E-5	20.691891
1283.384134	-3.004000	3.328700	-9.998900	24.916524	-4.460279E-5	20.698352
1284.381205	-3.005500	3.328200	-10.002000	24.950883	-4.641792E-5	20.711027
1285.384499	-3.009300	3.328500	-10.014000	24.912196	-4.348071E-5	20.698275
1286.383291	-3.014300	3.327500	-10.029000	24.900055	-4.377773E-5	20.715014
1287.397537	-2.964500	3.328800	-9.866500	24.915122	-4.585688E-5	20.697418
1288.400078	-2.991700	3.327000	-9.952300	24.879055	-4.371172E-5	20.705316
1289.403680	-2.988400	3.326700	-9.940500	24.872979	-4.470180E-5	20.711547
1290.397810	-3.000900	3.326800	-9.982700	24.895209	-4.427277E-5	20.704934
1291.400946	-2.997700	3.325200	-9.967600	24.870800	-4.410775E-5	20.703195
1292.401062	-2.974400	3.325500	-9.889800	24.947088	-4.328269E-5	20.696311
1293.404175	-3.025700	3.324000	-10.057000	24.935608	-4.404175E-5	20.699962
1294.401684	-2.994200	3.325400	-9.956000	24.944025	-4.480080E-5	20.711730
1295.403512	-2.980600	3.324100	-9.907000	24.944075	-4.612090E-5	20.687123
1296.407909	-2.994200	3.324500	-9.953400	24.962880	-4.674795E-5	20.690825
1297.400150	-2.998800	3.325000	-9.969700	24.992529	-4.671495E-5	20.704464
1298.384714	-2.993600	3.322900	-9.946700	24.966908	-4.727599E-5	20.704826
1299.405288	-2.992500	3.324500	-9.947900	24.986453	-4.423976E-5	20.676553
1300.384365	-3.003200	3.323500	-9.980400	25.004683	-4.687996E-5	20.693904
1301.384337	-2.975400	3.322200	-9.884400	25.012881	-4.555986E-5	20.697866
1302.403136	-3.016200	3.322900	-10.021000	25.044225	-4.839807E-5	20.700405
1303.404757	-2.990400	3.322600	-9.935000	24.992112	-4.754001E-5	20.715901
1304.406473	-2.993400	3.320600	-9.939000	24.998481	-4.678095E-5	20.690050
1305.402294	-2.995400	3.321300	-9.947100	25.012592	-4.727599E-5	20.691411
1306.402213	-2.985800	3.321900	-9.917500	25.040243	-4.654993E-5	20.702098
1307.415188	-3.008400	3.319800	-9.986700	25.028652	-4.945415E-5	20.707059
1308.413252	-3.007400	3.319900	-9.983300	24.996658	-4.800204E-5	20.704342
1309.410019	-2.998800	3.319400	-9.953500	25.027006	-4.549386E-5	20.693078
1310.415286	-2.997900	3.318700	-9.948400	25.050370	-4.453679E-5	20.705152
1311.412914	-2.982300	3.318700	-9.896800	25.072916	-4.532884E-5	20.691273
1312.411926	-3.002300	3.318800	-9.963000	25.064414	-4.770502E-5	20.692696
1313.407497	-2.998000	3.318900	-9.949400	25.092704	-4.988318E-5	20.694067
1314.416815	-3.011100	3.318500	-9.991900	25.044895	-4.975117E-5	20.707717
1315.410073	-2.994100	3.318300	-9.934600	25.000863	-4.744100E-5	20.701924
1316.408597	-2.978200	3.317800	-9.880100	25.013846	-4.651693E-5	20.723492
1317.419500	-3.015800	3.316000	-9.999100	25.027992	-4.928914E-5	20.709241
1318.416799	-2.997400	3.315700	-9.937300	24.999294	-4.849708E-5	20.694659
1319.393809	-3.018200	3.315800	-10.007000	25.021495	-4.948715E-5	20.689442
1320.414604	-3.003400	3.315400	-9.956800	25.042599	-4.803504E-5	20.707309
1321.418157	-3.002200	3.316700	-9.956100	25.059081	-4.895911E-5	20.698722
1322.414513	-2.989100	3.315800	-9.909900	25.097813	-4.912412E-5	20.701567
1323.399329	-3.022700	3.313700	-10.016000	25.118469	-5.044422E-5	20.697646
1324.398193	-2.998300	3.313900	-9.935800	25.127341	-4.836507E-5	20.715089
1325.400111	-2.986100	3.315300	-9.899400	25.121242	-4.952015E-5	20.699956
1326.423180	-3.008000	3.314200	-9.967600	25.154725	-4.780403E-5	20.695637
1327.423818	-2.995400	3.313700	-9.925000	25.156706	-4.829906E-5	20.705213
1328.414165	-2.972000	3.313700	-9.847700	25.183388	-5.130229E-5	20.706396
1329.400943	-3.009200	3.313200	-9.969400	25.209121	-4.909112E-5	20.692873
1330.413990	-2.985600	3.313400	-9.891400	25.219450	-5.143430E-5	20.724583
1331.402217	-2.991500	3.311800	-9.906400	25.187664	-5.130229E-5	20.710215
1332.420115	-3.007600	3.312700	-9.961600	25.156188	-5.206134E-5	20.717021
1333.414771	-2.983200	3.312300	-9.880500	25.125975	-5.077425E-5	20.705182
1334.420687	-2.993100	3.311600	-9.911100	25.110962	-5.008120E-5	20.706232
1335.401256	-3.014800	3.311200	-9.981600	25.132297	-5.120328E-5	20.718168
1336.402056	-3.027800	3.310000	-10.021000	25.156193	-5.252338E-5	20.705172
1337.416631	-3.014000	3.309600	-9.974500	25.145268	-5.064224E-5	20.717913
1338.428184	-2.985500	3.308800	-9.877700	25.209577	-4.958616E-5	20.711825
1339.420927	-2.988600	3.309800	-9.890800	25.206490	-5.136829E-5	20.704458
1340.407325	-2.993100	3.307900	-9.900800	25.226569	-5.080725E-5	20.711341
1341.403883	-2.989000	3.307300	-9.884700	25.193179	-5.291941E-5	20.698206
1342.402539	-2.997000	3.308400	-9.915100	25.175872	-5.087325E-5	20.714497
1343.409856	-2.994300	3.307700	-9.902300	25.115070	-4.945415E-5	20.723634
1344.404931	-3.027100	3.306700	-10.008000	25.110271	-5.239137E-5	20.723558
1345.403604	-2.990500	3.307000	-9.889000	25.115634	-5.159931E-5	20.699542
1346.408538	-2.984500	3.307400	-9.870500	25.152998	-5.031221E-5	20.715241
1347.403796	-2.996100	3.306000	-9.903600	25.131540	-5.067524E-5	20.722624
1348.404504	-2.997300	3.306200	-9.909100	25.181783	-5.064224E-5	20.700516
1349.407950	-2.999700	3.305600	-9.914700	25.213325	-4.965216E-5	20.709424
1350.404040	-3.002800	3.304900	-9.922800	25.226280	-5.004819E-5	20.708205
1351.405638	-3.004400	3.304700	-9.927900	25.235532	-5.291941E-5	20.712753
1352.409070	-2.984800	3.304200	-9.861100	25.248411	-5.087325E-5	20.732322
1353.407450	-3.020700	3.303700	-9.978300	25.269079	-5.225936E-5	20.705656
1354.408503	-3.000000	3.304200	-9.911400	25.301421	-4.968517E-5	20.718214
1355.411467	-2.980900	3.303300	-9.845600	25.309296	-5.262238E-5	20.738925
1356.420343	-2.990000	3.302300	-9.873300	25.305427	-5.344744E-5	20.708960
1357.431723	-3.013900	3.302200	-9.951100	25.330085	-5.084025E-5	20.723287
1358.427811	-2.991000	3.303100	-9.877600	25.297079	-5.209434E-5	20.723813
1359.408272	-2.972900	3.301800	-9.815200	25.266570	-5.255638E-5	20.720682
1360.427889	-2.989100	3.301900	-9.868500	25.303406	-5.209434E-5	20.738227
1361.412757	-3.011300	3.299600	-9.935300	25.308332	-5.242437E-5	20.723257
1362.429620	-2.998400	3.300600	-9.896100	25.291737	-5.308442E-5	20.738364
1363.430607	-2.997100	3.300700	-9.890700	25.267088	-5.136829E-5	20.719306
1364.428349	-2.995700	3.300500	-9.886600	25.282495	-5.348045E-5	20.741888
1365.406038	-2.979600	3.300400	-9.833100	25.265083	-5.064224E-5	20.707334
1366.428780	-2.977900	3.298400	-9.821300	25.244110	-5.420650E-5	20.720417
1367.414212	-2.984900	3.298800	-9.845900	25.252276	-5.037822E-5	20.734306
1368.411586	-2.992000	3.300200	-9.871800	25.282424	-5.460253E-5	20.729962
1369.408987	-2.989400	3.298900	-9.860100	25.285639	-5.196233E-5	20.736035
1370.411444	-3.000200	3.297900	-9.894300	25.295043	-5.239137E-5	20.735046
1371.412409	-2.986000	3.298300	-9.847200	25.299075	-5.453652E-5	20.743362
1372.432882	-3.000300	3.297600	-9.892600	25.285289	-5.430551E-5	20.723355
1373.431474	-2.979600	3.297600	-9.825000	25.244761	-5.285340E-5	20.733873
1374.432555	-2.983900	3.297100	-9.837500	25.234985	-5.371146E-5	20.743974
1375.427791	-3.036600	3.295000	-10.005000	25.260407	-5.308442E-5	20.729667
1376.431505	-2.975300	3.297200	-9.808600	25.289123	-5.476754E-5	20.739059
1377.436073	-3.022100	3.294600	-9.956000	25.301656	-5.285340E-5	20.735995
1378.432326	-3.010700	3.294200	-9.915900	25.300594	-5.255638E-5	20.742990
1379.434565	-3.010900	3.294000	-9.917200	25.280069	-5.364546E-5	20.743719
1380.419013	-3.029300	3.294500	-9.979000	25.304306	-5.242437E-5	20.748614
1381.415950	-3.027100	3.292700	-9.966200	25.296989	-5.324943E-5	20.733680
1382.436852	-2.998300	3.293200	-9.873500	25.279948	-5.565861E-5	20.749288
1383.415990	-3.013300	3.293600	-9.923100	25.323598	-5.414050E-5	20.746172
1384.430130	-3.000300	3.292300	-9.876700	25.313640	-5.275439E-5	20.748977
1385.439800	-3.010600	3.293000	-9.913600	25.326975	-5.496556E-5	20.727751
1386.440046	-2.992800	3.291100	-9.848700	25.308060	-5.463553E-5	20.758073
1387.430042	-3.000300	3.290000	-9.870200	25.288977	-5.532858E-5	20.751715
1388.417533	-3.008500	3.291900	-9.902600	25.335496	-5.664868E-5	20.742946
1389.434760	-3.000500	3.290400	-9.872300	25.367942	-5.334844E-5	20.744230
1390.435890	-3.007000	3.289000	-9.889300	25.376092	-5.291941E-5	20.761897
1391.417235	-3.012600	3.288600	-9.906700	25.357036	-5.605464E-5	20.746082
1392.418605	-2.984000	3.290300	-9.816900	25.364231	-5.555960E-5	20.756626
1393.418487	-3.009100	3.290100	-9.899700	25.355822	-5.539459E-5	20.750553
1394.415505	-2.995100	3.287500	-9.846100	25.351542	-5.549360E-5	20.759058
1395.419472	-3.013400	3.288500	-9.908800	25.351694	-5.569161E-5	20.754943
1396.435298	-2.984200	3.288500	-9.812600	25.372330	-5.559260E-5	20.753378
1397.421235	-3.012200	3.287900	-9.903200	25.390031	-5.433851E-5	20.767359
1398.420533	-3.006800	3.287700	-9.884600	25.413103	-5.536159E-5	20.771086
1399.420654	-2.999900	3.286600	-9.858500	25.415667	-5.757275E-5	20.755643
1400.419947	-2.986500	3.285300	-9.811200	25.437769	-5.707771E-5	20.753654
1401.421853	-2.990100	3.286300	-9.825200	25.397541	-5.902486E-5	20.762572
1402.436486	-2.976400	3.285400	-9.778100	25.394581	-5.618665E-5	20.769083
1403.435575	-3.002300	3.285000	-9.860400	25.404289	-5.555960E-5	20.762710
1404.441207	-3.005600	3.284300	-9.869600	25.383974	-5.503156E-5	20.775502
1405.435986	-2.991300	3.283600	-9.821000	25.362887	-5.562561E-5	20.778984
1406.434374	-2.969100	3.284700	-9.751000	25.329790	-5.714372E-5	20.782263
1407.435628	-3.010900	3.283200	-9.884300	25.316507	-5.440452E-5	20.779357
1408.436765	-3.019900	3.282100	-9.910800	25.327480	-5.526258E-5	20.758606
1409.433026	-2.997900	3.282800	-9.839900	25.315253	-5.638466E-5	20.777623
1410.437665	-3.015000	3.282700	-9.896800	25.354946	-5.664868E-5	20.792822
1411.436214	-2.979200	3.282200	-9.777300	25.352559	-5.727573E-5	20.785210
1412.435842	-2.988400	3.281700	-9.805500	25.339388	-5.816679E-5	20.779097
1413.420197	-3.007000	3.279800	-9.861700	25.372240	-5.780377E-5	20.772255
1414.437765	-2.995200	3.280000	-9.823200	25.411825	-5.753975E-5	20.809158
1415.440759	-3.004600	3.280700	-9.856500	25.389529	-5.810079E-5	20.776813
1416.423483	-2.985900	3.279200	-9.790500	25.397186	-5.701171E-5	20.789243
1417.424486	-2.989600	3.278600	-9.801200	25.428925	-5.872783E-5	20.760421
1418.423982	-3.003100	3.279500	-9.848000	25.440309	-5.773776E-5	20.777542
1419.446324	-2.993000	3.278600	-9.812000	25.493918	-5.803478E-5	20.784910
1420.445352	-2.989700	3.278300	-9.799900	25.495451	-5.786977E-5	20.774121
1421.444584	-2.998400	3.278800	-9.830500	25.480454	-5.942089E-5	20.784191
1422.442986	-2.998500	3.278200	-9.828600	25.490446	-5.625265E-5	20.795173
1423.441373	-2.996900	3.276600	-9.818800	25.485430	-5.958590E-5	20.786817
1424.442534	-3.014500	3.275400	-9.872700	25.526776	-5.645067E-5	20.790406
1425.448940	-2.996200	3.276900	-9.816500	25.551059	-5.757275E-5	20.787291
1426.448772	-2.997900	3.276700	-9.822300	25.550780	-5.902486E-5	20.790804
1427.446781	-3.000900	3.274900	-9.826800	25.502910	-5.872783E-5	20.783982
1428.443378	-3.016600	3.275700	-9.880600	25.476190	-5.862883E-5	20.791288
1429.450388	-3.019700	3.274100	-9.886200	25.423036	-6.074098E-5	20.799079
1430.445927	-2.987000	3.273300	-9.776300	25.427682	-5.981692E-5	20.803744
1431.448970	-3.005600	3.273200	-9.837400	25.425230	-5.823280E-5	20.803178
1432.450595	-2.997800	3.272200	-9.808600	25.488045	-5.744074E-5	20.788968
1433.450338	-2.993700	3.273200	-9.798600	25.527782	-5.714372E-5	20.792364
1434.448360	-2.992900	3.272900	-9.794800	25.566660	-5.753975E-5	20.777829
1435.455562	-2.972700	3.271900	-9.725400	25.593317	-5.773776E-5	20.787531
1436.453209	-2.994600	3.271500	-9.795600	25.618339	-5.902486E-5	20.794643
1437.454014	-2.988700	3.271300	-9.776200	25.590840	-5.750674E-5	20.780776
1438.447148	-2.997800	3.271300	-9.806300	25.567183	-5.981692E-5	20.797794
1439.449358	-3.004500	3.270400	-9.825500	25.571356	-5.730873E-5	20.792976
1440.455059	-2.975900	3.270600	-9.731900	25.602288	-5.998193E-5	20.801756
1441.451276	-3.010000	3.268800	-9.838000	25.594094	-5.876084E-5	20.817234
1442.459551	-2.980400	3.269200	-9.742500	25.565843	-5.800178E-5	20.796448
1443.459017	-2.993000	3.268500	-9.781300	25.554116	-5.938788E-5	20.803637
1444.450194	-3.017800	3.269600	-9.866200	25.527600	-6.047696E-5	20.814466
1445.456186	-3.015900	3.268200	-9.855800	25.473530	-6.080699E-5	20.785298
1446.454176	-3.012400	3.266400	-9.838600	25.508891	-5.856282E-5	20.806110
1447.438869	-2.996100	3.267000	-9.787300	25.527011	-5.763875E-5	20.802021
1448.452623	-3.009500	3.267400	-9.831900	25.505728	-6.004793E-5	20.797244
1449.456830	-3.006500	3.266700	-9.820400	25.563279	-5.925587E-5	20.807624
1450.443102	-2.992700	3.265000	-9.770700	25.509851	-5.991592E-5	20.799961
1451.435239	-3.000100	3.264200	-9.792700	25.492508	-5.971791E-5	20.811468
1452.456508	-3.011400	3.264200	-9.829200	25.481495	-6.074098E-5	20.809893
1453.461824	-2.997600	3.264700	-9.785600	25.492381	-6.272113E-5	20.817979
1454.438297	-3.006100	3.264400	-9.812100	25.494411	-5.955290E-5	20.808164
1455.440583	-3.013600	3.263200	-9.832600	25.488811	-6.008094E-5	20.812023
1456.443535	-2.991800	3.263000	-9.761000	25.499798	-6.074098E-5	20.818315
1457.454697	-2.997400	3.261700	-9.775700	25.503768	-6.202808E-5	20.815664
1458.459777	-2.992700	3.261200	-9.759000	25.514308	-5.902486E-5	20.819610
1459.460770	-3.014200	3.260900	-9.827900	25.535417	-6.044396E-5	20.805247
1460.462267	-3.009700	3.261400	-9.814700	25.554557	-6.050997E-5	20.805502
1461.461843	-3.002600	3.261100	-9.791000	25.602409	-6.054297E-5	20.814679
1462.460556	-3.028000	3.260100	-9.870400	25.569055	-5.885984E-5	20.802519
1463.439205	-3.002500	3.259900	-9.786600	25.595124	-6.044396E-5	20.817320
1464.438426	-3.015600	3.260800	-9.832400	25.592473	-5.730873E-5	20.812288
1465.461495	-2.979700	3.259700	-9.711500	25.637796	-6.133503E-5	20.823667
1466.457211	-3.008700	3.259300	-9.805700	25.631136	-6.027895E-5	20.804176
1467.440289	-2.973300	3.260600	-9.693600	25.661949	-6.249011E-5	20.826114
1468.442538	-2.985300	3.258700	-9.727500	25.677249	-6.041096E-5	20.825834
1469.440572	-2.989600	3.258500	-9.740800	25.707030	-6.047696E-5	20.826349
1470.443398	-3.020900	3.256200	-9.836100	25.700755	-6.110401E-5	20.816254
1471.462009	-2.993800	3.256800	-9.748700	25.708893	-5.915687E-5	20.822056
1472.466356	-3.011700	3.255900	-9.804900	25.690943	-6.209408E-5	20.808295
1473.440605	-3.000100	3.256000	-9.767700	25.685228	-6.262212E-5	20.830529
1474.448198	-2.993500	3.254600	-9.741600	25.674141	-6.235810E-5	20.822239
1475.441980	-2.999800	3.254700	-9.762900	25.644095	-6.222609E-5	20.800596
1476.444303	-3.009200	3.255300	-9.794800	25.648039	-6.176406E-5	20.821153
1477.465261	-3.007900	3.254000	-9.786100	25.661872	-6.136803E-5	20.811812
1478.461143	-2.992500	3.253300	-9.734200	25.624180	-6.004793E-5	20.822794
1479.465751	-3.001300	3.253700	-9.764400	25.616195	-6.120302E-5	20.826628
1480.465314	-2.980400	3.254500	-9.699400	25.636089	-6.255612E-5	20.835703
1481.446748	-3.004100	3.253200	-9.771800	25.687354	-6.146704E-5	20.828871
1482.464799	-2.993000	3.251400	-9.730900	25.738403	-6.268813E-5	20.833679
1483.449532	-3.002600	3.251700	-9.762800	25.764914	-6.239111E-5	20.826169
1484.463002	-2.999400	3.252200	-9.754000	25.775862	-6.199508E-5	20.826261
1485.462538	-2.999600	3.251900	-9.753900	25.782064	-6.298515E-5	20.831542
1486.468137	-3.001400	3.250200	-9.754700	25.798037	-6.318316E-5	20.819612
1487.468118	-3.012300	3.249300	-9.787100	25.811203	-6.301815E-5	20.841372
1488.466913	-3.033700	3.248300	-9.853900	25.759036	-6.216009E-5	20.832118
1489.457525	-3.010700	3.247800	-9.777300	25.755249	-6.126902E-5	20.820254
1490.454797	-3.007300	3.248300	-9.767800	25.763924	-6.324917E-5	20.838924
1491.449655	-3.020700	3.247400	-9.808900	25.768390	-6.255612E-5	20.840092
1492.456326	-3.015900	3.247400	-9.793100	25.808092	-6.173106E-5	20.840143
1493.454065	-3.011000	3.247200	-9.776500	25.794505	-6.179706E-5	20.846883
1494.449547	-3.004300	3.246300	-9.751800	25.781110	-6.150004E-5	20.849549
1495.457626	-2.972500	3.246600	-9.649500	25.809929	-6.183006E-5	20.835825
1496.456638	-3.006400	3.245800	-9.757200	25.824166	-6.070798E-5	20.861504
1497.455147	-2.986700	3.246800	-9.696800	25.814878	-6.067498E-5	20.827520
1498.456049	-3.030900	3.246500	-9.839300	25.829460	-6.361220E-5	20.849279
1499.456067	-3.028400	3.246100	-9.829800	25.810721	-6.588937E-5	20.847999
1500.456303	-2.995800	3.243800	-9.716700	25.790459	-6.126902E-5	20.825750
1501.456800	-2.981800	3.244700	-9.674100	25.740169	-6.473428E-5	20.835927
1502.454193	-2.976800	3.243100	-9.653800	25.736276	-6.301815E-5	20.846240
1503.456007	-3.014700	3.242800	-9.775000	25.718388	-6.377721E-5	20.851507
1504.456499	-3.001900	3.242300	-9.731500	25.682191	-6.367820E-5	20.876789
1505.458799	-3.002400	3.241800	-9.731800	25.680328	-6.321617E-5	20.840780
1506.461831	-3.005700	3.240400	-9.738800	25.733687	-6.308416E-5	20.847433
1507.460198	-3.014100	3.240900	-9.766900	25.762366	-6.298515E-5	20.866281
1508.462244	-2.994200	3.240400	-9.701700	25.754544	-6.146704E-5	20.837563
1509.458068	-2.982400	3.239900	-9.662100	25.762442	-6.258912E-5	20.856875
1510.461894	-3.026100	3.238700	-9.799300	25.722150	-6.282014E-5	20.874724
1511.460682	-3.007600	3.238700	-9.739600	25.705612	-6.285314E-5	20.851003
1512.460556	-2.991900	3.238100	-9.686700	25.684293	-6.258912E-5	20.850926
1513.458095	-3.003000	3.237100	-9.720600	25.713602	-6.344718E-5	20.849070
1514.463848	-3.010200	3.237700	-9.745600	25.756341	-6.351319E-5	20.846006
1515.463526	-2.984800	3.237400	-9.662200	25.758138	-6.245711E-5	20.864880
1516.460905	-3.018000	3.237500	-9.770400	25.746834	-6.298515E-5	20.850207
1517.460533	-3.010200	3.235600	-9.739400	25.731576	-6.288614E-5	20.855744
1518.461454	-2.998300	3.235600	-9.700900	25.748468	-6.239111E-5	20.860383
1519.462203	-2.996100	3.234000	-9.688400	25.753874	-6.305115E-5	20.889519
1520.462180	-3.007300	3.233600	-9.723400	25.748860	-6.285314E-5	20.858405
1521.464626	-2.993700	3.234000	-9.680600	25.759818	-6.268813E-5	20.861826
1522.465329	-2.997400	3.233800	-9.690900	25.770523	-6.229210E-5	20.851717
1523.466830	-2.995300	3.233500	-9.684700	25.791983	-6.173106E-5	20.854780
1524.469798	-3.016200	3.231800	-9.746600	25.847311	-5.922287E-5	20.876692
1525.464586	-3.002800	3.233100	-9.708100	25.863115	-6.489929E-5	20.857483
1526.468831	-3.011800	3.231400	-9.731200	25.857578	-6.334818E-5	20.858084
1527.472337	-2.990200	3.231100	-9.660400	25.836171	-6.612038E-5	20.881148
1528.490991	-2.987100	3.230300	-9.648400	25.822634	-6.579036E-5	20.886517
1529.491494	-2.992800	3.231300	-9.669600	25.812580	-6.097200E-5	20.856030
1530.488367	-2.986800	3.230800	-9.648400	25.807616	-6.374421E-5	20.879966
1531.484732	-3.012900	3.230000	-9.731000	25.812032	-6.235810E-5	20.890565
1532.492614	-3.011600	3.229000	-9.723200	25.833116	-6.150004E-5	20.865753
1533.469465	-2.989600	3.228200	-9.650400	25.849915	-6.516331E-5	20.886420
1534.473120	-3.023400	3.227600	-9.756400	25.877662	-6.262212E-5	20.876362
1535.468843	-3.012300	3.227000	-9.719900	25.864243	-6.331517E-5	20.882321
1536.469464	-3.002500	3.227300	-9.688900	25.865720	-6.315016E-5	20.876219
1537.472575	-3.033500	3.225900	-9.785000	25.879931	-6.262212E-5	20.887175
1538.468637	-3.004600	3.224800	-9.687800	25.903464	-6.285314E-5	20.873359
1539.468639	-3.013200	3.223500	-9.711700	25.917817	-6.291915E-5	20.874975
1540.470635	-3.012200	3.223000	-9.707200	25.947718	-6.404123E-5	20.862816
1541.468836	-3.015700	3.223300	-9.719200	25.925927	-6.417324E-5	20.879329
1542.471614	-3.000000	3.223500	-9.669600	25.949129	-6.166505E-5	20.883673
1543.478258	-2.999800	3.222600	-9.665900	25.978533	-6.275413E-5	20.884290
1544.471733	-2.987800	3.222400	-9.626700	25.976082	-6.377721E-5	20.903163
1545.487165	-3.000800	3.222300	-9.668100	25.989042	-6.262212E-5	20.881573
1546.490006	-2.999600	3.221100	-9.660800	26.009869	-6.159905E-5	20.874996
1547.488766	-2.983900	3.222000	-9.612500	25.992204	-6.404123E-5	20.887119
1548.489183	-2.990500	3.221000	-9.631900	25.965237	-6.463527E-5	20.886105
1549.493127	-3.011000	3.219800	-9.694300	25.926794	-6.519631E-5	20.894425
1550.491919	-2.974900	3.219600	-9.577400	25.954331	-6.381021E-5	20.894588
1551.478385	-3.021600	3.218500	-9.724400	25.983846	-6.470128E-5	20.892473
1552.492134	-3.010100	3.217200	-9.683500	25.997802	-6.288614E-5	20.892743
1553.472142	-3.038700	3.216700	-9.773200	25.999141	-6.354619E-5	20.887451
1554.477584	-2.973800	3.218500	-9.569900	25.999867	-6.275413E-5	20.907619
1555.495198	-2.995400	3.217300	-9.636500	25.960655	-6.315016E-5	20.896674
1556.474878	-2.976500	3.218000	-9.578000	25.927145	-6.367820E-5	20.880554
1557.476356	-2.993600	3.214900	-9.623200	25.929952	-6.351319E-5	20.876261
1558.475863	-2.998300	3.215400	-9.639700	25.921253	-6.364520E-5	20.897392
1559.474072	-2.993000	3.214900	-9.621000	25.917092	-6.308416E-5	20.868084
1560.475324	-2.984100	3.218300	-9.602300	25.949937	-6.410723E-5	20.895863
1561.474426	-2.988300	3.216600	-9.611400	25.979670	-6.496530E-5	20.881166
1562.477332	-2.958800	3.213500	-9.506400	25.959645	-6.361220E-5	20.876695
1563.475572	-2.985900	3.211800	-9.588800	25.969491	-6.384321E-5	20.885163
1564.496263	-2.992600	3.211900	-9.611500	25.985562	-6.513031E-5	20.875232
1565.491250	-2.976600	3.213600	-9.564900	25.945522	-6.489929E-5	20.874360
1566.501471	-2.995300	3.210900	-9.616800	25.955814	-6.305115E-5	20.897974
1567.495421	-3.014400	3.210700	-9.677000	25.902035	-6.245711E-5	20.890414
1568.495631	-2.971800	3.210800	-9.540900	25.891281	-6.268813E-5	20.885301
1569.496006	-2.977400	3.210500	-9.558700	25.900756	-6.621939E-5	20.849777
1570.496998	-2.997600	3.209000	-9.618100	25.957327	-6.390922E-5	20.868202
1571.499557	-2.981600	3.208500	-9.565400	25.991308	-6.272113E-5	20.869151
1572.493231	-3.050300	3.207300	-9.781700	26.004816	-6.433825E-5	20.873713
1573.490810	-2.999200	3.207100	-9.618000	26.000873	-6.460227E-5	20.857899
1574.497838	-3.006100	3.205900	-9.636800	25.989329	-6.169805E-5	20.863844
1575.496102	-3.004200	3.206200	-9.631200	25.992531	-6.466827E-5	20.852837
1576.501381	-3.011900	3.204200	-9.649800	25.958830	-6.371120E-5	20.871608
1577.499800	-2.996600	3.206400	-9.606500	25.964544	-6.397522E-5	20.874030
1578.500422	-2.996500	3.203200	-9.597500	25.969314	-6.367820E-5	20.864598
1579.502128	-3.008300	3.203000	-9.635000	25.976582	-6.631840E-5	20.855779
1580.498129	-2.985800	3.203800	-9.565500	25.962154	-6.417324E-5	20.878267
1581.497504	-2.995900	3.202600	-9.594000	25.944488	-6.453626E-5	20.859098
1582.497046	-2.990400	3.200900	-9.571800	25.965270	-6.374421E-5	20.847734
1583.499063	-2.967400	3.203200	-9.504500	25.990202	-6.612038E-5	20.858558
1584.496419	-3.020400	3.200600	-9.666600	26.033636	-6.516331E-5	20.848142
1585.499650	-2.992400	3.200500	-9.576300	26.084780	-6.186307E-5	20.825088
1586.504025	-3.022200	3.198100	-9.664500	26.086987	-6.351319E-5	20.851012
1587.497411	-2.994200	3.199000	-9.577300	26.100165	-6.456927E-5	20.855243
1588.503883	-2.995400	3.197800	-9.577700	26.074758	-6.460227E-5	20.873337
1589.497363	-2.993000	3.197600	-9.569600	26.016149	-6.377721E-5	20.861866
1590.504870	-3.003900	3.196000	-9.599900	26.020908	-6.456927E-5	20.871389
1591.503390	-3.008200	3.195100	-9.610600	26.014799	-6.480028E-5	20.849131
1592.504578	-3.032100	3.195600	-9.688400	25.981813	-6.417324E-5	20.859612
1593.500398	-3.010600	3.194200	-9.615600	26.044327	-6.542733E-5	20.847030
1594.501266	-3.016500	3.193500	-9.632000	26.051802	-6.486629E-5	20.844583
1595.500624	-3.002600	3.193700	-9.588500	26.038512	-6.522932E-5	20.844506
1596.503762	-2.977200	3.193500	-9.506300	26.038131	-6.493229E-5	20.857399
1597.505302	-2.999800	3.192500	-9.576100	26.048041	-6.618639E-5	20.842701
1598.509003	-3.014400	3.193000	-9.624200	26.105563	-6.447026E-5	20.840754
1599.485449	-3.012100	3.191500	-9.612200	26.173833	-6.546033E-5	20.852454
1600.486976	-3.003500	3.190600	-9.581200	26.097044	-6.806753E-5	20.839306
1601.488903	-3.009600	3.190300	-9.600600	26.099560	-6.720946E-5	20.842782
1602.503530	-3.002000	3.188300	-9.570300	26.139772	-6.645041E-5	20.840988
1603.493466	-3.006400	3.188300	-9.584400	26.109201	-6.562535E-5	20.824021
1604.488250	-2.978900	3.189300	-9.499900	26.072458	-6.354619E-5	20.842578
1605.511731	-3.034300	3.186200	-9.667700	26.110236	-6.605438E-5	20.842130
1606.506557	-3.018000	3.188300	-9.621000	26.092329	-6.565835E-5	20.831250
1607.507817	-3.023800	3.186600	-9.634500	26.091999	-6.565835E-5	20.842772
1608.507895	-3.004700	3.186300	-9.572900	26.067638	-6.734147E-5	20.823511
1609.490138	-2.995200	3.185300	-9.539800	26.064552	-6.588937E-5	20.843170
1610.489375	-2.983400	3.183300	-9.496200	26.118912	-6.638440E-5	20.801062
1611.489168	-3.019700	3.183000	-9.610900	26.157272	-6.503130E-5	20.830123
1612.490694	-3.001600	3.181900	-9.550300	26.172818	-6.757249E-5	20.830572
1613.489623	-2.998500	3.181800	-9.540100	26.196665	-6.348019E-5	20.828456
1614.492356	-3.001600	3.181700	-9.549300	26.154364	-6.747348E-5	20.841900
1615.488817	-3.002600	3.179700	-9.546900	26.147580	-6.635140E-5	20.829868
1616.492988	-3.016100	3.180400	-9.591600	26.149874	-6.668142E-5	20.820319
1617.493489	-3.012200	3.179200	-9.575400	26.075914	-6.618639E-5	20.846999
1618.513642	-3.002500	3.177800	-9.540100	26.090253	-6.674743E-5	20.839596
1619.506723	-2.977900	3.178100	-9.463800	26.139863	-6.549334E-5	20.812631
1620.513353	-3.000000	3.177200	-9.531000	26.179054	-6.351319E-5	20.838260
1621.510178	-2.973300	3.179300	-9.451300	26.213971	-6.397522E-5	20.830200
1622.490886	-3.010900	3.176000	-9.562100	26.232474	-6.763849E-5	20.839785
1623.507526	-3.017600	3.173900	-9.577000	26.238558	-6.661542E-5	20.837363
1624.491492	-3.024200	3.172900	-9.594600	26.224950	-6.608738E-5	20.816103
1625.491898	-3.009200	3.172600	-9.545800	26.177928	-6.618639E-5	20.850405
1626.490877	-2.998000	3.172100	-9.508900	26.143496	-6.615338E-5	20.817230
1627.492921	-3.001100	3.170900	-9.515700	26.120922	-6.529532E-5	20.821574
1628.496215	-3.007400	3.171000	-9.535200	26.084941	-6.588937E-5	20.809129
1629.492245	-2.988500	3.171100	-9.476200	26.112819	-6.668142E-5	20.831924
1630.491953	-3.010900	3.169600	-9.542200	26.169089	-6.374421E-5	20.818291
1631.495573	-3.024700	3.169100	-9.584900	26.197462	-6.519631E-5	20.824516
1632.508022	-3.016700	3.168300	-9.557200	26.190678	-6.803452E-5	20.834294
1633.509668	-2.981000	3.167800	-9.442400	26.214830	-6.595537E-5	20.813519
1634.510658	-2.997400	3.166300	-9.489600	26.155938	-6.569135E-5	20.826887
1635.507893	-3.020400	3.166200	-9.561900	26.120456	-6.645041E-5	20.811623
1636.516225	-2.987000	3.164700	-9.452200	26.105046	-6.734147E-5	20.831226
1637.518663	-3.008900	3.165100	-9.522800	26.102408	-6.707745E-5	20.810083
1638.513758	-3.011200	3.163900	-9.526400	26.106016	-6.661542E-5	20.815605
1639.513221	-2.990500	3.163300	-9.459400	26.141712	-6.565835E-5	20.804531
1640.510886	-2.996600	3.162500	-9.476000	26.200452	-6.602137E-5	20.804761
1641.512786	-3.009800	3.161100	-9.513700	26.218777	-6.532832E-5	20.822228
1642.515660	-2.978400	3.160700	-9.413200	26.258463	-6.730847E-5	20.799520
1643.497449	-3.003600	3.160400	-9.492500	26.239367	-6.882658E-5	20.830116
1644.512722	-3.001100	3.160700	-9.485000	26.249265	-6.602137E-5	20.811139
1645.498621	-2.990800	3.158400	-9.445300	26.305295	-6.625239E-5	20.802488
1646.499150	-3.000500	3.157400	-9.473300	26.338154	-6.519631E-5	20.827924
1647.498961	-2.996100	3.156200	-9.455300	26.340259	-6.836455E-5	20.805858
1648.498811	-2.994200	3.154600	-9.444900	26.263070	-6.470128E-5	20.825961
1649.497165	-2.992100	3.153500	-9.434000	26.242437	-6.569135E-5	20.820873
1650.516179	-2.983500	3.153700	-9.408000	26.237871	-6.684644E-5	20.815336
1651.517626	-3.013900	3.153900	-9.504500	26.262137	-6.843055E-5	20.807006
1652.517935	-3.005200	3.152900	-9.473900	26.267875	-6.813353E-5	20.808031
1653.500818	-3.007300	3.151100	-9.475600	26.311536	-6.664842E-5	20.820613
1654.521122	-2.997600	3.151900	-9.447200	26.357746	-6.612038E-5	20.794984
1655.513892	-3.001400	3.149600	-9.452600	26.346231	-6.638440E-5	20.824187
1656.516078	-3.003300	3.149500	-9.458000	26.300314	-6.420624E-5	20.797956
1657.519994	-3.004100	3.148700	-9.458300	26.286475	-6.621939E-5	20.800644
1658.516639	-2.979500	3.149400	-9.382200	26.299173	-6.460227E-5	20.822888
1659.504526	-3.006000	3.146500	-9.457200	26.345882	-6.608738E-5	20.815302
1660.504318	-2.991600	3.147300	-9.414500	26.280925	-6.480028E-5	20.829205
1661.520517	-3.005800	3.144800	-9.451800	26.313378	-6.664842E-5	20.823413
1662.521075	-2.998400	3.144000	-9.426000	26.336761	-6.628539E-5	20.830317
1663.521061	-3.010500	3.144200	-9.464900	26.375143	-6.579036E-5	20.825269
1664.527694	-2.978700	3.144000	-9.364100	26.365677	-6.621939E-5	20.821446
1665.526530	-3.002400	3.142200	-9.433700	26.358499	-6.691244E-5	20.813758
1666.521920	-3.016700	3.140400	-9.472900	26.411323	-6.767150E-5	20.817062
1667.502903	-3.015200	3.140200	-9.467400	26.409603	-6.559234E-5	20.781669
1668.506070	-3.009200	3.140500	-9.449300	26.419571	-6.546033E-5	20.805438
1669.505422	-2.985900	3.137800	-9.368000	26.411130	-6.618639E-5	20.808334
1670.507109	-2.994900	3.137400	-9.395000	26.412839	-6.658242E-5	20.799147
1671.507173	-3.001800	3.137600	-9.417900	26.423533	-6.513031E-5	20.792825
1672.506843	-2.993900	3.136200	-9.388900	26.383266	-6.331517E-5	20.784596
1673.508468	-2.999200	3.136500	-9.406800	26.356045	-6.648341E-5	20.808447
1674.506465	-3.029500	3.135000	-9.497000	26.399205	-6.575736E-5	20.811995
1675.507302	-2.991900	3.134000	-9.375700	26.316277	-6.483329E-5	20.812576
1676.509748	-3.021400	3.131800	-9.462100	26.309646	-6.681343E-5	20.821559
1677.509924	-3.008900	3.131500	-9.421900	26.338309	-6.522932E-5	20.811959
1678.512137	-2.996800	3.131000	-9.382400	26.357475	-6.645041E-5	20.797082
1679.510479	-3.005300	3.130600	-9.407900	26.367829	-6.377721E-5	20.802272
1680.526358	-2.995800	3.131500	-9.380300	26.407559	-6.466827E-5	20.795736
1681.526287	-2.979900	3.129800	-9.325800	26.445837	-6.559234E-5	20.808130
1682.513272	-3.005900	3.128600	-9.403900	26.481333	-6.678043E-5	20.812514
1683.510343	-3.006500	3.127500	-9.402400	26.525523	-6.549334E-5	20.800982
1684.527141	-3.007300	3.125800	-9.399500	26.527526	-6.480028E-5	20.785451
1685.526105	-2.989500	3.124800	-9.340400	26.461220	-6.509731E-5	20.790876
1686.527105	-3.022500	3.124300	-9.442500	26.405630	-6.684644E-5	20.806125
1687.531158	-3.007800	3.125400	-9.399400	26.425078	-6.615338E-5	20.807654
1688.529500	-3.009000	3.123200	-9.397100	26.431723	-6.569135E-5	20.792047
1689.510786	-3.016500	3.122300	-9.416600	26.403838	-6.526232E-5	20.782513
1690.511024	-2.982800	3.122200	-9.312000	26.388118	-6.618639E-5	20.806542
1691.510543	-3.002200	3.120800	-9.368400	26.392429	-6.704445E-5	20.783849
1692.512217	-2.987500	3.120000	-9.319800	26.395787	-6.668142E-5	20.762567
1693.529677	-3.002900	3.119400	-9.366200	26.404664	-6.753949E-5	20.799938
1694.508901	-2.985900	3.118600	-9.310300	26.438518	-6.513031E-5	20.802197
1695.510202	-3.001500	3.115800	-9.350900	26.470510	-6.496530E-5	20.781721
1696.529768	-3.006900	3.115700	-9.368300	26.441288	-6.483329E-5	20.786488
1697.512601	-3.014100	3.115000	-9.387100	26.457651	-6.555934E-5	20.796771
1698.514470	-3.011800	3.114300	-9.378800	26.455206	-6.493229E-5	20.780563
1699.514395	-3.001800	3.113900	-9.346400	26.463483	-6.800152E-5	20.784615
1700.513374	-3.021300	3.112400	-9.402600	26.485594	-6.513031E-5	20.794511
1701.513321	-3.028400	3.110500	-9.419300	26.476402	-6.681343E-5	20.780531
1702.513515	-3.016000	3.112400	-9.386800	26.438780	-6.575736E-5	20.765475
1703.513231	-2.996800	3.110800	-9.321600	26.409013	-6.889259E-5	20.793404
1704.513510	-3.012600	3.109900	-9.367900	26.407587	-6.628539E-5	20.785333
1705.515014	-2.997200	3.108000	-9.314300	26.444627	-6.724247E-5	20.771827
1706.515797	-2.984500	3.106800	-9.271700	26.475929	-6.664842E-5	20.757770
1707.513519	-2.993500	3.108400	-9.304100	26.459931	-6.625239E-5	20.767294
1708.533950	-2.993400	3.106300	-9.297000	26.444059	-6.664842E-5	20.758453
1709.536117	-2.999300	3.105900	-9.314600	26.453088	-6.542733E-5	20.767528
1710.529881	-3.026600	3.104400	-9.394100	26.471384	-6.645041E-5	20.748933
1711.532853	-3.009000	3.103000	-9.336500	26.537008	-6.595537E-5	20.753731
1712.533789	-3.012800	3.103300	-9.348500	26.572781	-6.536133E-5	20.784001
1713.533364	-2.995700	3.102900	-9.294700	26.592607	-6.724247E-5	20.768843
1714.519105	-2.978800	3.102700	-9.241500	26.590811	-6.783651E-5	20.757080
1715.517840	-3.012500	3.100800	-9.340500	26.573435	-6.536133E-5	20.770433
1716.520006	-3.009900	3.100200	-9.330800	26.555972	-6.631840E-5	20.763785
1717.520462	-2.987400	3.099000	-9.256900	26.569144	-6.767150E-5	20.757110
1718.521188	-2.979100	3.098500	-9.229800	26.554623	-6.849656E-5	20.748677
1719.518508	-2.981400	3.097500	-9.234200	26.537377	-6.737448E-5	20.758369
1720.520680	-2.994700	3.096800	-9.273400	26.541826	-6.707745E-5	20.766160
1721.519431	-3.006900	3.094300	-9.303700	26.510378	-6.796852E-5	20.780069
1722.523428	-2.989100	3.093400	-9.246100	26.498037	-6.648341E-5	20.769560
1723.522205	-2.989400	3.093900	-9.248500	26.508659	-6.744048E-5	20.762218
1724.521655	-2.976900	3.093700	-9.209100	26.582548	-6.648341E-5	20.764895
1725.522706	-2.997500	3.091900	-9.267400	26.560561	-6.717646E-5	20.740896
1726.522216	-2.994100	3.091500	-9.255600	26.511032	-6.786951E-5	20.751328
1727.526197	-3.033500	3.089300	-9.370600	26.472188	-6.734147E-5	20.766812
1728.524889	-3.032100	3.089700	-9.366800	26.413245	-6.786951E-5	20.749767
1729.523486	-3.003100	3.088500	-9.274500	26.429554	-6.773750E-5	20.739606
1730.525177	-3.002900	3.087700	-9.270600	26.411835	-6.836455E-5	20.743608
1731.525039	-2.981000	3.086200	-9.199200	26.509880	-6.648341E-5	20.750170
1732.524265	-3.034800	3.085500	-9.363000	26.540288	-6.456927E-5	20.756079
1733.524714	-2.998000	3.085100	-9.248400	26.549864	-6.717646E-5	20.742945
1734.524185	-3.009000	3.083700	-9.278000	26.600603	-6.532832E-5	20.726144
1735.524703	-3.015000	3.082800	-9.293300	26.596322	-6.559234E-5	20.744127
1736.525129	-3.008700	3.081700	-9.270900	26.623679	-6.777050E-5	20.755033
1737.527578	-3.017500	3.081400	-9.297500	26.567245	-6.526232E-5	20.763262
1738.541682	-3.011000	3.080500	-9.275100	26.523250	-6.592237E-5	20.750806
1739.546586	-3.006600	3.079700	-9.258400	26.556665	-6.684644E-5	20.756894
1740.529081	-2.974100	3.078200	-9.154100	26.574335	-6.697845E-5	20.738146
1741.528491	-2.985400	3.077900	-9.187300	26.565145	-6.549334E-5	20.751668
1742.527959	-2.983400	3.076500	-9.177500	26.622923	-6.621939E-5	20.738151
1743.528651	-2.983300	3.075400	-9.173900	26.590733	-6.681343E-5	20.740405
1744.544949	-2.981000	3.075800	-9.167900	26.587867	-6.740748E-5	20.726618
1745.529486	-3.009900	3.073900	-9.251200	26.568680	-6.595537E-5	20.726297
1746.528342	-2.995200	3.073200	-9.203600	26.638184	-6.753949E-5	20.719352
1747.529663	-2.984200	3.072100	-9.166900	26.623126	-6.456927E-5	20.750684
1748.529497	-2.998600	3.072200	-9.210900	26.624799	-6.654941E-5	20.731028
1749.548771	-2.996800	3.070700	-9.201600	26.615914	-6.654941E-5	20.724940
1750.547143	-2.990800	3.069500	-9.179700	26.630728	-6.384321E-5	20.735566
1751.545589	-3.010400	3.067000	-9.231800	26.634806	-6.697845E-5	20.710740
1752.547618	-3.021500	3.067400	-9.267300	26.595667	-6.671443E-5	20.704112
1753.546791	-2.991500	3.066800	-9.172600	26.593796	-6.800152E-5	20.716456
1754.545538	-3.011000	3.064200	-9.224400	26.490620	-6.704445E-5	20.731283
1755.547855	-3.005800	3.064300	-9.210100	26.416607	-6.918961E-5	20.739869
1756.530869	-2.995300	3.063300	-9.174400	26.452830	-6.635140E-5	20.724594
1757.530134	-3.014200	3.062400	-9.229800	26.503610	-6.641740E-5	20.715416
1758.533507	-3.013300	3.060000	-9.219500	26.558201	-6.509731E-5	20.720030
1759.534949	-3.002800	3.059500	-9.185900	26.575461	-6.437125E-5	20.722208
1760.533641	-2.989400	3.060000	-9.146200	26.586462	-6.793552E-5	20.741802
1761.534334	-2.968200	3.058800	-9.077900	26.610771	-6.740748E-5	20.754860
1762.533560	-3.014000	3.056200	-9.210500	26.618125	-6.664842E-5	20.742812
1763.530745	-2.996600	3.057200	-9.160000	26.679568	-6.717646E-5	20.708324
1764.532685	-2.976900	3.056900	-9.099300	26.691039	-6.631840E-5	20.744989
1765.534700	-3.010900	3.055300	-9.197300	26.754987	-6.674743E-5	20.756650
1766.532967	-3.002500	3.053400	-9.166900	26.743897	-6.420624E-5	20.728903
1767.549427	-2.996100	3.052300	-9.144400	26.738172	-6.641740E-5	20.735949
1768.548707	-2.996500	3.051000	-9.141000	26.702876	-6.555934E-5	20.731284
1769.545943	-2.994100	3.050000	-9.131300	26.672006	-6.720946E-5	20.722534
1770.554754	-3.003900	3.048100	-9.155200	26.683260	-6.777050E-5	20.718675
1771.558437	-3.007200	3.047900	-9.165000	26.679867	-6.638440E-5	20.735654
1772.548149	-2.979300	3.047700	-9.079100	26.658121	-6.615338E-5	20.716635
1773.552234	-2.980200	3.046400	-9.078400	26.655372	-6.707745E-5	20.709130
1774.551732	-2.984400	3.045100	-9.086500	26.683133	-6.579036E-5	20.737514
1775.546759	-3.018400	3.043000	-9.184100	26.708434	-6.724247E-5	20.726440
1776.558622	-3.013100	3.043200	-9.168600	26.729444	-6.638440E-5	20.744245
1777.532122	-2.989800	3.041300	-9.091900	26.709788	-6.734147E-5	20.724008
1778.534088	-2.990700	3.041500	-9.095500	26.690897	-6.790251E-5	20.724457
1779.549936	-2.989400	3.039600	-9.085800	26.630886	-6.684644E-5	20.720077
1780.554416	-3.019000	3.038600	-9.173000	26.585975	-6.793552E-5	20.742261
1781.552492	-2.996100	3.037600	-9.100000	26.568969	-6.780351E-5	20.724217
1782.549807	-3.004100	3.037100	-9.123400	26.625550	-6.691244E-5	20.749327
1783.552478	-2.999500	3.036500	-9.107500	26.716334	-6.671443E-5	20.735806
1784.555132	-2.986800	3.033600	-9.059600	26.767106	-6.423924E-5	20.721891
1785.549390	-3.000300	3.033700	-9.101500	26.804104	-6.552634E-5	20.710725
1786.560036	-2.996000	3.032400	-9.084000	26.833702	-6.621939E-5	20.732425
1787.557852	-3.029100	3.030800	-9.179100	26.857179	-6.592237E-5	20.729004
1788.535718	-3.001400	3.030000	-9.093300	26.851251	-6.503130E-5	20.730156
1789.536877	-2.992500	3.030300	-9.067500	26.811578	-6.737448E-5	20.724879
1790.541165	-2.997100	3.027800	-9.073300	26.831628	-6.737448E-5	20.727969
1791.535027	-3.031800	3.026500	-9.175100	26.826288	-6.565835E-5	20.716910
1792.536726	-2.993700	3.026400	-9.059800	26.785798	-6.496530E-5	20.724563
1793.559046	-2.982000	3.025300	-9.020900	26.750721	-6.559234E-5	20.720591
1794.552954	-3.011100	3.023000	-9.101900	26.762309	-6.381021E-5	20.724180
1795.553838	-2.998400	3.022900	-9.063200	26.754459	-6.608738E-5	20.712494
1796.554721	-3.003200	3.022200	-9.075700	26.799235	-6.450326E-5	20.735703
1797.550740	-3.018000	3.020200	-9.114000	26.847671	-6.443726E-5	20.715176
1798.553436	-2.973900	3.020900	-8.983100	26.897950	-6.499830E-5	20.733964
1799.554338	-3.021800	3.017000	-9.115600	26.875255	-6.549334E-5	20.738645
1800.553150	-3.011900	3.017000	-9.086000	26.862254	-6.813353E-5	20.721778
1801.558439	-3.028700	3.014000	-9.127600	26.845369	-6.618639E-5	20.727086
1802.556186	-3.005900	3.014800	-9.060800	26.863967	-6.684644E-5	20.731563
1803.553333	-3.012300	3.013000	-9.075300	26.844953	-6.747348E-5	20.745161
1804.560153	-3.013800	3.012500	-9.078700	26.830197	-6.575736E-5	20.718469
1805.538543	-2.999900	3.011300	-9.032700	26.819234	-6.658242E-5	20.734948
1806.539056	-3.003900	3.009100	-9.037500	26.808479	-6.598837E-5	20.713702
1807.539491	-3.007800	3.009100	-9.049800	26.846829	-6.740748E-5	20.728080
1808.562435	-2.969100	3.009200	-8.934100	26.797353	-6.555934E-5	20.710102
1809.563259	-3.001700	3.007600	-9.027100	26.862228	-6.740748E-5	20.729814
1810.563539	-3.020400	3.005800	-9.078200	26.876197	-6.671443E-5	20.732480
1811.546814	-2.980100	3.004300	-8.951900	26.848872	-6.546033E-5	20.739144
1812.546245	-2.983200	3.003500	-8.959000	26.838868	-6.635140E-5	20.707746
1813.568789	-2.978900	3.003000	-8.943400	26.810664	-6.516331E-5	20.721115
1814.563913	-3.021000	3.001300	-9.065700	26.840871	-6.704445E-5	20.728728
1815.564254	-2.992300	3.000100	-8.976400	26.811775	-6.674743E-5	20.734560
1816.546439	-3.013800	2.999000	-9.037100	26.836920	-6.526232E-5	20.723333
1817.561059	-3.025100	2.997500	-9.067200	26.820988	-6.697845E-5	20.731022
1818.569333	-2.978400	2.996700	-8.924600	26.833341	-6.668142E-5	20.716414
1819.549963	-3.011800	2.995400	-9.021000	26.762845	-6.770450E-5	20.736574
1820.552009	-3.014600	2.992800	-9.021100	26.735188	-6.796852E-5	20.741010
1821.566118	-2.996500	2.993200	-8.968500	26.802444	-6.483329E-5	20.724705
1822.547563	-2.997500	2.991100	-8.964900	26.873246	-6.582336E-5	20.750376
1823.551341	-2.992500	2.988800	-8.942400	26.904368	-6.747348E-5	20.730461
1824.550096	-3.020300	2.987600	-9.022500	26.865879	-6.862857E-5	20.724949
1825.549139	-3.012900	2.988300	-9.002900	26.885136	-6.668142E-5	20.723450
1826.551351	-3.010600	2.986400	-8.990000	26.900469	-6.658242E-5	20.732704
1827.554481	-3.031200	2.984400	-9.045600	26.909647	-6.605438E-5	20.740036
1828.551259	-3.026000	2.984200	-9.029800	26.889690	-6.753949E-5	20.721865
1829.554538	-2.982000	2.982300	-8.892500	26.905377	-6.730847E-5	20.735743
1830.553952	-3.007800	2.982200	-8.968300	26.948809	-6.229210E-5	20.746700
1831.551090	-3.014800	2.981000	-8.986000	26.928138	-6.694544E-5	20.732551
1832.553006	-2.980400	2.979500	-8.878900	26.883762	-6.615338E-5	20.732026
1833.556030	-2.990600	2.980000	-8.910700	26.916720	-6.546033E-5	20.722018
1834.553595	-3.006200	2.977800	-8.951100	26.964014	-6.447026E-5	20.746818
1835.553333	-3.004800	2.975700	-8.940400	26.948439	-6.496530E-5	20.735422
1836.556879	-3.041100	2.974800	-9.045400	26.956825	-6.262212E-5	20.730578
1837.555884	-2.965200	2.974200	-8.816800	26.941214	-6.377721E-5	20.743330
1838.557450	-3.003100	2.971700	-8.923600	26.934739	-6.463527E-5	20.744880
1839.555337	-3.013600	2.971000	-8.951600	26.967361	-6.496530E-5	20.740225
1840.556318	-3.017700	2.969100	-8.958400	26.961829	-6.456927E-5	20.754578
1841.556077	-3.017300	2.968700	-8.956500	26.939120	-6.480028E-5	20.746440
1842.559457	-2.986500	2.967100	-8.860300	26.883326	-6.456927E-5	20.755297
1843.556913	-2.990800	2.967900	-8.875800	26.891824	-6.460227E-5	20.746298
1844.556845	-2.995900	2.965500	-8.883400	26.953083	-6.542733E-5	20.738196
1845.575261	-3.010200	2.963400	-8.919600	27.031966	-6.324917E-5	20.756357
1846.557723	-2.991700	2.962400	-8.862200	27.068296	-6.423924E-5	20.757805
1847.557855	-2.959600	2.962200	-8.766000	27.042375	-6.354619E-5	20.743590
1848.574546	-3.015600	2.959600	-8.924700	27.026942	-6.529532E-5	20.749882
1849.573359	-2.987800	2.957100	-8.834100	27.046937	-6.608738E-5	20.748653
1850.578357	-3.005700	2.956900	-8.886700	27.040499	-6.470128E-5	20.743601
1851.576519	-3.000200	2.955000	-8.864400	27.012960	-6.400823E-5	20.746252
1852.575115	-2.996300	2.953700	-8.849000	27.023216	-6.377721E-5	20.746135
1853.578786	-2.996100	2.952400	-8.844900	27.107752	-6.159905E-5	20.736794
1854.578269	-2.980300	2.952000	-8.797300	27.083732	-6.522932E-5	20.755312
1855.561626	-3.008600	2.951500	-8.879300	27.068108	-6.301815E-5	20.738176
1856.560817	-2.970700	2.949300	-8.760700	27.076108	-6.410723E-5	20.760447
1857.562688	-3.008600	2.948800	-8.871200	27.032352	-6.381021E-5	20.752003
1858.565378	-3.017000	2.946400	-8.888600	26.961322	-6.410723E-5	20.772561
1859.585462	-2.995200	2.944100	-8.817500	26.992173	-6.374421E-5	20.764704
1860.579517	-3.022900	2.943900	-8.897900	27.042699	-6.394222E-5	20.743443
1861.584842	-2.988000	2.943400	-8.793000	27.113166	-6.364520E-5	20.755042
1862.579263	-2.983100	2.941300	-8.773700	27.146724	-6.453626E-5	20.749913
1863.586097	-2.976800	2.941500	-8.755000	27.151464	-6.331517E-5	20.761793
1864.585004	-2.987000	2.939000	-8.778100	27.115467	-6.255612E-5	20.748822
1865.578350	-3.009000	2.937700	-8.838700	27.170271	-6.291915E-5	20.759371
1866.584857	-2.989400	2.935600	-8.774800	27.183288	-6.262212E-5	20.775309
1867.565945	-2.957100	2.935400	-8.679300	27.120643	-6.516331E-5	20.769201
1868.563831	-2.984200	2.934100	-8.755200	27.109987	-6.331517E-5	20.780769
1869.565863	-3.008200	2.930100	-8.813800	27.135481	-6.453626E-5	20.776538
1870.564444	-3.010100	2.929200	-8.815700	27.191748	-6.324917E-5	20.764852
1871.585721	-2.984700	2.929700	-8.743500	27.251870	-6.305115E-5	20.755149
1872.585205	-3.018100	2.926400	-8.831000	27.281683	-6.315016E-5	20.760482
1873.586578	-3.004100	2.925400	-8.788000	27.332348	-6.430525E-5	20.773040
1874.584149	-2.992700	2.924300	-8.750700	27.355611	-6.219309E-5	20.777950
1875.569454	-3.002700	2.921900	-8.772300	27.338283	-6.315016E-5	20.765734
1876.569247	-2.986200	2.922700	-8.727100	27.287913	-6.301815E-5	20.795198
1877.571725	-3.005000	2.919500	-8.772400	27.173003	-6.308416E-5	20.765913
1878.566465	-3.007000	2.917600	-8.772600	27.131963	-6.189607E-5	20.763990
1879.571254	-2.995500	2.916000	-8.734200	27.210321	-6.526232E-5	20.759351
1880.573456	-2.981400	2.915300	-8.690300	27.206752	-6.265513E-5	20.779944
1881.571750	-3.007200	2.912400	-8.757100	27.167802	-6.361220E-5	20.777751
1882.570418	-3.012300	2.912800	-8.772600	27.143374	-6.381021E-5	20.785425
1883.590716	-3.007200	2.909300	-8.746500	27.146674	-6.410723E-5	20.774519
1884.585218	-2.994200	2.909300	-8.710600	27.108690	-6.252312E-5	20.769507
1885.587707	-3.011800	2.906800	-8.752900	27.147105	-6.258912E-5	20.792022
1886.570725	-2.995900	2.906100	-8.704500	27.239082	-6.262212E-5	20.782116
1887.589539	-2.996000	2.904100	-8.700200	27.253097	-6.183006E-5	20.791472
1888.570631	-3.011700	2.902800	-8.741000	27.165973	-6.186307E-5	20.798671
1889.591317	-3.008300	2.900400	-8.724100	27.096706	-6.377721E-5	20.778318
1890.588086	-3.025500	2.897900	-8.766500	27.150056	-6.219309E-5	20.779343
1891.589891	-2.978100	2.898300	-8.630300	27.256199	-6.206108E-5	20.804549
1892.572042	-2.979000	2.895400	-8.625500	27.214331	-6.334818E-5	20.782825
1893.586714	-2.969700	2.896700	-8.601000	27.185626	-6.315016E-5	20.778609
1894.593372	-3.005100	2.893200	-8.693100	27.175954	-6.216009E-5	20.785951
1895.593950	-3.004900	2.892500	-8.690300	27.216891	-6.242411E-5	20.792986
1896.596109	-3.001300	2.890000	-8.672700	27.189661	-6.136803E-5	20.779822
1897.589527	-3.018700	2.887300	-8.715100	27.175863	-6.202808E-5	20.792497
1898.598208	-3.031500	2.884100	-8.742000	27.176588	-6.219309E-5	20.792278
1899.590799	-3.025100	2.883200	-8.720700	27.189762	-6.192907E-5	20.806003
1900.596635	-2.989600	2.883100	-8.618300	27.210682	-6.272113E-5	20.772042
1901.595090	-3.022700	2.882400	-8.710800	27.225524	-6.295215E-5	20.807833
1902.594390	-2.982600	2.880100	-8.589000	27.268217	-6.272113E-5	20.793405
1903.577415	-3.018900	2.878300	-8.688500	27.319683	-6.064198E-5	20.805345
1904.579491	-2.966600	2.876400	-8.531800	27.310600	-6.268813E-5	20.793364
1905.595253	-3.019100	2.874000	-8.676000	27.304306	-6.480028E-5	20.778497
1906.594009	-3.005900	2.872000	-8.632300	27.299541	-6.404123E-5	20.797886
1907.595998	-3.006400	2.870600	-8.629300	27.349845	-6.150004E-5	20.793961
1908.597863	-2.985000	2.868800	-8.563100	27.391566	-6.186307E-5	20.803214
1909.600471	-2.977200	2.867500	-8.536500	27.354229	-6.348019E-5	20.792681
1910.598897	-3.003200	2.865400	-8.604800	27.420635	-6.235810E-5	20.820605
1911.600121	-2.997600	2.864300	-8.585500	27.392250	-6.361220E-5	20.814334
1912.597267	-3.024300	2.861800	-8.654200	27.414316	-6.225910E-5	20.806661
1913.605993	-3.020900	2.860200	-8.639900	27.459774	-6.235810E-5	20.790280
1914.604039	-3.006700	2.858800	-8.594200	27.475535	-6.275413E-5	20.793808
1915.598165	-3.027300	2.856600	-8.646600	27.475048	-6.311716E-5	20.797112
1916.606709	-2.994900	2.855400	-8.550600	27.489085	-6.196207E-5	20.804596
1917.603894	-2.994400	2.853800	-8.544700	27.510967	-6.443726E-5	20.799110
1918.598217	-3.009400	2.852200	-8.583000	27.489927	-6.278714E-5	20.812555
1919.600826	-2.972000	2.851300	-8.473400	27.542937	-5.984992E-5	20.823215
1920.609951	-3.017200	2.847800	-8.591100	27.531130	-6.258912E-5	20.809440
1921.603765	-2.981400	2.846600	-8.485500	27.495045	-6.282014E-5	20.793523
1922.600732	-3.008900	2.843300	-8.554900	27.467700	-6.453626E-5	20.819116
1923.602239	-2.993600	2.841500	-8.505700	27.454301	-6.489929E-5	20.783825
1924.605188	-3.007600	2.840300	-8.541600	27.477927	-6.262212E-5	20.804275
1925.607240	-3.036900	2.837900	-8.617400	27.442721	-6.414024E-5	20.802521
1926.611305	-2.980100	2.836400	-8.451500	27.442047	-6.506430E-5	20.817490
1927.605487	-3.026700	2.833800	-8.576100	27.440770	-6.255612E-5	20.819998
1928.605312	-2.981900	2.832600	-8.446000	27.462516	-6.235810E-5	20.806314
1929.609030	-3.001600	2.829800	-8.493400	27.417691	-6.265513E-5	20.828548
1930.606741	-3.005800	2.828400	-8.501100	27.454990	-6.404123E-5	20.820080
1931.587880	-3.019100	2.825400	-8.529700	27.496986	-6.549334E-5	20.828665
1932.589501	-3.042300	2.824700	-8.593000	27.554926	-6.381021E-5	20.810622
1933.590209	-2.976100	2.821300	-8.394800	27.569104	-6.225910E-5	20.810663
1934.589698	-3.028700	2.819600	-8.538500	27.635204	-6.400823E-5	20.807946
1935.607238	-2.992000	2.817300	-8.428500	27.630172	-6.367820E-5	20.805728
1936.589667	-2.996200	2.816100	-8.436900	27.591597	-6.298515E-5	20.809113
1937.592391	-2.976200	2.812600	-8.370000	27.593761	-6.133503E-5	20.812238
1938.588730	-3.000500	2.810800	-8.432000	27.589368	-6.272113E-5	20.817775
1939.605095	-2.991200	2.808300	-8.399100	27.587381	-6.166505E-5	20.817673
1940.603783	-2.986300	2.806000	-8.377700	27.580110	-6.291915E-5	20.842599
1941.606629	-3.011400	2.803400	-8.441100	27.656971	-6.202808E-5	20.823684
1942.612268	-3.007600	2.801200	-8.424300	27.685369	-6.364520E-5	20.809113
1943.605271	-2.976300	2.800100	-8.332700	27.607163	-6.196207E-5	20.821930
1944.606177	-3.009100	2.797000	-8.415400	27.585131	-6.450326E-5	20.821099
1945.611353	-3.010500	2.795000	-8.414100	27.512826	-6.255612E-5	20.802403
1946.614544	-2.989300	2.793100	-8.348800	27.531895	-6.229210E-5	20.825381
1947.611977	-3.001500	2.789600	-8.372400	27.525130	-6.262212E-5	20.818575
1948.612601	-2.992800	2.787700	-8.341900	27.519936	-6.080699E-5	20.837531
1949.607172	-3.006000	2.785800	-8.373900	27.511047	-6.394222E-5	20.834752
1950.610989	-2.997100	2.782800	-8.339300	27.564670	-6.225910E-5	20.819477
1951.616724	-3.017700	2.780000	-8.388300	27.600692	-6.163205E-5	20.834385
1952.610129	-2.982000	2.777800	-8.282500	27.552716	-6.103801E-5	20.829735
1953.612265	-3.017400	2.775100	-8.371900	27.591399	-6.328217E-5	20.821241
1954.610509	-3.007600	2.772800	-8.338800	27.661332	-6.222609E-5	20.819064
1955.612231	-3.005400	2.769200	-8.321800	27.667549	-6.133503E-5	20.851397
1956.613831	-3.016800	2.765300	-8.340600	27.665907	-6.258912E-5	20.822245
1957.609931	-2.984300	2.763900	-8.246400	27.689685	-6.348019E-5	20.814878
1958.611701	-3.009900	2.761500	-8.311200	27.720186	-5.998193E-5	20.838458
1959.613725	-3.019800	2.759100	-8.331500	27.733855	-6.041096E-5	20.845575
1960.612678	-3.000600	2.755900	-8.269100	27.750943	-5.978391E-5	20.830056
1961.616559	-2.996000	2.752700	-8.246100	27.757874	-6.225910E-5	20.829918
1962.618092	-2.990400	2.751600	-8.227200	27.834595	-6.338118E-5	20.840746
1963.617018	-2.988200	2.747900	-8.210700	27.807907	-6.117002E-5	20.828113
1964.599676	-2.996000	2.745700	-8.225300	27.792410	-6.077399E-5	20.824371
1965.601380	-3.001900	2.742000	-8.230000	27.755716	-6.288614E-5	20.845289
1966.605073	-3.008400	2.739000	-8.238800	27.732081	-6.245711E-5	20.856591
1967.600423	-2.964200	2.737500	-8.113900	27.790318	-6.044396E-5	20.852136
1968.604144	-2.993200	2.733000	-8.179300	27.816727	-6.239111E-5	20.848842
1969.609262	-2.960000	2.731400	-8.083700	27.837498	-5.984992E-5	20.848409
1970.602229	-2.987900	2.726900	-8.146700	27.860648	-6.133503E-5	20.829510
1971.606023	-3.017100	2.723400	-8.216300	27.851099	-6.123602E-5	20.838865
1972.608561	-2.986300	2.722100	-8.127700	27.897040	-6.176406E-5	20.847644
1973.602742	-3.006700	2.718900	-8.174400	27.938487	-6.080699E-5	20.832936
1974.620919	-2.980000	2.715200	-8.090600	27.902354	-6.258912E-5	20.831656
1975.602742	-2.985100	2.711100	-8.092300	27.887588	-6.133503E-5	20.847613
1976.604681	-3.002700	2.708700	-8.131900	27.853490	-6.110401E-5	20.833685
1977.603066	-2.979200	2.705600	-8.059700	27.927798	-6.285314E-5	20.834980
1978.603194	-2.985400	2.702400	-8.066900	27.971867	-6.100500E-5	20.838085
1979.605093	-2.971600	2.698900	-8.019500	27.988952	-6.265513E-5	20.855281
1980.625495	-3.011200	2.695000	-8.114000	27.959472	-6.390922E-5	20.848368
1981.621216	-3.016200	2.691300	-8.115800	27.903539	-6.262212E-5	20.875994
1982.627606	-3.026400	2.687800	-8.133800	27.894259	-6.199508E-5	20.848164
1983.618039	-3.005700	2.684800	-8.069200	27.888393	-6.050997E-5	20.830881
1984.625820	-2.995000	2.682400	-8.032400	27.831985	-6.031195E-5	20.845706
1985.627798	-2.981800	2.677300	-7.982100	27.897613	-5.816679E-5	20.867659
1986.620178	-2.986500	2.674100	-7.985100	27.984626	-6.093900E-5	20.864203
1987.628908	-2.980500	2.670500	-7.958000	28.071719	-6.004793E-5	20.863677
1988.627720	-2.960500	2.667100	-7.895200	28.036711	-6.110401E-5	20.845982
1989.623124	-2.971700	2.662800	-7.912100	28.014890	-5.889285E-5	20.833501
1990.627730	-2.999400	2.658400	-7.972800	27.992563	-5.909086E-5	20.860338
1991.626220	-2.982800	2.654900	-7.918500	27.996545	-6.107101E-5	20.850596
1992.620039	-3.013700	2.651700	-7.990700	28.059579	-6.004793E-5	20.864259
1993.624485	-2.992700	2.648000	-7.923900	28.075963	-6.077399E-5	20.859890
1994.625982	-3.011700	2.642000	-7.956700	28.040408	-5.958590E-5	20.862979
1995.623935	-2.966900	2.639300	-7.829200	28.045731	-5.951989E-5	20.830407
1996.609382	-3.001500	2.635200	-7.908900	28.111634	-6.001493E-5	20.839849
1997.631601	-3.018800	2.629500	-7.937300	28.123996	-6.367820E-5	20.833802
1998.630295	-2.988500	2.626400	-7.848000	28.092196	-6.100500E-5	20.869117
1999.631956	-2.996900	2.623300	-7.860800	28.047524	-6.338118E-5	20.856866
2000.626406	-2.995300	2.618000	-7.841200	28.052782	-6.034495E-5	20.852676
2001.628254	-2.990600	2.614200	-7.817400	28.115275	-6.117002E-5	20.861531
2002.610968	-3.017800	2.609700	-7.874900	28.223231	-5.852982E-5	20.857840
2003.609195	-2.992800	2.606700	-7.800700	28.272336	-5.965190E-5	20.877407
2004.611294	-2.980200	2.602600	-7.755400	28.330539	-5.988292E-5	20.840705
2005.633278	-2.983700	2.597000	-7.747900	28.322062	-5.843081E-5	20.839283
2006.632371	-3.014400	2.592000	-7.811700	28.380606	-5.895885E-5	20.849867
2007.633249	-3.008900	2.588200	-7.786100	28.342539	-6.090600E-5	20.856581
2008.628608	-3.033200	2.583300	-7.835100	28.250861	-6.050997E-5	20.873328
2009.635974	-3.032500	2.578600	-7.818800	28.258826	-6.140103E-5	20.849581
2010.631710	-2.998300	2.575400	-7.720900	28.324579	-5.889285E-5	20.872161
2011.628107	-2.978500	2.571500	-7.657200	28.400813	-5.866183E-5	20.870687
2012.613623	-2.986400	2.565300	-7.660400	28.432767	-5.879384E-5	20.871095
2013.612951	-3.022900	2.559500	-7.736100	28.422306	-5.938788E-5	20.872890
2014.611380	-3.010100	2.556300	-7.694000	28.311261	-5.780377E-5	20.859227
2015.611986	-2.969600	2.550400	-7.573200	28.254522	-6.054297E-5	20.869902
2016.614618	-2.988400	2.545700	-7.606700	28.235719	-5.846382E-5	20.862826
2017.612384	-3.013400	2.540000	-7.652800	28.257889	-6.044396E-5	20.842000
2018.611256	-3.001000	2.535400	-7.607300	28.252597	-5.998193E-5	20.861327
2019.611362	-2.990700	2.530200	-7.566200	28.313864	-6.140103E-5	20.869907
2020.614618	-2.986500	2.525100	-7.540200	28.321652	-5.928888E-5	20.861154
2021.615874	-2.981800	2.523100	-7.522400	28.323384	-5.912386E-5	20.861475
2022.618733	-2.982900	2.516600	-7.506000	28.337764	-5.773776E-5	20.841342
2023.618599	-2.974200	2.512400	-7.471700	28.320158	-6.021294E-5	20.861547
2024.615299	-2.964300	2.506800	-7.430300	28.328878	-5.998193E-5	20.864636
2025.614489	-2.998900	2.500900	-7.499300	28.351289	-5.889285E-5	20.863020
2026.640806	-2.989400	2.495700	-7.459300	28.381806	-6.041096E-5	20.843963
