LabVIEW Measurement	
Writer_Version	2
Reader_Version	2
Separator	Tab
Decimal_Separator	.
Multi_Headings	No
X_Columns	One
Time_Pref	Absolute
Operator	admin
Description	Clolumns are: time, Current, Voltage, Power, Battery Temp, and Chamber Temp
Date	2024/05/20
Time	16:31:59.8575258255004882812
***End_of_Header***	
	
Channels	6						
Samples	1	1	1	1	1	1	
Date	2024/06/04	2024/06/04	2024/06/04	2024/06/04	2024/06/04	2024/06/04	
Time	21:56:57.1958642005920410156	21:56:57.2019038200378417969	21:56:57.2088937759399414063	21:56:57.1788816452026367187	21:56:57.1788816452026367187	21:56:57.1788816452026367187	
X_Dimension	Time	Time	Time	Time	Time	Time	
X0	0.0000000000000000E+0	0.0000000000000000E+0	0.0000000000000000E+0	0.0000000000000000E+0	0.0000000000000000E+0	0.0000000000000000E+0	
Delta_X	1.000000	1.000000	1.000000	1.000000	1.000000	1.000000	
***End_of_Header***							
X_Value	Untitled	Untitled 1	Untitled 2	Untitled 3	Untitled 4	Untitled 5	Comment
0.000000	0.024937	4.123000	0.102840	20.729659	9.196124E-5	20.715434
1.002540	-2.989900	4.033800	-12.060000	20.707499	9.433742E-5	20.721724
2.000520	-2.991300	4.027000	-12.044000	20.698762	8.928805E-5	20.725316
2.997136	-2.994600	4.023500	-12.047000	20.690529	9.077316E-5	20.735577
4.002418	-3.010600	4.019700	-12.101000	20.712614	9.143321E-5	20.737272
5.001266	-2.966700	4.017500	-11.918000	20.708543	9.074016E-5	20.732252
6.000598	-3.024200	4.014200	-12.139000	20.709638	9.057514E-5	20.718173
7.007010	-3.016400	4.013300	-12.105000	20.715626	9.074016E-5	20.729851
8.000821	-3.018000	4.010000	-12.101000	20.733271	9.192824E-5	20.733271
9.004508	-3.014300	4.007600	-12.080000	20.731950	9.239028E-5	20.717250
10.008232	-3.003800	4.006400	-12.033000	20.721987	9.110318E-5	20.725780
10.999377	-2.994600	4.006800	-11.997000	20.740006	9.143321E-5	20.732419
12.002390	-2.970100	4.004400	-11.893000	20.724156	9.215926E-5	20.730320
13.006064	-2.994800	4.003200	-11.988000	20.720337	9.080616E-5	20.753056
14.001149	-3.003900	4.001000	-12.017000	20.702939	9.103718E-5	20.720010
15.004123	-2.996900	3.998900	-11.983000	20.745338	9.070715E-5	20.725896
16.005579	-2.998100	3.997700	-11.985000	20.730245	9.093817E-5	20.734038
17.000826	-2.996500	3.997200	-11.977000	20.732787	9.110318E-5	20.722355
18.007024	-3.011200	3.996100	-12.032000	20.737978	8.922204E-5	20.740349
19.005642	-2.996400	3.993600	-11.966000	20.726895	9.281931E-5	20.733534
20.003177	-3.012500	3.992900	-12.028000	20.744788	9.008011E-5	20.729614
21.006506	-3.010800	3.992400	-12.019000	20.740167	9.074016E-5	20.730684
22.003683	-3.010300	3.992100	-12.016000	20.773112	9.209325E-5	20.743239
23.003808	-2.979700	3.991900	-11.894000	20.752743	8.786895E-5	20.738992
24.005558	-2.987900	3.991400	-11.925000	20.769667	9.133420E-5	20.723198
25.008277	-2.970000	3.990600	-11.851000	20.745106	9.110318E-5	20.738942
26.005467	-2.992100	3.988100	-11.932000	20.765697	9.136720E-5	20.747204
27.004841	-2.987400	3.987700	-11.912000	20.760456	8.918904E-5	20.723470
28.005604	-2.994900	3.986800	-11.939000	20.763402	9.083916E-5	20.724519
29.006769	-3.026900	3.985800	-12.063000	20.774630	8.852899E-5	20.733852
30.005667	-3.005800	3.986600	-11.982000	20.766196	8.895803E-5	20.723995
31.006814	-3.028200	3.984300	-12.064000	20.770691	8.984909E-5	20.744137
32.005960	-3.006800	3.983700	-11.977000	20.772587	9.050914E-5	20.737025
33.006375	-3.012000	3.982200	-11.993000	20.777950	8.836398E-5	20.746180
34.007294	-3.009000	3.982600	-11.983000	20.786212	8.938706E-5	20.731683
35.008296	-2.999500	3.981700	-11.943000	20.778525	9.103718E-5	20.740117
36.007787	-2.994100	3.981400	-11.920000	20.779544	9.116919E-5	20.746826
37.007203	-3.003900	3.980300	-11.955000	20.789355	8.796795E-5	20.733877
38.008713	-3.010700	3.979800	-11.981000	20.796416	9.054214E-5	20.726240
39.007832	-3.002000	3.979100	-11.945000	20.811292	8.915604E-5	20.718355
40.008693	-3.013600	3.977100	-11.984000	20.801551	9.093817E-5	20.747023
41.008282	-3.002200	3.977700	-11.941000	20.796991	9.050914E-5	20.736772
42.010645	-3.000800	3.976700	-11.933000	20.832800	9.103718E-5	20.728010
43.010589	-3.005500	3.976700	-11.950000	20.822939	9.215926E-5	20.737590
44.010587	-3.007900	3.976100	-11.959000	20.810540	8.975008E-5	20.746528
45.011652	-3.008800	3.976200	-11.963000	20.815852	9.067415E-5	20.741883
46.010537	-3.006800	3.975900	-11.953000	20.820714	8.922204E-5	20.747694
47.011624	-3.025500	3.973700	-12.021000	20.825183	8.760493E-5	20.747895
48.011444	-2.999300	3.975600	-11.924000	20.826878	8.823197E-5	20.733943
49.011374	-3.020300	3.973500	-12.000000	20.838232	8.885902E-5	20.738659
50.012379	-3.019300	3.972400	-11.993000	20.852204	9.097117E-5	20.741726
51.012188	-3.003300	3.973200	-11.932000	20.842898	8.816597E-5	20.747593
52.012929	-2.986600	3.972500	-11.863000	20.845390	9.037713E-5	20.753404
53.013340	-2.972500	3.971900	-11.806000	20.854575	8.991510E-5	20.746942
54.013789	-2.986700	3.972200	-11.862000	20.840073	9.024512E-5	20.732914
55.014499	-3.000100	3.969600	-11.908000	20.861308	9.021212E-5	20.752728
56.014884	-3.000100	3.971100	-11.913000	20.861732	8.585580E-5	20.740349
57.013564	-3.015400	3.968700	-11.966000	20.861984	9.153221E-5	20.746766
58.015624	-2.987800	3.968100	-11.855000	20.873333	8.862800E-5	20.746735
59.018061	-3.003600	3.968600	-11.918000	20.862832	8.991510E-5	20.751881
60.016940	-2.991500	3.967400	-11.867000	20.889655	8.971708E-5	20.747411
61.015567	-3.003000	3.967100	-11.912000	20.866519	8.879301E-5	20.753672
62.017762	-3.009000	3.966800	-11.935000	20.887405	8.968408E-5	20.752748
63.014470	-3.014300	3.967600	-11.958000	20.886331	8.971708E-5	20.744561
64.015201	-2.999800	3.966800	-11.898000	20.893246	8.912304E-5	20.747684
65.014264	-3.019800	3.965500	-11.974000	20.888626	8.935405E-5	20.760133
66.016427	-2.988500	3.966300	-11.852000	20.898406	8.928805E-5	20.747154
67.017098	-2.994500	3.965900	-11.875000	20.894885	8.915604E-5	20.757858
68.017814	-3.033300	3.963400	-12.021000	20.920936	9.064115E-5	20.754514
69.017582	-2.995600	3.965900	-11.880000	20.933666	8.905703E-5	20.741641
70.018335	-3.008100	3.963900	-11.923000	20.936309	8.988209E-5	20.724843
71.017265	-3.012700	3.964200	-11.942000	20.927599	8.945306E-5	20.734624
72.019546	-3.010500	3.963600	-11.932000	20.927775	8.928805E-5	20.762302
73.017665	-2.998600	3.961900	-11.879000	20.929868	8.876001E-5	20.767715
74.017437	-3.007400	3.961400	-11.913000	20.935189	8.879301E-5	20.765924
75.019567	-2.997500	3.962600	-11.877000	20.949811	9.014611E-5	20.762529
76.019344	-2.994900	3.961900	-11.865000	20.946789	9.041013E-5	20.750499
77.020365	-3.009800	3.961600	-11.922000	20.931694	8.965108E-5	20.758635
78.019454	-2.993900	3.961100	-11.857000	20.964084	8.902403E-5	20.780124
79.019471	-3.003000	3.961000	-11.894000	20.941701	8.885902E-5	20.753470
80.018173	-2.982600	3.960700	-11.812000	20.954350	9.044313E-5	20.754267
81.019081	-2.985600	3.959900	-11.822000	20.948686	9.080616E-5	20.752395
82.021633	-3.004200	3.959700	-11.894000	20.974342	9.120219E-5	20.765253
83.023572	-3.017600	3.958700	-11.944000	20.964880	8.932105E-5	20.765748
84.024030	-3.013000	3.959500	-11.929000	20.976738	8.747292E-5	20.744889
85.022368	-2.996400	3.958200	-11.859000	20.977338	8.912304E-5	20.761611
86.023699	-2.990100	3.959800	-11.839000	20.977610	9.077316E-5	20.771841
87.022532	-3.006100	3.958000	-11.897000	20.992009	9.113618E-5	20.781027
88.021460	-2.995700	3.958900	-11.859000	21.001339	8.750592E-5	20.745787
89.022366	-3.003000	3.958600	-11.887000	21.012222	8.859500E-5	20.756199
90.023336	-3.000200	3.958400	-11.875000	21.002817	8.895803E-5	20.767180
91.025794	-3.008500	3.958200	-11.907000	21.004340	9.008011E-5	20.772971
92.025108	-3.010200	3.956700	-11.910000	21.022430	8.922204E-5	20.760718
93.023400	-3.000400	3.956100	-11.870000	21.022954	8.994810E-5	20.763614
94.023484	-2.988700	3.956400	-11.824000	21.007562	8.918904E-5	20.774772
95.025236	-2.996000	3.956200	-11.851000	21.026026	8.975008E-5	20.773798
96.023833	-2.993400	3.955400	-11.839000	21.014376	9.021212E-5	20.742705
97.024183	-2.992300	3.956700	-11.838000	21.027902	8.991510E-5	20.745328
98.025113	-2.996700	3.954700	-11.850000	21.040030	9.093817E-5	20.764098
99.024772	-2.982900	3.956100	-11.799000	21.020866	9.090517E-5	20.785708
100.024323	-2.994700	3.954800	-11.842000	21.053949	8.885902E-5	20.769485
101.026352	-3.001000	3.953800	-11.865000	21.057192	8.922204E-5	20.761349
102.027182	-3.012800	3.955700	-11.917000	21.048266	8.856200E-5	20.765697
103.026347	-2.993800	3.954300	-11.838000	21.045653	8.856200E-5	20.757868
104.027608	-2.991000	3.954100	-11.826000	21.070283	9.093817E-5	20.776814
105.027729	-2.998100	3.954300	-11.855000	21.057257	9.209325E-5	20.754776
106.027329	-3.002400	3.953700	-11.870000	21.068337	9.027812E-5	20.775341
107.027194	-2.993200	3.952900	-11.831000	21.070611	9.186224E-5	20.791841
108.028099	-3.010600	3.952300	-11.898000	21.082714	8.942006E-5	20.787352
109.028569	-2.999900	3.951700	-11.854000	21.079174	9.037713E-5	20.767689
110.027836	-2.986900	3.952400	-11.804000	21.051730	8.747292E-5	20.798086
111.029667	-2.981300	3.953300	-11.785000	21.072966	8.819897E-5	20.773808
112.032162	-3.014800	3.951100	-11.911000	21.102008	8.942006E-5	20.790530
113.034541	-3.000600	3.952300	-11.859000	21.090435	9.077316E-5	20.781324
114.029235	-2.989700	3.950700	-11.811000	21.108246	9.017911E-5	20.775432
115.034562	-3.017600	3.950400	-11.919000	21.117455	9.004711E-5	20.761409
116.033663	-2.999700	3.951700	-11.854000	21.101943	8.942006E-5	20.790464
117.031344	-3.004100	3.950500	-11.866000	21.108377	9.057514E-5	20.793107
118.035636	-3.004000	3.950700	-11.866000	21.134479	9.014611E-5	20.785551
119.031146	-2.993100	3.952000	-11.828000	21.122931	9.067415E-5	20.789173
120.030243	-2.998000	3.949800	-11.840000	21.103874	9.100417E-5	20.793344
121.035512	-2.987500	3.951300	-11.804000	21.122684	9.004711E-5	20.800305
122.034275	-2.999200	3.949500	-11.845000	21.131973	9.186224E-5	20.801062
123.029140	-2.991900	3.950000	-11.817000	21.145618	9.034413E-5	20.797642
124.037045	-3.001100	3.949400	-11.852000	21.155925	9.100417E-5	20.786141
125.033432	-3.018900	3.948100	-11.918000	21.136546	9.087217E-5	20.798645
126.030016	-2.990300	3.948600	-11.807000	21.153485	9.173023E-5	20.790812
127.032691	-3.006200	3.948000	-11.867000	21.150066	8.981609E-5	20.809203
128.034880	-3.022400	3.947100	-11.929000	21.154508	9.037713E-5	20.791362
129.032729	-3.006900	3.947700	-11.869000	21.170554	9.103718E-5	20.782282
130.035429	-2.997400	3.947500	-11.830000	21.184022	9.024512E-5	20.803342
131.034561	-3.008900	3.947300	-11.876000	21.167589	9.024512E-5	20.784532
132.031093	-3.010300	3.947300	-11.881000	21.189367	9.232427E-5	20.802524
133.037844	-2.995900	3.947100	-11.825000	21.176716	8.905703E-5	20.792239
134.037610	-3.017800	3.945300	-11.905000	21.194929	9.265430E-5	20.789596
135.033571	-3.009000	3.945300	-11.871000	21.181506	8.846299E-5	20.815049
136.037703	-2.998600	3.945700	-11.830000	21.198348	8.984909E-5	20.798706
137.037255	-2.994900	3.946500	-11.818000	21.193780	8.984909E-5	20.804093
138.039896	-3.025500	3.946700	-11.940000	21.215230	8.938706E-5	20.818913
139.039627	-3.011100	3.946000	-11.880000	21.232127	9.133420E-5	20.812582
140.037572	-3.013300	3.946100	-11.890000	21.209966	8.872701E-5	20.815069
141.036403	-3.020900	3.944200	-11.914000	21.231870	8.918904E-5	20.798101
142.041594	-3.001400	3.945900	-11.842000	21.222789	9.037713E-5	20.806560
143.038859	-2.989500	3.945500	-11.793000	21.225234	9.136720E-5	20.809480
144.037662	-3.014700	3.945300	-11.893000	21.215376	9.037713E-5	20.792981
145.042009	-3.009300	3.944800	-11.870000	21.234159	9.159822E-5	20.789959
146.041919	-3.017700	3.945300	-11.905000	21.250148	9.004711E-5	20.813067
147.039716	-2.998900	3.944800	-11.829000	21.219662	8.951907E-5	20.813390
148.041744	-2.989500	3.944100	-11.790000	21.249598	9.021212E-5	20.805879
149.042176	-2.982000	3.944100	-11.760000	21.239166	8.938706E-5	20.800658
150.041789	-2.995800	3.943700	-11.814000	21.252614	9.163122E-5	20.811266
151.042948	-3.005800	3.942700	-11.850000	21.231507	9.001410E-5	20.820971
152.044645	-3.019800	3.942500	-11.904000	21.259839	8.981609E-5	20.798580
153.043297	-2.995600	3.942800	-11.810000	21.279493	9.027812E-5	20.812552
154.044191	-3.007100	3.943600	-11.858000	21.263132	9.054214E-5	20.808038
155.044625	-3.004200	3.942400	-11.843000	21.269666	9.126819E-5	20.805092
156.048261	-2.995300	3.942800	-11.809000	21.284182	8.975008E-5	20.838105
157.045122	-2.996800	3.942600	-11.814000	21.275500	9.047614E-5	20.822308
158.046322	-3.012100	3.942100	-11.873000	21.275777	8.866100E-5	20.823533
159.043964	-2.991800	3.941800	-11.792000	21.289517	8.988209E-5	20.816416
160.046289	-3.008100	3.941700	-11.856000	21.296899	9.186224E-5	20.821430
161.045892	-2.998600	3.940700	-11.816000	21.296006	9.133420E-5	20.818166
162.045723	-2.990400	3.942000	-11.787000	21.296551	9.143321E-5	20.820608
163.044353	-3.021900	3.940800	-11.908000	21.313214	9.054214E-5	20.805985
164.047366	-3.008500	3.940200	-11.853000	21.279967	9.196124E-5	20.831044
165.044754	-2.998500	3.940800	-11.816000	21.295583	9.021212E-5	20.831019
166.045579	-2.975000	3.942500	-11.728000	21.307028	9.156522E-5	20.812124
167.048818	-2.997400	3.940100	-11.809000	21.320727	9.235727E-5	20.822035
168.045742	-2.972700	3.940500	-11.713000	21.314490	9.311633E-5	20.838554
169.050183	-2.995200	3.940100	-11.801000	21.312241	9.064115E-5	20.821132
170.051470	-3.002000	3.938800	-11.824000	21.323344	9.215926E-5	20.820860
171.047587	-2.994800	3.940700	-11.800000	21.323389	9.014611E-5	20.824698
172.048461	-2.994000	3.939700	-11.795000	21.325562	9.044313E-5	20.826398
173.050537	-2.987900	3.939300	-11.770000	21.332847	9.123519E-5	20.824204
174.050734	-2.994900	3.939800	-11.798000	21.332671	8.991510E-5	20.852950
175.047713	-2.991200	3.940000	-11.784000	21.356418	8.948606E-5	20.822181
176.053271	-2.990600	3.939000	-11.779000	21.355843	8.856200E-5	20.822555
177.050063	-2.990700	3.938400	-11.778000	21.349354	9.004711E-5	20.835029
178.050585	-2.982600	3.938300	-11.745000	21.371457	8.918904E-5	20.856667
179.052719	-2.975700	3.939400	-11.722000	21.359630	8.984909E-5	20.836300
180.055536	-2.993900	3.938900	-11.792000	21.382035	9.324834E-5	20.832638
181.055563	-3.012500	3.937600	-11.862000	21.371730	9.064115E-5	20.834655
182.054303	-2.994800	3.938600	-11.795000	21.391377	9.130120E-5	20.841036
183.052237	-3.016500	3.938200	-11.879000	21.392874	9.027812E-5	20.849172
184.052566	-3.004200	3.938200	-11.830000	21.401949	9.113618E-5	20.834545
185.056307	-3.012600	3.936500	-11.858000	21.387339	9.044313E-5	20.818979
186.054280	-3.016800	3.937300	-11.877000	21.421581	9.050914E-5	20.834746
187.051979	-3.020600	3.935700	-11.888000	21.411599	9.070715E-5	20.820018
188.055391	-2.985200	3.937400	-11.752000	21.412350	9.004711E-5	20.848269
189.056265	-3.008800	3.937400	-11.846000	21.415239	9.037713E-5	20.850211
190.053486	-2.989300	3.938100	-11.771000	21.431356	9.123519E-5	20.854009
191.055940	-2.994700	3.936300	-11.787000	21.418133	8.942006E-5	20.845520
192.054113	-3.021600	3.936000	-11.893000	21.417583	9.077316E-5	20.831221
193.053790	-2.990900	3.935200	-11.770000	21.440375	9.017911E-5	20.853550
194.057753	-3.013100	3.935500	-11.857000	21.411972	9.011311E-5	20.864486
195.053955	-3.013800	3.934500	-11.856000	21.431850	9.146621E-5	20.852607
196.058809	-3.003100	3.935200	-11.817000	21.424691	9.219226E-5	20.852083
197.057876	-3.014100	3.934100	-11.857000	21.448734	9.037713E-5	20.847689
198.056800	-2.989000	3.934600	-11.759000	21.462356	8.975008E-5	20.836663
199.057440	-3.009100	3.934600	-11.840000	21.466994	9.140020E-5	20.856950
200.056729	-3.009500	3.933700	-11.838000	21.463404	9.242328E-5	20.853359
201.059581	-3.001200	3.935700	-11.811000	21.491786	9.143321E-5	20.857575
202.059406	-2.990700	3.934900	-11.767000	21.454975	9.209325E-5	20.851563
203.060956	-3.025900	3.933400	-11.901000	21.468667	8.932105E-5	20.849142
204.059066	-3.015900	3.934400	-11.865000	21.472080	9.097117E-5	20.842126
205.059906	-3.018800	3.932600	-11.871000	21.483408	9.044313E-5	20.856778
206.063237	-2.989600	3.934400	-11.761000	21.477373	9.166422E-5	20.857379
207.059924	-2.987800	3.933800	-11.753000	21.488424	9.229127E-5	20.870331
208.064967	-3.004100	3.933900	-11.817000	21.462537	9.344635E-5	20.887102
209.064061	-2.988000	3.935700	-11.759000	21.500270	9.133420E-5	20.857056
210.065253	-3.027600	3.933700	-11.908000	21.506209	9.176323E-5	20.850670
211.062558	-3.010800	3.933600	-11.842000	21.501001	9.301732E-5	20.882442
212.063063	-3.027100	3.933000	-11.904000	21.497629	9.235727E-5	20.859154
213.062595	-2.999200	3.932900	-11.795000	21.491645	9.070715E-5	20.867391
214.065398	-3.016600	3.932200	-11.861000	21.501848	9.417241E-5	20.882815
215.062762	-2.997300	3.933700	-11.790000	21.528011	9.199425E-5	20.873433
216.064302	-3.000800	3.933400	-11.803000	21.524800	9.182924E-5	20.865953
217.063294	-3.012900	3.931800	-11.846000	21.533002	9.235727E-5	20.877004
218.064905	-3.025600	3.931800	-11.896000	21.532755	9.308333E-5	20.863482
219.065667	-2.995300	3.932900	-11.779000	21.527890	9.331434E-5	20.871890
220.064051	-3.007100	3.931500	-11.821000	21.546527	9.120219E-5	20.870624
221.066053	-2.993400	3.931400	-11.768000	21.558872	9.397439E-5	20.855951
222.065116	-3.012900	3.930500	-11.840000	21.522506	9.344635E-5	20.858917
223.067042	-2.996900	3.930900	-11.780000	21.553186	9.374338E-5	20.881080
224.065017	-3.004900	3.931200	-11.812000	21.545730	9.199425E-5	20.875990
225.066451	-3.000700	3.931000	-11.795000	21.546254	9.344635E-5	20.858972
226.065498	-2.989100	3.930400	-11.748000	21.548326	9.196124E-5	20.860571
227.067563	-2.999300	3.930700	-11.788000	21.571489	9.146621E-5	20.845818
228.068787	-3.017500	3.929700	-11.857000	21.578027	9.443643E-5	20.873221
229.066613	-2.995800	3.930000	-11.772000	21.583360	9.380938E-5	20.870024
230.068471	-3.023100	3.929300	-11.878000	21.576127	9.483245E-5	20.882225
231.067850	-3.018900	3.928900	-11.860000	21.567905	9.295132E-5	20.862619
232.065806	-2.998100	3.929900	-11.782000	21.567300	9.641657E-5	20.865333
233.067298	-2.992500	3.930800	-11.761000	21.567628	9.413940E-5	20.874195
234.067509	-3.017500	3.929600	-11.856000	21.584958	9.437042E-5	20.837011
235.065249	-2.997900	3.928900	-11.777000	21.566705	9.321534E-5	20.855729
236.067847	-3.004300	3.928700	-11.802000	21.599652	9.318233E-5	20.850292
237.066463	-2.987800	3.929200	-11.739000	21.575285	9.311633E-5	20.841556
238.066313	-3.003700	3.929100	-11.801000	21.584882	9.364437E-5	20.866331
239.068599	-3.018700	3.928000	-11.857000	21.620399	9.328134E-5	20.855880
240.070351	-2.984500	3.929200	-11.726000	21.594263	9.387538E-5	20.849641
241.068653	-3.001100	3.927400	-11.786000	21.585311	9.384238E-5	20.844476
242.071510	-2.984300	3.928400	-11.722000	21.593789	9.390839E-5	20.847270
243.065951	-2.989200	3.927900	-11.740000	21.598281	9.569052E-5	20.839911
244.066982	-2.989400	3.928100	-11.742000	21.604889	9.496446E-5	20.821395
245.070704	-2.989100	3.929400	-11.744000	21.589928	9.397439E-5	20.829183
246.067284	-2.987600	3.927700	-11.734000	21.601446	9.390839E-5	20.856355
247.068429	-2.999000	3.927300	-11.778000	21.614869	9.126819E-5	20.839442
248.069032	-2.982100	3.926700	-11.709000	21.614643	9.324834E-5	20.850120
249.067949	-3.005800	3.927600	-11.804000	21.610207	9.522848E-5	20.837147
250.067790	-3.003800	3.927200	-11.796000	21.632547	9.367737E-5	20.820623
251.068515	-2.984100	3.927300	-11.718000	21.644720	9.602054E-5	20.834227
252.072150	-2.984100	3.927300	-11.719000	21.639709	9.437042E-5	20.843911
253.068360	-3.001700	3.927500	-11.787000	21.650007	9.595454E-5	20.853268
254.071633	-3.010300	3.926000	-11.818000	21.651459	9.493146E-5	20.835755
255.068569	-2.995100	3.925000	-11.755000	21.651005	9.529449E-5	20.845732
256.070661	-3.002100	3.926500	-11.787000	21.645345	9.588853E-5	20.840542
257.069086	-2.996800	3.926600	-11.767000	21.652603	9.664759E-5	20.848753
258.069700	-3.007800	3.925500	-11.806000	21.667764	9.816570E-5	20.821253
259.070168	-3.015100	3.926300	-11.837000	21.659014	9.572352E-5	20.836204
260.070072	-3.015800	3.923600	-11.830000	21.647240	9.786868E-5	20.841016
261.076106	-2.985300	3.926200	-11.720000	21.650360	9.529449E-5	20.820905
262.069006	-3.007000	3.925700	-11.804000	21.661081	9.351236E-5	20.826418
263.070327	-3.021000	3.923800	-11.853000	21.687966	9.496446E-5	20.831987
264.071879	-3.010200	3.925100	-11.814000	21.677119	9.595454E-5	20.829667
265.072361	-2.960500	3.924100	-11.616000	21.702653	9.651558E-5	20.844789
266.070593	-2.999900	3.924600	-11.773000	21.679438	9.588853E-5	20.837203
267.073800	-2.988700	3.924200	-11.727000	21.697895	9.559151E-5	20.837182
268.072057	-2.981800	3.923900	-11.699000	21.715975	9.592153E-5	20.826827
269.072309	-3.002900	3.923600	-11.781000	21.714130	9.565751E-5	20.832567
270.076159	-3.010600	3.924300	-11.813000	21.725677	9.743965E-5	20.850287
271.072918	-2.992000	3.924400	-11.741000	21.714785	9.572352E-5	20.809990
272.073453	-3.003800	3.922200	-11.780000	21.733862	9.925478E-5	20.803004
273.075387	-3.014100	3.923900	-11.826000	21.708626	9.621856E-5	20.837016
274.073795	-2.987100	3.924900	-11.723000	21.717577	9.648258E-5	20.819896
275.075683	-3.007200	3.923000	-11.797000	21.742193	9.440342E-5	20.821299
276.079201	-2.979700	3.923600	-11.690000	21.746009	9.790168E-5	20.816582
277.074327	-3.000100	3.923000	-11.769000	21.732542	9.849572E-5	20.820174
278.075051	-3.005000	3.923900	-11.791000	21.737163	9.651558E-5	20.818161
279.076939	-3.007100	3.922700	-11.796000	21.755741	9.862773E-5	20.813047
280.077223	-2.995400	3.922800	-11.749000	21.729286	9.803369E-5	20.812174
281.075224	-2.997800	3.922900	-11.759000	21.766113	9.582253E-5	20.816789
282.076678	-3.008000	3.921300	-11.795000	21.753599	9.826471E-5	20.807110
283.074970	-3.008200	3.921400	-11.796000	21.774646	9.602054E-5	20.801622
284.074712	-3.016800	3.922300	-11.831000	21.751779	0.000100	20.806711
285.080305	-3.003800	3.922200	-11.781000	21.761784	9.668059E-5	20.803922
286.075169	-3.001000	3.923900	-11.775000	21.764773	9.862773E-5	20.827775
287.075665	-2.988700	3.922000	-11.721000	21.775341	9.697761E-5	20.789990
288.079470	-3.000300	3.921400	-11.765000	21.767393	9.763766E-5	20.804320
289.077389	-3.018400	3.921000	-11.835000	21.775447	9.905676E-5	20.796260
290.077910	-3.015500	3.920800	-11.823000	21.766743	9.714262E-5	20.823110
291.079869	-3.008400	3.920100	-11.793000	21.800929	9.483245E-5	20.819392
292.079572	-2.991400	3.920000	-11.726000	21.810025	9.734064E-5	20.815695
293.080529	-2.980100	3.919600	-11.680000	21.812893	9.694461E-5	20.798651
294.081625	-3.011200	3.919800	-11.802000	21.801171	9.638357E-5	20.821531
295.080570	-2.980000	3.920700	-11.683000	21.806306	9.783567E-5	20.793480
296.080491	-3.021200	3.919000	-11.839000	21.820992	9.743965E-5	20.796799
297.082342	-3.000700	3.919500	-11.760000	21.807949	9.856173E-5	20.811246
298.079408	-2.988500	3.918800	-11.711000	21.808791	9.852872E-5	20.797864
299.085658	-2.993900	3.918900	-11.732000	21.823471	9.833071E-5	20.794540
300.080287	-3.012900	3.918400	-11.805000	21.822922	9.819870E-5	20.784981
301.083385	-3.005900	3.918000	-11.775000	21.811477	9.899076E-5	20.779215
302.085461	-2.986600	3.918900	-11.703000	21.818754	9.862773E-5	20.791715
303.081571	-2.987100	3.919700	-11.708000	21.821546	9.773667E-5	20.784552
304.082613	-2.989300	3.918500	-11.713000	21.804114	0.000100	20.781329
305.084546	-2.994600	3.917700	-11.731000	21.802869	9.856173E-5	20.782454
306.083627	-2.988700	3.918000	-11.708000	21.795284	9.912277E-5	20.781974
307.086245	-2.988500	3.919400	-11.712000	21.811386	9.974981E-5	20.789082
308.083461	-2.984900	3.917900	-11.693000	21.809763	9.770366E-5	20.770388
309.081358	-2.993900	3.917200	-11.728000	21.805974	9.928778E-5	20.798363
310.086602	-3.005300	3.917000	-11.771000	21.812182	0.000100	20.786085
311.084335	-2.989500	3.917800	-11.711000	21.819087	9.998083E-5	20.781616
312.085708	-2.982900	3.918100	-11.686000	21.823250	0.000100	20.775825
313.087790	-2.977900	3.917800	-11.665000	21.839876	9.994783E-5	20.788673
314.084951	-2.998500	3.917100	-11.744000	21.833768	0.000101	20.786827
315.087784	-2.980700	3.917400	-11.676000	21.850847	0.000101	20.782111
316.093981	-3.003300	3.917300	-11.764000	21.854107	9.998083E-5	20.799599
317.087806	-2.995700	3.915700	-11.730000	21.865678	0.000100	20.772774
318.087445	-2.993400	3.916500	-11.723000	21.873227	0.000101	20.758518
319.095240	-2.998400	3.916500	-11.742000	21.868339	0.000102	20.775911
320.089921	-2.986700	3.916700	-11.697000	21.872426	0.000101	20.789960
321.092710	-2.996500	3.916700	-11.736000	21.863799	0.000101	20.769944
322.093648	-2.989000	3.916200	-11.705000	21.864197	0.000101	20.783145
323.093188	-2.979300	3.916900	-11.669000	21.864348	0.000101	20.763381
324.093370	-2.984100	3.915100	-11.682000	21.892418	9.981582E-5	20.765399
325.093145	-2.987000	3.914800	-11.693000	21.901368	0.000101	20.757288
326.093163	-2.999300	3.916000	-11.744000	21.913134	0.000103	20.779498
327.089374	-2.999700	3.915400	-11.744000	21.909617	0.000101	20.779296
328.095100	-2.964700	3.915800	-11.608000	21.907228	0.000100	20.774060
329.093521	-3.003000	3.914500	-11.754000	21.890820	9.991483E-5	20.756687
330.095636	-2.987700	3.913900	-11.692000	21.918844	0.000103	20.769091
331.096077	-2.995500	3.914200	-11.724000	21.916546	0.000103	20.766317
332.097371	-2.998300	3.914600	-11.736000	21.905177	0.000104	20.777223
333.097359	-3.011000	3.914400	-11.785000	21.909194	0.000102	20.760854
334.097506	-3.022000	3.913500	-11.826000	21.906800	0.000103	20.768416
335.097038	-2.999600	3.913700	-11.738000	21.934420	0.000102	20.772355
336.096705	-2.996400	3.914000	-11.726000	21.941248	0.000102	20.764017
337.097780	-3.001300	3.914700	-11.748000	21.945486	0.000103	20.757828
338.097565	-3.007600	3.913300	-11.769000	21.950395	0.000104	20.786449
339.099469	-3.000300	3.913300	-11.740000	21.933070	0.000103	20.793289
340.100638	-3.009700	3.912200	-11.774000	21.941843	0.000103	20.780734
341.100477	-2.998800	3.913800	-11.736000	21.952239	0.000102	20.742775
342.102724	-2.987100	3.912800	-11.687000	21.962705	0.000103	20.763210
343.100807	-2.998500	3.911600	-11.727000	21.965845	0.000101	20.759240
344.101542	-3.012600	3.912800	-11.787000	21.968954	0.000102	20.763775
345.103571	-3.001500	3.912200	-11.742000	21.965940	0.000103	20.767397
346.101729	-3.004500	3.912300	-11.754000	21.957162	0.000102	20.748652
347.100375	-3.012100	3.910500	-11.777000	21.969599	0.000101	20.764421
348.097128	-3.025800	3.912600	-11.838000	21.987820	0.000102	20.773652
349.097710	-2.996000	3.912200	-11.719000	21.975227	0.000103	20.758675
350.102912	-3.011300	3.910700	-11.776000	21.992405	0.000101	20.755956
351.102070	-2.987200	3.912800	-11.687000	22.011019	0.000103	20.744718
352.103255	-3.012000	3.910000	-11.776000	22.003940	0.000103	20.749485
353.103014	-3.007900	3.911000	-11.763000	22.019590	0.000103	20.764204
354.102884	-2.996500	3.910800	-11.718000	22.014274	0.000102	20.752244
355.104371	-2.991000	3.910400	-11.695000	21.997772	0.000104	20.744259
356.102125	-2.997100	3.910200	-11.719000	21.991418	0.000103	20.749752
357.104078	-2.994800	3.911000	-11.711000	21.984006	0.000103	20.747074
358.099563	-2.991100	3.910800	-11.697000	21.998614	0.000103	20.743679
359.103667	-2.993600	3.911400	-11.708000	21.974880	0.000103	20.730826
360.099088	-2.989200	3.909600	-11.686000	21.964807	0.000103	20.741131
361.101849	-3.026500	3.909600	-11.832000	21.977244	0.000103	20.738882
362.105206	-2.996500	3.909500	-11.714000	21.980186	0.000105	20.746569
363.101833	-3.020900	3.909100	-11.808000	21.983225	0.000105	20.741076
364.108696	-2.979600	3.910300	-11.651000	21.999380	0.000103	20.740178
365.104762	-3.031000	3.907900	-11.844000	21.992895	0.000102	20.755498
366.104488	-2.979200	3.909300	-11.646000	21.982076	0.000104	20.730917
367.105307	-2.982900	3.909300	-11.660000	21.991675	0.000105	20.746216
368.106621	-2.986700	3.909800	-11.676000	21.997954	0.000104	20.736380
369.104575	-3.005200	3.909800	-11.749000	22.001169	0.000104	20.741969
370.103445	-2.987900	3.909200	-11.680000	22.036098	0.000104	20.723829
371.108248	-3.012100	3.907200	-11.768000	22.054313	0.000105	20.731633
372.107811	-3.000700	3.908000	-11.726000	22.033422	0.000105	20.725892
373.109590	-2.991500	3.908600	-11.691000	22.061090	0.000105	20.751221
374.110014	-2.989300	3.907000	-11.679000	22.060863	0.000104	20.749571
375.111566	-2.986000	3.907800	-11.667000	22.059044	0.000103	20.718351
376.109561	-3.008300	3.907300	-11.753000	22.040547	0.000107	20.717377
377.111683	-2.991300	3.907500	-11.688000	22.053260	0.000104	20.718724
378.113340	-2.998800	3.907500	-11.717000	22.030747	0.000106	20.719895
379.115463	-3.007200	3.906400	-11.746000	22.040215	0.000106	20.734589
380.112334	-2.983000	3.908300	-11.658000	22.038467	0.000107	20.744219
381.116290	-3.011800	3.907400	-11.768000	22.039243	0.000104	20.733616
382.115516	-3.008200	3.906000	-11.749000	22.042855	0.000106	20.715420
383.113919	-3.003100	3.906300	-11.730000	22.042755	0.000106	20.724329
384.119092	-2.989800	3.906600	-11.679000	22.078600	0.000106	20.722281
385.118096	-2.979700	3.905800	-11.638000	22.070573	0.000105	20.712348
386.119374	-3.017000	3.906300	-11.784000	22.079295	0.000107	20.707803
387.118775	-3.002000	3.905100	-11.722000	22.087276	0.000108	20.714845
388.122676	-3.005000	3.904600	-11.731000	22.083013	0.000105	20.726700
389.117424	-3.005900	3.905200	-11.738000	22.094053	0.000106	20.725424
390.121835	-3.021700	3.905300	-11.801000	22.087775	0.000105	20.711551
391.123179	-2.979900	3.905200	-11.636000	22.097721	0.000106	20.715819
392.123143	-2.993900	3.904200	-11.688000	22.091513	0.000108	20.724778
393.122713	-2.977600	3.905300	-11.627000	22.073536	0.000106	20.733808
394.122628	-2.980700	3.904100	-11.636000	22.097796	0.000105	20.733439
395.123638	-3.022400	3.904600	-11.799000	22.096703	0.000106	20.710058
396.123774	-3.000700	3.905600	-11.718000	22.097675	0.000107	20.723835
397.124860	-2.981600	3.904900	-11.642000	22.095282	0.000105	20.739931
398.123196	-3.011600	3.903300	-11.754000	22.077637	0.000107	20.709937
399.125601	-2.992900	3.904000	-11.683000	22.110543	0.000106	20.709690
400.127738	-2.999500	3.904900	-11.712000	22.113390	0.000108	20.727239
401.128960	-2.995200	3.903800	-11.692000	22.121688	0.000107	20.723693
402.126781	-3.005500	3.903400	-11.731000	22.136294	0.000106	20.718876
403.126775	-2.978800	3.903500	-11.627000	22.129316	0.000108	20.716631
404.127920	-3.009000	3.902300	-11.741000	22.144673	0.000106	20.732955
405.127765	-2.998600	3.903100	-11.703000	22.136995	0.000107	20.714361
406.128129	-2.983700	3.903200	-11.646000	22.151082	0.000110	20.716136
407.124549	-3.008400	3.902300	-11.738000	22.129145	0.000108	20.717408
408.126107	-2.983200	3.903400	-11.644000	22.147842	0.000109	20.725696
409.127924	-3.019400	3.901300	-11.779000	22.099131	0.000108	20.725292
410.147506	-3.005100	3.901600	-11.724000	22.114992	0.000108	20.717463
411.150246	-2.987200	3.903400	-11.659000	22.145701	0.000108	20.721181
412.155993	-3.003100	3.902300	-11.718000	22.130818	0.000108	20.716237
413.150041	-2.973900	3.902100	-11.603000	22.122590	0.000109	20.721751
414.152388	-3.000500	3.899700	-11.700000	22.135780	0.000107	20.738276
415.131802	-2.979600	3.900700	-11.622000	22.127029	0.000109	20.704857
416.145591	-2.979300	3.901200	-11.621000	22.178575	0.000107	20.720429
417.150377	-3.004200	3.901300	-11.720000	22.181144	0.000109	20.742917
418.145944	-2.973300	3.900700	-11.597000	22.175235	0.000107	20.709498
419.148270	-2.995800	3.900800	-11.685000	22.170625	0.000107	20.729065
420.151117	-3.007800	3.899400	-11.728000	22.170444	0.000108	20.713710
421.156494	-2.987300	3.900800	-11.652000	22.188762	0.000110	20.719249
422.154881	-2.999300	3.899900	-11.697000	22.163763	0.000107	20.708443
423.135405	-3.007900	3.899600	-11.728000	22.167496	0.000108	20.703646
424.135464	-3.024000	3.897600	-11.785000	22.195639	0.000110	20.727083
425.132612	-3.002900	3.899200	-11.708000	22.184944	0.000109	20.727754
426.136317	-3.011900	3.899800	-11.745000	22.193816	0.000110	20.720989
427.134706	-2.991100	3.898900	-11.661000	22.180278	0.000108	20.715970
428.135682	-3.015700	3.899400	-11.758000	22.176888	0.000110	20.732965
429.138848	-2.984200	3.899500	-11.636000	22.177729	0.000110	20.717211
430.137092	-2.999900	3.898000	-11.693000	22.190985	0.000110	20.715784
431.137222	-2.998300	3.899200	-11.690000	22.209530	0.000111	20.730085
432.138170	-2.998100	3.898600	-11.686000	22.210547	0.000110	20.716404
433.140751	-3.008500	3.897100	-11.724000	22.201822	0.000110	20.717151
434.139993	-3.003700	3.898500	-11.708000	22.220462	0.000112	20.704520
435.137231	-3.029100	3.896400	-11.802000	22.211883	0.000111	20.728174
436.153841	-3.009900	3.897400	-11.729000	22.213253	0.000113	20.713898
437.137528	-2.990400	3.897900	-11.656000	22.230619	0.000111	20.726545
438.154205	-3.003700	3.895800	-11.701000	22.258730	0.000112	20.704429
439.162120	-3.012300	3.896400	-11.736000	22.267551	0.000112	20.733652
440.138294	-2.998500	3.896400	-11.683000	22.293143	0.000112	20.703799
441.138226	-2.988700	3.896700	-11.645000	22.273622	0.000110	20.705590
442.141591	-3.011100	3.896400	-11.731000	22.305072	0.000113	20.725229
443.145425	-3.004500	3.897400	-11.708000	22.299561	0.000112	20.701691
444.142262	-2.999500	3.897300	-11.690000	22.289093	0.000113	20.698795
445.156672	-2.981700	3.896300	-11.616000	22.312191	0.000113	20.718131
446.162189	-2.966600	3.896500	-11.558000	22.287240	0.000111	20.727761
447.160160	-3.014500	3.894600	-11.740000	22.286091	0.000114	20.710963
448.142545	-2.984600	3.896100	-11.628000	22.274097	0.000114	20.724559
449.149538	-3.006300	3.894700	-11.707000	22.254530	0.000114	20.716820
450.144794	-2.999300	3.895100	-11.681000	22.272445	0.000112	20.698246
451.141362	-2.980800	3.895800	-11.612000	22.265760	0.000110	20.703881
452.148787	-2.989600	3.894500	-11.642000	22.263866	0.000115	20.713839
453.143717	-2.991300	3.894100	-11.647000	22.278470	0.000111	20.727041
454.141850	-3.002500	3.892600	-11.687000	22.309673	0.000113	20.715610
455.147924	-3.003400	3.894100	-11.694000	22.352381	0.000113	20.708114
456.142989	-3.002300	3.893400	-11.689000	22.318267	0.000112	20.732752
457.145077	-3.001400	3.893700	-11.685000	22.301014	0.000114	20.715474
458.150981	-3.011400	3.892900	-11.722000	22.298646	0.000112	20.731597
459.166722	-2.984100	3.892900	-11.616000	22.296098	0.000113	20.723354
460.168498	-3.003900	3.893300	-11.694000	22.328348	0.000112	20.728621
461.161379	-3.020600	3.891800	-11.755000	22.325552	0.000112	20.720131
462.166076	-3.000800	3.891400	-11.676000	22.329960	0.000116	20.721700
463.159768	-3.010500	3.892000	-11.717000	22.342549	0.000114	20.732884
464.149271	-3.011800	3.893300	-11.725000	22.352286	0.000112	20.717029
465.147835	-2.994700	3.892900	-11.657000	22.369952	0.000114	20.714330
466.147758	-2.980700	3.891700	-11.599000	22.356502	0.000112	20.730261
467.165538	-3.013100	3.891400	-11.725000	22.348528	0.000114	20.718482
468.148243	-2.989700	3.890900	-11.632000	22.342841	0.000113	20.723219
469.148654	-2.992900	3.890800	-11.643000	22.354105	0.000112	20.716005
470.144989	-2.990900	3.891200	-11.637000	22.368209	0.000113	20.711637
471.148989	-2.997700	3.890800	-11.663000	22.361031	0.000115	20.709664
472.149014	-3.016800	3.890800	-11.736000	22.364396	0.000114	20.727259
473.151089	-2.982000	3.891200	-11.603000	22.327437	0.000112	20.724389
474.148235	-2.999500	3.890900	-11.671000	22.372970	0.000113	20.724939
475.151618	-2.981600	3.889700	-11.596000	22.368159	0.000113	20.716802
476.154464	-3.006600	3.889900	-11.695000	22.338424	0.000112	20.723063
477.152862	-2.988300	3.889100	-11.621000	22.340695	0.000113	20.731502
478.153366	-3.015800	3.889100	-11.728000	22.345748	0.000115	20.721388
479.168688	-2.997600	3.888900	-11.656000	22.369902	0.000113	20.721867
480.177046	-3.005500	3.887800	-11.683000	22.360578	0.000111	20.713004
481.171470	-2.996800	3.888600	-11.652000	22.378521	0.000115	20.729550
482.171226	-3.018800	3.887500	-11.734000	22.360084	0.000115	20.740012
483.175566	-3.009900	3.887100	-11.699000	22.379175	0.000114	20.731154
484.171091	-2.989200	3.888300	-11.621000	22.379372	0.000115	20.728031
485.172176	-2.992600	3.887500	-11.632000	22.391784	0.000115	20.736667
486.174344	-3.004100	3.888400	-11.679000	22.383785	0.000115	20.731976
487.174762	-3.003700	3.887600	-11.675000	22.407212	0.000116	20.728409
488.166450	-2.988000	3.886100	-11.611000	22.416657	0.000115	20.720797
489.155712	-3.007400	3.886600	-11.687000	22.424933	0.000116	20.742362
490.160676	-3.020800	3.886500	-11.739000	22.431536	0.000116	20.741389
491.152854	-2.989300	3.886000	-11.615000	22.418681	0.000114	20.745111
492.156299	-2.993100	3.885500	-11.628000	22.415543	0.000114	20.718260
493.159391	-3.008400	3.885500	-11.688000	22.410909	0.000115	20.754398
494.157424	-2.978100	3.885200	-11.570000	22.438597	0.000116	20.729493
495.158076	-2.983200	3.886000	-11.591000	22.454151	0.000115	20.737958
496.158625	-2.993100	3.885300	-11.628000	22.436487	0.000115	20.754408
497.171451	-3.014900	3.884800	-11.712000	22.461183	0.000117	20.741206
498.178411	-3.008700	3.884700	-11.687000	22.481516	0.000116	20.733594
499.174899	-3.017600	3.885000	-11.722000	22.464925	0.000117	20.761076
500.178030	-2.974600	3.885400	-11.557000	22.451320	0.000117	20.735597
501.183636	-3.002800	3.883200	-11.659000	22.464129	0.000117	20.737993
502.179712	-2.986800	3.883500	-11.598000	22.477859	0.000115	20.754589
503.173432	-2.994400	3.885200	-11.633000	22.485480	0.000119	20.738038
504.185554	-3.007800	3.882800	-11.678000	22.468989	0.000115	20.763250
505.177854	-3.002800	3.882700	-11.658000	22.476112	0.000118	20.751890
506.174237	-3.012700	3.882800	-11.697000	22.474716	0.000115	20.733897
507.184521	-3.008400	3.881700	-11.677000	22.475940	0.000118	20.740813
508.178800	-3.025900	3.881500	-11.744000	22.484563	0.000117	20.742336
509.176955	-3.001500	3.881600	-11.650000	22.462834	0.000119	20.740490
510.178646	-3.020700	3.880400	-11.720000	22.448051	0.000118	20.726633
511.178560	-3.003600	3.882200	-11.660000	22.449522	0.000118	20.739960
512.174865	-3.009400	3.880500	-11.677000	22.466763	0.000117	20.748218
513.178574	-2.996200	3.880800	-11.626000	22.466859	0.000117	20.757798
514.175347	-3.001000	3.880500	-11.644000	22.467010	0.000119	20.749888
515.175797	-3.003700	3.881400	-11.657000	22.481088	0.000119	20.745494
516.180544	-2.987100	3.881600	-11.593000	22.495317	0.000117	20.762115
517.173887	-2.998100	3.880100	-11.632000	22.481280	0.000116	20.763705
518.179986	-2.988300	3.880400	-11.594000	22.524238	0.000118	20.771165
519.190246	-3.008400	3.880000	-11.671000	22.512452	0.000119	20.753197
520.184062	-2.993800	3.879900	-11.615000	22.519423	0.000121	20.747377
521.184573	-3.019200	3.878700	-11.710000	22.525054	0.000118	20.762974
522.179399	-3.016700	3.879800	-11.703000	22.502324	0.000118	20.741157
523.183367	-3.005500	3.878700	-11.656000	22.536236	0.000118	20.755680
524.183445	-3.004200	3.877300	-11.647000	22.555017	0.000119	20.749834
525.190690	-3.010100	3.878600	-11.674000	22.575219	0.000119	20.752997
526.184205	-2.980100	3.878700	-11.558000	22.557727	0.000119	20.751126
527.182511	-3.017300	3.878300	-11.701000	22.541731	0.000121	20.765926
528.191715	-2.991200	3.878600	-11.601000	22.560613	0.000119	20.746904
529.189381	-3.005500	3.877800	-11.653000	22.533598	0.000117	20.753038
530.183042	-2.987600	3.878200	-11.586000	22.547227	0.000120	20.747721
531.179461	-3.013300	3.875100	-11.677000	22.547051	0.000120	20.765089
532.182526	-2.985900	3.877400	-11.576000	22.566955	0.000120	20.754204
533.182466	-3.021000	3.876500	-11.710000	22.592741	0.000117	20.752529
534.178807	-2.996100	3.877300	-11.617000	22.569262	0.000119	20.765998
535.188538	-2.991300	3.876300	-11.594000	22.607362	0.000121	20.757690
536.188528	-2.993200	3.875700	-11.600000	22.589493	0.000120	20.761604
537.184111	-2.991800	3.875800	-11.595000	22.579970	0.000120	20.750643
538.191231	-3.007700	3.875200	-11.655000	22.588491	0.000122	20.770084
539.188221	-2.998500	3.876100	-11.621000	22.615773	0.000122	20.761847
540.180217	-3.010100	3.875000	-11.664000	22.607720	0.000118	20.766584
541.185129	-3.015100	3.875100	-11.683000	22.631365	0.000120	20.760869
542.188972	-3.004600	3.873200	-11.637000	22.602780	0.000123	20.760688
543.188214	-3.001300	3.873900	-11.626000	22.604875	0.000117	20.758993
544.193190	-3.019900	3.872300	-11.693000	22.588008	0.000121	20.782403
545.186694	-3.007700	3.873000	-11.648000	22.586060	0.000122	20.770494
546.193346	-2.994400	3.873100	-11.596000	22.564655	0.000120	20.775609
547.191030	-3.015800	3.872800	-11.679000	22.550226	0.000118	20.769218
548.192913	-3.010100	3.871200	-11.652000	22.574673	0.000121	20.751976
549.184092	-2.995700	3.871600	-11.597000	22.622880	0.000121	20.760905
550.183897	-2.991200	3.872600	-11.583000	22.614016	0.000120	20.787589
551.196049	-2.977000	3.872900	-11.528000	22.600882	0.000122	20.787236
552.185221	-2.993300	3.870900	-11.586000	22.617455	0.000120	20.766378
553.192981	-2.985200	3.871300	-11.556000	22.620225	0.000123	20.776738
554.192393	-3.011000	3.870500	-11.652000	22.616463	0.000122	20.764909
555.191942	-2.999800	3.870200	-11.609000	22.624833	0.000122	20.759542
556.189032	-3.010900	3.871000	-11.653000	22.605202	0.000123	20.771649
557.197136	-3.009400	3.869300	-11.643000	22.597008	0.000123	20.755855
558.193781	-3.013000	3.869300	-11.657000	22.592722	0.000121	20.757726
559.192719	-2.999600	3.869100	-11.605000	22.607372	0.000121	20.780461
560.195140	-3.017900	3.869200	-11.676000	22.657330	0.000123	20.771704
561.194140	-2.997600	3.868600	-11.596000	22.648240	0.000123	20.776349
562.178729	-3.008500	3.869400	-11.640000	22.670565	0.000123	20.786856
563.195406	-3.015400	3.869200	-11.666000	22.685118	0.000122	20.778674
564.198289	-2.997300	3.868100	-11.593000	22.651629	0.000122	20.786856
565.193411	-2.981600	3.868000	-11.532000	22.660905	0.000121	20.780974
566.178830	-3.001500	3.867000	-11.605000	22.654897	0.000122	20.771638
567.179401	-3.004700	3.867300	-11.620000	22.661852	0.000125	20.791406
568.180474	-3.010100	3.866400	-11.637000	22.643465	0.000122	20.801439
569.180560	-2.992200	3.867400	-11.571000	22.647932	0.000122	20.787420
570.181361	-3.002600	3.866400	-11.608000	22.676607	0.000124	20.772046
571.181968	-2.983300	3.867400	-11.536000	22.700507	0.000125	20.771329
572.179972	-3.004900	3.866100	-11.617000	22.689146	0.000121	20.774174
573.184342	-3.029200	3.864000	-11.705000	22.682695	0.000123	20.774824
574.183154	-2.996100	3.865300	-11.581000	22.720891	0.000121	20.782265
575.180842	-2.994800	3.864400	-11.573000	22.692645	0.000122	20.792852
576.183082	-2.984100	3.865400	-11.534000	22.710281	0.000124	20.781119
577.183857	-2.998900	3.863900	-11.587000	22.694141	0.000123	20.801462
578.184035	-3.007100	3.864800	-11.620000	22.704081	0.000123	20.792928
579.186228	-3.026900	3.863200	-11.692000	22.680388	0.000123	20.801911
580.186935	-2.996000	3.863600	-11.574000	22.666242	0.000123	20.793432
581.198993	-3.002400	3.863300	-11.596000	22.694971	0.000123	20.815096
582.212280	-3.025700	3.862400	-11.685000	22.683933	0.000121	20.786496
583.205862	-2.997800	3.862500	-11.578000	22.695147	0.000122	20.802471
584.205874	-3.010000	3.860900	-11.620000	22.717023	0.000123	20.787399
585.204287	-3.004200	3.862000	-11.601000	22.726122	0.000122	20.802203
586.186339	-3.012700	3.860900	-11.630000	22.749044	0.000122	20.802879
587.190615	-2.993100	3.861700	-11.558000	22.750615	0.000123	20.811091
588.188834	0.000000	0.000000	0.000000	22.737537	0.000123	20.794672
