LabVIEW Measurement	
Writer_Version	2
Reader_Version	2
Separator	Tab
Decimal_Separator	.
Multi_Headings	No
X_Columns	One
Time_Pref	Absolute
Operator	admin
Description	Clolumns are: time, Current, Voltage, Power, Battery Temp, and Chamber Temp
Date	2024/08/16
Time	13:59:35.9411449432373046875
***End_of_Header***	
	
Channels	6						
Samples	1	1	1	1	1	1	
Date	2024/09/20	2024/09/20	2024/09/20	2024/09/20	2024/09/20	2024/09/20	
Time	08:08:33.0070981979370117188	08:08:33.0190672874450683594	08:08:33.0230641365051269531	08:08:32.9890646934509277344	08:08:32.9890646934509277344	08:08:32.9890646934509277344	
X_Dimension	Time	Time	Time	Time	Time	Time	
X0	0.0000000000000000E+0	0.0000000000000000E+0	0.0000000000000000E+0	0.0000000000000000E+0	0.0000000000000000E+0	0.0000000000000000E+0	
Delta_X	1.000000	1.000000	1.000000	1.000000	1.000000	1.000000	
***End_of_Header***							
X_Value	Untitled	Untitled 1	Untitled 2	Untitled 3	Untitled 4	Untitled 5	Comment
0.000000	0.015498	4.104100	0.063659	20.785942	0.000404	20.679252
0.996967	-2.987400	3.940200	-11.769000	20.791035	0.000404	20.690036
1.995969	-3.032000	3.930600	-11.916000	20.790635	0.000403	20.665925
2.996967	-2.977400	3.928400	-11.695000	20.779696	0.000401	20.670160
3.996967	-3.007600	3.922500	-11.796000	20.783490	0.000401	20.675851
4.997966	-3.029400	3.918100	-11.867000	20.789932	0.000399	20.647202
5.998073	-3.014100	3.915800	-11.802000	20.771554	0.000400	20.667707
6.999073	-2.994200	3.913700	-11.717000	20.791820	0.000397	20.670904
8.000073	-3.011100	3.910500	-11.773000	20.789302	0.000397	20.683560
8.999072	-2.991600	3.907700	-11.689000	20.788027	0.000396	20.667585
10.000074	-2.989300	3.906600	-11.677000	20.801696	0.000396	20.675090
11.001074	-2.987900	3.904400	-11.665000	20.797526	0.000395	20.678982
11.999074	-3.014900	3.903200	-11.768000	20.800772	0.000393	20.684599
13.001072	-3.016900	3.901400	-11.769000	20.810451	0.000393	20.699969
14.001075	-2.998000	3.900400	-11.692000	20.834330	0.000391	20.672638
15.000080	-3.015100	3.898100	-11.751000	20.823302	0.000391	20.678680
16.000073	-3.008600	3.896700	-11.722000	20.821454	0.000391	20.688213
17.000072	-3.000600	3.895700	-11.689000	20.825689	0.000390	20.687706
18.000071	-3.005200	3.894500	-11.703000	20.836970	0.000389	20.689504
19.001072	-2.972400	3.895100	-11.577000	20.845235	0.000390	20.674060
20.001071	-3.012300	3.893200	-11.727000	20.845954	0.000391	20.680470
21.005073	-3.005900	3.891900	-11.698000	20.853622	0.000388	20.691458
22.003072	-3.001900	3.892200	-11.684000	20.848006	0.000387	20.689161
23.003073	-3.019000	3.890100	-11.743000	20.855551	0.000384	20.671575
24.006075	-3.014500	3.889200	-11.724000	20.866350	0.000388	20.683798
25.003071	-3.003600	3.888900	-11.679000	20.875383	0.000385	20.671967
26.004073	-2.993800	3.889200	-11.643000	20.867331	0.000385	20.684779
27.006072	-3.002500	3.886800	-11.669000	20.886590	0.000385	20.689815
28.003183	-2.995200	3.886800	-11.641000	20.914767	0.000387	20.695710
29.003180	-2.975300	3.887800	-11.567000	20.906086	0.000383	20.679440
30.009184	-2.998200	3.885500	-11.648000	20.900871	0.000383	20.687501
31.004180	-3.027800	3.884800	-11.761000	20.909061	0.000383	20.686209
32.005180	-3.005000	3.884300	-11.671000	20.912658	0.000383	20.676055
33.008178	-3.005000	3.883500	-11.669000	20.934908	0.000382	20.683609
34.004179	-3.006000	3.883300	-11.673000	20.925320	0.000380	20.666432
35.004181	-3.005600	3.884200	-11.673000	20.935971	0.000379	20.679930
36.006475	-2.995600	3.883000	-11.631000	20.928205	0.000379	20.672163
37.008475	-3.008800	3.881200	-11.677000	20.972124	0.000379	20.677208
38.005475	-2.998900	3.882200	-11.641000	20.958457	0.000382	20.685351
39.006672	-3.002500	3.880700	-11.651000	20.960730	0.000379	20.686675
40.010644	-3.006800	3.880500	-11.666000	20.970130	0.000377	20.677110
41.010775	-2.996900	3.879800	-11.627000	20.980134	0.000378	20.672891
42.008018	-2.991300	3.880200	-11.606000	20.981434	0.000376	20.688417
43.011400	-3.008500	3.879300	-11.670000	20.999302	0.000377	20.662663
44.010247	-2.991800	3.878200	-11.602000	20.978271	0.000377	20.683356
45.011764	-2.993000	3.879300	-11.609000	21.001549	0.000377	20.690518
46.012458	-2.986900	3.878300	-11.583000	21.011431	0.000376	20.689970
47.014538	-3.009900	3.877000	-11.669000	21.037750	0.000376	20.705864
48.012807	-2.996900	3.877300	-11.618000	21.043087	0.000377	20.695080
49.013657	-2.992700	3.877200	-11.602000	21.044558	0.000376	20.681852
50.017001	-3.025600	3.875300	-11.724000	21.040447	0.000374	20.683904
51.013310	-2.988400	3.876700	-11.584000	21.035747	0.000374	20.709551
52.015017	-3.027400	3.875900	-11.733000	21.059000	0.000374	20.691082
53.016224	-2.996300	3.875300	-11.610000	21.057987	0.000374	20.695284
54.017797	-3.015700	3.875400	-11.686000	21.059327	0.000373	20.709428
55.013905	-3.006800	3.875000	-11.650000	21.073197	0.000374	20.704809
56.018106	-2.998400	3.875300	-11.618000	21.067566	0.000372	20.681631
57.016828	-3.001300	3.874300	-11.626000	21.086617	0.000373	20.685040
58.016383	-3.011100	3.873400	-11.663000	21.080463	0.000373	20.698326
59.019341	-3.027000	3.872100	-11.720000	21.093581	0.000372	20.723302
60.017231	-3.000100	3.873300	-11.619000	21.085726	0.000372	20.709755
61.016498	-3.010000	3.872800	-11.655000	21.114168	0.000372	20.688891
62.018708	-2.993500	3.873800	-11.596000	21.107851	0.000373	20.698220
63.016607	-2.991900	3.874100	-11.590000	21.119105	0.000371	20.682923
64.017005	-3.016000	3.873000	-11.680000	21.142233	0.000372	20.697050
65.020308	-3.000000	3.871300	-11.613000	21.144808	0.000370	20.691564
66.018705	-2.997100	3.871900	-11.604000	21.135328	0.000371	20.712903
67.018341	-3.023300	3.871100	-11.703000	21.150169	0.000373	20.692660
68.020014	-2.999300	3.871500	-11.611000	21.148649	0.000368	20.688294
69.019421	-3.003100	3.870600	-11.623000	21.167838	0.000370	20.690894
70.022049	-3.007700	3.871900	-11.644000	21.167609	0.000369	20.669800
71.018932	-2.986100	3.871400	-11.560000	21.181306	0.000368	20.692513
72.018856	-3.002000	3.872200	-11.623000	21.173951	0.000368	20.699380
73.024394	-2.986400	3.870600	-11.559000	21.209705	0.000370	20.719026
74.020672	-3.008900	3.869400	-11.641000	21.205880	0.000371	20.718994
75.020524	-2.995200	3.869300	-11.588000	21.226972	0.000372	20.706428
76.024568	-2.998100	3.869500	-11.599000	21.227144	0.000369	20.697590
77.019668	-2.996200	3.870000	-11.594000	21.222927	0.000369	20.691474
78.019420	-3.011800	3.868800	-11.651000	21.222772	0.000370	20.689896
79.023168	-3.006300	3.869400	-11.631000	21.252689	0.000370	20.714137
80.019782	-3.017100	3.867400	-11.668000	21.243986	0.000369	20.709224
81.020090	-3.012400	3.867800	-11.649000	21.242622	0.000367	20.706436
82.023533	-2.982300	3.869100	-11.538000	21.264604	0.000370	20.717996
83.020927	-2.995700	3.868200	-11.587000	21.277057	0.000369	20.717653
84.021050	-2.985200	3.868000	-11.545000	21.261727	0.000369	20.697099
85.025007	-3.004900	3.866500	-11.618000	21.282786	0.000370	20.715323
86.021393	-3.002600	3.867800	-11.612000	21.291668	0.000370	20.700026
87.024647	-2.998000	3.866800	-11.591000	21.289299	0.000370	20.721365
88.024632	-3.016500	3.866800	-11.663000	21.292698	0.000369	20.693469
89.023783	-2.986600	3.867300	-11.549000	21.290680	0.000368	20.716108
90.023327	-3.003400	3.867200	-11.614000	21.322082	0.000367	20.697737
91.028552	-3.008700	3.865600	-11.630000	21.320873	0.000369	20.726401
92.022053	-3.006000	3.866300	-11.621000	21.332068	0.000370	20.722427
93.023644	-3.024700	3.865900	-11.692000	21.341677	0.000366	20.711652
94.026206	-3.021400	3.865600	-11.678000	21.336366	0.000368	20.705863
95.023723	-2.985500	3.866400	-11.543000	21.345395	0.000369	20.716320
96.023389	-2.993800	3.866000	-11.573000	21.351041	0.000369	20.707270
97.025838	-3.004400	3.865600	-11.613000	21.365798	0.000367	20.694532
98.022180	-3.024200	3.863800	-11.684000	21.365006	0.000369	20.701326
99.023379	-2.986900	3.865900	-11.546000	21.381871	0.000369	20.725787
100.026276	-2.990900	3.864900	-11.559000	21.389707	0.000368	20.725567
101.027758	-3.013900	3.865000	-11.647000	21.397420	0.000370	20.707204
102.025383	-2.996000	3.863600	-11.575000	21.389167	0.000370	20.722656
103.028435	-3.032400	3.863200	-11.713000	21.404537	0.000368	20.741354
104.025817	-3.000500	3.863300	-11.591000	21.394380	0.000368	20.723130
105.025487	-2.998300	3.863000	-11.581000	21.421164	0.000369	20.709624
106.026251	-3.002000	3.863000	-11.596000	21.415289	0.000369	20.717497
107.026802	-3.015000	3.863800	-11.649000	21.418492	0.000370	20.726867
108.027259	-2.988100	3.864100	-11.545000	21.437677	0.000369	20.739898
109.030598	-2.997400	3.863900	-11.580000	21.447898	0.000368	20.741116
110.031230	-3.002600	3.863400	-11.600000	21.447980	0.000368	20.731240
111.029319	-3.001700	3.863500	-11.596000	21.465489	0.000370	20.715094
112.028887	-2.967000	3.863400	-11.462000	21.462825	0.000368	20.705790
113.027553	-2.987600	3.862200	-11.538000	21.451959	0.000369	20.725738
114.027519	-2.977000	3.862100	-11.497000	21.481110	0.000369	20.720293
115.029943	-3.004800	3.862600	-11.605000	21.485106	0.000369	20.726188
116.030364	-2.996200	3.862800	-11.572000	21.499722	0.000369	20.717579
117.028569	-3.027800	3.859500	-11.684000	21.508227	0.000370	20.740789
118.029783	-2.999200	3.860600	-11.577000	21.511177	0.000369	20.736628
119.031372	-2.997600	3.860900	-11.573000	21.495139	0.000370	20.717734
120.027821	-3.001700	3.861300	-11.590000	21.537296	0.000369	20.740953
121.028725	-2.996600	3.860600	-11.569000	21.552010	0.000370	20.740503
122.032323	-3.003400	3.860500	-11.594000	21.510106	0.000369	20.718961
123.028272	-2.994300	3.860200	-11.558000	21.538415	0.000370	20.725951
124.028873	-3.006000	3.859700	-11.601000	21.535090	0.000371	20.738271
125.030944	-2.991800	3.859400	-11.545000	21.552884	0.000371	20.711979
126.028997	-3.007200	3.859700	-11.606000	21.543954	0.000371	20.741452
127.029507	-3.010300	3.860000	-11.619000	21.546479	0.000369	20.732598
128.031601	-2.992700	3.858800	-11.547000	21.564305	0.000372	20.749962
129.029110	-3.029200	3.858600	-11.688000	21.596599	0.000369	20.741027
130.029162	-2.982800	3.859400	-11.511000	21.583160	0.000372	20.731371
131.034969	-2.993700	3.858900	-11.552000	21.594875	0.000371	20.724602
132.030037	-3.012900	3.858400	-11.624000	21.595978	0.000371	20.713851
133.029952	-3.005400	3.858600	-11.595000	21.609605	0.000370	20.714211
134.033758	-3.007600	3.859000	-11.605000	21.608053	0.000372	20.723089
135.031675	-3.000800	3.857100	-11.573000	21.616655	0.000374	20.720318
136.034416	-3.008700	3.858200	-11.607000	21.632168	0.000372	20.745327
137.031672	-3.013200	3.857900	-11.624000	21.612717	0.000373	20.734396
138.031681	-3.006500	3.857300	-11.597000	21.646529	0.000373	20.737887
139.034474	-3.004400	3.856800	-11.586000	21.656553	0.000374	20.758350
140.031797	-3.013500	3.855900	-11.619000	21.651374	0.000371	20.737519
141.031551	-3.011100	3.856100	-11.611000	21.647649	0.000371	20.738533
142.035636	-2.995900	3.857700	-11.556000	21.669394	0.000372	20.739432
143.031178	-3.008200	3.856600	-11.601000	21.663513	0.000372	20.734968
144.031018	-3.004800	3.856600	-11.586000	21.661740	0.000373	20.752161
145.034723	-2.990600	3.857000	-11.534000	21.687635	0.000373	20.744885
146.032398	-2.998600	3.856800	-11.564000	21.701163	0.000374	20.760795
147.031934	-2.999500	3.855500	-11.564000	21.703818	0.000374	20.744011
148.033343	-3.010200	3.856600	-11.607000	21.716209	0.000375	20.761154
149.030087	-2.977000	3.856800	-11.481000	21.711488	0.000374	20.745523
150.032218	-3.010900	3.853500	-11.602000	21.711994	0.000374	20.751246
151.035264	-3.010700	3.855200	-11.606000	21.718374	0.000374	20.763795
152.033318	-2.991900	3.855400	-11.534000	21.730815	0.000374	20.758228
153.032483	-2.999100	3.855400	-11.562000	21.740968	0.000376	20.752268
154.033974	-2.983000	3.854100	-11.496000	21.766543	0.000375	20.755579
155.034604	-2.970100	3.855700	-11.451000	21.750059	0.000375	20.742400
156.035318	-3.002700	3.854700	-11.573000	21.765800	0.000375	20.755783
157.035686	-3.002300	3.855000	-11.573000	21.761634	0.000376	20.757778
158.034238	-2.995000	3.854600	-11.544000	21.776843	0.000376	20.779164
159.034386	-3.002100	3.854600	-11.570000	21.786939	0.000379	20.763190
160.039322	-3.011500	3.854000	-11.606000	21.805170	0.000375	20.760574
161.036146	-3.002400	3.853100	-11.567000	21.776475	0.000377	20.768839
162.037386	-3.009000	3.854300	-11.597000	21.810479	0.000379	20.762094
163.040356	-2.999000	3.854400	-11.559000	21.816066	0.000376	20.760574
164.036627	-3.019300	3.851700	-11.629000	21.823996	0.000379	20.753339
165.036348	-3.001000	3.852700	-11.561000	21.808633	0.000378	20.779688
166.039488	-3.013500	3.851700	-11.605000	21.818785	0.000378	20.743381
167.036744	-3.011200	3.852400	-11.599000	21.830792	0.000377	20.779107
168.038744	-3.017200	3.852000	-11.622000	21.834084	0.000378	20.774815
169.040961	-3.005800	3.852100	-11.578000	21.851660	0.000379	20.779132
170.038739	-2.977800	3.852500	-11.471000	21.862809	0.000376	20.745245
171.038385	-3.008300	3.850800	-11.583000	21.859844	0.000379	20.793013
172.037528	-2.993500	3.853700	-11.534000	21.885049	0.000380	20.771774
173.037492	-3.002900	3.851200	-11.563000	21.908211	0.000379	20.773622
174.037687	-2.999900	3.850800	-11.550000	21.869212	0.000379	20.782949
175.039734	-2.971500	3.853400	-11.449000	21.910310	0.000380	20.763394
176.038318	-2.991200	3.851800	-11.520000	21.882550	0.000380	20.785394
177.039009	-2.997700	3.851100	-11.543000	21.889582	0.000381	20.774415
178.040794	-3.003300	3.850600	-11.563000	21.911699	0.000380	20.788492
179.039992	-3.025200	3.850000	-11.645000	21.927608	0.000381	20.782132
180.039970	-3.015400	3.849400	-11.607000	21.932549	0.000380	20.777595
181.043591	-3.023000	3.849800	-11.637000	21.943991	0.000382	20.761547
182.040899	-2.996900	3.850400	-11.537000	21.928458	0.000384	20.792465
183.041593	-3.002800	3.850000	-11.560000	21.915219	0.000381	20.794386
184.044198	-2.988500	3.850300	-11.506000	21.954061	0.000382	20.764514
185.041987	-2.980300	3.849300	-11.472000	21.948034	0.000383	20.776973
186.041494	-2.975400	3.850600	-11.456000	21.945984	0.000384	20.782034
187.044383	-2.988000	3.849500	-11.501000	21.959900	0.000384	20.757557
188.041291	-2.996500	3.848600	-11.531000	21.970852	0.000383	20.779426
189.040567	-2.982200	3.848700	-11.477000	21.972559	0.000382	20.806739
190.044248	-3.006600	3.849100	-11.571000	21.969455	0.000384	20.787985
191.041541	-3.005400	3.849300	-11.568000	22.000170	0.000384	20.790757
192.039420	-3.017900	3.847800	-11.612000	22.000366	0.000384	20.782892
193.044228	-3.004300	3.849100	-11.563000	22.006458	0.000384	20.777611
194.043054	-3.010600	3.848300	-11.585000	22.014453	0.000385	20.796046
195.040959	-3.021400	3.848000	-11.626000	22.010770	0.000386	20.798049
196.044105	-3.011400	3.848400	-11.588000	22.028695	0.000384	20.794656
197.041698	-3.018400	3.846500	-11.609000	22.027160	0.000386	20.792171
198.042782	-2.995800	3.847000	-11.524000	22.039802	0.000386	20.809093
199.046571	-3.004200	3.847300	-11.557000	22.031292	0.000388	20.818119
200.042589	-2.986600	3.848500	-11.493000	22.036862	0.000387	20.789081
201.043953	-3.007200	3.846300	-11.566000	22.042545	0.000387	20.780546
202.046859	-3.003600	3.847400	-11.555000	22.046661	0.000388	20.793675
203.044870	-3.001200	3.846100	-11.543000	22.063165	0.000389	20.804033
204.045015	-3.024500	3.844600	-11.627000	22.089059	0.000388	20.805300
205.044402	-3.006100	3.845000	-11.558000	22.091370	0.000389	20.802872
206.045090	-2.984200	3.846900	-11.479000	22.103905	0.000391	20.805938
207.046389	-2.996700	3.845700	-11.524000	22.084911	0.000391	20.788819
208.046968	-2.996100	3.845600	-11.519000	22.084168	0.000391	20.798981
209.047311	-3.010600	3.845500	-11.575000	22.096017	0.000391	20.790929
210.047195	-2.990200	3.844600	-11.496000	22.129643	0.000391	20.794722
211.046760	-2.992300	3.845000	-11.505000	22.116619	0.000390	20.784053
212.050589	-3.013200	3.843600	-11.581000	22.117778	0.000390	20.816982
213.053011	-3.011800	3.844600	-11.578000	22.117264	0.000391	20.795605
214.048240	-2.989200	3.843500	-11.488000	22.140120	0.000393	20.792408
215.048485	-3.005200	3.844500	-11.553000	22.143010	0.000392	20.782500
216.049168	-2.999600	3.843700	-11.528000	22.139001	0.000392	20.809780
217.048523	-2.983000	3.844200	-11.467000	22.140528	0.000392	20.804197
218.050240	-3.003300	3.843500	-11.543000	22.151739	0.000394	20.795033
219.053367	-3.025900	3.842900	-11.627000	22.161162	0.000392	20.820588
220.048880	-3.009700	3.843700	-11.567000	22.157684	0.000395	20.809045
221.050395	-3.013500	3.843000	-11.580000	22.160868	0.000394	20.816026
222.051455	-3.002400	3.842400	-11.536000	22.189038	0.000393	20.807720
223.051671	-2.989300	3.843200	-11.487000	22.173402	0.000396	20.813402
224.048944	-3.007600	3.842800	-11.557000	22.181828	0.000396	20.805717
225.054969	-3.003800	3.843400	-11.544000	22.207459	0.000396	20.801507
226.050073	-3.000800	3.842900	-11.531000	22.199465	0.000397	20.807728
227.051181	-3.006100	3.842800	-11.551000	22.224360	0.000396	20.817481
228.052903	-2.992200	3.842000	-11.495000	22.214415	0.000397	20.829335
229.052795	-3.010600	3.840100	-11.560000	22.228492	0.000397	20.815454
230.055058	-3.001900	3.841700	-11.531000	22.221690	0.000399	20.825239
231.050947	-3.022100	3.840200	-11.604000	22.225503	0.000398	20.807720
232.052032	-3.004100	3.841800	-11.540000	22.243196	0.000398	20.831125
233.053509	-2.992700	3.840800	-11.493000	22.240110	0.000400	20.828035
234.051176	-2.986000	3.841200	-11.468000	22.274304	0.000398	20.829555
235.050981	-3.001300	3.840900	-11.527000	22.263257	0.000400	20.815176
236.050978	-2.989800	3.841400	-11.483000	22.271952	0.000398	20.823408
237.051348	-2.994200	3.840000	-11.496000	22.283121	0.000400	20.793340
238.051127	-2.995200	3.840600	-11.503000	22.295923	0.000400	20.811374
239.052540	-2.996300	3.840800	-11.508000	22.274287	0.000401	20.821953
240.053478	-2.988100	3.840900	-11.477000	22.297287	0.000403	20.820326
241.053080	-2.988500	3.839400	-11.473000	22.298315	0.000401	20.818037
242.055172	-2.995900	3.839300	-11.501000	22.315885	0.000402	20.789163
243.052720	-3.002800	3.839400	-11.528000	22.317297	0.000402	20.812388
244.052717	-3.016400	3.838400	-11.578000	22.316726	0.000403	20.800436
245.056508	-3.026700	3.838200	-11.616000	22.324621	0.000405	20.821617
246.053890	-2.995300	3.839200	-11.499000	22.347725	0.000402	20.799234
247.052812	-3.000200	3.838100	-11.514000	22.331756	0.000403	20.794150
248.053931	-3.017400	3.837900	-11.579000	22.336010	0.000402	20.789400
249.053196	-2.998400	3.839200	-11.511000	22.325315	0.000404	20.807140
250.053147	-3.034000	3.837400	-11.641000	22.381817	0.000404	20.792122
251.054833	-3.015800	3.837500	-11.572000	22.363882	0.000406	20.811145
252.052408	-3.033500	3.836900	-11.638000	22.375197	0.000405	20.790234
253.053359	-3.015800	3.838200	-11.574000	22.374543	0.000406	20.784838
254.053981	-3.017800	3.837300	-11.578000	22.373303	0.000406	20.794975
255.054385	-2.961800	3.838800	-11.369000	22.371188	0.000406	20.798548
256.056461	-2.986800	3.837000	-11.459000	22.378095	0.000406	20.794084
257.056539	-2.995500	3.837100	-11.493000	22.405084	0.000406	20.775592
258.055058	-3.019200	3.836000	-11.580000	22.385393	0.000405	20.792384
259.056382	-3.003500	3.837100	-11.523000	22.403574	0.000407	20.776925
260.057924	-3.016400	3.835300	-11.568000	22.404717	0.000409	20.810312
261.061124	-3.005400	3.837600	-11.533000	22.417231	0.000407	20.773058
262.057510	-2.988700	3.835700	-11.463000	22.420448	0.000408	20.775805
263.059262	-3.008000	3.836300	-11.539000	22.423664	0.000409	20.781871
264.056937	-3.006300	3.835100	-11.527000	22.425354	0.000409	20.792098
265.057803	-2.999600	3.836300	-11.507000	22.440595	0.000410	20.797403
266.061585	-2.995400	3.836200	-11.490000	22.452481	0.000410	20.787021
267.057106	-2.996000	3.835900	-11.492000	22.440718	0.000409	20.789940
268.058148	-3.004200	3.834900	-11.520000	22.471281	0.000411	20.770761
269.062838	-3.034000	3.833800	-11.630000	22.445183	0.000411	20.787773
270.061080	-3.027300	3.834500	-11.607000	22.445640	0.000410	20.781593
271.059057	-3.012000	3.835800	-11.553000	22.472832	0.000411	20.775633
272.065622	-2.979900	3.834000	-11.425000	22.454596	0.000411	20.783923
273.062910	-2.997500	3.835400	-11.495000	22.478440	0.000412	20.763231
274.063980	-3.001300	3.834200	-11.507000	22.489754	0.000413	20.775036
275.064582	-2.996900	3.834300	-11.490000	22.487142	0.000413	20.786171
276.063446	-3.011800	3.832500	-11.542000	22.512912	0.000413	20.765038
277.063372	-3.007900	3.831700	-11.525000	22.478603	0.000414	20.771456
278.068234	-2.982100	3.834700	-11.435000	22.506047	0.000412	20.784242
279.065469	-2.990600	3.833600	-11.463000	22.505990	0.000414	20.778969
280.066535	-2.990100	3.833700	-11.463000	22.498848	0.000416	20.769445
281.068317	-2.997600	3.832700	-11.488000	22.509484	0.000415	20.762079
282.065119	-2.983800	3.833100	-11.436000	22.517214	0.000415	20.769347
283.069350	-2.998400	3.833100	-11.492000	22.516569	0.000416	20.766330
284.067844	-3.004500	3.831800	-11.512000	22.521157	0.000415	20.788943
285.068272	-3.008500	3.832300	-11.529000	22.533319	0.000415	20.768407
286.069161	-2.993000	3.833600	-11.473000	22.555701	0.000418	20.783711
287.068254	-3.016200	3.831100	-11.555000	22.535042	0.000416	20.750217
288.068304	-3.011000	3.832400	-11.538000	22.553457	0.000418	20.749693
289.072294	-3.008000	3.830000	-11.520000	22.565325	0.000419	20.773909
290.069119	-3.004100	3.830000	-11.504000	22.557799	0.000419	20.762104
291.068169	-2.999400	3.830800	-11.489000	22.568443	0.000419	20.759962
292.077176	-3.010100	3.832100	-11.534000	22.568843	0.000419	20.763682
293.070364	-3.009500	3.830200	-11.526000	22.576834	0.000420	20.765995
294.069885	-2.981000	3.830200	-11.417000	22.583315	0.000421	20.773909
295.072090	-2.998100	3.830700	-11.484000	22.601313	0.000421	20.761115
296.073915	-2.974300	3.831100	-11.394000	22.594261	0.000419	20.752154
297.069418	-3.005000	3.829300	-11.505000	22.601329	0.000422	20.761605
298.073748	-2.978100	3.831000	-11.407000	22.598072	0.000420	20.763085
299.069195	-3.035000	3.829300	-11.621000	22.613042	0.000421	20.750102
300.069449	-3.005600	3.830100	-11.510000	22.596236	0.000424	20.757926
301.070794	-3.008600	3.829700	-11.522000	22.595256	0.000420	20.755523
302.070553	-3.026000	3.828700	-11.584000	22.622812	0.000422	20.753724
303.069756	-3.001300	3.828400	-11.490000	22.621245	0.000423	20.742671
304.072042	-2.999200	3.830100	-11.486000	22.652219	0.000423	20.765161
305.069510	-3.015600	3.827700	-11.541000	22.627080	0.000423	20.758474
306.070995	-2.998800	3.827600	-11.478000	22.625415	0.000423	20.744952
307.074233	-3.009200	3.827100	-11.516000	22.652741	0.000424	20.754305
308.072526	-3.010900	3.827400	-11.523000	22.657133	0.000424	20.750168
309.072948	-3.001400	3.827000	-11.485000	22.654488	0.000426	20.750364
310.074022	-2.999200	3.827700	-11.479000	22.663711	0.000425	20.739213
311.074412	-3.001100	3.827800	-11.487000	22.664405	0.000425	20.739908
312.075496	-2.989900	3.828300	-11.445000	22.661311	0.000427	20.751034
313.077788	-2.990200	3.826200	-11.440000	22.645592	0.000428	20.760420
314.075495	-3.014000	3.825600	-11.529000	22.667522	0.000428	20.757730
315.075058	-2.976100	3.826900	-11.389000	22.677259	0.000427	20.750413
316.079249	-3.008100	3.826100	-11.508000	22.686278	0.000430	20.754705
317.076749	-3.018200	3.826300	-11.548000	22.689322	0.000428	20.753487
318.077759	-2.989700	3.824800	-11.434000	22.696088	0.000427	20.737978
319.079243	-2.999400	3.825200	-11.472000	22.710264	0.000430	20.747437
320.077713	-3.002400	3.825200	-11.484000	22.711758	0.000430	20.762210
321.077523	-3.002600	3.825800	-11.487000	22.695557	0.000429	20.748353
322.079586	-3.026400	3.825100	-11.575000	22.710811	0.000428	20.754623
323.078636	-2.986300	3.825500	-11.424000	22.724392	0.000429	20.757795
324.078691	-2.992500	3.825900	-11.448000	22.728848	0.000428	20.739499
325.082674	-3.015100	3.823800	-11.527000	22.742101	0.000432	20.765578
326.082243	-2.987300	3.824400	-11.424000	22.753486	0.000431	20.747110
327.079514	-3.005100	3.824700	-11.493000	22.753935	0.000431	20.737602
328.083788	-3.013200	3.823600	-11.521000	22.747235	0.000433	20.738477
329.083485	-3.000800	3.822800	-11.470000	22.739261	0.000434	20.758940
330.082326	-3.015600	3.821800	-11.524000	22.756849	0.000435	20.736253
331.082778	-2.982900	3.823900	-11.406000	22.763989	0.000433	20.735820
332.082294	-2.990600	3.823300	-11.433000	22.789231	0.000435	20.732656
333.085899	-3.019000	3.821300	-11.536000	22.743562	0.000434	20.741910
334.084287	-2.977000	3.824100	-11.383000	22.782955	0.000434	20.747707
335.085864	-3.011800	3.822300	-11.511000	22.800534	0.000435	20.727857
336.089895	-2.992900	3.822700	-11.441000	22.788660	0.000434	20.742990
337.085844	-3.002100	3.823500	-11.478000	22.785918	0.000435	20.730285
338.086832	-3.013400	3.822000	-11.516000	22.820242	0.000435	20.734324
339.089110	-2.995400	3.821600	-11.447000	22.799489	0.000435	20.744355
340.089113	-2.998800	3.821500	-11.459000	22.816455	0.000437	20.743333
341.088094	-2.989200	3.821400	-11.422000	22.820013	0.000436	20.745949
342.094185	-3.009600	3.821900	-11.502000	22.827064	0.000435	20.734520
343.088145	-2.999800	3.821000	-11.462000	22.824273	0.000437	20.738362
344.088338	-2.997900	3.820700	-11.452000	22.822331	0.000436	20.737365
345.090992	-2.996900	3.821800	-11.452000	22.843377	0.000439	20.736163
346.088535	-2.987400	3.820900	-11.414000	22.857004	0.000437	20.716149
347.089027	-2.989300	3.820100	-11.419000	22.840741	0.000439	20.734471
348.090830	-3.019800	3.818900	-11.531000	22.852639	0.000438	20.737381
349.091317	-3.061300	3.818000	-11.686000	22.857796	0.000441	20.743496
350.089899	-3.019200	3.819500	-11.531000	22.835453	0.000439	20.718741
351.092347	-2.981400	3.819200	-11.386000	22.832442	0.000440	20.724259
352.090686	-3.007100	3.818900	-11.483000	22.836677	0.000439	20.728977
353.091285	-3.006800	3.818400	-11.480000	22.854638	0.000440	20.728952
354.092706	-2.988700	3.820000	-11.416000	22.855454	0.000437	20.727873
355.090883	-2.991500	3.818700	-11.423000	22.867042	0.000440	20.728576
356.092372	-2.999200	3.819500	-11.455000	22.890012	0.000440	20.723614
357.093239	-2.994300	3.818100	-11.431000	22.891693	0.000441	20.744265
358.091288	-2.990300	3.817700	-11.415000	22.880081	0.000441	20.735476
359.092915	-3.008300	3.818400	-11.487000	22.893089	0.000442	20.730015
360.094404	-3.009600	3.816700	-11.485000	22.887018	0.000440	20.707810
361.092836	-3.004400	3.817700	-11.468000	22.919519	0.000442	20.728993
362.094304	-3.010400	3.816200	-11.488000	22.916981	0.000443	20.730718
363.095442	-2.994200	3.816400	-11.427000	22.894639	0.000440	20.713075
364.093542	-2.984600	3.816000	-11.389000	22.914639	0.000444	20.723630
365.096814	-3.019600	3.814100	-11.515000	22.930380	0.000444	20.697198
366.097113	-3.010100	3.815800	-11.485000	22.917046	0.000446	20.716558
367.094667	-2.991700	3.815300	-11.413000	22.921159	0.000444	20.722575
368.096558	-3.000700	3.816300	-11.450000	22.919535	0.000445	20.731854
369.099094	-2.988300	3.816500	-11.404000	22.920816	0.000446	20.718438
370.097766	-3.009200	3.814700	-11.477000	22.938735	0.000445	20.727856
371.096767	-2.996000	3.815300	-11.430000	22.923370	0.000448	20.718626
372.097524	-3.008400	3.814000	-11.473000	22.950118	0.000447	20.718397
373.097111	-3.015100	3.814400	-11.500000	22.941575	0.000445	20.727382
374.097130	-3.015100	3.814400	-11.500000	22.955772	0.000445	20.713157
375.098176	-3.014600	3.812900	-11.494000	22.967628	0.000447	20.699430
376.097681	-3.004900	3.813500	-11.459000	22.977893	0.000448	20.727734
377.103446	-3.019400	3.812400	-11.510000	22.956213	0.000448	20.701269
378.101925	-2.992000	3.814500	-11.412000	22.972410	0.000447	20.714179
379.100016	-3.002400	3.812800	-11.445000	22.989593	0.000448	20.707687
380.099167	-2.980600	3.813400	-11.365000	23.003015	0.000446	20.711652
381.101351	-3.002200	3.813400	-11.448000	22.972956	0.000447	20.704294
382.099663	-3.000900	3.813600	-11.443000	22.984208	0.000448	20.712723
383.102479	-2.999400	3.812400	-11.434000	23.000576	0.000448	20.699250
384.103159	-3.017400	3.811600	-11.500000	22.994872	0.000448	20.719615
385.102117	-2.991500	3.812900	-11.405000	23.012880	0.000448	20.720114
386.101142	-3.008900	3.811600	-11.468000	23.007405	0.000449	20.723638
387.100376	-2.983700	3.811800	-11.372000	23.004215	0.000450	20.744150
388.102267	-3.002800	3.812200	-11.446000	23.011232	0.000452	20.690960
389.103194	-2.987400	3.812800	-11.390000	23.028072	0.000448	20.691238
390.105188	-3.011400	3.810200	-11.472000	23.028121	0.000451	20.710729
391.103519	-2.996800	3.810700	-11.419000	23.027248	0.000453	20.716967
392.103287	-2.997300	3.810300	-11.420000	23.026155	0.000452	20.698800
393.103920	-2.996200	3.809400	-11.412000	23.046324	0.000452	20.716165
394.105090	-3.037000	3.809400	-11.568000	23.054197	0.000452	20.720261
395.103555	-3.008200	3.810000	-11.460000	23.051431	0.000453	20.707058
396.104545	-3.009800	3.808900	-11.462000	23.052818	0.000453	20.718405
397.103854	-2.987900	3.808700	-11.379000	23.049334	0.000454	20.704008
398.103665	-3.010000	3.808600	-11.463000	23.056800	0.000454	20.707695
399.104772	-2.989200	3.810100	-11.388000	23.066435	0.000454	20.718773
400.103474	-2.991700	3.806800	-11.387000	23.081602	0.000454	20.699830
401.110428	-2.981600	3.809500	-11.358000	23.080476	0.000455	20.700124
402.108875	-2.967500	3.809300	-11.304000	23.072122	0.000455	20.708349
403.105725	-3.004400	3.808000	-11.439000	23.078404	0.000456	20.709428
404.109739	-2.999700	3.808600	-11.424000	23.097985	0.000455	20.698702
405.110149	-3.006300	3.806900	-11.443000	23.077156	0.000455	20.709126
406.110069	-2.991500	3.807700	-11.390000	23.093163	0.000456	20.713786
407.112672	-3.000300	3.808300	-11.425000	23.112164	0.000455	20.702005
408.111554	-3.008800	3.805900	-11.450000	23.099233	0.000457	20.707065
409.109554	-2.999400	3.806500	-11.416000	23.097161	0.000457	20.717792
410.109759	-2.993200	3.806400	-11.393000	23.099869	0.000458	20.704858
411.110690	-2.992400	3.806200	-11.388000	23.116202	0.000457	20.693248
412.109363	-2.990200	3.805400	-11.378000	23.111071	0.000460	20.673880
413.108746	-3.004300	3.804700	-11.430000	23.127999	0.000459	20.689896
414.109708	-3.008500	3.806300	-11.450000	23.106575	0.000460	20.694507
415.108828	-2.985000	3.805300	-11.358000	23.123782	0.000457	20.697050
416.110119	-2.992400	3.804200	-11.383000	23.136027	0.000457	20.682767
417.110590	-3.002500	3.804100	-11.421000	23.143272	0.000459	20.695243
418.110017	-2.975100	3.807100	-11.324000	23.156349	0.000458	20.693649
419.111418	-2.981800	3.804500	-11.343000	23.153380	0.000459	20.709641
420.112283	-3.018400	3.804000	-11.480000	23.181941	0.000458	20.682309
421.112618	-2.985700	3.803600	-11.356000	23.154546	0.000459	20.694213
422.110540	-2.993800	3.802200	-11.381000	23.173571	0.000460	20.697156
423.113953	-3.010300	3.803200	-11.448000	23.154685	0.000461	20.716639
424.114351	-3.018200	3.801600	-11.473000	23.168138	0.000461	20.694082
425.112460	-3.016800	3.802800	-11.472000	23.185743	0.000461	20.694180
426.116211	-3.007400	3.800900	-11.430000	23.185131	0.000461	20.713483
427.113461	-3.018300	3.802200	-11.474000	23.184242	0.000462	20.680821
428.112946	-3.002000	3.802000	-11.412000	23.186770	0.000460	20.692365
429.115075	-2.982100	3.802300	-11.338000	23.186273	0.000460	20.681434
430.114101	-3.011300	3.800700	-11.443000	23.202531	0.000461	20.679235
431.114550	-2.996900	3.801200	-11.390000	23.192636	0.000464	20.711995
432.116651	-3.028200	3.800100	-11.507000	23.212060	0.000461	20.702536
433.117435	-2.994500	3.801500	-11.382000	23.215372	0.000463	20.693526
434.118457	-2.995800	3.800500	-11.385000	23.208772	0.000462	20.694499
435.117373	-3.006900	3.799500	-11.424000	23.211807	0.000462	20.671460
436.115774	-3.001000	3.800500	-11.405000	23.204587	0.000464	20.671337
437.118181	-2.999800	3.800200	-11.398000	23.224574	0.000463	20.670503
438.115793	-3.012300	3.798000	-11.440000	23.210705	0.000464	20.680788
439.119784	-2.993000	3.799600	-11.371000	23.226768	0.000465	20.682660
440.119513	-2.991200	3.799100	-11.363000	23.236769	0.000463	20.681778
441.116409	-3.006600	3.798100	-11.418000	23.257391	0.000463	20.683952
442.117208	-3.001100	3.799000	-11.400000	23.244339	0.000464	20.703591
443.119395	-2.999000	3.797300	-11.387000	23.237046	0.000464	20.684426
444.117873	-3.007200	3.797800	-11.420000	23.243116	0.000466	20.688138
445.117484	-2.996200	3.797300	-11.377000	23.248002	0.000466	20.699200
446.118603	-3.008000	3.797900	-11.423000	23.263836	0.000464	20.687566
447.134164	-2.993300	3.797000	-11.364000	23.255719	0.000465	20.700770
448.119168	-3.020200	3.796900	-11.466000	23.271446	0.000467	20.687607
449.121003	-2.979200	3.797900	-11.314000	23.248883	0.000467	20.687754
450.121421	-3.002700	3.797100	-11.401000	23.256233	0.000467	20.707924
451.121636	-3.019800	3.796000	-11.462000	23.255140	0.000466	20.670315
452.123101	-3.005100	3.796000	-11.407000	23.259520	0.000468	20.687983
453.121279	-3.006200	3.796400	-11.412000	23.274530	0.000468	20.679317
454.121078	-2.990400	3.796000	-11.350000	23.280281	0.000467	20.709739
455.123090	-3.028900	3.794100	-11.490000	23.288446	0.000466	20.678090
456.122294	-3.000700	3.794400	-11.385000	23.294996	0.000467	20.709788
457.123408	-2.996100	3.794100	-11.366000	23.291007	0.000469	20.689193
458.123206	-2.984700	3.795300	-11.327000	23.297737	0.000467	20.688825
459.124591	-2.994500	3.794200	-11.361000	23.302215	0.000468	20.687623
460.125166	-3.042300	3.793300	-11.539000	23.302982	0.000469	20.692660
461.123698	-2.998700	3.794300	-11.376000	23.297492	0.000467	20.690951
462.125052	-3.000900	3.792300	-11.380000	23.312281	0.000468	20.686806
463.128082	-2.974600	3.792200	-11.279000	23.301065	0.000468	20.686470
464.126336	-2.988600	3.794000	-11.337000	23.322909	0.000470	20.677068
465.125698	-3.015900	3.791100	-11.432000	23.324109	0.000468	20.676373
466.131212	-3.016800	3.791000	-11.436000	23.327208	0.000469	20.685645
467.128744	-3.024700	3.791100	-11.466000	23.324353	0.000470	20.695112
468.126532	-3.005400	3.792000	-11.395000	23.356964	0.000470	20.666153
469.130058	-2.989500	3.791800	-11.334000	23.339786	0.000473	20.671697
470.129669	-3.006700	3.790800	-11.397000	23.348130	0.000470	20.688122
471.129326	-2.982400	3.792500	-11.310000	23.365365	0.000470	20.677894
472.132962	-3.009600	3.791500	-11.411000	23.349705	0.000469	20.664093
473.128435	-3.028600	3.790200	-11.477000	23.344598	0.000470	20.690272
474.130012	-3.035100	3.788600	-11.497000	23.355227	0.000470	20.685277
475.133733	-2.988100	3.790500	-11.325000	23.338897	0.000472	20.692619
476.130284	-2.990500	3.789500	-11.332000	23.370520	0.000471	20.689226
477.131070	-2.988800	3.791300	-11.331000	23.376246	0.000469	20.663194
478.135267	-3.013000	3.788300	-11.414000	23.353489	0.000469	20.681164
479.131317	-2.994200	3.789400	-11.346000	23.367266	0.000470	20.682170
480.130980	-3.018100	3.788400	-11.432000	23.365863	0.000472	20.692619
481.133307	-3.002100	3.788700	-11.374000	23.378734	0.000473	20.673749
482.131953	-2.998100	3.787700	-11.355000	23.384468	0.000473	20.679496
483.131231	-3.010700	3.788900	-11.405000	23.395071	0.000473	20.681589
484.135133	-3.003700	3.787700	-11.377000	23.393383	0.000472	20.697442
485.130818	-2.992500	3.787300	-11.332000	23.392584	0.000471	20.689528
486.131668	-3.011000	3.786200	-11.399000	23.397714	0.000472	20.672383
487.132054	-2.989700	3.787000	-11.321000	23.398538	0.000471	20.684590
488.130838	-2.987300	3.787700	-11.315000	23.428455	0.000472	20.672375
489.134388	-2.997400	3.787000	-11.350000	23.416906	0.000471	20.693992
490.131663	-2.992400	3.788000	-11.334000	23.417314	0.000473	20.700091
491.132450	-3.008800	3.785700	-11.389000	23.427843	0.000474	20.690256
492.133252	-3.014700	3.785400	-11.410000	23.428259	0.000472	20.670282
493.133577	-2.991100	3.785400	-11.322000	23.421914	0.000474	20.679096
494.132384	-3.017800	3.784900	-11.421000	23.424157	0.000474	20.692251
495.133658	-2.995000	3.784500	-11.332000	23.429613	0.000472	20.678278
496.134840	-2.997500	3.784600	-11.342000	23.428414	0.000475	20.676602
497.135247	-2.987700	3.786000	-11.311000	23.433194	0.000473	20.686609
498.138768	-2.999000	3.784800	-11.349000	23.452368	0.000474	20.702986
499.134718	-2.994300	3.784200	-11.331000	23.423675	0.000475	20.679913
500.136211	-3.024900	3.784400	-11.447000	23.434711	0.000476	20.702356
501.142007	-3.010100	3.783400	-11.386000	23.433169	0.000473	20.664297
502.140383	-2.999200	3.782700	-11.345000	23.436162	0.000476	20.703337
503.137030	-3.002700	3.782700	-11.358000	23.433667	0.000476	20.681393
504.141445	-3.011500	3.782500	-11.390000	23.460459	0.000476	20.697818
505.135990	-2.986600	3.783100	-11.298000	23.469594	0.000475	20.689430
506.136932	-3.004600	3.782300	-11.363000	23.467799	0.000475	20.679570
507.142370	-2.991500	3.783100	-11.316000	23.474495	0.000475	20.683437
508.138690	-3.011000	3.781600	-11.386000	23.463118	0.000476	20.698113
509.139474	-2.976700	3.781000	-11.254000	23.478426	0.000476	20.683110
510.140441	-3.005100	3.781000	-11.361000	23.490578	0.000476	20.691499
511.139220	-2.976800	3.782300	-11.258000	23.517745	0.000478	20.689332
512.140883	-2.982900	3.780400	-11.275000	23.487773	0.000476	20.684418
513.139367	-2.984500	3.781000	-11.283000	23.505095	0.000477	20.682816
514.139415	-2.968000	3.781000	-11.221000	23.508309	0.000476	20.704057
515.139154	-2.999700	3.779800	-11.338000	23.520281	0.000477	20.705152
516.140055	-3.015200	3.779400	-11.395000	23.523739	0.000476	20.681115
517.141543	-2.994600	3.779300	-11.317000	23.506237	0.000477	20.693444
518.145041	-2.999400	3.779400	-11.335000	23.514336	0.000478	20.683069
519.140900	-2.975800	3.778700	-11.244000	23.522100	0.000477	20.679472
520.140408	-3.004800	3.778400	-11.353000	23.545432	0.000477	20.697647
521.142732	-2.974800	3.778400	-11.239000	23.548286	0.000478	20.703828
522.141532	-3.013700	3.777600	-11.383000	23.546321	0.000478	20.690002
523.146971	-3.004400	3.777500	-11.349000	23.551573	0.000478	20.710442
524.147448	-2.994700	3.777800	-11.312000	23.546297	0.000478	20.708471
525.143886	-2.982500	3.777200	-11.264000	23.540498	0.000478	20.689381
526.142580	-2.989800	3.777300	-11.292000	23.560275	0.000478	20.686920
527.144494	-2.991000	3.776200	-11.293000	23.548711	0.000478	20.680069
528.142974	-2.997200	3.776300	-11.317000	23.555227	0.000478	20.704146
529.142335	-2.999600	3.776900	-11.329000	23.568046	0.000479	20.702773
530.147151	-3.000400	3.775000	-11.326000	23.567149	0.000475	20.718944
531.143595	-2.989300	3.775900	-11.286000	23.566097	0.000477	20.697500
532.147684	-3.031300	3.774500	-11.441000	23.564605	0.000477	20.714497
533.146886	-2.979400	3.775200	-11.247000	23.577539	0.000480	20.723670
534.145288	-2.999300	3.774500	-11.320000	23.570305	0.000478	20.703615
535.146035	-3.007300	3.774000	-11.348000	23.565021	0.000478	20.706853
536.148099	-2.994700	3.773900	-11.300000	23.578534	0.000479	20.705226
537.144813	-3.024200	3.773500	-11.411000	23.599549	0.000479	20.701162
538.144980	-3.001800	3.775200	-11.330000	23.593816	0.000478	20.718176
539.146060	-3.006300	3.774400	-11.346000	23.595888	0.000479	20.712666
540.146570	-2.999800	3.773800	-11.319000	23.602599	0.000479	20.708962
541.147715	-2.999800	3.773100	-11.317000	23.616438	0.000478	20.707188
542.149311	-2.979400	3.774100	-11.244000	23.611879	0.000481	20.710205
543.147188	-3.011500	3.772500	-11.360000	23.606122	0.000481	20.696371
544.151405	-3.019400	3.771600	-11.387000	23.615362	0.000480	20.729344
545.150157	-3.004700	3.771200	-11.330000	23.626109	0.000478	20.699813
546.150017	-3.001800	3.771500	-11.321000	23.626525	0.000479	20.706395
547.150833	-2.969900	3.772600	-11.204000	23.627692	0.000480	20.719419
548.149086	-3.007100	3.770900	-11.339000	23.627594	0.000481	20.720743
549.150679	-3.020700	3.769800	-11.386000	23.636898	0.000479	20.712527
550.159538	-3.031100	3.769300	-11.424000	23.632641	0.000481	20.719640
551.150250	-3.006200	3.770300	-11.333000	23.661362	0.000479	20.717138
552.150463	-2.997400	3.769600	-11.298000	23.626827	0.000479	20.714285
553.152752	-3.011600	3.769200	-11.351000	23.649954	0.000481	20.718977
554.150573	-2.996800	3.769000	-11.294000	23.653330	0.000480	20.719517
555.150939	-2.979100	3.770000	-11.231000	23.643324	0.000480	20.728453
556.158936	-3.010500	3.768800	-11.345000	23.686281	0.000481	20.713197
557.151811	-2.992600	3.769900	-11.280000	23.660073	0.000481	20.726752
558.153699	-3.025900	3.767500	-11.397000	23.667005	0.000480	20.737969
559.159402	-3.021200	3.767800	-11.382000	23.676700	0.000480	20.716868
560.152608	-3.000800	3.767200	-11.304000	23.668081	0.000480	20.721030
561.151458	-3.009400	3.767700	-11.337000	23.670568	0.000480	20.722575
562.157324	-2.984800	3.769100	-11.248000	23.680770	0.000480	20.725690
563.154431	-3.018100	3.765800	-11.364000	23.689470	0.000480	20.720188
564.152761	-2.999200	3.766200	-11.294000	23.700641	0.000480	20.726173
565.157335	-2.996100	3.767000	-11.285000	23.693988	0.000482	20.742262
566.154582	-2.995800	3.766200	-11.282000	23.695994	0.000479	20.747593
567.156116	-2.976100	3.765600	-11.205000	23.708364	0.000478	20.729647
568.156219	-3.013900	3.765400	-11.347000	23.698481	0.000480	20.732067
569.156217	-2.993800	3.765700	-11.273000	23.696711	0.000483	20.729345
570.155038	-3.004000	3.764700	-11.308000	23.699892	0.000481	20.744862
571.157811	-3.013600	3.765100	-11.345000	23.721361	0.000481	20.745050
572.155942	-3.025400	3.763900	-11.387000	23.701294	0.000481	20.727301
573.155657	-3.007400	3.763700	-11.318000	23.718964	0.000480	20.730318
574.156847	-3.013700	3.762500	-11.338000	23.723767	0.000480	20.755049
575.155567	-3.003200	3.763800	-11.302000	23.703423	0.000482	20.742238
576.158055	-2.998400	3.763500	-11.283000	23.738118	0.000481	20.736720
577.157607	-2.997300	3.762700	-11.277000	23.734302	0.000482	20.732420
578.158164	-3.008900	3.763200	-11.322000	23.747691	0.000483	20.747266
579.160716	-3.009100	3.761700	-11.318000	23.756195	0.000483	20.742042
580.159251	-2.997300	3.762300	-11.276000	23.752803	0.000481	20.745280
581.159921	-2.983400	3.761900	-11.222000	23.744813	0.000481	20.750071
582.158338	-2.979200	3.761700	-11.206000	23.727258	0.000481	20.743849
583.159700	-2.991300	3.761900	-11.252000	23.732207	0.000481	20.748812
584.160002	-3.013200	3.760000	-11.329000	23.766755	0.000480	20.744569
585.163780	-3.010400	3.761600	-11.323000	23.748727	0.000480	20.759211
586.160849	-3.004800	3.761000	-11.300000	23.788321	0.000482	20.739639
587.162684	-2.999900	3.759900	-11.279000	23.771835	0.000483	20.751085
588.163399	-2.996400	3.759700	-11.264000	23.776336	0.000482	20.743744
589.162118	-2.998500	3.760500	-11.276000	23.794404	0.000481	20.750480
590.162521	-3.013600	3.759400	-11.328000	23.783054	0.000481	20.753799
591.165019	-2.990200	3.759700	-11.242000	23.790564	0.000481	20.772235
592.163153	-2.999600	3.759500	-11.276000	23.789439	0.000481	20.747398
593.172958	-3.033900	3.757700	-11.400000	23.807058	0.000483	20.763643
594.167742	-2.993200	3.758300	-11.249000	23.813801	0.000483	20.765662
595.167859	-3.001700	3.758000	-11.279000	23.820617	0.000483	20.756375
596.164936	-3.005000	3.757800	-11.291000	23.825892	0.000481	20.766406
597.167667	-3.011600	3.756800	-11.314000	23.806300	0.000480	20.773789
598.168615	-2.979300	3.757400	-11.194000	23.802990	0.000482	20.765254
599.164659	-2.995400	3.757700	-11.254000	23.816622	0.000483	20.775129
600.165885	-2.978800	3.757900	-11.193000	23.818677	0.000480	20.751585
601.166731	-2.985500	3.756700	-11.214000	23.838025	0.000483	20.754389
602.165169	-2.992500	3.756200	-11.239000	23.833043	0.000483	20.777844
603.168068	-2.994100	3.756400	-11.246000	23.824874	0.000482	20.764436
604.166382	-3.008500	3.755400	-11.297000	23.838050	0.000483	20.758207
605.166874	-3.006500	3.754400	-11.286000	23.849341	0.000480	20.759098
606.168472	-2.986100	3.755800	-11.214000	23.841294	0.000481	20.740597
607.168147	-2.993800	3.755800	-11.243000	23.848730	0.000480	20.761330
608.168471	-3.009500	3.753800	-11.296000	23.859908	0.000480	20.770168
609.172141	-3.026500	3.753100	-11.358000	23.862664	0.000482	20.753964
610.168568	-2.996300	3.753700	-11.245000	23.860471	0.000484	20.761723
611.168788	-2.999500	3.753800	-11.258000	23.860242	0.000480	20.790418
612.171202	-3.006400	3.753000	-11.283000	23.868958	0.000480	20.786829
613.169852	-3.004500	3.753400	-11.276000	23.871290	0.000482	20.769252
614.170062	-3.009600	3.752500	-11.292000	23.879459	0.000480	20.766064
615.172945	-2.978900	3.752600	-11.177000	23.879826	0.000481	20.783976
616.172803	-3.016300	3.752000	-11.316000	23.875170	0.000481	20.758445
617.173216	-3.004400	3.751800	-11.271000	23.883388	0.000481	20.778065
618.176703	-3.008000	3.751300	-11.283000	23.880796	0.000482	20.785897
619.175838	-2.992400	3.751500	-11.224000	23.870638	0.000481	20.782349
620.175141	-3.001600	3.752500	-11.262000	23.855726	0.000480	20.770242
621.175591	-3.022300	3.750000	-11.333000	23.913064	0.000482	20.777951
622.174567	-2.999200	3.750500	-11.248000	23.891492	0.000481	20.781924
623.176843	-3.009100	3.749600	-11.283000	23.894623	0.000480	20.777003
624.177682	-3.010200	3.750900	-11.290000	23.887897	0.000480	20.763620
625.178402	-2.997300	3.749600	-11.238000	23.907586	0.000481	20.798536
626.177424	-2.994000	3.750100	-11.226000	23.904945	0.000481	20.767438
627.176394	-3.007400	3.747800	-11.270000	23.934587	0.000481	20.782464
628.178833	-3.015200	3.749000	-11.303000	23.936047	0.000482	20.798626
629.178405	-3.000300	3.749300	-11.248000	23.918380	0.000482	20.773324
630.180331	-3.019700	3.748400	-11.317000	23.907276	0.000480	20.787320
631.179877	-3.012300	3.748200	-11.290000	23.917198	0.000480	20.777355
632.179163	-2.965500	3.748100	-11.114000	23.945349	0.000480	20.776660
633.185245	-2.987000	3.748600	-11.196000	23.940017	0.000483	20.805927
634.180234	-2.990800	3.746000	-11.203000	23.950517	0.000480	20.792275
635.181404	-2.997600	3.748200	-11.235000	23.932272	0.000482	20.793419
636.179169	-2.998900	3.746800	-11.235000	23.932778	0.000481	20.775434
637.180134	-3.020600	3.746000	-11.314000	23.949368	0.000480	20.791596
638.180653	-3.003300	3.745700	-11.248000	23.944485	0.000479	20.776742
639.185828	-2.980300	3.746700	-11.165000	23.959338	0.000480	20.792112
640.183789	-2.985600	3.746600	-11.185000	23.951798	0.000481	20.789765
641.182836	-3.007400	3.744800	-11.261000	23.945814	0.000481	20.797990
642.186552	-3.004900	3.745800	-11.255000	23.966154	0.000480	20.800843
643.183301	-3.020700	3.744700	-11.311000	23.972521	0.000480	20.797270
644.185636	-2.988700	3.745400	-11.192000	23.969635	0.000481	20.802911
645.187263	-2.979500	3.745300	-11.157000	23.963407	0.000481	20.783863
646.185265	-3.000500	3.743200	-11.230000	23.975448	0.000480	20.807792
647.185261	-2.989800	3.745100	-11.195000	23.957464	0.000480	20.814887
648.191072	-3.019800	3.743900	-11.305000	23.962681	0.000479	20.803050
649.186069	-3.001100	3.743400	-11.233000	23.981643	0.000480	20.805470
650.186028	-3.013100	3.741800	-11.274000	24.000678	0.000481	20.785678
651.187994	-3.013000	3.741100	-11.271000	23.980070	0.000480	20.797254
652.187726	-3.004000	3.742300	-11.240000	23.994581	0.000479	20.797581
653.188358	-2.987700	3.742500	-11.180000	23.986445	0.000480	20.815501
654.186730	-2.998800	3.740900	-11.217000	24.006776	0.000480	20.788474
655.191838	-3.023200	3.740600	-11.307000	24.000817	0.000478	20.798146
656.187491	-2.991900	3.742500	-11.196000	23.979068	0.000479	20.814267
657.188703	-2.986600	3.741800	-11.174000	24.019485	0.000477	20.810702
658.193907	-3.023400	3.740600	-11.308000	24.027375	0.000479	20.811029
659.189296	-3.007000	3.739000	-11.242000	24.029283	0.000481	20.788287
660.190711	-3.000000	3.739700	-11.218000	24.014480	0.000482	20.805683
661.192687	-2.997700	3.740100	-11.211000	24.033441	0.000480	20.807629
662.189059	-3.022900	3.739000	-11.302000	24.043908	0.000478	20.815755
663.190878	-2.993700	3.739100	-11.193000	24.026137	0.000479	20.821641
664.194086	-3.003500	3.739700	-11.230000	24.042440	0.000481	20.819025
665.191966	-3.019700	3.737500	-11.285000	24.028256	0.000479	20.811438
666.193326	-2.992600	3.737700	-11.185000	24.043900	0.000477	20.799626
667.194927	-3.009400	3.737600	-11.247000	24.031884	0.000477	20.811283
668.195165	-2.992300	3.737600	-11.183000	24.051978	0.000480	20.835702
669.193500	-3.006300	3.736400	-11.231000	24.054399	0.000477	20.815371
670.194530	-2.999300	3.737600	-11.208000	24.066463	0.000479	20.820832
671.193298	-3.001900	3.736200	-11.215000	24.051456	0.000478	20.811472
672.192656	-3.016800	3.736000	-11.270000	24.055255	0.000479	20.815756
673.197117	-2.981700	3.736600	-11.140000	24.067597	0.000476	20.815331
674.197387	-2.999500	3.736600	-11.207000	24.086434	0.000477	20.828533
675.196812	-3.023600	3.736500	-11.296000	24.063415	0.000479	20.830103
676.200548	-3.024600	3.734100	-11.292000	24.100112	0.000478	20.828975
677.199658	-3.016300	3.734400	-11.263000	24.071721	0.000477	20.820416
678.198163	-2.996800	3.735200	-11.192000	24.095157	0.000480	20.808832
679.198933	-2.988500	3.734500	-11.160000	24.100977	0.000476	20.814669
680.203680	-3.010900	3.734800	-11.244000	24.092393	0.000478	20.834983
681.202386	-3.008300	3.734200	-11.233000	24.088408	0.000478	20.854693
682.200460	-3.025600	3.734100	-11.296000	24.112690	0.000478	20.843485
683.199859	-2.986700	3.733500	-11.150000	24.109625	0.000477	20.809118
684.198737	-3.003800	3.733100	-11.212000	24.115698	0.000478	20.847924
685.200636	-2.986800	3.733800	-11.150000	24.111386	0.000477	20.831747
686.201530	-3.025800	3.732100	-11.292000	24.102477	0.000477	20.824234
687.199109	-2.994100	3.733000	-11.175000	24.112332	0.000478	20.831747
688.201052	-2.984000	3.733100	-11.138000	24.139198	0.000477	20.841622
689.203894	-2.981000	3.732000	-11.123000	24.118592	0.000475	20.836603
690.203680	-3.001100	3.732100	-11.199000	24.129188	0.000478	20.820204
691.204960	-3.025200	3.731800	-11.288000	24.150063	0.000477	20.860105
692.206999	-2.998800	3.731600	-11.189000	24.131952	0.000476	20.837674
693.205085	-3.007000	3.730200	-11.216000	24.121306	0.000476	20.802342
694.204930	-2.995200	3.731300	-11.175000	24.123988	0.000476	20.829687
695.206423	-2.997800	3.730300	-11.182000	24.136524	0.000477	20.810019
696.205698	-2.993500	3.730100	-11.165000	24.146746	0.000476	20.835443
697.218867	-2.987800	3.729800	-11.143000	24.143233	0.000476	20.807264
698.207526	-2.997000	3.731500	-11.182000	24.136289	0.000476	20.848187
699.203942	-3.003900	3.729700	-11.202000	24.147642	0.000477	20.842031
700.204469	-3.006200	3.729000	-11.208000	24.164327	0.000476	20.838852
701.208377	-3.008500	3.728800	-11.216000	24.101671	0.000476	20.837176
702.204419	-3.007700	3.728500	-11.213000	24.152232	0.000475	20.821031
703.204625	-3.026300	3.727100	-11.279000	24.147374	0.000478	20.823745
704.204203	-2.986500	3.729900	-11.138000	24.152680	0.000475	20.827644
705.205087	-3.012200	3.727500	-11.225000	24.169422	0.000473	20.829737
706.205845	-2.988800	3.727400	-11.139000	24.158948	0.000474	20.825870
707.207682	-3.004100	3.727400	-11.197000	24.184696	0.000475	20.823721
708.207323	-3.002500	3.727300	-11.190000	24.161231	0.000476	20.824841
709.206495	-3.011000	3.726100	-11.219000	24.177328	0.000473	20.835770
710.209925	-3.023000	3.727100	-11.267000	24.167506	0.000475	20.817859
711.205064	-2.997200	3.726600	-11.168000	24.181697	0.000473	20.827825
712.209155	-2.983800	3.726000	-11.117000	24.173889	0.000475	20.829002
713.211526	-3.004300	3.725200	-11.191000	24.184142	0.000473	20.826958
714.208153	-2.997200	3.726700	-11.169000	24.175853	0.000473	20.817222
715.209415	-3.003000	3.726000	-11.187000	24.207787	0.000473	20.806105
716.211345	-2.997000	3.724600	-11.161000	24.187321	0.000473	20.811181
717.212498	-3.000300	3.724500	-11.174000	24.166016	0.000473	20.818261
718.207719	-3.002100	3.724900	-11.182000	24.183262	0.000474	20.793359
719.210846	-2.980600	3.724400	-11.100000	24.180166	0.000474	20.824392
720.211283	-3.018800	3.723800	-11.240000	24.195668	0.000473	20.797267
721.214219	-2.990300	3.724700	-11.137000	24.194828	0.000474	20.808279
722.215300	-3.019700	3.723400	-11.243000	24.195619	0.000473	20.796744
723.210452	-3.001300	3.723600	-11.175000	24.215228	0.000472	20.807878
724.211126	-3.009700	3.721400	-11.199000	24.197338	0.000470	20.796098
725.214868	-2.983100	3.723500	-11.107000	24.227315	0.000472	20.790131
726.211580	-2.997500	3.722600	-11.157000	24.198024	0.000472	20.819070
727.212547	-2.988900	3.721900	-11.123000	24.190663	0.000472	20.797464
728.214751	-3.004000	3.721400	-11.178000	24.237617	0.000471	20.796671
729.212729	-3.001700	3.721900	-11.172000	24.218921	0.000471	20.791668
730.215202	-3.007700	3.722100	-11.193000	24.210119	0.000471	20.800857
731.213186	-3.018200	3.720900	-11.230000	24.207934	0.000468	20.786337
732.212187	-3.011400	3.721200	-11.204000	24.216810	0.000470	20.776748
733.216852	-3.022600	3.721200	-11.247000	24.207951	0.000469	20.778293
734.214384	-3.013100	3.718600	-11.203000	24.237235	0.000470	20.792494
735.215164	-2.999100	3.719500	-11.154000	24.236688	0.000470	20.795265
736.217165	-3.008600	3.718900	-11.188000	24.213819	0.000469	20.789395
737.213332	-3.004700	3.719700	-11.175000	24.239028	0.000470	20.788602
738.214570	-3.028300	3.718700	-11.261000	24.252060	0.000468	20.778915
739.217887	-2.977900	3.719900	-11.076000	24.252207	0.000471	20.807037
740.216579	-2.993000	3.718900	-11.130000	24.245670	0.000469	20.795739
741.216369	-2.995700	3.718500	-11.139000	24.241758	0.000467	20.794660
742.218712	-2.999900	3.718800	-11.155000	24.255141	0.000470	20.794333
743.216067	-2.983600	3.718300	-11.093000	24.235645	0.000470	20.786158
744.215436	-3.002000	3.717300	-11.158000	24.236281	0.000468	20.782528
745.219050	-2.971000	3.718400	-11.047000	24.259224	0.000468	20.781833
746.216000	-2.988200	3.718600	-11.111000	24.255369	0.000470	20.782708
747.216678	-3.009400	3.716700	-11.184000	24.264065	0.000469	20.770568
748.225651	-3.002900	3.714900	-11.155000	24.240886	0.000466	20.782880
749.216772	-3.018000	3.715800	-11.214000	24.259142	0.000467	20.769424
750.215569	-3.016800	3.716500	-11.211000	24.258336	0.000468	20.765770
751.220526	-3.006600	3.716800	-11.173000	24.266005	0.000469	20.774885
752.217014	-3.008300	3.714400	-11.173000	24.266250	0.000467	20.772760
753.217716	-3.007300	3.714700	-11.170000	24.280300	0.000466	20.773103
754.222558	-2.973100	3.716500	-11.049000	24.269754	0.000467	20.789077
755.217083	-3.010300	3.714400	-11.181000	24.273854	0.000464	20.771378
756.217372	-3.001300	3.714400	-11.148000	24.288230	0.000467	20.786748
757.222720	-3.008800	3.714300	-11.174000	24.289763	0.000467	20.753671
758.216511	-2.989000	3.715600	-11.106000	24.269567	0.000466	20.783674
759.217437	-3.004800	3.714500	-11.160000	24.277123	0.000465	20.774657
760.221958	-3.002200	3.714000	-11.149000	24.316877	0.000466	20.774706
761.218019	-3.000000	3.713600	-11.140000	24.298736	0.000466	20.758879
762.218550	-2.988600	3.713200	-11.096000	24.297367	0.000465	20.770782
763.221702	-3.021100	3.712100	-11.214000	24.318018	0.000466	20.766842
764.220096	-3.009000	3.712000	-11.168000	24.299502	0.000467	20.768183
765.220737	-3.017400	3.711300	-11.197000	24.308206	0.000465	20.758422
766.220421	-3.005800	3.711500	-11.154000	24.320748	0.000464	20.766262
767.220110	-3.025200	3.711800	-11.229000	24.331661	0.000465	20.776260
768.224241	-3.011700	3.711900	-11.177000	24.308321	0.000465	20.763753
769.218723	-3.000900	3.711700	-11.137000	24.299519	0.000467	20.764881
770.219178	-3.004100	3.711300	-11.148000	24.325989	0.000463	20.758242
771.225889	-3.005900	3.709700	-11.150000	24.311084	0.000463	20.777430
772.221622	-2.995100	3.710200	-11.112000	24.332003	0.000464	20.778027
773.223238	-2.996800	3.711000	-11.120000	24.318369	0.000463	20.761504
774.225958	-2.994100	3.710700	-11.108000	24.334709	0.000462	20.737592
775.222940	-3.012100	3.709400	-11.173000	24.344961	0.000462	20.750247
776.223359	-2.998600	3.709600	-11.122000	24.317172	0.000463	20.754613
777.227782	-3.006200	3.708500	-11.148000	24.323667	0.000462	20.752593
778.222293	-3.008000	3.708800	-11.155000	24.328687	0.000462	20.740085
779.223988	-2.999900	3.708700	-11.125000	24.338809	0.000465	20.746920
780.224938	-3.012000	3.707500	-11.166000	24.334009	0.000462	20.752537
781.224075	-3.012100	3.707600	-11.166000	24.344953	0.000463	20.766361
782.225527	-2.994300	3.709200	-11.106000	24.345149	0.000462	20.764187
783.226115	-2.976900	3.709200	-11.041000	24.352548	0.000463	20.784886
784.226151	-2.996700	3.707100	-11.108000	24.335777	0.000462	20.745301
785.225890	-2.979700	3.708200	-11.048000	24.326821	0.000461	20.761448
786.226871	-2.991100	3.707200	-11.088000	24.339632	0.000461	20.765764
787.228439	-2.997500	3.707200	-11.111000	24.339005	0.000463	20.764661
788.227096	-3.002900	3.706400	-11.129000	24.362197	0.000461	20.750942
789.226507	-3.008600	3.707100	-11.152000	24.348025	0.000462	20.758537
790.229575	-3.008700	3.706800	-11.151000	24.363329	0.000462	20.764881
791.228516	-3.016500	3.705200	-11.176000	24.357552	0.000460	20.772361
792.226757	-2.997900	3.706600	-11.111000	24.391379	0.000459	20.756984
793.228327	-3.016900	3.705100	-11.177000	24.375260	0.000460	20.728010
794.230880	-3.003500	3.706100	-11.130000	24.385911	0.000458	20.742488
795.227804	-2.995300	3.705100	-11.097000	24.364096	0.000459	20.745260
796.229884	-2.990000	3.704100	-11.074000	24.397678	0.000458	20.743862
797.228928	-3.004600	3.703900	-11.128000	24.367779	0.000459	20.753697
798.230711	-2.999400	3.704200	-11.109000	24.364226	0.000456	20.752503
799.231771	-3.011400	3.703900	-11.152000	24.368749	0.000459	20.760834
800.233291	-2.991600	3.704000	-11.080000	24.388005	0.000459	20.759763
801.230318	-2.991500	3.703700	-11.079000	24.370916	0.000457	20.742619
802.230733	-2.987400	3.703700	-11.063000	24.372432	0.000458	20.752675
803.234310	-2.999300	3.702600	-11.103000	24.381070	0.000458	20.746641
804.233901	-2.997800	3.702700	-11.099000	24.389178	0.000456	20.743396
805.233354	-2.995700	3.702300	-11.089000	24.364894	0.000458	20.729939
806.233665	-3.010400	3.701700	-11.143000	24.393635	0.000458	20.728426
807.229158	-2.987300	3.701700	-11.056000	24.377166	0.000456	20.761218
808.232551	-3.006200	3.702000	-11.128000	24.391990	0.000456	20.722981
809.237559	-3.002700	3.702200	-11.116000	24.392764	0.000455	20.737509
810.235380	-3.021000	3.700300	-11.177000	24.391101	0.000457	20.729203
811.234043	-3.014900	3.700000	-11.154000	24.398362	0.000457	20.756877
812.237434	-2.992700	3.701600	-11.076000	24.407227	0.000456	20.738269
813.234381	-3.002300	3.699800	-11.107000	24.389659	0.000455	20.739136
814.234690	-2.999700	3.700300	-11.099000	24.394385	0.000455	20.728230
815.237022	-3.032500	3.699200	-11.217000	24.405011	0.000455	20.725139
816.235586	-3.004400	3.700100	-11.116000	24.415205	0.000456	20.738212
817.234043	-3.001200	3.699400	-11.101000	24.388933	0.000456	20.733667
818.237072	-2.981700	3.699100	-11.029000	24.390212	0.000453	20.735424
819.232463	-2.991700	3.698900	-11.065000	24.412671	0.000454	20.735195
820.238572	-3.009500	3.698500	-11.130000	24.416077	0.000454	20.733871
821.236335	-2.989300	3.699600	-11.058000	24.413739	0.000454	20.725360
822.235266	-2.997600	3.697800	-11.084000	24.402477	0.000453	20.731606
823.236074	-3.003000	3.696600	-11.101000	24.389218	0.000453	20.738220
824.239756	-2.997600	3.697500	-11.083000	24.405858	0.000452	20.730731
825.239326	-2.992100	3.697600	-11.062000	24.407822	0.000454	20.722269
826.236431	-3.022000	3.696300	-11.169000	24.381151	0.000451	20.714004
827.241218	-3.019800	3.697200	-11.164000	24.426475	0.000452	20.738138
828.239639	-2.993500	3.697900	-11.068000	24.414610	0.000452	20.733347
829.238226	-3.013700	3.696100	-11.136000	24.419866	0.000453	20.699263
830.241773	-3.011100	3.695800	-11.127000	24.422246	0.000451	20.717299
831.239194	-3.005700	3.695500	-11.105000	24.436481	0.000452	20.729210
832.238309	-3.003300	3.696200	-11.099000	24.412524	0.000453	20.725090
833.243331	-2.985600	3.696400	-11.034000	24.402159	0.000451	20.722751
834.238996	-2.995300	3.695300	-11.067000	24.419744	0.000449	20.736127
835.238699	-3.004700	3.694900	-11.101000	24.438299	0.000448	20.719179
836.243060	-3.001400	3.694400	-11.087000	24.441118	0.000452	20.718214
837.239512	-3.015000	3.693500	-11.135000	24.433898	0.000450	20.699590
838.239036	-2.989600	3.695100	-11.046000	24.446414	0.000448	20.713570
839.241212	-2.996900	3.694800	-11.072000	24.443473	0.000449	20.712042
840.241441	-3.006600	3.693300	-11.104000	24.441607	0.000450	20.731033
841.240477	-3.009100	3.694300	-11.116000	24.429498	0.000450	20.724100
842.243531	-3.012900	3.692800	-11.124000	24.441191	0.000448	20.718287
843.240814	-2.998000	3.693500	-11.072000	24.458702	0.000448	20.721157
844.241714	-2.992900	3.692900	-11.052000	24.466656	0.000449	20.721076
845.243349	-3.014900	3.693000	-11.133000	24.441607	0.000450	20.723921
846.239770	-2.987000	3.693500	-11.032000	24.471512	0.000447	20.730216
847.241313	-3.014100	3.692000	-11.127000	24.481860	0.000447	20.715467
848.243424	-3.009400	3.691300	-11.107000	24.455614	0.000447	20.720904
849.239279	-2.999500	3.691600	-11.072000	24.458279	0.000446	20.705084
850.240902	-3.021800	3.691900	-11.156000	24.457089	0.000447	20.724754
851.243656	-2.989800	3.691300	-11.036000	24.446911	0.000447	20.710275
852.241418	-2.996700	3.690300	-11.057000	24.463722	0.000446	20.714813
853.242754	-2.992000	3.690600	-11.041000	24.462899	0.000446	20.690278
854.243866	-3.011200	3.689900	-11.110000	24.468880	0.000447	20.728523
855.243622	-2.990100	3.689900	-11.032000	24.454278	0.000446	20.712450
856.245253	-2.992700	3.690200	-11.043000	24.458955	0.000447	20.718091
857.248141	-3.011900	3.689600	-11.112000	24.475415	0.000444	20.690507
858.243579	-3.000500	3.688700	-11.067000	24.467821	0.000446	20.703752
859.243340	-3.001100	3.688700	-11.070000	24.471952	0.000445	20.722122
860.244944	-2.997200	3.688200	-11.054000	24.478601	0.000446	20.718361
861.243839	-3.010800	3.689500	-11.107000	24.493121	0.000444	20.698315
862.244288	-3.009000	3.688100	-11.097000	24.462956	0.000442	20.715467
863.248904	-2.987300	3.687800	-11.016000	24.458214	0.000444	20.695535
864.244586	-2.992000	3.689500	-11.037000	24.461107	0.000444	20.724518
865.243377	-3.010000	3.687200	-11.097000	24.479840	0.000446	20.698265
866.252423	-2.964200	3.688200	-10.932000	24.483645	0.000443	20.707300
867.242269	-2.979000	3.688000	-10.986000	24.473321	0.000441	20.703106
868.246130	-2.987400	3.686600	-11.012000	24.465360	0.000444	20.701757
869.247686	-2.983800	3.687400	-11.001000	24.481754	0.000441	20.685013
870.246366	-3.033600	3.685200	-11.178000	24.449438	0.000442	20.694791
871.247370	-2.975800	3.687200	-10.971000	24.465279	0.000444	20.702624
872.249801	-2.983200	3.687500	-10.999000	24.481730	0.000443	20.689256
873.245854	-2.995000	3.687100	-11.042000	24.473191	0.000443	20.711510
874.247868	-2.984300	3.686400	-11.000000	24.487516	0.000441	20.699803
875.253967	-2.994300	3.686100	-11.036000	24.482895	0.000442	20.702280
876.247185	-2.993000	3.684900	-11.028000	24.494034	0.000440	20.702076
877.250012	-2.984000	3.685500	-10.996000	24.512637	0.000440	20.701773
878.251668	-2.987600	3.684100	-11.006000	24.496365	0.000439	20.672169
879.247458	-2.996900	3.684200	-11.040000	24.510999	0.000440	20.698233
880.246463	-2.994800	3.683900	-11.031000	24.495851	0.000442	20.687302
881.251378	-2.985400	3.682900	-10.994000	24.497115	0.000440	20.687621
882.249429	-2.985200	3.683600	-10.995000	24.502884	0.000438	20.704790
883.249475	-3.018600	3.681500	-11.112000	24.514600	0.000440	20.704692
884.250360	-3.007700	3.682500	-11.075000	24.510584	0.000439	20.700662
885.250288	-3.005900	3.682500	-11.067000	24.523922	0.000438	20.688439
886.248862	-2.982100	3.682500	-10.981000	24.501857	0.000440	20.683844
887.252003	-2.991100	3.683400	-11.017000	24.518773	0.000438	20.695601
888.248913	-3.014100	3.681900	-11.096000	24.525381	0.000440	20.681842
889.249152	-3.020800	3.681300	-11.120000	24.497547	0.000439	20.679045
890.251042	-2.997500	3.681600	-11.035000	24.526465	0.000438	20.690517
891.250510	-2.992800	3.681400	-11.017000	24.524347	0.000437	20.676062
892.255965	-2.998100	3.681500	-11.036000	24.530442	0.000437	20.697826
893.251614	-2.976500	3.681600	-10.958000	24.537579	0.000437	20.699772
894.252473	-3.004500	3.680100	-11.056000	24.529040	0.000438	20.686462
895.254275	-2.992800	3.681500	-11.017000	24.537645	0.000438	20.690354
896.251260	-3.005900	3.679800	-11.061000	24.541898	0.000437	20.678025
897.254614	-3.008100	3.679800	-11.069000	24.532585	0.000436	20.681483
898.256558	-2.996000	3.679900	-11.024000	24.553281	0.000435	20.684230
899.255913	-3.012500	3.679900	-11.085000	24.525945	0.000436	20.684778
900.251465	-3.018000	3.677100	-11.097000	24.529424	0.000435	20.688270
901.255463	-3.006900	3.678300	-11.060000	24.531038	0.000435	20.685147
902.252376	-3.018100	3.678700	-11.101000	24.526483	0.000434	20.691957
903.251407	-3.008900	3.677000	-11.063000	24.536921	0.000435	20.684885
904.255532	-2.973300	3.678900	-10.937000	24.545077	0.000434	20.676473
905.250441	-2.996300	3.677200	-11.017000	24.529612	0.000434	20.693674
906.250942	-3.000800	3.678000	-11.036000	24.547293	0.000433	20.690077
907.255208	-2.976600	3.677400	-10.944000	24.543236	0.000433	20.704499
908.251733	-3.019500	3.676100	-11.099000	24.520764	0.000434	20.678632
909.252471	-2.992100	3.677200	-11.002000	24.528896	0.000432	20.697224
910.254469	-2.989900	3.677300	-10.994000	24.523568	0.000432	20.685712
911.252512	-2.996900	3.676700	-11.018000	24.537069	0.000431	20.680766
912.252698	-3.009800	3.676100	-11.063000	24.534934	0.000431	20.691901
913.256866	-2.985500	3.676000	-10.974000	24.521498	0.000430	20.686481
914.250599	-3.003600	3.676700	-11.043000	24.542610	0.000432	20.706716
915.251041	-3.011100	3.676000	-11.068000	24.541412	0.000430	20.669476
916.253704	-3.002800	3.675000	-11.035000	24.536728	0.000432	20.674259
917.253849	-3.008600	3.674300	-11.054000	24.526706	0.000431	20.692655
918.251955	-3.002200	3.674500	-11.030000	24.570224	0.000429	20.681315
919.257658	-2.998900	3.674300	-11.017000	24.557457	0.000429	20.677040
920.251781	-2.997800	3.673200	-11.010000	24.548600	0.000429	20.688069
921.251336	-2.993400	3.674500	-10.998000	24.559070	0.000430	20.673917
922.256983	-2.992500	3.674200	-10.993000	24.553294	0.000429	20.696572
923.251832	-3.006900	3.673400	-11.045000	24.549530	0.000427	20.679044
924.250926	-3.017000	3.674100	-11.083000	24.556268	0.000432	20.703351
925.253005	-3.010000	3.673500	-11.056000	24.566168	0.000431	20.691471
926.250956	-3.004600	3.672800	-11.034000	24.550695	0.000428	20.692068
927.250929	-2.991600	3.672800	-10.987000	24.559324	0.000427	20.682233
928.253220	-3.014600	3.672300	-11.069000	24.577404	0.000427	20.682830
929.253739	-3.000200	3.671100	-11.013000	24.584582	0.000427	20.682446
930.253973	-3.011200	3.672000	-11.056000	24.578520	0.000428	20.690589
931.259485	-3.019900	3.670900	-11.084000	24.575702	0.000427	20.686812
932.254307	-3.018300	3.670900	-11.079000	24.571791	0.000426	20.693320
933.255366	-2.991900	3.671200	-10.983000	24.605710	0.000427	20.680411
934.260020	-2.998400	3.670100	-11.004000	24.602556	0.000427	20.693844
935.256086	-2.976900	3.670800	-10.927000	24.568280	0.000424	20.696436
936.255290	-2.991500	3.670000	-10.977000	24.602174	0.000426	20.694883
937.258795	-3.010700	3.669900	-11.048000	24.584909	0.000426	20.670445
938.257205	-2.988100	3.670800	-10.967000	24.598386	0.000426	20.687288
939.257241	-3.003800	3.670100	-11.023000	24.578261	0.000427	20.698391
940.261624	-2.994900	3.669900	-10.990000	24.585595	0.000424	20.693894
941.254210	-3.005900	3.668100	-11.025000	24.567857	0.000424	20.662818
942.255436	-3.015200	3.668900	-11.062000	24.585954	0.000425	20.699945
943.260343	-3.011400	3.668400	-11.046000	24.581603	0.000423	20.685621
944.255519	-3.001600	3.669200	-11.013000	24.583045	0.000426	20.704613
945.255886	-3.020000	3.668900	-11.080000	24.585327	0.000424	20.712593
946.260355	-2.993700	3.668100	-10.981000	24.594330	0.000423	20.719256
947.257688	-2.979500	3.667000	-10.925000	24.596261	0.000424	20.701279
948.258627	-2.980900	3.666400	-10.928000	24.595887	0.000424	20.697109
949.263177	-2.985300	3.667500	-10.947000	24.608947	0.000422	20.698360
950.258442	-3.005700	3.666800	-11.019000	24.602324	0.000423	20.691713
951.259064	-3.001000	3.667000	-11.003000	24.609363	0.000422	20.705890
952.263684	-3.000700	3.666500	-11.001000	24.620371	0.000420	20.703185
953.260307	-3.006400	3.665300	-11.018000	24.614879	0.000420	20.696725
954.259906	-3.026500	3.664500	-11.089000	24.601388	0.000420	20.700732
955.262141	-3.026600	3.664400	-11.089000	24.623695	0.000422	20.718376
956.262682	-3.005300	3.665000	-11.014000	24.608028	0.000421	20.716879
957.258402	-3.009200	3.665500	-11.030000	24.624885	0.000420	20.700128
958.261903	-3.005900	3.664200	-11.013000	24.598961	0.000420	20.692607
959.258232	-3.006600	3.663700	-11.013000	24.609707	0.000420	20.697700
960.259223	-3.007100	3.663700	-11.015000	24.648301	0.000418	20.696597
961.262578	-3.008000	3.664400	-11.021000	24.621961	0.000418	20.690555
962.261929	-2.998100	3.663800	-10.983000	24.623876	0.000419	20.701960
963.262847	-3.027600	3.663300	-11.089000	24.652024	0.000419	20.694169
964.266426	-2.988200	3.663400	-10.946000	24.639829	0.000418	20.699950
965.263092	-2.973800	3.663900	-10.895000	24.647438	0.000418	20.707586
966.263028	-3.000900	3.662200	-10.989000	24.617399	0.000419	20.692616
967.265255	-3.011100	3.662200	-11.027000	24.629825	0.000418	20.709352
968.263494	-3.006100	3.662200	-11.008000	24.636489	0.000417	20.667198
969.264534	-2.978200	3.662000	-10.905000	24.633703	0.000417	20.699967
970.266157	-3.002000	3.663200	-10.995000	24.658690	0.000418	20.700858
971.264462	-2.998800	3.661600	-10.979000	24.623275	0.000416	20.690451
972.264835	-2.966300	3.662400	-10.863000	24.652743	0.000417	20.712435
973.265765	-2.988900	3.661100	-10.942000	24.660166	0.000416	20.721781
974.265294	-3.019400	3.659800	-11.049000	24.639049	0.000417	20.703909
975.267070	-3.010700	3.660200	-11.018000	24.663148	0.000416	20.723351
976.267681	-3.007200	3.660800	-11.008000	24.652941	0.000415	20.730178
977.266907	-3.022100	3.660200	-11.061000	24.670872	0.000415	20.707393
978.265374	-3.009200	3.660200	-11.013000	24.657137	0.000415	20.714473
979.269110	-3.006700	3.660800	-11.005000	24.676013	0.000414	20.734365
980.266562	-2.990000	3.659900	-10.943000	24.650521	0.000413	20.699774
981.267631	-3.015300	3.659300	-11.032000	24.665904	0.000414	20.714262
982.267973	-3.000900	3.659900	-10.983000	24.664381	0.000413	20.735020
983.267130	-3.021200	3.660000	-11.057000	24.675518	0.000412	20.716797
984.266479	-3.004500	3.657900	-10.989000	24.647159	0.000412	20.700667
985.268528	-2.989900	3.659300	-10.940000	24.664919	0.000414	20.701893
986.266755	-3.036500	3.655800	-11.100000	24.656113	0.000412	20.707281
987.267237	-3.009700	3.657400	-11.007000	24.647876	0.000412	20.703283
988.269832	-2.988900	3.657200	-10.930000	24.661751	0.000410	20.708671
989.268252	-3.030300	3.656100	-11.078000	24.669482	0.000410	20.721172
990.270047	-3.003200	3.657100	-10.982000	24.684204	0.000411	20.708443
991.269299	-2.993800	3.657000	-10.947000	24.699366	0.000409	20.721287
992.270021	-2.986100	3.657100	-10.920000	24.678249	0.000410	20.701993
993.276669	-2.999400	3.657500	-10.969000	24.699806	0.000410	20.724575
994.272378	-2.990500	3.656000	-10.933000	24.690650	0.000410	20.721076
995.270974	-2.993000	3.655300	-10.939000	24.683807	0.000409	20.731753
996.271311	-3.007300	3.655700	-10.992000	24.686935	0.000409	20.729203
997.272707	-2.997500	3.654600	-10.954000	24.681216	0.000407	20.722989
998.273827	-3.014600	3.655900	-11.021000	24.707155	0.000407	20.720095
999.274992	-3.026300	3.654000	-11.057000	24.699816	0.000406	20.711781
1000.276940	-2.985900	3.654400	-10.910000	24.709217	0.000407	20.732122
1001.273582	-3.003300	3.653400	-10.971000	24.710529	0.000407	20.725852
1002.272079	-2.989900	3.654000	-10.924000	24.692720	0.000407	20.736431
1003.276148	-2.987800	3.654600	-10.918000	24.694309	0.000407	20.709574
1004.273093	-2.989600	3.654100	-10.923000	24.698684	0.000405	20.729613
1005.275494	-3.015000	3.653000	-11.013000	24.693396	0.000407	20.739480
1006.275734	-3.011800	3.651900	-10.999000	24.692167	0.000405	20.725918
1007.278575	-2.994300	3.653100	-10.938000	24.713846	0.000404	20.750044
1008.276594	-3.018300	3.651800	-11.021000	24.700518	0.000403	20.717227
1009.275516	-3.003700	3.651400	-10.967000	24.695614	0.000404	20.728428
1010.278932	-2.996700	3.652200	-10.944000	24.705610	0.000403	20.753633
1011.275844	-2.986600	3.652000	-10.906000	24.701406	0.000403	20.725706
1012.278227	-3.009800	3.651200	-10.987000	24.698743	0.000404	20.731094
1013.276204	-3.019700	3.649600	-11.019000	24.698613	0.000405	20.721006
1014.278718	-2.998300	3.649600	-10.941000	24.700968	0.000403	20.736172
1015.278377	-2.996700	3.649300	-10.934000	24.718962	0.000402	20.740953
1016.278868	-3.009500	3.650900	-10.987000	24.721814	0.000402	20.746661
1017.279220	-3.006200	3.649100	-10.969000	24.722336	0.000401	20.732959
1018.280534	-3.014400	3.649500	-11.000000	24.722507	0.000401	20.735027
1019.280623	-3.004300	3.649700	-10.964000	24.725489	0.000401	20.765996
1020.281347	-3.007100	3.649500	-10.973000	24.708006	0.000401	20.731855
1021.280762	-3.011800	3.648300	-10.986000	24.725359	0.000400	20.758279
1022.280993	-3.024000	3.648300	-11.032000	24.730588	0.000400	20.739344
1023.280414	-3.012000	3.647500	-10.986000	24.715892	0.000401	20.756365
1024.281631	-2.996200	3.648600	-10.930000	24.719346	0.000398	20.741339
1025.282034	-2.997400	3.648900	-10.936000	24.725269	0.000402	20.735428
1026.282244	-3.001400	3.647800	-10.948000	24.741627	0.000399	20.727661
1027.281380	-2.978900	3.648600	-10.868000	24.739509	0.000399	20.755883
1028.282340	-3.003100	3.647100	-10.951000	24.731599	0.000398	20.753635
1029.281115	-3.005000	3.647300	-10.960000	24.756071	0.000398	20.745476
1030.283514	-3.024700	3.646400	-11.029000	24.745977	0.000397	20.751943
1031.286647	-3.014200	3.647000	-10.992000	24.750247	0.000397	20.735363
1032.285663	-2.986100	3.647300	-10.890000	24.740503	0.000398	20.745501
1033.285671	-2.982700	3.645800	-10.873000	24.751314	0.000397	20.749237
1034.287621	-3.000400	3.645700	-10.937000	24.760960	0.000398	20.742795
1035.284942	-2.982800	3.646000	-10.875000	24.746166	0.000397	20.737906
1036.285237	-3.005300	3.644200	-10.950000	24.746264	0.000396	20.736582
1037.288970	-2.988900	3.645000	-10.894000	24.747779	0.000396	20.738577
1038.286154	-3.003300	3.644700	-10.945000	24.752895	0.000395	20.732806
1039.286922	-3.000400	3.645100	-10.936000	24.767811	0.000395	20.734498
1040.286972	-3.005800	3.643700	-10.951000	24.774776	0.000394	20.745282
1041.287270	-2.981500	3.643800	-10.863000	24.775045	0.000395	20.760251
1042.288762	-3.006400	3.643300	-10.953000	24.755723	0.000396	20.747023
1043.292527	-3.004100	3.643000	-10.943000	24.767177	0.000395	20.758993
1044.288514	-2.966700	3.644000	-10.810000	24.758697	0.000394	20.741473
1045.288563	-3.009300	3.641800	-10.959000	24.782573	0.000392	20.745045
1046.289618	-3.020400	3.641300	-10.998000	24.791445	0.000393	20.763432
1047.287339	-3.005100	3.642000	-10.943000	24.783021	0.000393	20.760669
1048.290814	-2.992200	3.642400	-10.898000	24.780546	0.000391	20.772409
1049.293426	-2.978300	3.642300	-10.847000	24.783055	0.000389	20.779669
1050.289536	-2.989700	3.641800	-10.887000	24.789694	0.000392	20.755511
1051.288961	-2.957100	3.642300	-10.770000	24.778249	0.000391	20.753509
1052.292654	-3.003300	3.641100	-10.934000	24.784489	0.000392	20.760245
1053.290708	-2.995700	3.642000	-10.909000	24.791251	0.000390	20.766557
1054.290359	-3.009900	3.639300	-10.953000	24.787097	0.000389	20.756698
1055.292158	-3.008100	3.639500	-10.946000	24.777956	0.000390	20.761749
1056.289880	-3.001600	3.640900	-10.928000	24.795454	0.000390	20.771724
1057.292110	-3.016100	3.638500	-10.973000	24.791691	0.000389	20.768896
1058.293414	-3.022300	3.638900	-10.997000	24.781672	0.000389	20.776858
1059.290768	-2.992200	3.640800	-10.893000	24.771921	0.000390	20.765650
1060.290825	-3.013100	3.639100	-10.964000	24.791040	0.000391	20.797640
1061.294431	-2.984100	3.638000	-10.855000	24.766325	0.000388	20.786113
1062.290388	-2.974500	3.638700	-10.822000	24.766293	0.000387	20.769011
1063.289808	-2.983100	3.638300	-10.853000	24.798201	0.000386	20.774480
1064.295603	-2.986400	3.637600	-10.861000	24.771042	0.000387	20.777571
1065.291525	-3.013400	3.637700	-10.961000	24.799895	0.000384	20.774284
1066.293946	-2.993200	3.637000	-10.885000	24.809385	0.000388	20.766264
1067.296654	-2.993300	3.636200	-10.882000	24.795187	0.000384	20.766714
1068.294462	-3.004700	3.637300	-10.927000	24.810411	0.000385	20.757336
1069.295734	-2.995800	3.636400	-10.893000	24.800090	0.000385	20.760255
1070.295395	-3.008800	3.635400	-10.937000	24.812431	0.000387	20.774537
1071.294177	-3.004000	3.634500	-10.917000	24.793224	0.000383	20.775175
1072.294312	-3.000900	3.636600	-10.912000	24.811202	0.000385	20.767139
1073.294779	-2.986100	3.635700	-10.855000	24.807618	0.000383	20.782035
1074.297206	-3.001900	3.633600	-10.906000	24.798918	0.000384	20.786580
1075.294358	-3.002600	3.634400	-10.912000	24.816350	0.000384	20.775151
1076.297164	-3.006800	3.635200	-10.929000	24.814974	0.000383	20.773770
1077.296120	-3.018800	3.634900	-10.971000	24.823657	0.000382	20.769682
1078.295680	-3.007700	3.634100	-10.929000	24.805924	0.000383	20.776067
1079.296315	-3.020900	3.633600	-10.976000	24.821466	0.000382	20.776018
1080.297552	-2.990000	3.633000	-10.861000	24.804930	0.000381	20.785501
1081.298612	-3.006200	3.633200	-10.921000	24.841578	0.000380	20.781030
1082.299925	-3.007800	3.633000	-10.926000	24.815495	0.000383	20.802268
1083.300812	-3.013300	3.632700	-10.946000	24.833148	0.000380	20.787267
1084.301447	-3.018100	3.632900	-10.964000	24.838841	0.000382	20.804361
1085.300805	-3.011000	3.632200	-10.936000	24.832749	0.000380	20.776435
1086.303563	-2.997700	3.631200	-10.884000	24.823667	0.000377	20.796244
1087.301943	-3.001400	3.632200	-10.901000	24.846988	0.000378	20.792149
1088.303823	-2.972500	3.631600	-10.792000	24.845595	0.000380	20.787906
1089.302091	-3.000700	3.631200	-10.896000	24.842907	0.000379	20.782363
1090.301588	-3.000200	3.630500	-10.892000	24.839348	0.000380	20.806766
1091.305334	-3.006200	3.630500	-10.914000	24.846239	0.000377	20.791397
1092.302441	-2.979500	3.630600	-10.816000	24.841132	0.000379	20.805238
1093.300560	-2.994700	3.630100	-10.870000	24.841637	0.000377	20.797210
1094.304643	-2.998300	3.629300	-10.881000	24.857122	0.000376	20.799000
1095.303199	-2.990700	3.629300	-10.854000	24.870766	0.000377	20.802737
1096.301178	-3.048700	3.628000	-11.059000	24.869797	0.000376	20.798445
1097.306139	-2.995300	3.628500	-10.868000	24.859859	0.000375	20.809334
1098.304728	-3.007200	3.627900	-10.909000	24.876964	0.000376	20.805639
1099.304363	-3.003300	3.628700	-10.897000	24.874171	0.000374	20.809948
1100.305885	-3.009700	3.627300	-10.916000	24.859925	0.000376	20.792330
1101.304064	-2.985400	3.626900	-10.827000	24.871427	0.000374	20.798659
1102.305272	-2.998500	3.626100	-10.872000	24.866987	0.000374	20.812694
1103.307355	-2.991900	3.626800	-10.851000	24.861065	0.000372	20.799639
1104.305468	-3.001500	3.626000	-10.882000	24.886503	0.000372	20.822324
1105.303998	-2.994000	3.627300	-10.859000	24.882895	0.000371	20.811591
1106.308531	-3.004800	3.625400	-10.892000	24.864625	0.000372	20.799418
1107.319537	-3.015000	3.625100	-10.929000	24.883735	0.000373	20.799157
1108.306601	-2.990900	3.625800	-10.843000	24.877454	0.000373	20.820828
1109.308231	-2.996300	3.625400	-10.861000	24.893012	0.000370	20.797089
1110.303788	-3.009300	3.625200	-10.908000	24.907143	0.000371	20.810323
1111.306583	-3.004300	3.623800	-10.886000	24.897394	0.000371	20.802909
1112.307667	-2.998100	3.624700	-10.866000	24.888515	0.000370	20.824344
1113.305075	-3.007900	3.623700	-10.898000	24.905026	0.000369	20.811992
1114.305490	-2.988300	3.624100	-10.829000	24.893908	0.000368	20.800359
1115.308120	-3.006200	3.624000	-10.893000	24.888890	0.000370	20.819504
1116.306057	-2.998500	3.623100	-10.864000	24.911713	0.000367	20.815858
1117.307535	-3.007000	3.624300	-10.897000	24.905848	0.000369	20.817558
1118.318748	-2.998400	3.622300	-10.859000	24.897589	0.000368	20.806899
1119.312175	-2.975000	3.623400	-10.778000	24.903804	0.000368	20.811714
1120.311363	-3.014100	3.621100	-10.913000	24.901858	0.000368	20.819244
1121.310271	-2.986600	3.622200	-10.817000	24.908854	0.000366	20.812515
1122.313265	-2.987500	3.622600	-10.821000	24.901645	0.000367	20.814289
1123.313048	-3.016200	3.621800	-10.922000	24.912707	0.000366	20.826813
1124.311018	-2.987600	3.621100	-10.818000	24.880288	0.000366	20.830785
1125.313040	-3.011000	3.621300	-10.903000	24.910190	0.000366	20.814804
1126.312269	-2.998400	3.621100	-10.856000	24.898412	0.000366	20.830957
1127.309529	-2.996800	3.621100	-10.851000	24.924990	0.000365	20.818278
1128.312475	-2.966800	3.620300	-10.740000	24.926456	0.000364	20.819750
1129.314740	-3.001200	3.620100	-10.864000	24.914393	0.000363	20.798160
1130.317148	-2.998800	3.620300	-10.855000	24.923394	0.000367	20.836590
1131.312223	-2.999200	3.619900	-10.856000	24.913896	0.000365	20.827058
1132.313888	-2.983800	3.619900	-10.800000	24.944187	0.000364	20.824270
1133.313319	-2.981500	3.620100	-10.793000	24.942745	0.000362	20.830884
1134.314751	-2.990200	3.618800	-10.819000	24.917757	0.000363	20.837571
1135.314641	-2.988400	3.618700	-10.813000	24.931554	0.000361	20.820600
1136.316840	-2.997700	3.618300	-10.846000	24.950304	0.000361	20.803857
1137.313396	-2.998900	3.617700	-10.848000	24.953432	0.000361	20.825963
1138.314495	-2.996000	3.617800	-10.837000	24.949498	0.000362	20.822015
1139.314498	-2.998600	3.616500	-10.843000	24.949432	0.000361	20.830483
1140.311770	-2.999500	3.617300	-10.850000	24.948162	0.000361	20.823044
1141.314998	-3.016500	3.616300	-10.908000	24.941898	0.000359	20.837620
1142.315372	-3.013900	3.615900	-10.897000	24.950776	0.000359	20.852694
1143.314080	-3.004500	3.614500	-10.859000	24.952942	0.000361	20.850601
1144.315710	-3.008500	3.614400	-10.873000	24.946517	0.000360	20.841307
1145.315404	-3.002400	3.614900	-10.853000	24.970869	0.000357	20.842042
1146.320762	-2.999800	3.615400	-10.844000	24.952609	0.000360	20.840784
1147.316565	-3.004200	3.614400	-10.858000	24.953887	0.000359	20.817411
1148.316459	-2.974600	3.615200	-10.752000	24.964867	0.000358	20.846449
1149.318539	-2.995700	3.614200	-10.826000	24.972758	0.000355	20.824025
1150.316871	-2.971900	3.614700	-10.740000	24.971400	0.000357	20.826928
1151.319249	-3.007200	3.613300	-10.865000	24.956511	0.000357	20.832846
1152.320130	-3.028900	3.612000	-10.939000	24.961301	0.000357	20.837180
1153.317548	-2.984700	3.614000	-10.786000	24.982079	0.000355	20.832905
1154.315970	-2.998900	3.611000	-10.828000	24.956748	0.000355	20.851576
1155.320070	-3.006000	3.612700	-10.858000	24.983650	0.000353	20.842069
1156.317096	-3.025000	3.610800	-10.921000	24.977575	0.000357	20.835497
1157.318281	-2.988800	3.613000	-10.797000	24.983317	0.000354	20.829881
1158.323000	-2.995900	3.612000	-10.820000	25.000266	0.000356	20.840729
1159.317130	-3.014500	3.610600	-10.883000	24.972893	0.000355	20.840754
1160.318016	-3.001100	3.609800	-10.832000	24.997457	0.000353	20.828426
1161.321060	-3.006000	3.610900	-10.854000	24.985713	0.000352	20.815691
1162.316719	-3.010000	3.609900	-10.865000	25.008282	0.000353	20.832180
1163.318527	-3.005200	3.609600	-10.846000	24.989614	0.000351	20.822926
1164.321934	-3.008600	3.609400	-10.858000	25.004797	0.000350	20.848121
1165.318122	-2.993300	3.608700	-10.800000	24.989729	0.000350	20.813558
1166.322176	-3.002200	3.609900	-10.837000	24.997760	0.000351	20.797437
1167.322042	-3.000100	3.608600	-10.824000	25.007550	0.000349	20.816747
1168.321053	-2.999500	3.608700	-10.823000	25.014286	0.000349	20.824456
1169.319479	-2.983600	3.609300	-10.767000	24.997679	0.000351	20.822486
1170.324001	-2.986800	3.608400	-10.777000	24.999740	0.000348	20.824554
1171.322915	-3.017700	3.607100	-10.884000	24.992028	0.000350	20.822503
1172.321993	-2.996800	3.606200	-10.806000	24.984746	0.000351	20.826100
1173.325981	-3.007000	3.607000	-10.845000	25.011493	0.000349	20.817386
1174.321946	-3.012100	3.607900	-10.866000	25.012584	0.000345	20.799515
1175.320683	-2.995800	3.606500	-10.804000	24.992671	0.000346	20.826468
1176.326505	-2.995400	3.607500	-10.805000	25.002119	0.000350	20.816511
1177.323736	-3.007400	3.604800	-10.840000	25.003543	0.000346	20.811303
1178.320651	-2.996000	3.606900	-10.805000	25.003137	0.000346	20.824171
1179.325859	-3.010600	3.604600	-10.851000	25.003830	0.000346	20.810168
1180.322740	-2.991000	3.606200	-10.785000	24.999204	0.000344	20.809792
1181.323839	-2.987600	3.604800	-10.767000	25.009873	0.000345	20.792052
1182.325183	-2.977600	3.605300	-10.734000	24.998966	0.000345	20.808605
1183.323306	-2.993800	3.604300	-10.790000	25.006370	0.000345	20.798968
1184.328853	-3.001300	3.602900	-10.811000	25.013554	0.000344	20.815187
1185.325297	-3.014600	3.603300	-10.861000	25.028474	0.000343	20.816413
1186.324978	-3.018300	3.602100	-10.872000	25.024345	0.000342	20.798518
1187.322290	-3.009000	3.602800	-10.839000	25.017210	0.000343	20.796098
1188.327783	-3.003100	3.603100	-10.820000	25.021445	0.000341	20.791814
1189.328043	-2.984300	3.602200	-10.749000	25.013008	0.000340	20.782397
1190.327242	-2.996800	3.602100	-10.793000	25.023481	0.000340	20.807134
1191.330272	-2.993800	3.602300	-10.784000	25.034916	0.000340	20.797275
1192.330631	-2.992600	3.602100	-10.778000	25.039118	0.000340	20.787743
1193.329801	-2.998700	3.602000	-10.800000	25.005408	0.000341	20.807011
1194.327996	-3.024400	3.600100	-10.887000	25.032285	0.000340	20.786099
1195.331898	-3.005200	3.600200	-10.818000	25.006451	0.000339	20.786721
1196.330909	-2.992000	3.600600	-10.772000	25.021672	0.000339	20.797258
1197.329362	-2.992400	3.599900	-10.771000	25.035094	0.000339	20.805515
1198.331819	-3.007700	3.599300	-10.825000	25.024678	0.000337	20.801697
1199.330419	-3.002000	3.598900	-10.802000	25.008730	0.000338	20.797543
1200.330912	-3.010300	3.599100	-10.833000	25.009006	0.000337	20.795450
1201.337698	-2.986000	3.598500	-10.744000	25.038734	0.000336	20.802056
1202.333736	-2.996300	3.597900	-10.779000	25.031631	0.000338	20.785443
1203.331179	-2.995400	3.597400	-10.775000	25.029938	0.000337	20.784217
1204.334398	-2.975000	3.598900	-10.705000	25.027828	0.000334	20.781626
1205.331662	-2.995600	3.597500	-10.775000	25.034270	0.000334	20.774341
1206.331651	-2.999600	3.596200	-10.786000	25.023006	0.000334	20.802390
1207.336456	-3.015800	3.596200	-10.844000	25.030099	0.000333	20.780586
1208.332691	-3.013500	3.596200	-10.837000	25.034213	0.000333	20.770965
1209.333955	-3.005200	3.595300	-10.804000	25.049588	0.000333	20.790192
1210.335871	-2.985500	3.595300	-10.733000	25.023958	0.000333	20.773948
1211.334670	-2.998800	3.594800	-10.778000	25.038553	0.000333	20.793814
1212.334743	-3.002800	3.594300	-10.791000	25.038952	0.000333	20.794214
1213.335291	-2.979100	3.595200	-10.709000	25.033105	0.000331	20.788345
1214.332355	-2.987100	3.594200	-10.735000	25.048431	0.000333	20.783341
1215.335626	-3.017100	3.592700	-10.838000	25.047014	0.000331	20.783341
1216.336938	-2.990100	3.595400	-10.750000	25.049750	0.000332	20.771388
1217.334556	-3.013400	3.593200	-10.827000	25.067048	0.000330	20.778321
1218.341875	-2.982700	3.593800	-10.719000	25.042990	0.000330	20.766499
1219.339354	-3.011200	3.592400	-10.817000	25.050800	0.000329	20.780029
1220.335796	-2.975900	3.592400	-10.690000	25.042917	0.000331	20.766426
1221.337463	-2.994700	3.593300	-10.759000	25.055516	0.000327	20.788082
1222.339421	-2.989600	3.591800	-10.737000	25.031181	0.000328	20.779776
1223.336251	-2.996600	3.591900	-10.763000	25.061013	0.000327	20.767521
1224.338175	-3.005000	3.591200	-10.790000	25.054173	0.000327	20.761603
1225.340013	-2.992700	3.592000	-10.749000	25.065387	0.000329	20.768118
1226.337791	-2.994500	3.591300	-10.753000	25.062430	0.000327	20.771315
1227.337079	-3.023700	3.590200	-10.854000	25.056143	0.000325	20.765951
1228.342209	-3.001700	3.590000	-10.775000	25.052234	0.000325	20.792848
1229.340196	-2.989500	3.590400	-10.732000	25.043389	0.000326	20.758839
1230.340068	-2.993500	3.589500	-10.744000	25.028127	0.000325	20.770071
1231.344118	-3.007300	3.589800	-10.795000	25.051069	0.000324	20.782670
1232.339085	-3.006300	3.589500	-10.790000	25.065541	0.000325	20.766851
1233.339451	-3.006900	3.589200	-10.792000	25.051175	0.000325	20.769025
1234.341884	-3.016100	3.587000	-10.818000	25.055027	0.000323	20.791384
1235.339834	-3.009500	3.588100	-10.797000	25.059376	0.000326	20.763507
1236.343461	-2.984400	3.588100	-10.708000	25.076779	0.000323	20.768175
1237.345720	-2.995200	3.587700	-10.744000	25.059579	0.000322	20.768927
1238.345033	-3.007800	3.587000	-10.788000	25.067935	0.000321	20.759770
1239.342430	-3.025600	3.586500	-10.851000	25.070866	0.000321	20.761291
1240.346500	-2.980000	3.588600	-10.693000	25.080313	0.000320	20.765084
1241.342362	-2.975600	3.587500	-10.673000	25.067788	0.000320	20.766261
1242.345488	-2.987000	3.586900	-10.713000	25.094280	0.000321	20.761561
1243.345071	-3.002100	3.584900	-10.761000	25.078718	0.000319	20.751154
1244.343732	-2.986800	3.584900	-10.707000	25.050710	0.000319	20.774248
1245.343908	-3.007300	3.585100	-10.781000	25.082406	0.000319	20.770504
1246.346937	-3.009600	3.583400	-10.783000	25.081608	0.000319	20.765436
1247.344082	-3.007700	3.584400	-10.780000	25.096828	0.000319	20.754635
1248.344572	-3.026200	3.582300	-10.839000	25.093164	0.000317	20.750483
1249.345382	-2.992300	3.583300	-10.722000	25.081616	0.000316	20.746002
1250.343986	-3.006200	3.584100	-10.772000	25.086290	0.000315	20.767765
1251.343944	-3.009600	3.582800	-10.782000	25.091909	0.000317	20.749223
1252.343697	-2.998700	3.583400	-10.744000	25.090264	0.000316	20.767961
1253.344343	-3.003100	3.581500	-10.753000	25.100020	0.000316	20.766374
1254.345721	-3.006700	3.581300	-10.767000	25.098595	0.000315	20.752142
1255.353276	-2.994100	3.581900	-10.724000	25.087218	0.000314	20.736452
1256.345686	-2.995100	3.581600	-10.726000	25.098228	0.000313	20.758412
1257.344288	-3.000500	3.580500	-10.742000	25.107633	0.000313	20.766431
1258.346607	-2.982300	3.580100	-10.677000	25.101892	0.000313	20.774418
1259.344978	-2.999200	3.581000	-10.739000	25.114620	0.000312	20.754004
1260.346471	-3.002500	3.578600	-10.743000	25.099954	0.000313	20.764886
1261.346186	-3.006100	3.579800	-10.760000	25.103162	0.000312	20.752459
1262.346958	-2.991400	3.579200	-10.706000	25.107413	0.000312	20.732069
1263.346206	-3.005900	3.578300	-10.755000	25.095801	0.000311	20.744594
1264.346415	-2.996200	3.580100	-10.726000	25.096305	0.000311	20.749368
1265.346310	-2.996300	3.578600	-10.722000	25.090116	0.000311	20.749319
1266.345598	-2.998300	3.578400	-10.728000	25.089660	0.000310	20.759768
1267.348225	-3.003400	3.577800	-10.745000	25.117430	0.000308	20.747815
1268.345765	-2.990000	3.579000	-10.700000	25.125061	0.000310	20.762588
1269.345972	-3.004400	3.578500	-10.749000	25.113081	0.000307	20.765736
1270.348088	-2.996000	3.577600	-10.717000	25.091346	0.000309	20.747710
1271.349060	-3.003900	3.576500	-10.742000	25.101493	0.000309	20.748887
1272.347340	-2.998900	3.576600	-10.725000	25.097585	0.000307	20.734057
1273.350740	-2.991500	3.576400	-10.698000	25.106730	0.000309	20.737074
1274.349833	-2.981800	3.576700	-10.664000	25.090825	0.000305	20.725374
1275.349734	-3.029400	3.574900	-10.828000	25.118490	0.000307	20.736551
1276.349156	-2.994300	3.575900	-10.706000	25.110110	0.000304	20.750899
1277.348140	-2.998000	3.574500	-10.715000	25.101926	0.000305	20.720871
1278.352763	-3.012800	3.575700	-10.771000	25.119378	0.000306	20.743132
1279.349347	-3.003800	3.574200	-10.735000	25.095891	0.000304	20.729986
1280.352398	-2.981700	3.574800	-10.658000	25.105061	0.000304	20.751520
1281.352479	-2.986700	3.574500	-10.675000	25.112268	0.000303	20.729831
1282.349249	-3.011900	3.573100	-10.761000	25.099645	0.000304	20.747980
1283.349895	-2.987800	3.574300	-10.678000	25.109508	0.000304	20.754562
1284.352312	-2.991400	3.572700	-10.687000	25.105631	0.000300	20.723168
1285.348936	-3.001100	3.573000	-10.722000	25.127912	0.000301	20.753122
1286.350018	-2.997400	3.572400	-10.706000	25.101909	0.000302	20.738872
1287.354900	-3.004100	3.572400	-10.731000	25.113815	0.000301	20.740393
1288.352592	-3.011500	3.570800	-10.752000	25.115338	0.000302	20.730067
1289.352015	-3.003200	3.570800	-10.722000	25.104848	0.000302	20.734236
1290.355000	-2.999400	3.569800	-10.707000	25.107332	0.000299	20.731514
1291.354031	-2.996000	3.570200	-10.696000	25.100198	0.000297	20.742371
1292.352318	-3.009500	3.569400	-10.742000	25.110671	0.000300	20.722062
1293.356746	-2.990300	3.569600	-10.673000	25.138513	0.000299	20.738634
1294.354819	-2.974000	3.570800	-10.618000	25.117332	0.000301	20.725905
1295.351350	-2.994200	3.570100	-10.689000	25.130337	0.000298	20.736590
1296.358795	-2.995800	3.568800	-10.690000	25.124400	0.000297	20.744855
1297.352653	-3.006500	3.568500	-10.728000	25.103495	0.000297	20.718178
1298.351248	-2.984500	3.569400	-10.651000	25.132853	0.000296	20.734374
1299.352595	-3.019800	3.567900	-10.773000	25.129799	0.000296	20.726092
1300.353812	-2.985600	3.568700	-10.654000	25.128756	0.000295	20.729313
1301.356936	-3.006500	3.566800	-10.722000	25.124562	0.000297	20.737905
1302.358989	-2.992900	3.567300	-10.675000	25.095074	0.000296	20.730588
1303.354616	-2.999800	3.567200	-10.700000	25.133161	0.000295	20.714294
1304.354384	-2.979500	3.567100	-10.627000	25.123340	0.000293	20.707279
1305.360220	-3.017500	3.566000	-10.759000	25.125604	0.000292	20.723778
1306.355184	-3.006700	3.566100	-10.721000	25.144228	0.000294	20.728723
1307.356460	-3.001900	3.566200	-10.704000	25.132192	0.000292	20.721382
1308.358946	-3.026400	3.563900	-10.784000	25.127445	0.000292	20.714719
1309.356265	-3.000000	3.564400	-10.692000	25.121126	0.000292	20.715488
1310.356221	-3.027700	3.564200	-10.790000	25.132990	0.000292	20.724554
1311.360692	-3.003900	3.564500	-10.707000	25.122371	0.000292	20.714368
1312.359190	-2.984400	3.564700	-10.637000	25.139742	0.000290	20.727539
1313.356983	-2.986700	3.564700	-10.646000	25.130540	0.000291	20.727310
1314.360078	-2.990800	3.563400	-10.657000	25.153838	0.000292	20.715611
1315.361855	-3.001000	3.564100	-10.695000	25.121892	0.000290	20.709618
1316.359044	-2.976300	3.564100	-10.607000	25.119065	0.000289	20.732861
1317.361347	-3.002600	3.563800	-10.700000	25.155563	0.000288	20.717343
1318.362015	-2.989800	3.562400	-10.650000	25.143122	0.000288	20.711016
1319.361444	-3.009000	3.561200	-10.715000	25.129148	0.000289	20.719274
1320.361080	-3.003400	3.562200	-10.698000	25.145353	0.000287	20.723215
1321.361980	-3.005000	3.560600	-10.698000	25.140939	0.000286	20.725421
1322.360750	-3.005300	3.560900	-10.700000	25.142649	0.000286	20.717181
1323.364502	-2.990800	3.560600	-10.648000	25.148961	0.000288	20.732052
1324.360699	-3.005000	3.560100	-10.698000	25.134693	0.000287	20.712513
1325.359798	-3.000400	3.559500	-10.679000	25.136639	0.000285	20.729640
1326.363550	-3.009900	3.559500	-10.712000	25.156550	0.000285	20.696520
1327.359970	-2.990100	3.559500	-10.642000	25.123438	0.000287	20.715439
1328.360052	-2.998900	3.559700	-10.674000	25.122388	0.000285	20.687830
1329.363374	-3.010000	3.558100	-10.709000	25.135963	0.000284	20.719952
1330.360662	-3.009400	3.558300	-10.707000	25.137153	0.000283	20.719249
1331.361306	-2.987500	3.557700	-10.627000	25.139945	0.000284	20.696447
1332.361495	-2.983600	3.558000	-10.613000	25.138619	0.000284	20.724040
1333.360556	-2.988300	3.556700	-10.628000	25.147764	0.000284	20.699080
1334.363973	-2.981400	3.557900	-10.607000	25.146640	0.000282	20.704591
1335.360397	-3.002900	3.556200	-10.678000	25.156486	0.000282	20.713527
1336.361484	-3.008300	3.555900	-10.696000	25.133643	0.000281	20.711933
1337.363172	-2.997600	3.557100	-10.660000	25.126869	0.000282	20.704657
1338.361062	-2.999100	3.555800	-10.663000	25.149271	0.000282	20.705336
1339.361974	-3.014100	3.553900	-10.711000	25.138383	0.000281	20.711950
1340.367768	-2.996500	3.555400	-10.653000	25.157692	0.000278	20.720903
1341.361588	-3.004400	3.554500	-10.678000	25.140559	0.000280	20.720772
1342.361649	-3.018000	3.553700	-10.725000	25.138694	0.000279	20.703726
1343.365559	-2.978000	3.554200	-10.583000	25.131423	0.000278	20.706859
1344.361664	-3.010300	3.553200	-10.695000	25.149998	0.000277	20.715549
1345.361757	-3.000100	3.554300	-10.663000	25.149941	0.000278	20.718337
1346.365897	-2.986100	3.554200	-10.612000	25.143696	0.000276	20.706851
1347.363068	-3.004700	3.552500	-10.674000	25.154608	0.000277	20.714013
1348.362556	-2.979500	3.554700	-10.590000	25.146547	0.000275	20.711136
1349.367259	-3.012900	3.552500	-10.702000	25.144748	0.000277	20.708382
1350.362591	-2.997800	3.552000	-10.647000	25.156930	0.000274	20.698325
1351.367640	-3.012800	3.552500	-10.701000	25.159593	0.000276	20.694360
1352.369800	-2.984100	3.552500	-10.600000	25.144822	0.000276	20.694229
1353.365181	-2.990100	3.551200	-10.618000	25.148845	0.000273	20.696846
1354.364917	-3.008700	3.550700	-10.682000	25.150205	0.000276	20.694893
1355.365473	-3.009000	3.550300	-10.682000	25.176378	0.000275	20.703151
1356.364396	-2.995500	3.550700	-10.635000	25.156167	0.000274	20.702775
1357.364450	-3.004300	3.550000	-10.665000	25.158570	0.000272	20.708981
1358.369183	-2.989700	3.549200	-10.609000	25.172372	0.000271	20.710983
1359.366428	-3.008000	3.550200	-10.678000	25.160687	0.000273	20.703045
1360.368876	-3.040200	3.547900	-10.786000	25.147259	0.000273	20.701418
1361.370995	-2.958200	3.549100	-10.498000	25.190955	0.000270	20.691706
1362.368150	-3.002600	3.547500	-10.651000	25.163953	0.000271	20.718179
1363.365794	-3.027700	3.546700	-10.737000	25.163327	0.000268	20.708067
1364.366897	-2.992700	3.548400	-10.618000	25.164321	0.000270	20.701951
1365.366240	-2.983400	3.548600	-10.586000	25.159933	0.000269	20.699443
1366.372056	-2.979400	3.548100	-10.570000	25.188303	0.000268	20.701371
1367.367305	-3.013200	3.546300	-10.685000	25.177212	0.000268	20.707782
1368.368706	-2.989400	3.547400	-10.604000	25.172391	0.000271	20.695354
1369.372311	-3.018100	3.545400	-10.700000	25.170201	0.000269	20.699320
1370.370956	-3.022000	3.544900	-10.712000	25.203205	0.000270	20.691676
1371.370131	-3.004200	3.544900	-10.649000	25.172531	0.000268	20.686959
1372.375983	-2.997800	3.545600	-10.628000	25.163638	0.000267	20.703637
1373.371299	-2.988100	3.545900	-10.594000	25.171961	0.000268	20.684490
1374.372461	-2.985800	3.545100	-10.584000	25.177327	0.000267	20.715484
1375.375391	-3.002100	3.544200	-10.640000	25.179339	0.000264	20.691897
1376.372188	-2.983900	3.545200	-10.578000	25.159274	0.000265	20.710162
1377.375647	-3.003000	3.543200	-10.639000	25.186643	0.000264	20.682160
1378.376615	-3.005700	3.543800	-10.651000	25.160317	0.000266	20.708364
1379.374200	-2.992400	3.543300	-10.602000	25.167149	0.000262	20.691514
1380.376031	-2.999300	3.542800	-10.624000	25.155219	0.000261	20.700401
1381.382526	-3.012700	3.542000	-10.670000	25.178729	0.000263	20.699347
1382.373583	-2.993700	3.542500	-10.604000	25.149072	0.000263	20.697548
1383.374536	-3.007400	3.542300	-10.652000	25.150961	0.000260	20.705610
1384.379308	-2.999600	3.541100	-10.620000	25.176311	0.000260	20.697868
1385.375619	-3.016000	3.541100	-10.679000	25.185814	0.000260	20.688915
1386.376399	-2.988500	3.541100	-10.582000	25.181742	0.000260	20.700949
1387.378905	-3.001300	3.540700	-10.626000	25.167272	0.000259	20.693059
1388.376343	-2.999300	3.539800	-10.616000	25.186937	0.000258	20.706639
1389.375610	-3.018200	3.539600	-10.682000	25.175658	0.000258	20.701954
1390.386852	-3.016100	3.539400	-10.675000	25.189453	0.000259	20.695413
1391.376862	-3.005500	3.539100	-10.635000	25.185349	0.000258	20.715951
1392.376991	-2.997900	3.538700	-10.606000	25.187360	0.000257	20.692364
1393.383812	-2.999800	3.538100	-10.613000	25.184338	0.000258	20.700236
1394.378571	-3.035900	3.537600	-10.739000	25.169795	0.000258	20.706025
1395.378516	-2.974600	3.538200	-10.524000	25.190576	0.000257	20.702706
1396.381456	-3.007700	3.537000	-10.638000	25.168728	0.000254	20.697841
1397.379190	-2.996200	3.537700	-10.599000	25.187001	0.000255	20.691529
1398.379674	-2.986100	3.537100	-10.561000	25.170177	0.000256	20.704511
1399.383572	-2.986500	3.537300	-10.563000	25.150437	0.000256	20.707455
1400.381686	-3.007900	3.534500	-10.630000	25.167546	0.000255	20.720364
1401.386890	-3.000700	3.535600	-10.608000	25.194768	0.000251	20.713079
1402.383904	-3.016200	3.535100	-10.662000	25.170429	0.000252	20.698126
1403.379879	-3.012400	3.536000	-10.650000	25.194572	0.000254	20.695811
1404.381072	-3.015900	3.534300	-10.657000	25.179304	0.000251	20.695182
1405.386629	-2.981900	3.535900	-10.542000	25.182642	0.000252	20.690947
1406.380639	-2.989900	3.536000	-10.572000	25.183594	0.000254	20.697593
1407.380564	-3.009700	3.533600	-10.634000	25.171217	0.000252	20.693227
1408.385205	-3.008200	3.534200	-10.630000	25.184116	0.000251	20.707126
1409.380694	-3.009500	3.533200	-10.632000	25.198911	0.000250	20.701590
1410.380925	-3.004300	3.533000	-10.613000	25.181828	0.000249	20.700087
1411.383516	-3.002100	3.533400	-10.607000	25.193121	0.000250	20.707158
1412.380646	-2.999200	3.532100	-10.591000	25.203666	0.000249	20.702571
1413.381209	-3.002600	3.533000	-10.606000	25.192558	0.000249	20.701851
1414.383568	-3.002300	3.532900	-10.606000	25.205506	0.000249	20.691141
1415.380956	-3.005800	3.532500	-10.616000	25.194367	0.000248	20.719315
1416.380410	-3.033600	3.530500	-10.709000	25.204268	0.000249	20.720246
1417.384150	-2.983300	3.532200	-10.537000	25.196768	0.000249	20.700387
1418.380795	-3.012300	3.530100	-10.633000	25.204625	0.000245	20.704482
1419.381972	-3.005400	3.530300	-10.609000	25.198135	0.000247	20.707924
1420.381656	-3.006500	3.530800	-10.615000	25.194144	0.000246	20.707711
1421.381018	-3.001800	3.530900	-10.599000	25.198941	0.000247	20.704939
1422.380118	-2.987100	3.531000	-10.546000	25.208362	0.000245	20.712502
1423.383511	-2.992500	3.529300	-10.560000	25.209037	0.000244	20.693264
1424.386966	-2.998800	3.529400	-10.584000	25.214355	0.000245	20.701448
1425.385127	-3.000100	3.527700	-10.583000	25.201040	0.000243	20.722222
1426.381596	-2.998100	3.527900	-10.576000	25.210405	0.000243	20.707441
1427.382838	-3.025600	3.527800	-10.673000	25.190398	0.000246	20.706794
1428.382231	-3.022500	3.526500	-10.658000	25.226568	0.000243	20.698537
1429.383458	-2.999500	3.527000	-10.579000	25.212277	0.000244	20.712640
1430.383908	-2.977800	3.526900	-10.502000	25.214712	0.000242	20.722197
1431.385023	-3.004600	3.525500	-10.592000	25.199770	0.000242	20.709566
1432.386588	-3.007200	3.526500	-10.604000	25.221625	0.000243	20.721077
1433.391289	-3.001700	3.525900	-10.583000	25.211536	0.000241	20.704782
1434.387691	-3.005400	3.526200	-10.597000	25.204689	0.000241	20.717349
1435.386635	-3.006200	3.525300	-10.596000	25.196993	0.000239	20.702984
1436.385359	-3.001200	3.525600	-10.580000	25.213621	0.000241	20.723472
1437.386934	-2.990600	3.526000	-10.544000	25.249059	0.000239	20.733447
1438.387736	-2.988300	3.526000	-10.536000	25.212774	0.000239	20.709345
1439.388964	-3.005900	3.525000	-10.595000	25.213817	0.000238	20.707546
1440.390083	-3.003600	3.525200	-10.587000	25.201757	0.000237	20.711561
1441.388798	-2.994400	3.525000	-10.554000	25.218833	0.000237	20.723963
1442.389601	-3.000900	3.523400	-10.572000	25.233425	0.000237	20.720595
1443.391880	-3.014600	3.521900	-10.616000	25.213981	0.000236	20.737110
1444.392504	-3.003200	3.522600	-10.578000	25.199966	0.000235	20.718772
1445.391233	-2.976600	3.523000	-10.486000	25.225022	0.000237	20.725435
1446.393900	-2.985800	3.522700	-10.517000	25.211245	0.000236	20.729147
1447.390644	-3.003000	3.522200	-10.577000	25.211668	0.000237	20.715821
1448.393566	-2.992200	3.521000	-10.535000	25.203412	0.000236	20.719386
1449.392543	-3.024600	3.521300	-10.650000	25.214372	0.000235	20.728968
1450.392651	-3.005600	3.521200	-10.581000	25.233466	0.000233	20.702143
1451.395452	-3.005300	3.520300	-10.578000	25.217751	0.000235	20.738051
1452.393441	-3.006600	3.520300	-10.584000	25.213427	0.000232	20.712846
1453.393141	-2.995000	3.520000	-10.542000	25.213966	0.000233	20.736621
1454.394359	-2.984100	3.519800	-10.503000	25.232434	0.000233	20.703003
1455.393397	-2.987300	3.519300	-10.512000	25.213917	0.000233	20.722347
1456.394506	-3.003200	3.520100	-10.571000	25.219063	0.000232	20.735100
1457.396219	-2.992500	3.519400	-10.531000	25.235309	0.000231	20.727703
1458.393863	-2.994100	3.518600	-10.534000	25.240553	0.000231	20.714475
1459.397013	-3.000200	3.518200	-10.554000	25.234112	0.000232	20.735985
1460.396350	-2.980300	3.517800	-10.484000	25.232541	0.000232	20.719708
1461.396776	-3.008100	3.517100	-10.578000	25.231971	0.000232	20.725300
1462.397686	-2.993100	3.518000	-10.529000	25.241556	0.000230	20.724965
1463.399584	-3.023100	3.516300	-10.629000	25.232933	0.000228	20.728636
1464.396911	-3.003400	3.516900	-10.561000	25.230515	0.000228	20.728580
1465.398937	-2.984800	3.517000	-10.497000	25.198448	0.000227	20.739061
1466.401132	-3.008500	3.515700	-10.576000	25.219229	0.000229	20.722938
1467.401311	-2.997400	3.515600	-10.537000	25.213327	0.000227	20.731712
1468.398861	-3.004400	3.515400	-10.560000	25.228195	0.000226	20.759443
1469.399980	-3.012900	3.514000	-10.586000	25.231591	0.000226	20.752421
1470.399027	-3.017300	3.514200	-10.602000	25.233750	0.000225	20.737043
1471.400900	-3.018200	3.514100	-10.606000	25.250849	0.000225	20.737616
1472.402553	-3.017000	3.513600	-10.600000	25.217937	0.000225	20.733496
1473.402316	-2.998400	3.513400	-10.534000	25.209583	0.000224	20.732220
1474.401062	-2.986300	3.513800	-10.492000	25.247438	0.000224	20.728027
1475.401796	-3.010800	3.513700	-10.579000	25.226528	0.000224	20.750183
1476.401445	-2.991500	3.512300	-10.506000	25.237733	0.000223	20.738672
1477.402507	-3.017000	3.511800	-10.595000	25.260948	0.000224	20.755816
1478.404629	-3.022800	3.511100	-10.613000	25.269473	0.000221	20.751573
1479.403887	-2.999300	3.513100	-10.536000	25.245062	0.000223	20.756462
1480.403038	-2.996400	3.512400	-10.522000	25.244712	0.000221	20.745679
1481.405642	-3.009200	3.511400	-10.565000	25.231782	0.000221	20.752138
1482.401713	-2.995000	3.511800	-10.517000	25.264491	0.000221	20.736139
1483.402911	-2.985400	3.510100	-10.479000	25.253311	0.000219	20.757158
1484.404259	-2.989300	3.510700	-10.494000	25.255812	0.000220	20.762513
1485.403615	-2.998300	3.509400	-10.521000	25.254070	0.000219	20.755548
1486.406164	-3.005700	3.509600	-10.547000	25.271771	0.000218	20.753880
1487.405377	-2.987800	3.510200	-10.487000	25.265688	0.000217	20.752514
1488.404128	-2.984700	3.509800	-10.475000	25.268629	0.000218	20.744087
1489.402612	-2.984800	3.510000	-10.475000	25.260339	0.000218	20.751411
1490.405311	-3.012500	3.507900	-10.567000	25.252384	0.000219	20.752907
1491.403404	-2.989400	3.508900	-10.489000	25.245268	0.000218	20.751453
1492.403199	-2.985600	3.508400	-10.474000	25.256382	0.000218	20.743171
1493.405235	-2.982300	3.508400	-10.462000	25.249795	0.000216	20.755998
1494.405229	-3.000900	3.508800	-10.529000	25.245138	0.000216	20.772660
1495.404615	-3.008500	3.507500	-10.552000	25.245096	0.000216	20.735633
1496.407373	-2.990000	3.506400	-10.484000	25.274394	0.000215	20.764575
1497.406118	-3.006800	3.505800	-10.541000	25.246286	0.000215	20.758165
1498.404463	-3.006300	3.507200	-10.543000	25.242826	0.000214	20.767019
1499.408035	-2.987000	3.505300	-10.470000	25.280705	0.000215	20.752892
1500.407033	-2.983400	3.507100	-10.462000	25.260495	0.000213	20.763422
1501.406851	-2.984100	3.504800	-10.457000	25.253379	0.000213	20.759123
1502.412339	-2.992100	3.504400	-10.485000	25.258599	0.000212	20.760096
1503.404625	-2.991000	3.505500	-10.484000	25.259666	0.000211	20.745519
1504.405905	-2.961900	3.504700	-10.380000	25.253901	0.000211	20.766285
1505.408138	-2.981800	3.503800	-10.446000	25.263818	0.000212	20.768655
1506.406271	-2.988700	3.504200	-10.471000	25.267841	0.000211	20.776014
1507.406868	-3.012700	3.501400	-10.548000	25.242468	0.000212	20.766186
1508.409015	-2.986000	3.504500	-10.464000	25.280837	0.000210	20.761086
1509.407933	-3.011300	3.501800	-10.544000	25.245189	0.000210	20.784566
1510.409452	-2.977300	3.502700	-10.428000	25.257346	0.000209	20.766425
1511.413223	-2.997200	3.502100	-10.496000	25.274470	0.000211	20.767970
1512.409795	-3.003800	3.502000	-10.519000	25.261914	0.000207	20.781917
1513.410065	-3.006900	3.501600	-10.528000	25.274022	0.000208	20.771314
1514.411596	-3.013300	3.502000	-10.551000	25.276278	0.000209	20.772631
1515.410626	-2.998300	3.500900	-10.495000	25.259920	0.000209	20.806942
1516.411224	-2.997700	3.501300	-10.495000	25.257087	0.000208	20.769483
1517.412385	-3.018300	3.500300	-10.564000	25.278583	0.000207	20.782531
1518.410234	-3.010900	3.499700	-10.536000	25.273836	0.000204	20.778714
1519.410971	-2.997900	3.499300	-10.489000	25.272737	0.000208	20.770972
1520.412602	-3.004000	3.499500	-10.511000	25.279325	0.000206	20.792759
1521.411641	-2.967600	3.500100	-10.386000	25.274805	0.000205	20.772100
1522.411876	-3.000800	3.498800	-10.498000	25.281483	0.000203	20.783072
1523.413064	-3.008100	3.499200	-10.525000	25.275067	0.000203	20.763354
1524.411321	-3.021200	3.497400	-10.565000	25.295944	0.000204	20.792850
1525.413244	-2.985600	3.498300	-10.443000	25.267161	0.000204	20.761106
1526.413824	-2.997300	3.496400	-10.479000	25.304354	0.000202	20.779483
1527.414316	-2.990000	3.498100	-10.458000	25.271810	0.000203	20.783792
1528.414767	-2.995400	3.496700	-10.473000	25.285302	0.000203	20.779320
1529.414941	-3.006100	3.496600	-10.510000	25.282819	0.000202	20.772085
1530.415982	-2.989100	3.496900	-10.452000	25.291043	0.000203	20.782239
1531.416939	-2.990500	3.496300	-10.455000	25.300065	0.000200	20.785607
1532.418220	-2.972000	3.496100	-10.390000	25.282217	0.000200	20.768162
1533.417299	-2.987900	3.494100	-10.438000	25.287338	0.000200	20.785632
1534.420302	-2.996600	3.494800	-10.472000	25.300204	0.000199	20.774368
1535.416891	-3.002500	3.493300	-10.487000	25.290840	0.000201	20.784406
1536.418977	-2.996700	3.495100	-10.473000	25.314826	0.000200	20.800429
1537.419594	-3.013100	3.493000	-10.523000	25.284620	0.000197	20.808033
1538.418853	-2.991300	3.493000	-10.447000	25.284952	0.000197	20.802203
1539.419052	-2.988600	3.493700	-10.441000	25.310275	0.000197	20.796808
1540.420486	-3.005500	3.493100	-10.497000	25.291483	0.000198	20.779362
1541.422495	-2.998100	3.492000	-10.469000	25.296685	0.000197	20.805922
1542.419991	-3.012800	3.492300	-10.521000	25.308802	0.000197	20.808131
1543.421184	-3.010100	3.491800	-10.510000	25.305227	0.000199	20.799326
1544.422220	-3.004800	3.491900	-10.492000	25.313549	0.000197	20.790612
1545.420753	-2.997600	3.490600	-10.461000	25.311261	0.000197	20.803488
1546.423527	-3.003200	3.491000	-10.483000	25.318565	0.000196	20.792329
1547.420601	-2.992300	3.491500	-10.447000	25.309943	0.000194	20.791732
1548.420998	-2.995600	3.490400	-10.455000	25.296800	0.000195	20.814098
1549.420078	-2.994900	3.489900	-10.451000	25.321374	0.000197	20.797994
1550.419726	-3.002300	3.489700	-10.476000	25.313420	0.000193	20.803758
1551.422596	-2.996300	3.489500	-10.454000	25.305377	0.000192	20.787148
1552.423320	-3.014100	3.490100	-10.518000	25.312044	0.000193	20.790524
1553.420465	-3.026700	3.488600	-10.558000	25.304936	0.000193	20.781964
1554.421824	-3.021000	3.489500	-10.540000	25.318624	0.000193	20.789069
1555.422198	-2.995300	3.487600	-10.446000	25.321954	0.000194	20.819439
1556.421723	-2.994400	3.488300	-10.444000	25.312030	0.000192	20.807104
1557.422224	-3.008300	3.487200	-10.490000	25.304929	0.000191	20.822260
1558.422343	-3.013800	3.486500	-10.506000	25.333078	0.000192	20.798366
1559.422880	-2.993200	3.487100	-10.437000	25.328974	0.000190	20.805625
1560.425954	-2.992700	3.486800	-10.434000	25.323510	0.000189	20.810097
1561.423872	-2.995800	3.485600	-10.440000	25.324952	0.000189	20.812966
1562.421135	-3.015200	3.485600	-10.510000	25.315874	0.000190	20.805748
1563.421935	-3.007500	3.484600	-10.479000	25.316493	0.000190	20.812059
1564.422715	-2.979200	3.485800	-10.384000	25.344502	0.000189	20.814103
1565.424684	-2.991900	3.484100	-10.423000	25.321240	0.000190	20.818722
1566.429420	-3.002000	3.485100	-10.461000	25.328096	0.000187	20.814700
1567.424321	-2.986300	3.485300	-10.407000	25.331898	0.000188	20.830372
1568.426801	-3.002000	3.483100	-10.456000	25.322454	0.000189	20.826579
1569.422472	-2.982300	3.483700	-10.388000	25.337656	0.000188	20.831885
1570.424266	-3.008400	3.482700	-10.477000	25.339821	0.000186	20.820783
1571.423631	-2.997500	3.483100	-10.440000	25.312813	0.000186	20.828753
1572.423079	-2.987900	3.484100	-10.409000	25.335994	0.000187	20.809355
1573.425530	-3.019900	3.483000	-10.517000	25.317577	0.000185	20.809355
1574.424449	-2.991200	3.481400	-10.412000	25.317577	0.000186	20.810777
1575.426131	-3.000400	3.482400	-10.448000	25.327396	0.000183	20.807360
1576.426982	-2.996100	3.481100	-10.429000	25.332811	0.000184	20.826547
1577.426133	-3.006600	3.480300	-10.463000	25.334448	0.000185	20.853320
1578.427047	-3.014700	3.479800	-10.490000	25.333584	0.000184	20.841073
1579.431303	-3.008400	3.480700	-10.471000	25.344512	0.000183	20.821226
1580.426961	-3.000700	3.480800	-10.444000	25.337460	0.000183	20.848283
1581.427178	-2.995100	3.479500	-10.421000	25.341937	0.000182	20.820538
1582.431425	-2.984800	3.480600	-10.388000	25.335424	0.000181	20.832489
1583.430199	-2.974000	3.480000	-10.348000	25.346716	0.000181	20.831974
1584.429155	-2.997100	3.480300	-10.430000	25.335382	0.000180	20.834344
1585.431810	-2.997900	3.479300	-10.430000	25.367641	0.000182	20.826431
1586.430390	-2.992100	3.477800	-10.405000	25.344852	0.000179	20.826783
1587.431646	-2.984800	3.478700	-10.382000	25.362534	0.000180	20.837899
1588.431486	-3.020300	3.477800	-10.503000	25.359050	0.000180	20.828237
1589.431317	-3.011400	3.477100	-10.470000	25.353814	0.000179	20.828195
1590.432349	-3.017000	3.476700	-10.488000	25.355426	0.000180	20.829814
1591.431304	-2.994000	3.476300	-10.407000	25.349442	0.000177	20.829495
1592.431498	-3.026700	3.476300	-10.520000	25.345786	0.000178	20.827247
1593.431963	-3.007700	3.476100	-10.454000	25.357053	0.000177	20.851361
1594.432200	-3.001900	3.475700	-10.433000	25.356711	0.000175	20.833000
1595.430651	-3.005200	3.476000	-10.445000	25.344636	0.000178	20.829885
1596.432396	-3.005200	3.475000	-10.443000	25.355798	0.000177	20.843463
1597.431530	-2.980000	3.474800	-10.352000	25.354413	0.000176	20.843969
1598.430943	-2.993800	3.475000	-10.403000	25.352825	0.000175	20.829573
1599.431872	-2.999500	3.472900	-10.415000	25.341744	0.000175	20.847369
1600.431077	-2.996800	3.473900	-10.410000	25.343738	0.000177	20.851268
1601.432959	-3.012700	3.473400	-10.464000	25.348639	0.000171	20.846706
1602.433772	-2.986400	3.474300	-10.374000	25.352179	0.000173	20.845993
1603.432165	-2.984700	3.473100	-10.365000	25.352830	0.000173	20.850440
1604.432395	-2.995100	3.473600	-10.402000	25.343711	0.000174	20.836068
1605.431703	-2.999100	3.472300	-10.413000	25.364667	0.000172	20.849524
1606.431924	-2.987400	3.471700	-10.371000	25.345404	0.000172	20.845829
1607.430442	-3.006000	3.470400	-10.431000	25.329869	0.000170	20.826438
1608.432106	-3.021400	3.470400	-10.484000	25.349221	0.000171	20.834015
1609.430281	-3.018900	3.469500	-10.473000	25.357941	0.000172	20.842770
1610.432640	-3.018900	3.469400	-10.472000	25.366725	0.000170	20.831202
1611.433285	-3.013200	3.470300	-10.456000	25.352160	0.000168	20.845025
1612.436400	-3.017100	3.470300	-10.468000	25.377048	0.000168	20.834454
1613.433352	-2.986200	3.470100	-10.362000	25.370787	0.000170	20.838125
1614.441053	-2.999100	3.469300	-10.403000	25.359153	0.000170	20.826917
1615.433370	-2.985000	3.470000	-10.357000	25.350506	0.000169	20.807804
1616.433352	-2.996800	3.468100	-10.392000	25.350415	0.000167	20.825731
1617.437624	-2.998200	3.468300	-10.397000	25.383869	0.000167	20.828976
1618.434420	-2.999100	3.467900	-10.399000	25.352311	0.000167	20.826686
1619.435067	-3.003600	3.467100	-10.413000	25.359891	0.000167	20.818651
1620.437099	-3.006200	3.466700	-10.420000	25.359035	0.000168	20.811153
1621.434616	-3.000000	3.468000	-10.403000	25.380921	0.000165	20.832180
1622.434918	-2.980600	3.468100	-10.337000	25.367675	0.000164	20.815560
1623.438513	-3.027600	3.466300	-10.494000	25.358245	0.000165	20.812256
1624.436331	-3.006500	3.466400	-10.420000	25.360851	0.000163	20.827674
1625.437016	-2.983900	3.466500	-10.343000	25.374528	0.000165	20.812010
1626.438849	-2.988400	3.465400	-10.354000	25.358791	0.000165	20.820864
1627.439046	-2.979000	3.465900	-10.324000	25.379852	0.000164	20.804080
1628.437630	-2.992100	3.464700	-10.365000	25.354174	0.000163	20.830453
1629.440829	-3.005200	3.464000	-10.408000	25.370075	0.000164	20.791418
1630.438967	-2.990700	3.465100	-10.362000	25.359742	0.000164	20.789103
1631.442657	-2.999500	3.463600	-10.388000	25.377173	0.000162	20.793803
1632.443447	-3.014400	3.463400	-10.440000	25.359302	0.000160	20.794351
1633.440778	-2.996100	3.462500	-10.372000	25.356672	0.000161	20.778434
1634.439990	-3.003300	3.463600	-10.402000	25.394498	0.000160	20.815467
1635.441198	-2.999200	3.462900	-10.384000	25.398723	0.000161	20.786045
1636.439816	-3.015800	3.461300	-10.437000	25.393333	0.000160	20.817142
1637.439767	-3.002800	3.461700	-10.393000	25.382864	0.000161	20.814691
1638.446528	-2.978500	3.462200	-10.312000	25.375365	0.000158	20.801945
1639.442842	-3.016800	3.461900	-10.443000	25.393186	0.000159	20.792813
1640.440392	-3.022800	3.460900	-10.461000	25.374322	0.000157	20.815597
1641.444249	-2.989700	3.460800	-10.346000	25.378450	0.000158	20.785603
1642.443783	-3.012000	3.459900	-10.421000	25.368631	0.000157	20.799451
1643.442660	-2.991300	3.459900	-10.349000	25.374941	0.000158	20.806262
1644.446053	-2.980600	3.460000	-10.311000	25.373256	0.000157	20.796508
1645.443752	-2.981000	3.459200	-10.310000	25.375820	0.000157	20.809988
1646.443194	-3.016000	3.458600	-10.430000	25.370577	0.000156	20.775800
1647.445545	-2.992600	3.458800	-10.349000	25.382830	0.000156	20.805647
1648.445072	-2.986900	3.459300	-10.332000	25.382057	0.000155	20.781163
1649.444940	-2.981700	3.458600	-10.312000	25.366522	0.000156	20.789273
1650.446318	-2.980000	3.457000	-10.301000	25.380437	0.000157	20.779063
1651.445252	-2.994000	3.458300	-10.353000	25.390011	0.000155	20.783460
1652.444985	-3.014200	3.455300	-10.415000	25.383211	0.000154	20.780901
1653.448957	-3.012000	3.455800	-10.408000	25.390955	0.000155	20.778719
1654.449078	-3.003500	3.457300	-10.382000	25.381787	0.000152	20.774729
1655.446621	-3.006400	3.455900	-10.389000	25.396842	0.000152	20.791742
1656.448095	-2.990600	3.455900	-10.333000	25.383008	0.000153	20.785438
1657.447700	-2.993200	3.456000	-10.344000	25.384124	0.000153	20.799361
1658.447292	-2.992700	3.455000	-10.338000	25.367841	0.000150	20.773053
1659.452179	-2.967500	3.455300	-10.253000	25.399007	0.000152	20.781114
1660.453054	-2.982900	3.455100	-10.305000	25.392876	0.000152	20.780173
1661.450716	-2.996100	3.453000	-10.344000	25.372962	0.000150	20.791472
1662.452980	-3.000800	3.454200	-10.365000	25.384100	0.000150	20.770887
1663.451212	-2.995300	3.453500	-10.344000	25.414174	0.000148	20.776429
1664.452586	-3.029800	3.453100	-10.460000	25.396230	0.000149	20.764101
1665.455166	-2.995400	3.453900	-10.345000	25.403688	0.000147	20.769693
1666.451841	-3.001700	3.453100	-10.364000	25.409924	0.000150	20.789706
1667.452822	-3.010300	3.452700	-10.393000	25.410592	0.000149	20.766194
1668.453690	-3.008300	3.451100	-10.381000	25.389839	0.000146	20.768115
1669.452903	-3.001300	3.451600	-10.358000	25.409378	0.000150	20.801486
1670.453806	-2.981300	3.452200	-10.291000	25.393666	0.000147	20.770061
1671.455224	-3.003400	3.450600	-10.362000	25.387405	0.000148	20.787008
1672.452015	-3.001100	3.450900	-10.356000	25.376023	0.000147	20.768941
1673.452955	-2.984900	3.450500	-10.298000	25.395026	0.000146	20.752460
1674.454709	-2.998300	3.449600	-10.342000	25.396776	0.000148	20.783615
1675.453763	-3.007200	3.449100	-10.371000	25.390483	0.000145	20.781090
1676.455224	-3.010800	3.449800	-10.385000	25.395212	0.000144	20.769243
1677.453103	-3.015900	3.449000	-10.400000	25.399259	0.000143	20.762875
1678.453700	-2.996800	3.448500	-10.333000	25.394806	0.000145	20.779741
1679.452720	-3.015300	3.448000	-10.395000	25.418595	0.000144	20.752893
1680.456214	-2.991300	3.448600	-10.315000	25.390889	0.000145	20.751625
1681.454056	-3.023800	3.447000	-10.422000	25.403247	0.000144	20.763086
1682.453496	-3.007800	3.446700	-10.366000	25.407221	0.000140	20.777034
1683.458453	-2.992400	3.447000	-10.314000	25.411072	0.000144	20.769995
1684.456264	-3.001900	3.447300	-10.348000	25.411649	0.000141	20.754927
1685.457032	-3.007100	3.444900	-10.358000	25.412650	0.000141	20.786753
1686.459502	-2.998100	3.446300	-10.331000	25.395577	0.000142	20.775299
1687.457240	-2.999800	3.445400	-10.335000	25.405868	0.000141	20.767614
1688.456837	-3.013600	3.444800	-10.380000	25.411387	0.000140	20.758932
1689.457351	-3.003700	3.445400	-10.348000	25.409873	0.000142	20.765472
1690.460584	-2.993000	3.444700	-10.310000	25.415092	0.000138	20.756962
1691.458975	-2.994100	3.445200	-10.313000	25.410556	0.000139	20.767106
1692.460376	-2.984900	3.444100	-10.279000	25.396911	0.000138	20.763362
1693.457508	-2.968800	3.444300	-10.223000	25.405019	0.000138	20.764391
1694.459020	-2.975400	3.443900	-10.246000	25.424778	0.000140	20.758627
1695.462208	-2.974200	3.443700	-10.241000	25.395086	0.000137	20.760107
1696.458599	-2.976400	3.443200	-10.247000	25.409993	0.000137	20.749945
1697.458510	-2.990000	3.442800	-10.293000	25.434139	0.000136	20.750957
1698.459862	-2.991400	3.443000	-10.298000	25.410260	0.000136	20.776766
1699.457335	-3.000700	3.441500	-10.326000	25.391673	0.000138	20.771853
1700.458620	-3.002200	3.441700	-10.331000	25.401173	0.000136	20.761478
1701.459470	-3.001800	3.441100	-10.329000	25.388326	0.000136	20.764699
1702.457816	-2.981500	3.441400	-10.260000	25.399414	0.000135	20.751176
1703.458272	-3.009600	3.440500	-10.354000	25.418554	0.000135	20.748584
1704.459676	-3.010600	3.439700	-10.354000	25.415102	0.000135	20.736583
1705.457983	-2.984900	3.440400	-10.269000	25.406463	0.000134	20.759677
1706.458712	-3.010700	3.439200	-10.354000	25.435120	0.000134	20.755262
1707.459745	-3.015500	3.439300	-10.370000	25.418496	0.000134	20.761802
1708.461243	-3.009800	3.438300	-10.348000	25.425114	0.000132	20.739524
1709.461504	-2.989500	3.439000	-10.280000	25.423005	0.000132	20.753528
1710.462344	-3.005000	3.438300	-10.331000	25.412942	0.000131	20.758122
1711.461868	-3.008000	3.438200	-10.341000	25.396300	0.000132	20.740463
1712.460196	-3.001700	3.436700	-10.315000	25.412746	0.000130	20.736588
1713.460938	-2.998500	3.437100	-10.305000	25.405744	0.000131	20.761800
1714.459998	-2.986000	3.437300	-10.263000	25.414993	0.000131	20.737895
1715.460577	-3.016500	3.436600	-10.365000	25.415587	0.000132	20.737070
1716.460706	-2.984800	3.436000	-10.255000	25.425958	0.000130	20.749381
1717.460003	-2.999500	3.436800	-10.308000	25.418599	0.000130	20.740094
1718.460126	-2.990900	3.435400	-10.273000	25.415374	0.000132	20.739701
1719.462773	-3.007600	3.435200	-10.330000	25.402527	0.000128	20.748138
1720.464207	-2.978700	3.436000	-10.234000	25.431160	0.000130	20.735638
1721.463048	-3.014100	3.433100	-10.346000	25.417939	0.000129	20.741802
1722.463202	-3.000200	3.434100	-10.303000	25.419250	0.000127	20.743593
1723.463984	-3.006600	3.432300	-10.319000	25.431958	0.000127	20.723162
1724.464316	-3.002800	3.433300	-10.309000	25.401233	0.000126	20.731665
1725.463781	-3.008900	3.432800	-10.328000	25.458123	0.000127	20.732842
1726.463790	-2.988900	3.433400	-10.261000	25.426047	0.000126	20.739038
1727.464451	-2.991400	3.433900	-10.271000	25.434637	0.000126	20.726326
1728.468113	-2.996400	3.432500	-10.284000	25.434050	0.000123	20.736168
1729.466136	-2.997200	3.432400	-10.287000	25.426999	0.000125	20.735252
1730.469838	-3.006700	3.430600	-10.313000	25.432014	0.000127	20.730805
1731.467402	-3.012200	3.431300	-10.334000	25.443826	0.000126	20.730813
1732.466054	-2.993400	3.432400	-10.274000	25.441213	0.000124	20.721076
1733.467780	-2.988500	3.430700	-10.252000	25.440570	0.000124	20.745087
1734.469571	-2.992300	3.431100	-10.265000	25.438510	0.000124	20.748709
1735.467279	-3.001000	3.429300	-10.290000	25.439926	0.000124	20.728319
1736.465127	-2.990100	3.430100	-10.256000	25.426314	0.000124	20.733616
1737.469061	-3.002200	3.429600	-10.296000	25.443704	0.000122	20.735432
1738.467127	-2.990800	3.429400	-10.256000	25.435709	0.000120	20.716971
1739.467377	-2.996800	3.428000	-10.272000	25.434992	0.000120	20.712457
1740.474687	-3.011800	3.429000	-10.326000	25.433827	0.000121	20.729307
1741.467541	-3.002300	3.427600	-10.289000	25.431320	0.000120	20.739591
1742.467879	-3.001800	3.427900	-10.289000	25.441561	0.000120	20.741815
1743.474123	-2.993300	3.427200	-10.257000	25.449588	0.000121	20.728538
1744.469533	-2.981100	3.426700	-10.214000	25.435479	0.000119	20.721482
1745.468651	-2.983700	3.427600	-10.226000	25.448952	0.000118	20.735012
1746.469404	-2.985100	3.426200	-10.227000	25.459284	0.000118	20.711720
1747.472562	-2.998100	3.425600	-10.270000	25.463468	0.000119	20.706438
1748.468635	-3.014900	3.425300	-10.326000	25.432287	0.000117	20.717328
1749.472931	-3.000300	3.425300	-10.275000	25.459624	0.000118	20.741936
1750.468987	-2.998300	3.425200	-10.269000	25.441730	0.000117	20.722069
1751.471764	-3.002000	3.424200	-10.279000	25.462881	0.000117	20.729558
1752.474570	-3.003600	3.423900	-10.283000	25.458086	0.000117	20.704353
1753.471781	-3.012200	3.423800	-10.312000	25.453014	0.000115	20.740039
1754.471632	-2.961200	3.424600	-10.140000	25.460772	0.000117	20.725544
1755.477063	-3.018400	3.422500	-10.329000	25.453339	0.000115	20.719976
1756.470813	-3.019900	3.422300	-10.334000	25.441266	0.000115	20.723025
1757.471321	-2.984900	3.422800	-10.215000	25.458989	0.000115	20.724227
1758.478547	-2.999500	3.421800	-10.263000	25.467757	0.000114	20.722600
1759.470756	-2.989300	3.422900	-10.231000	25.460283	0.000114	20.733113
1760.471399	-3.001600	3.421400	-10.268000	25.465494	0.000114	20.727914
1761.475914	-2.995000	3.421600	-10.247000	25.445662	0.000115	20.726966
1762.472440	-3.014500	3.419700	-10.307000	25.465315	0.000112	20.712087
1763.473030	-3.005400	3.421000	-10.281000	25.450986	0.000112	20.708603
1764.475272	-2.993300	3.420600	-10.238000	25.476077	0.000112	20.733801
1765.470362	-3.009100	3.419200	-10.287000	25.471307	0.000113	20.721897
1766.471595	-3.001900	3.419300	-10.263000	25.480530	0.000110	20.730212
1767.473564	-2.987100	3.420400	-10.216000	25.457988	0.000110	20.706625
1768.470608	-3.009700	3.418300	-10.287000	25.474066	0.000111	20.715185
1769.470993	-3.014600	3.418200	-10.304000	25.477868	0.000110	20.735125
1770.475518	-2.994300	3.417900	-10.233000	25.483933	0.000108	20.719404
1771.474768	-3.018700	3.417100	-10.314000	25.460243	0.000110	20.715529
1772.472657	-3.015600	3.416900	-10.302000	25.485912	0.000110	20.726607
1773.475507	-3.001700	3.416200	-10.253000	25.471624	0.000110	20.731700
1774.473548	-3.012400	3.417700	-10.295000	25.469418	0.000109	20.699136
1775.473161	-2.998400	3.417400	-10.245000	25.464933	0.000109	20.708384
1776.472840	-2.968100	3.416700	-10.140000	25.466154	0.000106	20.704394
1777.472712	-3.010500	3.415800	-10.283000	25.464884	0.000105	20.707387
1778.479156	-3.024800	3.415300	-10.330000	25.471544	0.000106	20.719765
1779.471519	-2.998500	3.415100	-10.239000	25.456361	0.000107	20.714475
1780.473144	-3.002000	3.414600	-10.249000	25.472040	0.000105	20.696554
1781.475611	-2.983900	3.414200	-10.186000	25.471389	0.000105	20.695426
1782.472160	-2.983200	3.414700	-10.186000	25.484431	0.000104	20.710421
1783.472863	-2.991300	3.414500	-10.213000	25.472351	0.000105	20.703504
1784.471329	-2.976800	3.414000	-10.161000	25.459773	0.000105	20.708418
1785.471811	-2.991400	3.414200	-10.212000	25.466929	0.000105	20.698534
1786.474759	-3.000500	3.412900	-10.239000	25.474281	0.000103	20.706865
1787.474561	-2.997500	3.412600	-10.229000	25.474256	0.000103	20.710634
1788.474952	-3.014700	3.411500	-10.283000	25.476414	0.000102	20.712801
1789.475167	-3.000200	3.411600	-10.234000	25.467394	0.000105	20.685723
1790.475054	-3.007100	3.411500	-10.257000	25.488113	0.000102	20.714592
1791.481382	-3.027100	3.411100	-10.325000	25.459604	0.000103	20.696868
1792.478614	-2.974500	3.412600	-10.149000	25.485280	0.000101	20.697521
1793.475670	-3.009500	3.409400	-10.260000	25.480306	0.000101	20.722874
1794.480969	-2.999400	3.410200	-10.228000	25.462104	0.000102	20.674720
1795.479915	-2.991600	3.410600	-10.202000	25.490385	9.910027E-5	20.697433
1796.477683	-3.025300	3.407800	-10.309000	25.483523	9.976016E-5	20.707137
1797.480796	-3.011100	3.409700	-10.267000	25.501384	0.000100	20.695676
1798.479850	-2.994500	3.409300	-10.208000	25.484501	0.000101	20.694368
1799.486289	-2.981300	3.409500	-10.164000	25.464491	0.000102	20.690395
1800.484702	-3.010300	3.407600	-10.257000	25.506287	0.000100	20.681631
1801.481339	-2.983300	3.408400	-10.168000	25.489306	0.000101	20.679277
1802.485815	-2.981700	3.408300	-10.162000	25.493523	9.797844E-5	20.681616
1803.479033	-2.983300	3.407900	-10.165000	25.505002	9.735154E-5	20.701680
1804.484947	-2.989400	3.407900	-10.187000	25.503830	9.702159E-5	20.684380
1805.485253	-2.995000	3.407100	-10.204000	25.500566	0.000100	20.688690
1806.481859	-2.993300	3.408100	-10.201000	25.500258	9.728555E-5	20.686483
1807.482450	-3.009600	3.404700	-10.246000	25.481071	9.622971E-5	20.696139
1808.487680	-2.998100	3.405900	-10.209000	25.478954	9.487692E-5	20.684530
1809.488310	-2.990300	3.406100	-10.183000	25.484588	9.847336E-5	20.695404
1810.487279	-2.986700	3.406000	-10.172000	25.495766	9.622971E-5	20.680075
1811.489917	-3.013600	3.405200	-10.261000	25.515467	9.398605E-5	20.680419
1812.484029	-3.003600	3.404800	-10.226000	25.489442	9.197336E-5	20.693640
1813.494862	-3.005800	3.404000	-10.230000	25.486227	9.563580E-5	20.712698
1814.485066	-2.982200	3.404100	-10.151000	25.496363	9.365610E-5	20.697745
1815.485491	-3.009100	3.402700	-10.238000	25.477647	9.408504E-5	20.686062
1816.485036	-2.999500	3.403200	-10.207000	25.498912	9.279824E-5	20.685605
1817.489417	-2.996200	3.402400	-10.193000	25.497911	9.088453E-5	20.686971
1818.498119	-2.988100	3.402800	-10.167000	25.488436	8.953174E-5	20.689785
1819.487678	-3.000700	3.401100	-10.204000	25.508617	9.055458E-5	20.676384
1820.486422	-2.986300	3.402100	-10.159000	25.498572	9.260027E-5	20.686686
1821.491570	-2.997800	3.401200	-10.195000	25.501177	9.187438E-5	20.674129
1822.487330	-2.990700	3.401000	-10.170000	25.495325	8.996067E-5	20.701919
1823.487370	-3.007900	3.399900	-10.226000	25.506730	8.873986E-5	20.699148
1824.489428	-3.009400	3.400200	-10.232000	25.536322	9.088453E-5	20.693777
1825.486707	-2.992500	3.399700	-10.173000	25.527270	8.834392E-5	20.697489
1826.488768	-3.004900	3.399100	-10.213000	25.508873	8.897083E-5	20.682332
1827.489355	-3.017400	3.399000	-10.255000	25.530935	8.880585E-5	20.701170
1828.492364	-2.994800	3.398900	-10.178000	25.506872	8.735408E-5	20.699290
1829.494135	-3.001600	3.398200	-10.199000	25.522999	8.768402E-5	20.682767
1830.493829	-2.984300	3.400100	-10.146000	25.511838	8.709012E-5	20.691475
1831.491657	-2.998700	3.397500	-10.187000	25.516374	8.768402E-5	20.685123
1832.492419	-3.002200	3.398000	-10.200000	25.523033	8.692514E-5	20.687543
1833.494330	-3.016600	3.397100	-10.247000	25.512687	8.626524E-5	20.686163
1834.493468	-2.986100	3.396700	-10.142000	25.521032	8.484646E-5	20.701182
1835.490318	-3.018800	3.396800	-10.254000	25.519941	8.563834E-5	20.688231
1836.497143	-3.010100	3.396200	-10.222000	25.530891	8.214088E-5	20.682632
1837.493284	-2.992700	3.396500	-10.163000	25.547367	8.332869E-5	20.690644
1838.497776	-2.995200	3.395800	-10.170000	25.533464	8.395560E-5	20.699917
1839.494609	-3.011100	3.395800	-10.223000	25.537493	8.388961E-5	20.697325
1840.496646	-2.986900	3.395300	-10.140000	25.544421	8.217387E-5	20.685789
1841.495646	-2.997300	3.394600	-10.174000	25.540417	8.088707E-5	20.702157
1842.494048	-2.966400	3.395500	-10.071000	25.534450	8.233885E-5	20.692371
1843.493405	-2.991800	3.395200	-10.157000	25.547978	8.095306E-5	20.688413
1844.496097	-3.005000	3.394500	-10.200000	25.534947	7.956727E-5	20.713260
1845.503477	-3.000000	3.393100	-10.179000	25.545082	8.026017E-5	20.687401
1846.498327	-2.995400	3.394300	-10.166000	25.524584	8.181093E-5	20.692895
1847.504210	-3.012100	3.392100	-10.216000	25.531488	8.068910E-5	20.678964
1848.498228	-3.022400	3.392300	-10.251000	25.538244	8.092007E-5	20.681956
1849.499083	-2.986800	3.393200	-10.134000	25.531886	7.857743E-5	20.701651
1850.499739	-3.005200	3.392000	-10.193000	25.538195	7.940230E-5	20.695659
1851.497355	-3.004800	3.392100	-10.192000	25.520286	7.824748E-5	20.693794
1852.497725	-3.023200	3.390100	-10.248000	25.539766	7.623479E-5	20.678268
1853.498016	-3.003200	3.389200	-10.178000	25.537804	7.969925E-5	20.709491
1854.497407	-2.984600	3.391600	-10.122000	25.525178	7.755458E-5	20.706769
1855.501948	-2.990300	3.391400	-10.140000	25.530120	7.504697E-5	20.708413
1856.500378	-2.990400	3.388800	-10.133000	25.535688	7.537692E-5	20.693140
1857.499652	-2.981800	3.390700	-10.109000	25.548663	7.564088E-5	20.710914
1858.500265	-2.990700	3.389500	-10.136000	25.553164	7.409012E-5	20.692199
1859.498465	-2.993800	3.389100	-10.145000	25.543372	7.438707E-5	20.682364
1860.500156	-3.010400	3.388000	-10.199000	25.547946	7.389215E-5	20.704504
1861.500623	-3.024200	3.388600	-10.247000	25.528956	7.376017E-5	20.688276
1862.498693	-2.984700	3.388100	-10.112000	25.532170	7.286930E-5	20.726594
1863.507007	-2.963000	3.388900	-10.040000	25.557225	7.052667E-5	20.696752
1864.500366	-3.001500	3.387600	-10.167000	25.547824	7.339722E-5	20.706752
1865.502248	-3.006000	3.387000	-10.180000	25.548198	7.290230E-5	20.691954
1866.505700	-2.985700	3.387900	-10.114000	25.561320	7.270433E-5	20.693752
1867.503488	-2.979500	3.386900	-10.090000	25.533635	7.046068E-5	20.702460
1868.501988	-3.013900	3.385500	-10.203000	25.550045	7.013073E-5	20.696180
1869.502637	-2.992400	3.385500	-10.130000	25.528571	7.075763E-5	20.704012
1870.502770	-2.971700	3.385700	-10.060000	25.537102	7.138453E-5	20.687448
1871.505652	-3.009000	3.384800	-10.185000	25.549745	6.953682E-5	20.702990
1872.502470	-2.986000	3.385800	-10.109000	25.529303	7.009773E-5	20.689573
1873.503485	-3.002000	3.383600	-10.157000	25.571274	7.085661E-5	20.676720
1874.500628	-2.998600	3.383900	-10.146000	25.543670	6.887692E-5	20.702580
1875.502500	-2.986400	3.384000	-10.105000	25.553715	6.874494E-5	20.701762
1876.504916	-3.014500	3.382100	-10.194000	25.565560	6.613834E-5	20.711762
1877.502743	-2.971700	3.384600	-10.057000	25.542799	6.792007E-5	20.685109
1878.506726	-2.955600	3.385200	-10.005000	25.568571	6.722717E-5	20.692499
1879.502275	-2.987300	3.382700	-10.104000	25.573569	6.716118E-5	20.676654
1880.506068	-2.998500	3.381800	-10.139000	25.579259	6.693022E-5	20.710346
1881.505661	-3.004600	3.381300	-10.159000	25.557947	6.706220E-5	20.704116
1882.506279	-3.015500	3.382900	-10.199000	25.576800	6.673225E-5	20.695074
1883.505464	-2.998700	3.382300	-10.142000	25.569897	6.712819E-5	20.717540
1884.506465	-2.999500	3.380600	-10.139000	25.557874	6.330078E-5	20.714948
1885.505030	-3.001400	3.382200	-10.149000	25.577231	6.597337E-5	20.717319
1886.503835	-3.009600	3.381200	-10.175000	25.579868	6.422463E-5	20.704794
1887.504642	-3.025900	3.380200	-10.227000	25.588041	6.148606E-5	20.696406
1888.505709	-2.973800	3.380600	-10.052000	25.577759	6.323479E-5	20.690347
1889.505841	-2.975900	3.379800	-10.057000	25.584915	6.392768E-5	20.711285
1890.508403	-2.998100	3.379500	-10.131000	25.564564	6.029824E-5	20.720245
1891.505255	-2.995100	3.379900	-10.121000	25.570800	6.138707E-5	20.704221
1892.512072	-2.984000	3.378800	-10.080000	25.566330	6.181601E-5	20.688352
1893.508410	-2.970500	3.380500	-10.041000	25.584247	6.109012E-5	20.716779
1894.508595	-2.980500	3.378600	-10.069000	25.580144	6.270687E-5	20.710762
1895.508715	-2.987200	3.377500	-10.089000	25.552264	6.026524E-5	20.696511
1896.507041	-2.981100	3.378900	-10.072000	25.582823	5.944037E-5	20.714400
1897.512294	-2.993800	3.377400	-10.110000	25.581984	6.052920E-5	20.709764
1898.510683	-2.998000	3.376400	-10.121000	25.563018	5.897844E-5	20.713002
1899.506771	-2.984800	3.377200	-10.079000	25.589880	5.874748E-5	20.720540
1900.510197	-3.015200	3.376300	-10.179000	25.578794	5.861550E-5	20.724579
1901.507189	-3.037700	3.374300	-10.248000	25.588171	5.911042E-5	20.723565
1902.507576	-3.035500	3.375200	-10.245000	25.577304	5.798859E-5	20.721186
1903.509689	-3.033200	3.373800	-10.232000	25.588464	5.574494E-5	20.701099
1904.509026	-2.972600	3.375500	-10.033000	25.579973	5.703174E-5	20.710116
1905.509178	-2.975500	3.375400	-10.042000	25.593486	5.736169E-5	20.700452
1906.507490	-2.989300	3.374200	-10.086000	25.577458	5.571194E-5	20.729877
1907.507040	-3.007500	3.373100	-10.143000	25.587006	5.488707E-5	20.722869
1908.508399	-3.003200	3.373800	-10.132000	25.572094	5.429316E-5	20.699831
1909.507700	-2.992000	3.373000	-10.091000	25.605818	5.643783E-5	20.728960
1910.510457	-3.033800	3.372000	-10.228000	25.602253	5.399621E-5	20.704516
1911.510355	-3.022600	3.372600	-10.193000	25.603596	5.294037E-5	20.712978
1912.511972	-3.006200	3.372100	-10.136000	25.600739	5.541499E-5	20.719592
1913.512723	-2.987600	3.370600	-10.069000	25.609335	5.195052E-5	20.718268
1914.511560	-2.987500	3.371500	-10.071000	25.597109	5.386423E-5	20.739181
1915.512656	-3.026600	3.370500	-10.200000	25.601065	5.158758E-5	20.718022
1916.512438	-2.991500	3.371000	-10.084000	25.621911	5.198352E-5	20.710034
1917.513721	-2.999500	3.372100	-10.113000	25.623677	5.046575E-5	20.720344
1918.512711	-3.015600	3.371000	-10.164000	25.622554	5.165357E-5	20.716371
1919.511253	-2.998400	3.371500	-10.108000	25.630979	4.921194E-5	20.717720
1920.514824	-2.986900	3.371200	-10.068000	25.604418	4.907996E-5	20.721865
1921.516724	-3.000600	3.369300	-10.108000	25.635528	4.954189E-5	20.722764
1922.514048	-2.999700	3.369100	-10.105000	25.620666	4.937692E-5	20.718268
1923.513417	-3.012900	3.367800	-10.146000	25.621519	4.904697E-5	20.727186
1924.515489	-3.005400	3.369200	-10.125000	25.616449	4.878301E-5	20.729206
1925.514430	-2.968500	3.368100	-9.996600	25.632395	4.973986E-5	20.721513
1926.513754	-3.005200	3.367600	-10.118000	25.624792	4.861803E-5	20.714351
1927.517628	-2.998900	3.368400	-10.100000	25.636473	4.756220E-5	20.730825
1928.512682	-3.001800	3.367100	-10.107000	25.631605	4.776017E-5	20.717400
1929.518501	-3.017100	3.366600	-10.156000	25.656032	4.469164E-5	20.724390
1930.518690	-3.008800	3.366400	-10.128000	25.619575	4.620940E-5	20.728078
1931.516675	-3.003200	3.366100	-10.108000	25.636749	4.416372E-5	20.733473
1932.520602	-3.013300	3.365800	-10.141000	25.626314	4.607742E-5	20.716828
1933.520573	-3.035100	3.363600	-10.208000	25.618980	4.304189E-5	20.746448
1934.522960	-2.980300	3.365800	-10.030000	25.662365	4.419671E-5	20.725061
1935.522851	-2.989700	3.365100	-10.060000	25.640567	4.472463E-5	20.744895
1936.518887	-2.999800	3.364900	-10.093000	25.647779	4.673732E-5	20.759725
1937.522619	-3.003500	3.363700	-10.100000	25.636822	4.310788E-5	20.738763
1938.522079	-2.998400	3.364800	-10.087000	25.648649	4.327286E-5	20.724562
1939.519619	-3.007400	3.363300	-10.114000	25.646631	4.449367E-5	20.732967
1940.524672	-3.022600	3.362800	-10.163000	25.659825	4.327286E-5	20.735314
1941.520899	-2.997600	3.363200	-10.080000	25.655528	4.023732E-5	20.744274
1942.519976	-2.996600	3.363700	-10.079000	25.645712	4.386676E-5	20.728250
1943.527708	-3.008700	3.362800	-10.117000	25.636147	4.347083E-5	20.726705
1944.521075	-2.987600	3.362400	-10.045000	25.671114	4.010534E-5	20.725314
1945.524216	-3.005000	3.361500	-10.101000	25.685220	4.122717E-5	20.743751
1946.525211	-3.006500	3.362100	-10.107000	25.679157	4.000636E-5	20.761369
1947.520902	-3.015400	3.360500	-10.132000	25.686409	3.855458E-5	20.733090
1948.520877	-2.996500	3.361500	-10.072000	25.683185	4.000636E-5	20.721317
1949.522383	-2.988600	3.361000	-10.044000	25.696883	3.786169E-5	20.750249
1950.524926	-3.003500	3.360300	-10.092000	25.661403	3.888453E-5	20.747330
1951.526787	-3.010300	3.360200	-10.114000	25.675842	3.789468E-5	20.726744
1952.528336	-3.007900	3.359900	-10.105000	25.670170	3.706981E-5	20.739065
1953.526824	-2.987300	3.361100	-10.038000	25.689183	3.779570E-5	20.745834
1954.525593	-3.010400	3.358800	-10.111000	25.686001	3.601397E-5	20.776304
1955.524464	-2.999100	3.358400	-10.071000	25.663348	3.400128E-5	20.734110
1956.526374	-2.989300	3.359000	-10.040000	25.691917	3.542006E-5	20.754745
1957.525099	-3.004700	3.358100	-10.089000	25.678088	3.476016E-5	20.757924
1958.529443	-3.013400	3.358200	-10.119000	25.688823	3.594798E-5	20.734093
1959.523602	-2.988100	3.356800	-10.029000	25.705842	3.502412E-5	20.753084
1960.526311	-2.989800	3.357500	-10.037000	25.671958	3.472717E-5	20.749871
1961.531366	-2.985000	3.356600	-10.019000	25.688432	3.403428E-5	20.737019
1962.526722	-2.988200	3.355900	-10.027000	25.698346	3.281346E-5	20.740812
1963.525392	-2.986000	3.356000	-10.020000	25.705402	3.462818E-5	20.752642
1964.524687	-3.018200	3.354900	-10.125000	25.690670	3.245052E-5	20.738793
1965.528372	-3.005400	3.355400	-10.084000	25.709056	3.149367E-5	20.756787
1966.525928	-2.980400	3.355400	-9.999500	25.720865	3.136169E-5	20.747785
1967.526382	-2.982900	3.354800	-10.006000	25.718278	3.271448E-5	20.756566
1968.528169	-2.988200	3.354200	-10.022000	25.698402	3.179062E-5	20.752249
1969.529599	-2.983400	3.354200	-10.006000	25.713581	3.030585E-5	20.774608
1970.527745	-2.989800	3.354800	-10.028000	25.713361	3.126270E-5	20.754947
1971.531707	-3.013200	3.353000	-10.103000	25.721208	3.000889E-5	20.746232
1972.532907	-3.022500	3.352700	-10.132000	25.716470	3.043783E-5	20.739576
1973.533199	-3.018900	3.351800	-10.118000	25.721191	2.882108E-5	20.773717
1974.534164	-3.017500	3.352500	-10.115000	25.736412	2.822717E-5	20.750598
1975.529416	-2.993200	3.352600	-10.034000	25.721159	2.644544E-5	20.737648
1976.531379	-3.007200	3.352200	-10.080000	25.719865	2.789722E-5	20.788032
1977.533040	-2.997000	3.352400	-10.046000	25.711710	2.571955E-5	20.747124
1978.532412	-2.990800	3.351600	-10.023000	25.724155	2.750128E-5	20.754883
1979.534231	-2.986000	3.350800	-10.005000	25.721893	2.746828E-5	20.764464
1980.529701	-2.972800	3.351200	-9.960900	25.736103	2.796321E-5	20.778738
1981.529364	-2.994600	3.350700	-10.033000	25.726736	2.677539E-5	20.758423
1982.534859	-2.983200	3.350500	-9.994600	25.726882	2.575255E-5	20.756674
1983.530467	-2.995200	3.349600	-10.032000	25.736666	2.552158E-5	20.771243
1984.530863	-3.030000	3.348700	-10.145000	25.738033	2.380585E-5	20.776883
1985.531339	-2.995600	3.349200	-10.032000	25.721991	2.472970E-5	20.760769
1986.532342	-2.980400	3.349400	-9.981900	25.726127	2.416879E-5	20.774407
1987.535666	-3.007400	3.348700	-10.070000	25.732718	2.324493E-5	20.779606
1988.530136	-3.008800	3.349000	-10.076000	25.764541	2.403681E-5	20.780276
1989.530995	-3.005900	3.347900	-10.062000	25.756688	2.166118E-5	20.768120
1990.531969	-3.030000	3.347400	-10.141000	25.756086	2.291498E-5	20.762774
1991.531739	-3.017400	3.347400	-10.099000	25.735096	2.172717E-5	20.780097
1992.534697	-2.992400	3.346200	-10.013000	25.754474	1.865864E-5	20.761629
1993.534405	-3.002500	3.345700	-10.044000	25.755988	1.971447E-5	20.794444
1994.531733	-3.015000	3.346500	-10.088000	25.767415	2.182615E-5	20.772257
1995.533349	-2.999100	3.345300	-10.033000	25.746767	2.212310E-5	20.768113
1996.534455	-2.974900	3.345000	-9.949800	25.766887	2.050635E-5	20.767933
1997.536663	-2.987600	3.346300	-9.995900	25.766733	1.789975E-5	20.796702
1998.534847	-3.006400	3.344300	-10.053000	25.770900	2.034138E-5	20.780026
1999.534400	-3.007400	3.343600	-10.054000	25.761085	1.938453E-5	20.796245
2000.543183	-3.007900	3.342700	-10.054000	25.763722	1.882361E-5	20.784195
2001.535942	-2.997600	3.344700	-10.024000	25.757798	1.865864E-5	20.795788
2002.537044	-2.987500	3.343500	-9.987400	25.791110	1.740483E-5	20.784679
2003.542363	-2.998500	3.342800	-10.022000	25.768819	1.641498E-5	20.793582
2004.535666	-3.024700	3.341500	-10.106000	25.791078	1.697589E-5	20.784173
2005.536522	-3.017700	3.340900	-10.080000	25.774581	1.539214E-5	20.797948
2006.535276	-2.993400	3.341600	-10.002000	25.804784	1.582107E-5	20.778974
2007.535533	-3.019800	3.342300	-10.092000	25.797696	1.625001E-5	20.781337
2008.538727	-2.988800	3.341500	-9.985800	25.800749	1.575508E-5	20.782507
2009.537947	-2.987100	3.342000	-9.982500	25.799504	1.407234E-5	20.794059
2010.536046	-2.994600	3.340700	-10.003000	25.815773	1.380838E-5	20.799021
2011.538863	-3.004800	3.341500	-10.040000	25.790300	1.331346E-5	20.785762
2012.541567	-3.008400	3.341200	-10.051000	25.821276	1.440229E-5	20.800756
2013.543052	-3.023900	3.340000	-10.099000	25.818762	1.179569E-5	20.802498
2014.541008	-2.996400	3.339600	-10.006000	25.831237	1.443528E-5	20.814555
2015.538627	-3.024100	3.339300	-10.097000	25.813122	1.120178E-5	20.808212
2016.542553	-3.002000	3.338700	-10.022000	25.824321	1.120178E-5	20.797176
2017.539370	-2.978800	3.339000	-9.945100	25.845652	1.384138E-5	20.795845
2018.544881	-3.007000	3.337600	-10.036000	25.821449	1.182869E-5	20.800456
2019.542865	-2.984200	3.338800	-9.961500	25.842316	1.093782E-5	20.802925
2020.544851	-3.024800	3.338100	-10.096000	25.829491	1.110280E-5	20.811853
2021.541480	-3.002400	3.338600	-10.023000	25.845955	9.585029E-6	20.793779
2022.543096	-3.002500	3.337100	-10.019000	25.854476	9.881984E-6	20.836477
2023.543356	-3.009000	3.335500	-10.035000	25.835449	7.176399E-6	20.802665
2024.545732	-2.999100	3.336200	-10.004000	25.854102	7.341374E-6	20.782522
2025.544630	-2.994800	3.336500	-9.991400	25.866146	9.552034E-6	20.815010
2026.545230	-3.012700	3.335600	-10.048000	25.836997	6.813455E-6	20.814177
2027.547206	-2.990200	3.335500	-9.972700	25.870712	6.252541E-6	20.812959
2028.543351	-3.003700	3.335400	-10.017000	25.863258	6.252541E-6	20.815902
2029.546265	-3.018400	3.333800	-10.062000	25.874911	6.978429E-6	20.809590
2030.543979	-3.012300	3.333700	-10.041000	25.872365	4.602794E-6	20.799921
2031.546031	-2.979300	3.335000	-9.934700	25.868964	5.889596E-6	20.811202
2032.549140	-2.989400	3.334000	-9.965700	25.877533	5.823607E-6	20.816017
2033.542944	-3.005100	3.334400	-10.019000	25.877134	5.988581E-6	20.810401
2034.545893	-2.984400	3.332800	-9.944100	25.890895	4.140865E-6	20.811897
2035.547337	-2.994800	3.332900	-9.980300	25.898423	6.516500E-6	20.831787
2036.545442	-2.978300	3.332700	-9.924500	25.870998	4.305839E-6	20.834108
2037.542664	-3.009500	3.331600	-10.026000	25.885403	3.909900E-6	20.806380
2038.544309	-3.008400	3.331200	-10.021000	25.893199	1.501270E-6	20.822746
2039.545551	-3.020600	3.330300	-10.059000	25.892434	2.854062E-6	20.816288
2040.551580	-3.032600	3.329900	-10.097000	25.897926	3.134519E-7	20.819909
2041.546129	-2.991900	3.330500	-9.963600	25.887249	1.699239E-6	20.803967
2042.545988	-3.002100	3.329600	-9.994200	25.907041	1.501270E-6	20.829539
2043.545118	-3.027700	3.328500	-10.076000	25.914795	6.763962E-7	20.844441
2044.554379	-2.997200	3.329900	-9.979600	25.904632	7.753811E-7	20.830912
2045.544888	-3.027900	3.329100	-10.079000	25.901832	-1.633249E-6	20.819091
2046.548739	-2.990700	3.328600	-9.953400	25.903094	8.413709E-7	20.830789
2047.546466	-3.010700	3.329700	-10.024000	25.913729	-1.237310E-6	20.799275
2048.549903	-3.007100	3.328700	-10.009000	25.922274	-2.920052E-6	20.829669
2049.547680	-2.986900	3.328400	-9.939500	25.920435	-2.227158E-6	20.801744
2050.551948	-2.990300	3.328700	-9.953000	25.909474	-3.876905E-6	20.814440
2051.549449	-3.004100	3.328700	-9.998800	25.920931	-2.986042E-6	20.823105
2052.549771	-2.994800	3.327800	-9.964700	25.928214	-1.798224E-6	20.834688
2053.551423	-3.001900	3.328700	-9.991000	25.918116	-1.831219E-6	20.817907
2054.552231	-2.991500	3.328100	-9.955000	25.927580	-4.272845E-6	20.819828
2055.552547	-2.995300	3.327000	-9.964500	25.937499	-4.074875E-6	20.839275
2056.553186	-2.987800	3.327500	-9.940900	25.922406	-2.227158E-6	20.829328
2057.554159	-3.013700	3.326200	-10.023000	25.921494	-1.963199E-6	20.842636
2058.561274	-2.990600	3.325500	-9.944000	25.946305	-3.777921E-6	20.836742
2059.554174	-2.999900	3.326300	-9.977100	25.943270	-6.219546E-6	20.835116
2060.554004	-3.004300	3.324900	-9.988500	25.953622	-4.635789E-6	20.854998
2061.559562	-3.013600	3.324100	-10.015000	25.952101	-6.021576E-6	20.833082
2062.556791	-3.006300	3.323400	-9.989600	25.950514	-5.922592E-6	20.829117
2063.554603	-2.975100	3.325200	-9.892000	25.939952	-4.866754E-6	20.857860
2064.555191	-2.992300	3.323300	-9.943400	25.929838	-8.463202E-6	20.824466
2065.559714	-3.026400	3.322300	-10.054000	25.945983	-7.407364E-6	20.824565
2066.554533	-2.972800	3.323200	-9.877700	25.956561	-9.519040E-6	20.829503
2067.553251	-2.986200	3.323100	-9.922500	25.971339	-8.562187E-6	20.835340
2068.559056	-3.007400	3.322200	-9.989700	25.960998	-8.826146E-6	20.851502
2069.553263	-2.976700	3.322400	-9.888200	25.957638	-1.070686E-5	20.837696
2070.556734	-2.969400	3.323800	-9.868100	25.966507	-9.189091E-6	20.814365
2071.557436	-3.011100	3.321300	-9.999100	25.960787	-1.100381E-5	20.836119
2072.560288	-3.014200	3.320300	-10.007000	25.958648	-9.684015E-6	20.829228
2073.559485	-2.969500	3.321900	-9.863500	25.972929	-1.037691E-5	20.821764
2074.562618	-2.993100	3.320700	-9.938800	25.996250	-1.176270E-5	20.826702
2075.561542	-3.002100	3.319800	-9.965200	25.975096	-1.113579E-5	20.816829
2076.558484	-3.010200	3.318400	-9.988600	25.981630	-1.182869E-5	20.830031
2077.561490	-2.989700	3.319300	-9.922800	25.995032	-1.278554E-5	20.824531
2078.562669	-2.996200	3.318700	-9.942600	25.981696	-1.258757E-5	20.827253
2079.567087	-2.995500	3.318500	-9.939600	26.006359	-1.314848E-5	20.826902
2080.561264	-2.982200	3.318600	-9.896000	25.991054	-1.397336E-5	20.807732
2081.563006	-3.004300	3.318200	-9.967900	26.002594	-1.479823E-5	20.818851
2082.564538	-3.001400	3.318100	-9.958500	25.999371	-1.674493E-5	20.799966
2083.565924	-3.016100	3.317000	-10.004000	26.007631	-1.661295E-5	20.803998
2084.565108	-3.009700	3.317400	-9.982900	25.988697	-1.819671E-5	20.803942
2085.565647	-2.987300	3.317000	-9.908400	26.025613	-1.479823E-5	20.801677
2086.570282	-2.999200	3.316400	-9.946100	26.019838	-1.723986E-5	20.821952
2087.565840	-2.981200	3.316800	-9.886800	26.018087	-1.945052E-5	20.807391
2088.567013	-3.025500	3.315200	-10.029000	26.024680	-1.661295E-5	20.810696
2089.569354	-3.001800	3.315900	-9.952900	26.041872	-1.707488E-5	20.819908
2090.564105	-3.012200	3.315800	-9.987200	26.017552	-2.156219E-5	20.796422
2091.564091	-3.008200	3.315400	-9.971900	26.018163	-1.839468E-5	20.827856
2092.567253	-2.989500	3.313700	-9.904100	26.013769	-2.166118E-5	20.798785
2093.567115	-2.986800	3.314600	-9.898400	26.036625	-1.941752E-5	20.804205
2094.565333	-2.970700	3.314800	-9.846100	26.047853	-2.086930E-5	20.806477
2095.567130	-2.975900	3.313900	-9.860600	26.024452	-2.176016E-5	20.803829
2096.566943	-3.014700	3.312000	-9.983900	26.031230	-2.189214E-5	20.809691
2097.566581	-3.000800	3.311900	-9.937500	26.026039	-2.337692E-5	20.813958
2098.574363	-3.001100	3.312300	-9.939000	26.034712	-2.245306E-5	20.811767
2099.566226	-3.029800	3.312100	-10.034000	26.063443	-2.281600E-5	20.802701
2100.568696	-2.993300	3.310500	-9.908600	26.046608	-2.410280E-5	20.795744
2101.571236	-2.992700	3.311900	-9.910500	26.055005	-2.591753E-5	20.805129
2102.569396	-3.021200	3.309900	-9.999100	26.050181	-2.304697E-5	20.812609
2103.572173	-3.002100	3.310900	-9.938600	26.034509	-2.562057E-5	20.792597
2104.572439	-3.007500	3.311200	-9.957300	26.064485	-2.733631E-5	20.807541
2105.574816	-2.996600	3.311800	-9.922700	26.072459	-2.667641E-5	20.813656
2106.573533	-3.019100	3.310200	-9.992600	26.069131	-2.687438E-5	20.815528
2107.569589	-3.003100	3.309100	-9.937300	26.069106	-3.096575E-5	20.790373
2108.578650	-3.027900	3.307800	-10.014000	26.089594	-2.829316E-5	20.789622
2109.578774	-3.004100	3.308100	-9.936600	26.071605	-2.961296E-5	20.802368
2110.573243	-3.020400	3.308200	-9.990900	26.073542	-2.961296E-5	20.783925
2111.574563	-2.993400	3.308900	-9.904000	26.065837	-2.806220E-5	20.801788
2112.575484	-3.008800	3.307900	-9.951600	26.087220	-2.862311E-5	20.800513
2113.576984	-2.984300	3.308600	-9.872200	26.088929	-2.918403E-5	20.795592
2114.578241	-3.010200	3.308000	-9.956700	26.073674	-3.155966E-5	20.781687
2115.577746	-2.986700	3.306900	-9.876000	26.096455	-3.208758E-5	20.791300
2116.575594	-3.000300	3.306400	-9.919000	26.108661	-3.172464E-5	20.792185
2117.577699	-2.992200	3.306400	-9.892500	26.104047	-3.307743E-5	20.779014
2118.576036	-3.024200	3.305800	-9.995800	26.096483	-3.136169E-5	20.795595
2119.582706	-2.985500	3.305800	-9.868800	26.104456	-3.175763E-5	20.781795
2120.576235	-3.007500	3.306000	-9.941100	26.127620	-3.413327E-5	20.801278
2121.577367	-3.007600	3.305000	-9.939200	26.121706	-3.522210E-5	20.779688
2122.591180	-3.001600	3.305200	-9.919400	26.117305	-3.509012E-5	20.794232
2123.577130	-2.984900	3.304400	-9.861500	26.119406	-3.621195E-5	20.782592
2124.579218	-3.003100	3.303600	-9.919900	26.112450	-3.555205E-5	20.786982
2125.582619	-2.992600	3.302700	-9.883000	26.132489	-3.459520E-5	20.793842
2126.585922	-2.990200	3.303800	-9.877800	26.119000	-3.571703E-5	20.782659
2127.583326	-2.978900	3.304300	-9.842600	26.118895	-3.664088E-5	20.792985
2128.581284	-2.996800	3.303400	-9.899300	26.129668	-3.492515E-5	20.792430
2129.581199	-3.013700	3.302000	-9.949800	26.145313	-3.522210E-5	20.790607
2130.586596	-2.985600	3.302400	-9.858200	26.146145	-3.657489E-5	20.790494
2131.582012	-2.979700	3.301400	-9.835800	26.140972	-3.763073E-5	20.793831
2132.584934	-2.984700	3.301600	-9.853500	26.141094	-3.637692E-5	20.786367
2133.588259	-2.983200	3.301900	-9.848700	26.152590	-3.941246E-5	20.781797
2134.582381	-3.004700	3.300200	-9.914300	26.148605	-3.901652E-5	20.776845
2135.595362	-2.990900	3.301100	-9.871900	26.178277	-4.099622E-5	20.769202
2136.583829	-2.992000	3.299500	-9.871400	26.151926	-4.248099E-5	20.774966
2137.586062	-3.003200	3.299600	-9.908300	26.166033	-4.139216E-5	20.779658
2138.585779	-3.005000	3.299300	-9.914100	26.179735	-4.297591E-5	20.773037
2139.584481	-3.023100	3.297600	-9.967700	26.180696	-4.159013E-5	20.807668
2140.586444	-2.986900	3.298700	-9.852700	26.183600	-4.290992E-5	20.753688
2141.587972	-3.007800	3.298700	-9.921400	26.179144	-4.307490E-5	20.778608
2142.595287	-2.986000	3.298000	-9.846700	26.184456	-4.465866E-5	20.752177
2143.585438	-2.992300	3.297700	-9.866600	26.181090	-4.512059E-5	20.796211
2144.587388	-3.023600	3.296800	-9.967200	26.182684	-4.360282E-5	20.779320
2145.589157	-3.012800	3.296100	-9.928700	26.193848	-4.505460E-5	20.768727
2146.589545	-3.020400	3.296500	-9.955400	26.215172	-4.406475E-5	20.771663
2147.590370	-3.012300	3.295800	-9.927300	26.188748	-4.789216E-5	20.792526
2148.588260	-2.999500	3.296000	-9.885600	26.210569	-4.759521E-5	20.792168
2149.589443	-3.010500	3.295000	-9.918200	26.214882	-4.944292E-5	20.795554
2150.593913	-3.024000	3.294400	-9.961600	26.201352	-4.871703E-5	20.801872
2151.594931	-2.985400	3.294400	-9.834200	26.214060	-5.046577E-5	20.779555
2152.590744	-2.991300	3.294900	-9.855900	26.198849	-4.950891E-5	20.772330
2153.594544	-2.997100	3.294200	-9.872000	26.208384	-5.020181E-5	20.786179
2154.598153	-2.999900	3.293600	-9.879300	26.231669	-5.059775E-5	20.787767
2155.593092	-3.006100	3.293800	-9.901000	26.217293	-5.026780E-5	20.777588
2156.590847	-3.032200	3.292700	-9.983600	26.230596	-4.987186E-5	20.780050
2157.588759	-2.995100	3.292700	-9.861200	26.228401	-5.191754E-5	20.777370
2158.589016	-2.986000	3.293300	-9.833200	26.222406	-5.102668E-5	20.760441
2159.587119	-3.012700	3.291300	-9.914600	26.234178	-5.393024E-5	20.789340
2160.588692	-3.020000	3.290100	-9.934800	26.228509	-5.237947E-5	20.794549
2161.592960	-3.000700	3.291600	-9.876800	26.253761	-5.511805E-5	20.768716
2162.587847	-2.987600	3.290800	-9.831300	26.242828	-5.426019E-5	20.801826
2163.589278	-2.999900	3.290700	-9.870700	26.248606	-5.350130E-5	20.777286
2164.590739	-2.993900	3.290200	-9.849400	26.245222	-5.445816E-5	20.769145
2165.589954	-3.003000	3.290500	-9.880100	26.239382	-5.455714E-5	20.776078
2166.589639	-2.998500	3.290100	-9.864900	26.242035	-5.637186E-5	20.786804
2167.592710	-3.001600	3.288900	-9.870900	26.250220	-5.706476E-5	20.804513
2168.589639	-3.017700	3.287600	-9.920100	26.262033	-5.828557E-5	20.756641
2169.588250	-3.010200	3.288300	-9.897600	26.267688	-6.076019E-5	20.770384
2170.591664	-2.992000	3.288000	-9.836900	26.260310	-5.993532E-5	20.773876
2171.590753	-2.982800	3.288600	-9.808100	26.282780	-5.901146E-5	20.783654
2172.594723	-3.001500	3.287600	-9.866900	26.276712	-6.135410E-5	20.773289
2173.592295	-3.000700	3.286400	-9.861200	26.260768	-6.059522E-5	20.773862
2174.591402	-3.025300	3.286800	-9.942700	26.281375	-6.049623E-5	20.778923
2175.590867	-2.992500	3.286800	-9.835000	26.264382	-6.122212E-5	20.781287
2176.592585	-3.020600	3.286000	-9.924900	26.284394	-6.247593E-5	20.771526
2177.594867	-2.997500	3.285800	-9.848200	26.283842	-6.198100E-5	20.778084
2178.594935	-2.975200	3.287200	-9.779300	26.295858	-6.419167E-5	20.773089
2179.593306	-2.984300	3.284800	-9.801700	26.282843	-6.448862E-5	20.762854
2180.592866	-3.001900	3.284600	-9.859500	26.280078	-6.366375E-5	20.769085
2181.592366	-2.994800	3.284600	-9.836200	26.275458	-6.409268E-5	20.781037
2182.597734	-2.997600	3.283900	-9.842900	26.294778	-6.537948E-5	20.772478
2183.593732	-3.012200	3.283800	-9.890800	26.310421	-6.541248E-5	20.782035
2184.595191	-3.004700	3.282500	-9.861400	26.305249	-6.603938E-5	20.761664
2185.597075	-3.010900	3.281600	-9.880000	26.326927	-6.719421E-5	20.766855
2186.593639	-2.987600	3.282800	-9.807300	26.300628	-6.920690E-5	20.773142
2187.593353	-2.979700	3.282300	-9.779300	26.322943	-6.798609E-5	20.761902
2188.597595	-2.991200	3.282400	-9.817500	26.324732	-6.775512E-5	20.764175
2189.597699	-2.981800	3.282700	-9.787600	26.313343	-7.046071E-5	20.768850
2190.595245	-3.034900	3.280300	-9.953600	26.328133	-6.818406E-5	20.763325
2191.594352	-2.997100	3.281400	-9.833800	26.320682	-6.871197E-5	20.767691
2192.594570	-3.010100	3.280200	-9.873100	26.311075	-7.131858E-5	20.731007
2193.598554	-3.020300	3.279700	-9.904400	26.325620	-7.085665E-5	20.740410
2194.593703	-2.988800	3.279400	-9.800600	26.345656	-7.154954E-5	20.763392
2195.595222	-3.004800	3.278400	-9.849700	26.349192	-7.052670E-5	20.775007
2196.595887	-2.984800	3.279300	-9.786900	26.343279	-7.154954E-5	20.761952
2197.596327	-2.987300	3.277400	-9.789600	26.333144	-7.046071E-5	20.763620
2198.598377	-2.999200	3.277800	-9.830300	26.347599	-7.481604E-5	20.770086
2199.598087	-2.994800	3.277800	-9.815500	26.354228	-7.329827E-5	20.753041
2200.597070	-2.990100	3.276400	-9.795800	26.358597	-7.560792E-5	20.745577
2201.599191	-2.978400	3.278200	-9.762900	26.355717	-7.517899E-5	20.758805
2202.596037	-2.994000	3.276600	-9.809300	26.352935	-7.646579E-5	20.749845
2203.597768	-3.009500	3.276000	-9.858500	26.344792	-7.781858E-5	20.740712
2204.601170	-2.987300	3.275400	-9.783400	26.348347	-7.666376E-5	20.756139
2205.599860	-3.031800	3.274800	-9.927500	26.363112	-7.672975E-5	20.779988
2206.600381	-3.007500	3.274400	-9.846900	26.345533	-7.900640E-5	20.746673
2207.600145	-3.020400	3.274400	-9.889100	26.364282	-7.910539E-5	20.771681
2208.601162	-3.010300	3.274000	-9.853600	26.353847	-7.933635E-5	20.771151
2209.600855	-3.012000	3.274700	-9.863300	26.346557	-7.818153E-5	20.765246
2210.601463	-2.990200	3.274900	-9.790900	26.368357	-8.039219E-5	20.756810
2211.599794	-3.002400	3.272900	-9.826100	26.373099	-7.966630E-5	20.753989
2212.606070	-2.991800	3.272800	-9.790600	26.373215	-8.108508E-5	20.757899
2213.598432	-3.001500	3.271500	-9.818500	26.356685	-7.953432E-5	20.779218
2214.603907	-2.998100	3.271200	-9.805800	26.378387	-8.217392E-5	20.762623
2215.602930	-2.998000	3.271800	-9.808100	26.383332	-8.283382E-5	20.755264
2216.602414	-2.988400	3.271100	-9.774400	26.381916	-8.537443E-5	20.754316
2217.601530	-3.002400	3.271600	-9.821900	26.386138	-8.369168E-5	20.770413
2218.602494	-2.998800	3.271000	-9.808300	26.376213	-8.379067E-5	20.746687
2219.603839	-3.013400	3.269900	-9.852600	26.396395	-8.593534E-5	20.748478
2220.604029	-3.022100	3.268800	-9.877500	26.402405	-8.550641E-5	20.749304
2221.604707	-3.018300	3.268600	-9.863800	26.419885	-8.583636E-5	20.746957
2222.605808	-2.991400	3.269100	-9.778200	26.424952	-8.481351E-5	20.754895
2223.608849	-3.008900	3.268500	-9.833800	26.440268	-8.438458E-5	20.752746
2224.606898	-2.992500	3.269100	-9.782300	26.430906	-8.629829E-5	20.748078
2225.608311	-3.006000	3.267200	-9.820500	26.429344	-8.577037E-5	20.743189
2226.608788	-3.002500	3.267200	-9.809100	26.423561	-8.847595E-5	20.750178
2227.607568	-3.008300	3.267000	-9.826400	26.430263	-8.685920E-5	20.737948
2228.612457	-3.013200	3.267800	-9.846000	26.414671	-8.883890E-5	20.715637
2229.607658	-2.995100	3.267000	-9.783500	26.428132	-9.052164E-5	20.727270
2230.606837	-3.007200	3.265100	-9.818200	26.412190	-8.900387E-5	20.725472
2231.611553	-3.016700	3.265100	-9.849000	26.422422	-8.781605E-5	20.753775
2232.610028	-2.987100	3.265600	-9.753400	26.429662	-9.124753E-5	20.727860
2233.608078	-2.984800	3.267300	-9.750300	26.444587	-9.058763E-5	20.730059
2234.609140	-2.998900	3.264400	-9.789000	26.433866	-9.180844E-5	20.731612
2235.607546	-2.987200	3.264900	-9.751000	26.445408	-9.194042E-5	20.737997
2236.611014	-3.022000	3.263800	-9.862500	26.457551	-9.174245E-5	20.740245
2237.612345	-2.999900	3.263600	-9.788500	26.442683	-9.197342E-5	20.741896
2238.611727	-3.000000	3.262600	-9.786800	26.464554	-8.979575E-5	20.750603
2239.611660	-3.005600	3.263200	-9.807000	26.474576	-9.236936E-5	20.734123
2240.613347	-3.062500	3.260600	-9.983700	26.453299	-9.200641E-5	20.749722
2241.615404	-3.000300	3.260600	-9.781700	26.462838	-9.434906E-5	20.737973
2242.611992	-3.029500	3.260800	-9.877900	26.458690	-9.540489E-5	20.731432
2243.615887	-3.009300	3.260300	-9.809900	26.469247	-9.500895E-5	20.740147
2244.617913	-2.995800	3.260500	-9.765900	26.464847	-9.438205E-5	20.713912
2245.616220	-3.007000	3.261400	-9.805800	26.457177	-9.408510E-5	20.728015
2246.615923	-3.008600	3.259600	-9.804900	26.476648	-9.725261E-5	20.722455
2247.613280	-2.993800	3.258800	-9.755400	26.484091	-9.378814E-5	20.734678
2248.614018	-3.006500	3.257900	-9.793800	26.479373	-9.646073E-5	20.726143
2249.616359	-3.023700	3.258700	-9.852600	26.496827	-9.728561E-5	20.711917
2250.615907	-3.002300	3.258000	-9.780100	26.492606	-9.682368E-5	20.731383
2251.615551	-3.025200	3.257000	-9.851800	26.474184	-9.857241E-5	20.728988
2252.618176	-3.012000	3.256300	-9.806800	26.478723	-9.827546E-5	20.732128
2253.618536	-2.998800	3.258200	-9.770100	26.486149	-9.926530E-5	20.729634
2254.621047	-3.006900	3.255700	-9.788400	26.514655	-9.708764E-5	20.725096
2255.619958	-3.021400	3.254700	-9.832500	26.500772	-9.959525E-5	20.736747
2256.621254	-3.003200	3.255900	-9.776300	26.489978	-9.959525E-5	20.734906
2257.621752	-2.973800	3.255800	-9.681800	26.488735	-9.966124E-5	20.727491
2258.620271	-3.002900	3.254500	-9.771600	26.509270	-0.000100	20.710199
2259.620633	-2.981900	3.255700	-9.707700	26.491743	-0.000102	20.728145
2260.627939	-2.997900	3.254400	-9.755000	26.513938	-0.000102	20.710150
2261.620626	-3.004900	3.254300	-9.777900	26.500161	-0.000100	20.711000
2262.626164	-3.018700	3.252200	-9.816600	26.498518	-0.000102	20.725946
2263.622841	-3.011800	3.251200	-9.790600	26.511555	-0.000101	20.720558
2264.626117	-3.003400	3.251600	-9.764500	26.510961	-0.000101	20.719012
2265.626124	-3.017200	3.251600	-9.809300	26.516272	-0.000102	20.722929
2266.620246	-3.031400	3.250800	-9.854100	26.516688	-0.000103	20.716708
2267.624830	-3.014000	3.250400	-9.795100	26.540403	-0.000102	20.700241
2268.625927	-2.993200	3.250600	-9.728800	26.522178	-0.000103	20.735503
2269.627128	-3.004500	3.249300	-9.761600	26.522122	-0.000103	20.716480
2270.627185	-3.010800	3.249400	-9.782200	26.542894	-0.000102	20.735465
2271.627502	-2.999100	3.249600	-9.745700	26.559044	-0.000102	20.718507
2272.629097	-3.023800	3.248700	-9.822400	26.545560	-0.000105	20.731032
2273.627678	-3.000900	3.248100	-9.745500	26.554124	-0.000105	20.712613
2274.626489	-3.017500	3.247700	-9.799000	26.552157	-0.000105	20.714429
2275.628119	-3.023000	3.246900	-9.813800	26.584851	-0.000105	20.706515
2276.629350	-2.986100	3.247400	-9.695500	26.569065	-0.000107	20.724787
2277.630076	-2.998000	3.246100	-9.730900	26.572195	-0.000106	20.725563
2278.631666	-3.029000	3.245300	-9.828700	26.592887	-0.000106	20.722655
2279.629894	-2.990000	3.246100	-9.704500	26.582566	-0.000106	20.721289
2280.630156	-2.986200	3.246100	-9.693000	26.584428	-0.000104	20.712729
2281.630462	-3.003700	3.244800	-9.745100	26.578932	-0.000106	20.704833
2282.634234	-2.988600	3.244200	-9.695200	26.578729	-0.000107	20.727864
2283.633675	-3.003000	3.243900	-9.741200	26.595416	-0.000109	20.727095
2284.632487	-2.995500	3.243900	-9.716000	26.606614	-0.000107	20.702314
2285.630252	-2.985200	3.242500	-9.678500	26.613211	-0.000107	20.717007
2286.632515	-2.985600	3.243100	-9.681300	26.597394	-0.000109	20.722919
2287.629686	-3.007700	3.240900	-9.746000	26.608365	-0.000109	20.721145
2288.630942	-2.982500	3.242800	-9.669700	26.611139	-0.000111	20.736737
2289.631151	-3.004400	3.241700	-9.738300	26.609700	-0.000110	20.725806
2290.630496	-3.003700	3.240900	-9.734500	26.631267	-0.000109	20.712399
2291.629696	-2.998500	3.241000	-9.717300	26.639506	-0.000109	20.708352
2292.631624	-2.991300	3.240600	-9.691600	26.622575	-0.000109	20.696073
2293.629832	-3.018400	3.237100	-9.769900	26.627634	-0.000110	20.727239
2294.637153	-3.028300	3.238300	-9.805800	26.638346	-0.000112	20.710506
2295.633487	-2.977400	3.239700	-9.644300	26.630328	-0.000112	20.721412
2296.630562	-2.991900	3.239700	-9.691200	26.639093	-0.000112	20.716948
2297.635298	-2.981400	3.238000	-9.652900	26.647398	-0.000110	20.725297
2298.635096	-2.979900	3.238300	-9.649000	26.633371	-0.000114	20.715936
2299.635170	-3.000700	3.235500	-9.707900	26.654491	-0.000112	20.711563
2300.635940	-2.989100	3.237600	-9.676100	26.661296	-0.000112	20.736425
2301.633167	-2.992600	3.235800	-9.681800	26.653020	-0.000112	20.702023
2302.631211	-2.996300	3.236500	-9.696700	26.667697	-0.000112	20.708718
2303.635068	-3.014900	3.234600	-9.751400	26.661712	-0.000112	20.707917
2304.638010	-3.015600	3.235200	-9.754800	26.646906	-0.000114	20.711525
2305.637454	-3.008700	3.233800	-9.728700	26.652940	-0.000112	20.728497
2306.636030	-3.009000	3.232800	-9.726500	26.658795	-0.000113	20.714468
2307.637948	-2.976300	3.234700	-9.626400	26.635237	-0.000114	20.718287
2308.639674	-2.985100	3.234000	-9.653100	26.659285	-0.000115	20.705477
2309.634884	-2.987300	3.233200	-9.657300	26.649900	-0.000115	20.724967
2310.635688	-3.008400	3.231600	-9.720500	26.657789	-0.000116	20.714880
2311.633166	-2.955300	3.232800	-9.552600	26.665807	-0.000115	20.722467
2312.637323	-3.016100	3.231600	-9.745700	26.670297	-0.000115	20.728877
2313.639508	-3.005700	3.230500	-9.708200	26.668508	-0.000118	20.726604
2314.640505	-3.025000	3.229800	-9.768800	26.696083	-0.000115	20.722558
2315.640831	-2.994500	3.229800	-9.670200	26.680201	-0.000116	20.704693
2316.642652	-3.003700	3.228500	-9.697300	26.691863	-0.000116	20.713099
2317.641583	-3.001000	3.228700	-9.687500	26.693002	-0.000116	20.730366
2318.641310	-3.001200	3.228300	-9.688500	26.695605	-0.000118	20.706903
2319.641306	-2.993900	3.228900	-9.666100	26.691807	-0.000117	20.721104
2320.638211	-3.011600	3.226000	-9.714700	26.698662	-0.000115	20.729418
2321.640706	-3.017700	3.226300	-9.734900	26.720430	-0.000118	20.711473
2322.641934	-2.997600	3.228000	-9.675100	26.685732	-0.000119	20.724954
2323.640201	-3.008100	3.225900	-9.703100	26.701712	-0.000118	20.701188
2324.642678	-2.995700	3.227300	-9.666900	26.712591	-0.000118	20.710703
2325.643102	-2.998500	3.226400	-9.673900	26.707053	-0.000119	20.728845
2326.646604	-2.992200	3.225700	-9.651500	26.712615	-0.000119	20.701718
2327.649205	-3.001800	3.224700	-9.678600	26.720130	-0.000118	20.710222
2328.643914	-3.005000	3.224200	-9.687800	26.713932	-0.000119	20.718217
2329.645369	-3.021600	3.222900	-9.738000	26.733017	-0.000121	20.735509
2330.643994	-2.977400	3.224100	-9.598900	26.719861	-0.000120	20.727022
2331.643557	-2.990500	3.222000	-9.633900	26.722317	-0.000120	20.726647
2332.642939	-2.998200	3.220400	-9.654600	26.761020	-0.000121	20.719091
2333.640435	-3.017600	3.222000	-9.721200	26.753541	-0.000122	20.713942
2334.643308	-2.975000	3.221000	-9.581300	26.737213	-0.000120	20.716966
2335.641413	-2.991700	3.219800	-9.631800	26.738579	-0.000122	20.736833
2336.643955	-3.021900	3.219300	-9.728000	26.736986	-0.000120	20.734283
2337.642086	-3.007800	3.217800	-9.677200	26.752794	-0.000121	20.741641
2338.645209	-3.011900	3.219200	-9.695000	26.754460	-0.000121	20.732411
2339.642652	-2.995600	3.218500	-9.640400	26.759183	-0.000123	20.721511
2340.642119	-3.003400	3.218700	-9.666200	26.771315	-0.000121	20.745565
2341.642332	-3.019500	3.217600	-9.714900	26.742352	-0.000125	20.714546
2342.644958	-2.972800	3.218500	-9.567000	26.739718	-0.000124	20.711424
2343.642916	-2.978100	3.217100	-9.579900	26.764014	-0.000127	20.730163
2344.641327	-2.980700	3.215600	-9.583900	26.757143	-0.000125	20.739850
2345.645432	-2.994800	3.215500	-9.628600	26.757590	-0.000124	20.737929
2346.646257	-2.986400	3.215500	-9.602200	26.758086	-0.000123	20.717089
2347.649856	-2.995200	3.215100	-9.628800	26.759972	-0.000123	20.724202
2348.644351	-3.014000	3.213400	-9.684100	26.775535	-0.000124	20.733211
2349.642022	-3.009700	3.213000	-9.668900	26.779877	-0.000124	20.743742
2350.646089	-3.015200	3.213900	-9.689000	26.796065	-0.000127	20.736784
2351.645169	-3.042300	3.210500	-9.766500	26.788991	-0.000126	20.715920
2352.646887	-3.001300	3.211200	-9.637400	26.789114	-0.000128	20.731691
2353.645463	-3.021100	3.210800	-9.699200	26.774795	-0.000126	20.748115
2354.642814	-3.015300	3.211000	-9.681200	26.800959	-0.000124	20.748343
2355.645911	-3.004400	3.210700	-9.645700	26.805155	-0.000125	20.735965
2356.643418	-3.016300	3.209400	-9.679500	26.807146	-0.000126	20.760727
2357.647366	-3.022400	3.210500	-9.702600	26.794063	-0.000125	20.739512
2358.650745	-3.012300	3.209600	-9.667100	26.803998	-0.000128	20.745234
2359.647521	-3.010700	3.208400	-9.658600	26.800617	-0.000124	20.753689
2360.647656	-3.011800	3.208800	-9.663400	26.791884	-0.000126	20.743485
2361.648443	-3.010400	3.206700	-9.652100	26.810723	-0.000124	20.743460
2362.647534	-2.999200	3.207400	-9.617700	26.817423	-0.000126	20.728385
2363.654187	-2.994600	3.206800	-9.602600	26.824943	-0.000125	20.749224
2364.646497	-2.997200	3.206100	-9.608000	26.823969	-0.000124	20.747770
2365.647876	-3.004300	3.206900	-9.633000	26.804910	-0.000123	20.753738
2366.652806	-3.009400	3.205000	-9.644000	26.813895	-0.000124	20.739063
2367.652189	-3.017600	3.205000	-9.669800	26.840677	-0.000124	20.735171
2368.653082	-3.007500	3.203500	-9.632900	26.840603	-0.000124	20.755013
2369.653313	-2.994800	3.203900	-9.594200	26.851743	-0.000125	20.729702
2370.653032	-3.009000	3.203400	-9.637800	26.857817	-0.000126	20.732491
2371.650151	-3.022200	3.201800	-9.675300	26.857800	-0.000125	20.732948
2372.655845	-2.980900	3.202600	-9.545200	26.843168	-0.000123	20.741469
2373.656272	-2.950500	3.203500	-9.451400	26.847607	-0.000127	20.738347
2374.658491	-3.014100	3.201100	-9.647300	26.849892	-0.000125	20.736376
2375.656415	-3.004200	3.200000	-9.612800	26.843503	-0.000126	20.750816
2376.653167	-2.993300	3.199700	-9.576600	26.863260	-0.000125	20.746973
2377.653499	-2.988200	3.200600	-9.563400	26.872139	-0.000124	20.756850
2378.655792	-3.005300	3.198200	-9.610900	26.867302	-0.000128	20.738235
2379.656302	-3.002700	3.198400	-9.602600	26.868018	-0.000127	20.764560
2380.652052	-3.019900	3.198100	-9.657000	26.867117	-0.000129	20.757490
2381.656630	-3.020700	3.198200	-9.659600	26.858304	-0.000127	20.751947
2382.657356	-3.014300	3.197300	-9.636900	26.872639	-0.000129	20.729377
2383.660500	-3.000800	3.196200	-9.590400	26.890160	-0.000128	20.759798
2384.655917	-3.000600	3.196600	-9.590700	26.879486	-0.000127	20.753806
2385.660356	-3.001700	3.196000	-9.593200	26.881788	-0.000129	20.764656
2386.656048	-2.985500	3.195100	-9.538500	26.897716	-0.000128	20.759334
2387.657581	-3.003700	3.195900	-9.598500	26.907073	-0.000128	20.769692
2388.657979	-3.012100	3.193700	-9.617700	26.875019	-0.000129	20.755004
2389.659523	-3.001400	3.194000	-9.585600	26.882808	-0.000128	20.767104
2390.664735	-2.995400	3.193100	-9.563200	26.903336	-0.000128	20.759770
2391.662848	-3.006500	3.193500	-9.600700	26.905841	-0.000126	20.754702
2392.658567	-3.025400	3.192100	-9.656300	26.894933	-0.000125	20.768864
2393.662109	-2.997800	3.192200	-9.568800	26.899096	-0.000127	20.785853
2394.657137	-2.978500	3.191100	-9.503400	26.906837	-0.000129	20.773722
2395.662905	-3.012300	3.190600	-9.609600	26.925244	-0.000129	20.756196
2396.662517	-2.994300	3.189700	-9.550400	26.919855	-0.000127	20.768795
2397.659332	-3.003100	3.188900	-9.575700	26.925391	-0.000130	20.761559
2398.659055	-3.015200	3.189500	-9.616000	26.914312	-0.000129	20.776497
2399.661165	-2.997700	3.188600	-9.558100	26.942224	-0.000129	20.771373
2400.660596	-3.007800	3.188600	-9.590100	26.942891	-0.000130	20.782950
2401.666883	-3.003500	3.188100	-9.573800	26.963656	-0.000128	20.766846
2402.668181	-3.019000	3.186300	-9.618600	26.962234	-0.000126	20.777271
2403.660373	-3.006400	3.185600	-9.576600	26.965853	-0.000129	20.778065
2404.665139	-2.979100	3.186600	-9.492400	26.970366	-0.000128	20.773120
2405.662500	-2.995100	3.185500	-9.539900	26.962937	-0.000128	20.773710
2406.663575	-2.996300	3.184700	-9.541400	26.967596	-0.000133	20.764645
2407.661819	-2.985100	3.184200	-9.504900	26.960339	-0.000131	20.768727
2408.663636	-3.006200	3.183200	-9.568200	26.973706	-0.000131	20.781694
2409.666077	-2.997800	3.182400	-9.539300	26.962138	-0.000130	20.773381
2410.664662	-2.982100	3.183800	-9.493400	26.971293	-0.000129	20.790173
2411.664787	-3.009200	3.182300	-9.574800	26.978921	-0.000131	20.780775
2412.665095	-3.002300	3.182600	-9.553000	26.971101	-0.000132	20.780972
2413.665577	-2.993400	3.181400	-9.522600	26.990322	-0.000133	20.802671
2414.662584	-2.991200	3.180100	-9.510700	26.995337	-0.000131	20.789697
2415.666496	-3.004500	3.179000	-9.550500	26.997761	-0.000131	20.789764
2416.669562	-3.018900	3.178800	-9.595200	26.998202	-0.000133	20.794000
2417.672336	-2.989700	3.178000	-9.499800	26.999407	-0.000131	20.794738
2418.669481	-2.995600	3.177000	-9.516800	27.010478	-0.000130	20.791647
2419.665699	-2.984400	3.176800	-9.479700	26.994637	-0.000132	20.775716
2420.667964	-3.007100	3.176400	-9.549900	26.979144	-0.000132	20.798542
2421.669620	-2.980700	3.176100	-9.466800	27.010979	-0.000132	20.790728
2422.674188	-2.993700	3.176000	-9.506300	27.002859	-0.000130	20.808640
2423.669803	-3.003900	3.176600	-9.540400	27.007818	-0.000131	20.794662
2424.666187	-3.007000	3.174600	-9.545400	27.032819	-0.000130	20.810794
2425.678725	-2.986500	3.174300	-9.478800	27.025048	-0.000131	20.806773
2426.671930	-3.002600	3.172300	-9.523800	27.039137	-0.000130	20.817148
2427.672478	-3.013000	3.171400	-9.554700	27.044286	-0.000134	20.812369
2428.672400	-2.969600	3.172300	-9.419800	27.041928	-0.000133	20.803834
2429.669052	-2.992700	3.171900	-9.491700	27.054278	-0.000134	20.813409
2430.672404	-3.023100	3.170100	-9.582400	27.070846	-0.000133	20.795933
2431.674612	-3.018700	3.169900	-9.568100	27.059224	-0.000132	20.803210
2432.670475	-2.996700	3.171000	-9.501900	27.066087	-0.000132	20.802052
2433.675174	-3.019800	3.168900	-9.568900	27.058617	-0.000132	20.809238
2434.670949	-3.015900	3.168500	-9.555000	27.060699	-0.000131	20.789995
2435.671193	-3.006300	3.167100	-9.520400	27.078559	-0.000131	20.823129
2436.675776	-2.990600	3.168300	-9.474200	27.068749	-0.000133	20.814686
2437.671474	-3.027100	3.166300	-9.583900	27.085335	-0.000134	20.816194
2438.671967	-2.984200	3.166100	-9.447600	27.070573	-0.000134	20.800399
2439.675037	-2.999300	3.164700	-9.491400	27.087637	-0.000132	20.811871
2440.672619	-2.986300	3.165900	-9.453500	27.085629	-0.000134	20.832136
2441.675423	-2.989000	3.164000	-9.456400	27.078624	-0.000134	20.808496
2442.674402	-2.975900	3.164000	-9.415200	27.066114	-0.000135	20.824364
2443.675560	-3.001700	3.162400	-9.491800	27.072978	-0.000133	20.813249
2444.673692	-3.032500	3.161000	-9.584400	27.071238	-0.000135	20.816241
2445.674665	-2.990100	3.162200	-9.454200	27.080043	-0.000134	20.808501
2446.675341	-3.019500	3.162200	-9.547000	27.099691	-0.000135	20.814510
2447.673498	-3.004400	3.160200	-9.493700	27.096188	-0.000134	20.810514
2448.680453	-3.008600	3.161300	-9.509200	27.109591	-0.000133	20.805027
2449.678134	-2.986000	3.158800	-9.431300	27.111526	-0.000133	20.821198
2450.678195	-3.003400	3.159000	-9.487100	27.121420	-0.000135	20.830674
2451.677487	-3.017200	3.156500	-9.522700	27.106414	-0.000133	20.809418
2452.677063	-2.987100	3.158400	-9.433100	27.114177	-0.000134	20.827183
2453.677476	-3.003800	3.156400	-9.480700	27.113657	-0.000134	20.805797
2454.682232	-2.981300	3.157200	-9.411500	27.114771	-0.000134	20.845797
2455.680665	-2.993200	3.156600	-9.447200	27.148635	-0.000137	20.835286
2456.681226	-3.032900	3.154500	-9.565600	27.148861	-0.000133	20.817970
2457.681150	-2.998900	3.153600	-9.456500	27.142292	-0.000133	20.818950
2458.679079	-3.003600	3.152700	-9.468700	27.131523	-0.000134	20.844153
2459.680846	-2.987300	3.153700	-9.419600	27.137204	-0.000135	20.838014
2460.680696	-2.995300	3.152500	-9.441600	27.149878	-0.000133	20.822312
2461.679510	-2.981600	3.152000	-9.396200	27.158094	-0.000133	20.816825
2462.683460	-3.005200	3.150900	-9.468200	27.163427	-0.000133	20.811757
2463.680904	-2.996700	3.151000	-9.441900	27.187249	-0.000133	20.846622
2464.682110	-2.998600	3.151300	-9.448300	27.166954	-0.000134	20.832374
2465.684107	-2.965500	3.151800	-9.344700	27.176511	-0.000134	20.839141
2466.678616	-3.027200	3.149400	-9.531600	27.184948	-0.000133	20.842411
2467.684561	-2.990500	3.150200	-9.419900	27.183289	-0.000134	20.849277
2468.680310	-2.997900	3.150100	-9.442600	27.184201	-0.000134	20.817478
2469.682098	-2.993000	3.147500	-9.419400	27.205274	-0.000136	20.843415
2470.686399	-2.984000	3.146300	-9.387700	27.197382	-0.000134	20.847331
2471.683661	-3.025000	3.144600	-9.511600	27.190611	-0.000135	20.839098
2472.680845	-2.987100	3.145200	-9.394300	27.201111	-0.000135	20.833538
2473.683674	-2.988600	3.144200	-9.396100	27.189846	-0.000135	20.836907
2474.685540	-2.995300	3.144100	-9.415300	27.202599	-0.000134	20.828871
2475.687349	-3.009200	3.142000	-9.453700	27.198656	-0.000138	20.849561
2476.682405	-3.029200	3.141000	-9.512800	27.202214	-0.000135	20.840337
2477.681184	-2.984400	3.141700	-9.375300	27.210252	-0.000137	20.848422
2478.686280	-2.998100	3.139800	-9.412600	27.221591	-0.000135	20.840861
2479.684206	-2.998500	3.140500	-9.415700	27.213503	-0.000134	20.840787
2480.687267	-2.984600	3.139200	-9.367600	27.222589	-0.000135	20.840916
2481.691119	-2.986100	3.139500	-9.373800	27.209585	-0.000136	20.857708
2482.690134	-2.983500	3.138100	-9.361900	27.240429	-0.000134	20.829463
2483.687618	-3.002600	3.136500	-9.416400	27.235310	-0.000134	20.845177
2484.684938	-2.992800	3.136600	-9.385300	27.245387	-0.000136	20.856735
2485.683117	-2.978400	3.137500	-9.344100	27.240184	-0.000136	20.844390
2486.684569	-2.973800	3.135900	-9.324300	27.266428	-0.000134	20.844235
2487.683836	-2.995400	3.134500	-9.388100	27.246281	-0.000135	20.845781
2488.683183	-3.009000	3.132700	-9.424900	27.262413	-0.000138	20.842567
2489.686667	-2.997800	3.133100	-9.391600	27.264525	-0.000135	20.843269
2490.686135	-3.009000	3.134500	-9.431200	27.282382	-0.000135	20.862179
2491.687187	-3.020100	3.131300	-9.455600	27.263907	-0.000135	20.867302
2492.683846	-2.987300	3.132700	-9.357400	27.245327	-0.000137	20.859045
2493.686363	-3.004300	3.128600	-9.398100	27.261972	-0.000135	20.850658
2494.688231	-3.005900	3.127700	-9.400000	27.272943	-0.000134	20.846521
2495.687436	-2.989600	3.128400	-9.351900	27.280925	-0.000134	20.854076
2496.688570	-2.985600	3.128700	-9.339900	27.273666	-0.000135	20.846299
2497.689219	-2.985000	3.126500	-9.331700	27.293132	-0.000135	20.884845
2498.689732	-2.984900	3.126400	-9.331100	27.287458	-0.000135	20.862069
2499.686068	-2.991700	3.126200	-9.352200	27.301893	-0.000134	20.860942
2500.691844	-2.977500	3.125400	-9.304500	27.302119	-0.000135	20.853110
2501.686831	-2.994500	3.123100	-9.351600	27.303362	-0.000134	20.869532
2502.692348	-3.036400	3.121000	-9.475000	27.298042	-0.000135	20.858965
2503.687861	-3.005500	3.122100	-9.383100	27.293041	-0.000136	20.851564
2504.690804	-3.000500	3.121800	-9.365500	27.290408	-0.000136	20.881157
2505.692138	-3.005700	3.120500	-9.378600	27.320073	-0.000134	20.869272
2506.689833	-3.003800	3.118400	-9.366200	27.294700	-0.000133	20.856077
2507.695262	-2.978200	3.119300	-9.288700	27.320949	-0.000134	20.873946
2508.687323	-3.002000	3.118300	-9.360800	27.343421	-0.000134	20.863836
2509.690959	-2.977500	3.116700	-9.278000	27.320827	-0.000135	20.876194
2510.687783	-2.983500	3.117200	-9.298600	27.345900	-0.000135	20.874389
2511.695314	-2.993800	3.116700	-9.329600	27.316065	-0.000135	20.856232
2512.688839	-2.986100	3.115700	-9.302700	27.347143	-0.000134	20.839132
2513.692254	-3.007700	3.113000	-9.362400	27.353075	-0.000136	20.856478
2514.689898	-2.978500	3.112800	-9.270500	27.362942	-0.000133	20.875411
2515.696429	-3.010300	3.110800	-9.363900	27.349322	-0.000137	20.892529
2516.694502	-2.998900	3.113100	-9.335600	27.367882	-0.000135	20.869002
2517.692521	-3.028800	3.108900	-9.415600	27.360518	-0.000134	20.881508
2518.695327	-3.033600	3.108700	-9.429700	27.349580	-0.000136	20.870979
2519.693614	-3.005500	3.109300	-9.344000	27.378356	-0.000133	20.866736
2520.709620	-3.006200	3.107000	-9.339400	27.373049	-0.000134	20.894586
2521.692036	-2.973900	3.107400	-9.240100	27.380437	-0.000135	20.876416
2522.692514	-2.976100	3.107300	-9.247000	27.366370	-0.000134	20.884549
2523.696495	-2.999200	3.105800	-9.314400	27.390659	-0.000136	20.870578
2524.697917	-3.005500	3.105600	-9.332000	27.401120	-0.000135	20.887264
2525.695046	-3.022700	3.103500	-9.379000	27.394350	-0.000134	20.865283
2526.699336	-3.011800	3.103500	-9.345800	27.380504	-0.000135	20.883120
2527.699334	-3.003100	3.101900	-9.314100	27.398983	-0.000134	20.890805
2528.699191	-2.997300	3.101400	-9.294500	27.404070	-0.000135	20.871741
2529.699586	-2.996400	3.100900	-9.289800	27.411084	-0.000135	20.878323
2530.697671	-2.985000	3.099200	-9.250100	27.410166	-0.000133	20.863176
2531.699210	-2.983200	3.099600	-9.246000	27.416433	-0.000133	20.883704
2532.702532	-3.004200	3.098900	-9.309000	27.436626	-0.000134	20.876519
2533.697929	-2.988400	3.097500	-9.256000	27.401467	-0.000134	20.880502
2534.700346	-2.972900	3.096400	-9.204600	27.431882	-0.000133	20.876013
2535.697333	-3.011300	3.094100	-9.315000	27.443934	-0.000135	20.869172
2536.697998	-2.997700	3.093500	-9.272500	27.426587	-0.000133	20.874005
2537.702798	-2.994200	3.093100	-9.259500	27.422045	-0.000135	20.887453
2538.699540	-2.991300	3.092000	-9.247600	27.456964	-0.000134	20.888444
2539.700375	-3.028400	3.090000	-9.356600	27.446148	-0.000134	20.864288
2540.699379	-2.999600	3.089400	-9.265500	27.460483	-0.000135	20.858795
2541.697687	-3.006300	3.089300	-9.286800	27.450586	-0.000135	20.881553
2542.701370	-3.001900	3.088200	-9.269800	27.440755	-0.000134	20.878302
2543.700741	-2.989500	3.087100	-9.228100	27.439886	-0.000133	20.865574
2544.701059	-3.004300	3.085400	-9.268500	27.490168	-0.000135	20.851203
2545.704402	-3.040200	3.082400	-9.370100	27.483399	-0.000136	20.873314
2546.698415	-3.008900	3.081700	-9.272100	27.474835	-0.000136	20.868019
2547.699789	-2.996600	3.081500	-9.233400	27.475974	-0.000134	20.854940
2548.701685	-3.002800	3.078900	-9.243800	27.479046	-0.000134	20.853289
2549.700499	-2.985600	3.079800	-9.193700	27.491771	-0.000134	20.853289
2550.705500	-2.991000	3.080100	-9.211600	27.483930	-0.000135	20.859151
2551.701997	-3.004000	3.077400	-9.243500	27.474571	-0.000134	20.854003
2552.702494	-2.969700	3.076800	-9.136700	27.480422	-0.000134	20.857519
2553.702232	-2.988900	3.077600	-9.198200	27.488036	-0.000135	20.850481
2554.702923	-2.995200	3.074900	-9.209400	27.489297	-0.000134	20.846059
2555.701298	-2.980600	3.074700	-9.162800	27.498894	-0.000132	20.831059
2556.702267	-2.989200	3.072600	-9.184300	27.497602	-0.000132	20.871483
2557.704667	-3.000300	3.071700	-9.214800	27.515155	-0.000132	20.863066
2558.705481	-3.027400	3.069100	-9.289200	27.513662	-0.000134	20.853977
2559.713228	-3.003000	3.070800	-9.220600	27.538314	-0.000133	20.856969
2560.704354	-3.002300	3.067600	-9.209200	27.502822	-0.000134	20.847813
2561.705964	-2.997200	3.067800	-9.193900	27.538399	-0.000135	20.838089
2562.704954	-3.012900	3.065900	-9.236300	27.536196	-0.000134	20.855786
2563.705359	-3.010800	3.064600	-9.225900	27.543772	-0.000133	20.842073
2564.702653	-2.998200	3.064300	-9.185700	27.533398	-0.000134	20.861506
2565.703436	-3.018100	3.061800	-9.239800	27.536568	-0.000134	20.849997
2566.706810	-3.020800	3.060800	-9.244200	27.516719	-0.000135	20.845200
2567.706325	-3.019300	3.059200	-9.235500	27.544322	-0.000134	20.858272
2568.713226	-2.995600	3.059100	-9.163000	27.549450	-0.000132	20.868647
2569.710119	-2.977500	3.058400	-9.105500	27.549070	-0.000133	20.851670
2570.709291	-3.019600	3.056200	-9.227400	27.561745	-0.000133	20.840716
2571.711780	-3.023800	3.056000	-9.240300	27.546823	-0.000134	20.834712
2572.714073	-2.996600	3.055000	-9.153800	27.572516	-0.000134	20.835432
2573.709267	-2.996100	3.054600	-9.150700	27.582534	-0.000134	20.834607
2574.713306	-3.008200	3.050900	-9.175800	27.582974	-0.000132	20.843584
2575.709703	-3.016000	3.050500	-9.200000	27.599835	-0.000133	20.835893
2576.713598	-2.997200	3.047700	-9.134200	27.571634	-0.000133	20.833122
2577.714810	-3.013700	3.047500	-9.183800	27.599155	-0.000135	20.847536
2578.712414	-3.001400	3.046700	-9.143600	27.600960	-0.000135	20.845560
2579.715366	-2.987800	3.046900	-9.102800	27.596223	-0.000135	20.833207
2580.714202	-2.992100	3.044900	-9.109700	27.606584	-0.000133	20.829882
2581.715660	-3.001400	3.043000	-9.132600	27.595348	-0.000134	20.847025
2582.713669	-2.998000	3.042100	-9.119000	27.608187	-0.000134	20.827228
2583.714647	-2.984900	3.041700	-9.077200	27.617189	-0.000132	20.818742
2584.711306	-2.983700	3.039700	-9.068500	27.626136	-0.000134	20.852400
2585.711436	-2.987400	3.037900	-9.074800	27.616509	-0.000134	20.838920
2586.713350	-3.003100	3.036900	-9.119300	27.620395	-0.000132	20.848520
2587.719294	-3.012600	3.035300	-9.143700	27.625927	-0.000135	20.835595
2588.714425	-3.016400	3.035000	-9.152800	27.637781	-0.000135	20.838988
2589.716878	-3.010300	3.033300	-9.130600	27.643080	-0.000136	20.825829
2590.724600	-3.004900	3.030000	-9.104000	27.623160	-0.000131	20.839923
2591.712986	-2.979800	3.031100	-9.031800	27.643001	-0.000132	20.848507
2592.721221	-2.991900	3.028400	-9.059300	27.649298	-0.000133	20.840145
2593.717501	-2.996100	3.028600	-9.072600	27.631312	-0.000133	20.836271
2594.717520	-2.995400	3.026700	-9.064700	27.637609	-0.000135	20.828857
2595.721401	-3.003500	3.024800	-9.084500	27.658936	-0.000135	20.835618
2596.720592	-2.995000	3.024300	-9.056400	27.659976	-0.000132	20.840458
2597.725052	-3.018500	3.021100	-9.117700	27.662779	-0.000134	20.824787
2598.721143	-2.997300	3.021700	-9.056600	27.660992	-0.000135	20.835317
2599.720196	-3.003400	3.018700	-9.065400	27.634475	-0.000133	20.830446
2600.719946	-2.991700	3.017700	-9.026800	27.665324	-0.000134	20.815021
2601.727673	-3.037900	3.016400	-9.162200	27.664577	-0.000134	20.843192
2602.727169	-3.011500	3.015900	-9.080300	27.676706	-0.000135	20.819362
2603.723555	-3.007400	3.014100	-9.064100	27.663133	-0.000132	20.818505
2604.723234	-2.995900	3.012800	-9.025400	27.658103	-0.000133	20.809177
2605.728743	-2.985000	3.012300	-8.991100	27.668959	-0.000133	20.833850
2606.725818	-2.997900	3.010200	-9.023100	27.670843	-0.000135	20.831005
2607.724657	-2.999700	3.010100	-9.028200	27.681803	-0.000133	20.823542
2608.730510	-2.980100	3.008200	-8.963500	27.707535	-0.000133	20.830469
2609.723118	-3.045400	3.005900	-9.153200	27.708428	-0.000135	20.816196
2610.725644	-3.013400	3.004400	-9.052500	27.691037	-0.000133	20.825721
2611.723164	-2.996700	3.003900	-9.000800	27.681240	-0.000134	20.820604
2612.724024	-3.004200	3.001700	-9.016800	27.705442	-0.000133	20.845432
2613.744307	-3.011300	3.000700	-9.034400	27.695173	-0.000134	20.814711
2614.729357	-3.002200	3.000100	-9.005600	27.725972	-0.000132	20.814884
2615.732399	-2.996300	2.998200	-8.982000	27.714479	-0.000133	20.827026
2616.733566	-3.025200	2.996100	-9.062900	27.712992	-0.000135	20.823633
2617.727563	-3.008600	2.993800	-9.006200	27.726761	-0.000134	20.825161
2618.735350	-3.013500	2.993700	-9.020600	27.736209	-0.000136	20.812383
2619.732566	-2.997000	2.991100	-8.963200	27.732005	-0.000136	20.828541
2620.725132	-3.009200	2.990200	-8.997200	27.709932	-0.000135	20.826718
2621.729727	-3.001700	2.988900	-8.970500	27.726026	-0.000135	20.811619
2622.727462	-2.998300	2.987500	-8.956500	27.732696	-0.000134	20.823547
2623.730166	-3.003500	2.986000	-8.967700	27.734856	-0.000132	20.812918
2624.731035	-3.023400	2.984400	-9.022600	27.717545	-0.000135	20.808774
2625.731928	-3.012200	2.982700	-8.983900	27.715929	-0.000135	20.806200
2626.748066	-2.991000	2.982300	-8.919600	27.735890	-0.000135	20.799260
2627.755133	-3.005100	2.980700	-8.956400	27.758231	-0.000133	20.794716
2628.737442	-2.979800	2.980600	-8.880800	27.748312	-0.000132	20.810812
2629.733058	-2.983200	2.978400	-8.884200	27.723535	-0.000134	20.837561
2630.748919	-3.003900	2.976400	-8.940100	27.754455	-0.000132	20.817943
2631.758811	-2.999000	2.976000	-8.924400	27.742253	-0.000134	20.799500
2632.760493	-2.990700	2.972800	-8.889700	27.746390	-0.000135	20.815516
2633.737488	-2.992600	2.973600	-8.897600	27.770321	-0.000133	20.838177
2634.755422	-2.990300	2.971400	-8.883600	27.770162	-0.000134	20.810042
2635.742786	-2.988300	2.970700	-8.876400	27.756076	-0.000134	20.813884
2636.734998	-3.004200	2.967800	-8.914400	27.762941	-0.000134	20.813681
2637.735077	-3.008700	2.966100	-8.922900	27.794454	-0.000134	20.814099
2638.732471	-2.999600	2.964800	-8.892300	27.776519	-0.000134	20.808379
2639.740849	-2.988900	2.962900	-8.854900	27.766998	-0.000135	20.812073
2640.760370	-3.011700	2.961000	-8.915700	27.788089	-0.000133	20.803427
2641.764619	-2.986200	2.959900	-8.837500	27.792005	-0.000135	20.808791
2642.735707	-3.012000	2.958600	-8.910000	27.775013	-0.000135	20.812079
2643.733647	-2.986200	2.957200	-8.829400	27.803209	-0.000134	20.810108
2644.733044	-2.998500	2.955300	-8.859800	27.785966	-0.000136	20.811247
2645.754910	-3.025500	2.952300	-8.930800	27.793675	-0.000135	20.811894
2646.752114	-2.983400	2.953000	-8.808800	27.790444	-0.000134	20.815754
2647.756154	-2.957700	2.951200	-8.728000	27.792745	-0.000134	20.811906
2648.734706	-2.988300	2.949200	-8.811700	27.794899	-0.000134	20.813599
2649.753736	-2.990200	2.948900	-8.817000	27.824428	-0.000134	20.808703
2650.733148	-3.022200	2.946000	-8.902700	27.807564	-0.000135	20.803112
2651.734530	-3.023600	2.945100	-8.904100	27.829182	-0.000135	20.814910
2652.735054	-3.023900	2.941600	-8.894100	27.838029	-0.000133	20.810064
2653.762571	-3.018000	2.942500	-8.880200	27.822402	-0.000135	20.792440
2654.740741	-3.004200	2.939000	-8.827900	27.847763	-0.000135	20.815119
2655.736623	-3.016200	2.936900	-8.856500	27.844832	-0.000133	20.802687
2656.734619	-3.022200	2.935400	-8.870400	27.830650	-0.000134	20.799792
2657.770781	-2.992400	2.935900	-8.785500	27.834584	-0.000133	20.816080
2658.733586	-2.997200	2.933400	-8.791100	27.851311	-0.000134	20.797354
2659.736470	-2.967700	2.933800	-8.704800	27.835269	-0.000132	20.807286
2660.754816	-3.004600	2.930900	-8.805700	27.852199	-0.000135	20.816264
2661.758333	-2.975000	2.929600	-8.714300	27.847805	-0.000135	20.806153
2662.737607	-2.991200	2.926400	-8.752500	27.845223	-0.000132	20.776527
2663.735756	-2.981400	2.925400	-8.720700	27.857093	-0.000133	20.805069
2664.738606	-3.008100	2.923400	-8.793200	27.863713	-0.000135	20.784231
2665.731943	-2.983800	2.921600	-8.716500	27.861455	-0.000134	20.803295
2666.735426	-3.000200	2.919500	-8.758400	27.847095	-0.000132	20.805438
2667.754200	-2.986400	2.919300	-8.717300	27.860654	-0.000134	20.789686
2668.740910	-3.020100	2.916200	-8.806400	27.875527	-0.000133	20.803708
2669.734350	-3.024800	2.915400	-8.816800	27.868485	-0.000134	20.796620
2670.734564	-3.044700	2.912700	-8.867100	27.886357	-0.000135	20.796589
2671.742625	-2.992100	2.911100	-8.709200	27.889459	-0.000134	20.795918
2672.758608	-3.007400	2.910000	-8.750700	27.894139	-0.000134	20.793516
2673.737294	-3.033600	2.906400	-8.815400	27.895699	-0.000135	20.805044
2674.760321	-2.996900	2.906900	-8.711200	27.900013	-0.000136	20.808437
2675.738586	-2.982700	2.904800	-8.662300	27.922221	-0.000134	20.787168
2676.747371	-2.973000	2.903000	-8.629800	27.918673	-0.000134	20.809674
2677.735714	-2.989100	2.900900	-8.670300	27.909024	-0.000134	20.780523
2678.754777	-2.991000	2.899400	-8.670400	27.927397	-0.000132	20.792851
2679.767776	-3.031000	2.897200	-8.780600	27.919211	-0.000132	20.796466
2680.755782	-3.004800	2.895500	-8.699500	27.930150	-0.000135	20.790406
2681.757550	-3.011300	2.892600	-8.709300	27.936959	-0.000133	20.816226
2682.738467	-2.992200	2.891600	-8.651700	27.945959	-0.000132	20.796835
2683.739931	-3.020400	2.888900	-8.724200	27.961052	-0.000134	20.800647
2684.762193	-2.993600	2.888400	-8.646300	27.963805	-0.000134	20.784452
2685.759364	-2.998000	2.885000	-8.648000	27.948180	-0.000135	20.790061
2686.758093	-3.002600	2.884000	-8.658600	27.942674	-0.000133	20.811072
2687.759664	-3.052100	2.880300	-8.789300	27.955784	-0.000133	20.809569
2688.759187	-2.978200	2.880500	-8.577800	27.980402	-0.000134	20.798787
2689.762971	-2.986200	2.878500	-8.593500	27.994754	-0.000133	20.799957
2690.739758	-3.030500	2.874300	-8.709800	27.978071	-0.000135	20.786958
2691.763725	-3.001300	2.872800	-8.622000	27.946693	-0.000135	20.774814
2692.765496	-2.984600	2.873200	-8.574300	27.970962	-0.000135	20.812519
2693.756124	-2.998400	2.869000	-8.601900	27.994840	-0.000135	20.778706
2694.745580	-3.019800	2.867700	-8.658900	28.001453	-0.000135	20.773983
2695.758203	-2.998600	2.866700	-8.595000	27.986275	-0.000137	20.785258
2696.744754	-2.997800	2.863200	-8.582700	27.994901	-0.000135	20.774026
2697.739515	-3.009000	2.861900	-8.610700	28.017683	-0.000134	20.813553
2698.741033	-2.984000	2.860000	-8.533000	27.993482	-0.000135	20.791089
2699.760700	-3.022700	2.857800	-8.637600	28.015964	-0.000135	20.785270
2700.744102	-3.006600	2.854600	-8.582000	28.002903	-0.000138	20.769278
2701.739817	-3.013600	2.853200	-8.597000	28.011553	-0.000135	20.802641
2702.745889	-3.002800	2.851800	-8.562400	28.022356	-0.000137	20.785067
2703.740562	-2.986600	2.848800	-8.507900	28.033759	-0.000136	20.802235
2704.743659	-3.023500	2.847200	-8.608000	28.024387	-0.000137	20.772412
2705.752008	-2.963400	2.845200	-8.430300	28.001208	-0.000137	20.794125
2706.741825	-3.007800	2.842700	-8.548100	28.015658	-0.000136	20.773582
2707.772364	-3.014000	2.838700	-8.554800	28.038812	-0.000135	20.775553
2708.760038	-2.962300	2.840100	-8.411800	28.035246	-0.000133	20.768644
2709.764330	-2.987900	2.837000	-8.476000	28.042183	-0.000137	20.767566
2710.767163	-2.970100	2.834600	-8.418500	28.047468	-0.000135	20.784740
2711.770946	-3.000500	2.831200	-8.493400	28.069124	-0.000135	20.775719
2712.745039	-3.007200	2.828300	-8.504300	28.062456	-0.000136	20.785128
2713.770930	-2.974400	2.828600	-8.411300	28.083523	-0.000138	20.768878
2714.759440	-3.019400	2.824000	-8.526100	28.083572	-0.000137	20.771298
2715.766664	-2.973600	2.823100	-8.393500	28.094724	-0.000134	20.771618
2716.750947	-2.993400	2.820600	-8.442400	28.110763	-0.000135	20.771642
2717.753554	-2.997300	2.818100	-8.445500	28.097801	-0.000134	20.762387
2718.752639	-2.991900	2.813100	-8.415300	28.107166	-0.000134	20.778453
2719.768263	-2.967700	2.813100	-8.347700	28.127737	-0.000135	20.787782
2720.785148	-2.979600	2.810800	-8.374100	28.115387	-0.000135	20.767763
2721.755699	-3.009400	2.807300	-8.447400	28.129793	-0.000135	20.774204
2722.753922	-2.984300	2.806100	-8.372600	28.114200	-0.000134	20.763723
2723.752767	-3.016700	2.802900	-8.454400	28.128698	-0.000136	20.777369
2724.753421	-2.972400	2.801800	-8.326900	28.145923	-0.000136	20.796132
2725.751843	-2.987200	2.797500	-8.355800	28.134050	-0.000133	20.775171
2726.756169	-2.996400	2.795300	-8.374900	28.142393	-0.000134	20.783570
2727.755635	-3.012200	2.792400	-8.410100	28.145715	-0.000135	20.775534
2728.753568	-3.005400	2.791300	-8.387700	28.155777	-0.000135	20.759585
2729.760890	-2.974100	2.787800	-8.290100	28.161918	-0.000137	20.753914
2730.764574	-2.982700	2.784900	-8.306300	28.178121	-0.000135	20.798676
2731.756099	-2.998800	2.781500	-8.340300	28.183724	-0.000136	20.782031
2732.772755	-2.985200	2.779600	-8.296800	28.184690	-0.000135	20.775417
2733.786399	-2.972100	2.777800	-8.254700	28.178537	-0.000135	20.758317
2734.789985	-2.990300	2.774600	-8.295800	28.181534	-0.000135	20.771766
2735.780340	-2.958500	2.772400	-8.201100	28.190103	-0.000134	20.754788
2736.754404	-3.001900	2.767900	-8.308100	28.209554	-0.000134	20.747817
2737.758239	-3.019200	2.764700	-8.346100	28.200183	-0.000134	20.746918
2738.756198	-2.996000	2.763200	-8.277100	28.199113	-0.000137	20.757221
2739.771723	-3.005500	2.759800	-8.293300	28.222973	-0.000135	20.767492
2740.774777	-3.008300	2.755200	-8.286600	28.226918	-0.000136	20.761981
2741.771973	-3.027400	2.752800	-8.333000	28.208123	-0.000134	20.751118
2742.757807	-3.026600	2.749900	-8.322100	28.215572	-0.000136	20.763360
2743.761775	-3.004000	2.748400	-8.255400	28.241677	-0.000135	20.772098
2744.757219	-3.005000	2.744100	-8.245100	28.231707	-0.000136	20.766328
2745.758860	-2.982500	2.741900	-8.176800	28.241071	-0.000137	20.772437
2746.764552	-2.976900	2.738800	-8.152500	28.268808	-0.000137	20.746309
2747.759408	-2.997200	2.733700	-8.192200	28.254472	-0.000136	20.753212
2748.763670	-3.002400	2.731700	-8.201100	28.261579	-0.000138	20.754204
2749.762974	-2.968600	2.728700	-8.099200	28.270056	-0.000138	20.758471
2750.763103	-3.017600	2.725900	-8.225200	28.284251	-0.000136	20.741469
2751.761977	-3.004000	2.720300	-8.171400	28.282215	-0.000136	20.745582
2752.760664	-2.997000	2.717800	-8.144400	28.305462	-0.000136	20.758083
2753.765080	-2.981700	2.714800	-8.093200	28.291805	-0.000137	20.759032
2754.786306	-2.992000	2.710700	-8.109900	28.309321	-0.000138	20.755331
2755.778479	-3.020200	2.704400	-8.167200	28.297866	-0.000138	20.760393
2756.778593	-3.032900	2.701700	-8.192500	28.321186	-0.000135	20.741672
2757.782221	-3.001900	2.698400	-8.099700	28.333399	-0.000136	20.754444
2758.766668	-3.010800	2.694500	-8.111600	28.348988	-0.000135	20.757338
2759.768570	-3.002000	2.689900	-8.073500	28.327094	-0.000136	20.741931
2760.768957	-2.988800	2.688000	-8.032500	28.358816	-0.000136	20.749216
2761.761882	-2.983200	2.683000	-8.002600	28.363647	-0.000135	20.737485
2762.764282	-3.006300	2.677600	-8.048200	28.362473	-0.000138	20.737251
2763.764680	-2.994600	2.672000	-8.000100	28.378006	-0.000136	20.755738
2764.784618	-2.973200	2.669100	-7.934500	28.371383	-0.000136	20.741956
2765.791683	-3.024600	2.664300	-8.057600	28.382611	-0.000135	20.734295
2766.784495	-3.010200	2.659800	-8.005400	28.402682	-0.000134	20.748816
2767.786208	-3.009300	2.656900	-7.994100	28.416631	-0.000136	20.758596
2768.787691	-2.983000	2.650300	-7.904700	28.401257	-0.000135	20.754020
2769.789611	-2.985900	2.647200	-7.903000	28.416203	-0.000137	20.758165
2770.794979	-3.000600	2.640400	-7.922200	28.413622	-0.000136	20.755092
2771.769690	-2.978900	2.635800	-7.851100	28.439465	-0.000136	20.749346
2772.769438	-3.008100	2.631500	-7.914800	28.436365	-0.000136	20.751440
2773.796671	-3.029600	2.624500	-7.950800	28.440799	-0.000138	20.739309
2774.783524	-3.025000	2.620100	-7.924300	28.436903	-0.000138	20.741551
2775.785666	-3.004400	2.616400	-7.859500	28.474865	-0.000135	20.741846
2776.786204	-2.994600	2.611500	-7.819900	28.467252	-0.000137	20.733705
2777.782728	-3.013700	2.603800	-7.846100	28.464629	-0.000137	20.741969
2778.788807	-2.983400	2.599900	-7.755400	28.482191	-0.000137	20.743060
2779.786494	-3.017900	2.593300	-7.824900	28.506968	-0.000136	20.756632
2780.772457	-3.000200	2.589300	-7.767800	28.497570	-0.000138	20.752857
2781.770034	-3.008900	2.581800	-7.767500	28.517094	-0.000138	20.744544
2782.769855	-2.983200	2.577600	-7.688500	28.503073	-0.000138	20.752710
2783.779522	-2.998700	2.571000	-7.708900	28.526144	-0.000137	20.759348
2784.771060	-3.009500	2.564300	-7.716200	28.537914	-0.000135	20.750339
2785.771598	-2.988000	2.557500	-7.640400	28.518855	-0.000137	20.741102
2786.790002	-3.005200	2.551100	-7.665800	28.537462	-0.000135	20.768850
2787.772766	-3.013900	2.546500	-7.673800	28.534533	-0.000135	20.768745
2788.773882	-3.008600	2.539100	-7.638500	28.554876	-0.000136	20.760783
2789.774552	-3.018500	2.532700	-7.643900	28.565038	-0.000137	20.747783
2790.789455	-3.005700	2.526500	-7.593700	28.564782	-0.000136	20.753215
2791.792599	-2.989100	2.521100	-7.534700	28.573709	-0.000137	20.743239
2792.788369	-2.987900	2.513600	-7.509900	28.593604	-0.000136	20.756165
2793.773571	-2.996400	2.507500	-7.512500	28.594448	-0.000138	20.769343
2794.803060	-2.997700	2.499600	-7.491200	28.586964	-0.000134	20.749477
