LabVIEW Measurement	
Writer_Version	2
Reader_Version	2
Separator	Tab
Decimal_Separator	.
Multi_Headings	No
X_Columns	One
Time_Pref	Absolute
Operator	admin
Description	Clolumns are: time, Current, Voltage, Power, Battery Temp, and Chamber Temp
Date	2024/08/16
Time	13:07:17.8513970375061035156
***End_of_Header***	
	
Channels	6						
Samples	1	1	1	1	1	1	
Date	2024/09/10	2024/09/10	2024/09/10	2024/09/10	2024/09/10	2024/09/10	
Time	18:40:00.8698015213012695312	18:40:00.8771128654479980469	18:40:00.8841071128845214844	18:40:00.8488297462463378906	18:40:00.8488297462463378906	18:40:00.8488297462463378906	
X_Dimension	Time	Time	Time	Time	Time	Time	
X0	0.0000000000000000E+0	0.0000000000000000E+0	0.0000000000000000E+0	0.0000000000000000E+0	0.0000000000000000E+0	0.0000000000000000E+0	
Delta_X	1.000000	1.000000	1.000000	1.000000	1.000000	1.000000	
***End_of_Header***							
X_Value	Untitled	Untitled 1	Untitled 2	Untitled 3	Untitled 4	Untitled 5	Comment
0.000000	0.004621	4.101500	0.018953	20.847434	0.000483	20.754974
0.994728	-2.977800	3.929900	-11.701000	20.859662	0.000482	20.771945
1.995748	-3.006300	3.922000	-11.790000	20.867323	0.000482	20.769175
2.997701	-2.993400	3.917200	-11.725000	20.866601	0.000479	20.758970
3.997907	-3.010900	3.914400	-11.785000	20.855597	0.000479	20.767406
5.001779	-3.002600	3.909900	-11.739000	20.883471	0.000478	20.746917
5.995249	-2.987700	3.907800	-11.675000	20.859790	0.000477	20.770176
6.999744	-3.011100	3.904900	-11.757000	20.914289	0.000478	20.752133
8.000975	-3.019900	3.902600	-11.784000	20.905083	0.000476	20.753832
9.001561	-3.001100	3.900900	-11.706000	20.904361	0.000474	20.760223
10.000077	-3.013300	3.899100	-11.748000	20.899744	0.000477	20.777417
11.001806	-2.986500	3.899000	-11.644000	20.921734	0.000474	20.770960
12.007771	-2.996000	3.896100	-11.672000	20.929691	0.000474	20.750941
12.998619	-3.007700	3.896100	-11.718000	20.908632	0.000472	20.776823
14.006282	-2.985600	3.893900	-11.625000	20.932564	0.000470	20.757134
15.000106	-2.996100	3.892700	-11.662000	20.938352	0.000470	20.764820
16.002066	-2.976800	3.891900	-11.585000	20.946069	0.000472	20.771590
17.003465	-3.016400	3.890800	-11.735000	20.959595	0.000471	20.741495
18.007899	-3.027100	3.890100	-11.774000	20.955877	0.000469	20.761010
18.999397	-3.017900	3.887100	-11.730000	20.984800	0.000470	20.752005
20.003422	-2.997600	3.888000	-11.654000	20.977367	0.000468	20.759744
21.006179	-2.956000	3.887400	-11.490000	20.991515	0.000468	20.756825
22.002379	-2.992200	3.885400	-11.625000	20.998828	0.000468	20.732844
23.001488	-2.991700	3.886600	-11.627000	20.998457	0.000467	20.728679
24.001214	-2.986400	3.885200	-11.602000	21.008639	0.000466	20.758305
25.002546	-3.036800	3.882500	-11.789000	21.030224	0.000466	20.754289
26.004724	-3.023000	3.881800	-11.733000	21.013310	0.000466	20.758709
27.003726	-3.006600	3.882900	-11.674000	21.029704	0.000466	20.747605
28.004622	-3.012500	3.883100	-11.696000	21.051016	0.000462	20.747110
29.004417	-3.016300	3.881500	-11.707000	21.050266	0.000464	20.746360
30.004038	-3.002100	3.882100	-11.654000	21.061000	0.000462	20.746665
31.002666	-3.010800	3.879700	-11.680000	21.076548	0.000464	20.754157
32.004169	-3.000300	3.880700	-11.643000	21.073506	0.000462	20.736888
33.003554	-3.004700	3.878700	-11.653000	21.088378	0.000460	20.729953
34.007909	-3.012000	3.878000	-11.679000	21.079297	0.000462	20.741733
35.002789	-3.016000	3.878800	-11.698000	21.104116	0.000459	20.737160
36.002518	-3.000400	3.878400	-11.636000	21.106297	0.000459	20.747877
37.005105	-3.007700	3.876400	-11.658000	21.124887	0.000462	20.735177
38.005055	-2.978700	3.878300	-11.552000	21.140208	0.000458	20.730114
39.005849	-3.010400	3.876200	-11.668000	21.125538	0.000459	20.748157
40.014004	-2.985200	3.876800	-11.572000	21.147895	0.000459	20.732587
41.004418	-2.972900	3.876900	-11.525000	21.148571	0.000460	20.735635
42.008889	-2.977600	3.876200	-11.540000	21.160450	0.000458	20.752259
43.003744	-2.990400	3.875600	-11.589000	21.168532	0.000460	20.735214
44.007667	-2.987600	3.874000	-11.573000	21.186050	0.000457	20.718123
45.008236	-3.004700	3.873400	-11.637000	21.184302	0.000459	20.725384
46.009497	-2.989100	3.873700	-11.578000	21.182484	0.000457	20.740162
47.008029	-2.992800	3.873200	-11.591000	21.205360	0.000457	20.736966
48.008301	-2.994800	3.874200	-11.601000	21.214118	0.000455	20.739090
49.009631	-3.024000	3.871700	-11.707000	21.235253	0.000456	20.722300
50.007040	-3.010900	3.872200	-11.658000	21.235480	0.000456	20.723949
51.010545	-3.029200	3.871000	-11.724000	21.249374	0.000456	20.717933
52.006793	-2.989700	3.871900	-11.575000	21.256013	0.000454	20.723153
53.010142	-3.013800	3.871300	-11.666000	21.258610	0.000458	20.723854
54.006779	-2.990900	3.870400	-11.574000	21.279415	0.000456	20.738030
55.007451	-2.990000	3.872100	-11.577000	21.275825	0.000456	20.745345
56.016192	-2.996000	3.871500	-11.597000	21.286602	0.000457	20.715822
57.008246	-2.997900	3.871100	-11.604000	21.298228	0.000457	20.721289
58.010763	-2.986100	3.870900	-11.558000	21.298026	0.000456	20.738632
59.013130	-2.996200	3.871400	-11.597000	21.321505	0.000455	20.735094
60.012199	-2.992300	3.872100	-11.585000	21.319688	0.000456	20.736595
61.014799	-3.011100	3.870200	-11.652000	21.322482	0.000454	20.764048
62.019346	-3.004600	3.870000	-11.626000	21.352739	0.000454	20.722246
63.010113	-2.994800	3.869700	-11.588000	21.352838	0.000456	20.756960
64.010154	-3.008100	3.870100	-11.640000	21.356885	0.000453	20.728765
65.013795	-2.995200	3.869000	-11.588000	21.373320	0.000453	20.728612
66.011274	-3.014300	3.868000	-11.658000	21.383499	0.000454	20.739271
67.012250	-3.001300	3.868200	-11.609000	21.384373	0.000456	20.727342
68.014027	-3.019000	3.868300	-11.678000	21.397296	0.000455	20.726522
69.013420	-2.989400	3.868200	-11.562000	21.401215	0.000457	20.738978
70.015374	-2.982700	3.869500	-11.541000	21.416306	0.000456	20.725627
71.014884	-3.005800	3.867700	-11.625000	21.434091	0.000456	20.734414
72.015460	-2.962000	3.869800	-11.461000	21.425236	0.000456	20.706585
73.016846	-2.996500	3.866800	-11.586000	21.452923	0.000457	20.717694
74.015965	-3.013300	3.867500	-11.653000	21.455618	0.000456	20.731297
75.018524	-3.009200	3.866200	-11.633000	21.456966	0.000459	20.733593
76.021191	-3.012500	3.866100	-11.646000	21.474153	0.000457	20.712383
77.015246	-3.021200	3.867200	-11.682000	21.467061	0.000458	20.712874
78.018555	-3.022600	3.864800	-11.681000	21.500686	0.000458	20.722811
79.020216	-2.984200	3.866200	-11.537000	21.512479	0.000460	20.721809
80.021901	-2.987500	3.864800	-11.545000	21.503603	0.000460	20.722885
81.021653	-2.987400	3.866300	-11.549000	21.507596	0.000459	20.706016
82.026326	-2.986300	3.865800	-11.544000	21.524552	0.000459	20.713026
83.018081	-2.988000	3.864300	-11.545000	21.529809	0.000459	20.719710
84.022435	-3.013400	3.864900	-11.646000	21.529459	0.000458	20.716040
85.023951	-2.998600	3.865300	-11.590000	21.547214	0.000460	20.714840
86.022766	-3.003700	3.865100	-11.608000	21.569134	0.000460	20.730612
87.025135	-3.016600	3.864200	-11.656000	21.561479	0.000460	20.735280
88.022464	-2.989300	3.864400	-11.552000	21.568183	0.000459	20.723969
89.026885	-2.992000	3.865900	-11.566000	21.580350	0.000459	20.720498
90.028541	-2.988000	3.863600	-11.544000	21.585607	0.000458	20.719595
91.028675	-2.994500	3.864100	-11.571000	21.601396	0.000457	20.716902
92.025633	-3.003600	3.863400	-11.603000	21.603460	0.000459	20.718494
93.027020	-2.971700	3.865000	-11.484000	21.606155	0.000458	20.716923
94.027645	-2.973600	3.863300	-11.486000	21.644056	0.000460	20.733989
95.025753	-2.998500	3.862900	-11.581000	21.630390	0.000459	20.732641
96.028512	-3.010000	3.863500	-11.628000	21.639812	0.000457	20.745864
97.027296	-2.993700	3.863700	-11.566000	21.634699	0.000458	20.745963
98.027482	-2.982600	3.862900	-11.520000	21.653553	0.000458	20.731639
99.031657	-2.996400	3.862500	-11.573000	21.659061	0.000458	20.721030
100.029139	-2.997400	3.863100	-11.578000	21.676315	0.000458	20.754420
101.029590	-2.984600	3.862400	-11.525000	21.671227	0.000458	20.748379
102.032293	-2.993600	3.863500	-11.564000	21.689507	0.000458	20.726844
103.034497	-3.007500	3.863800	-11.620000	21.691778	0.000460	20.727693
104.031011	-2.997500	3.862200	-11.574000	21.716010	0.000459	20.739618
105.037351	-2.998100	3.861400	-11.576000	21.718157	0.000459	20.737498
106.031486	-2.996400	3.861900	-11.570000	21.727455	0.000459	20.725941
107.035067	-2.999700	3.863000	-11.587000	21.739827	0.000457	20.726468
108.031869	-3.006500	3.862100	-11.610000	21.754365	0.000460	20.741019
109.040695	-3.021800	3.861700	-11.669000	21.772664	0.000459	20.728513
110.034779	-3.007800	3.860300	-11.611000	21.775729	0.000459	20.734426
111.036491	-3.010000	3.861000	-11.621000	21.782312	0.000460	20.740067
112.030392	-3.009800	3.860500	-11.618000	21.809991	0.000458	20.750227
113.036171	-2.997800	3.860200	-11.571000	21.807248	0.000459	20.749377
114.035772	-2.983500	3.860500	-11.517000	21.801963	0.000461	20.748355
115.033664	-3.018600	3.861200	-11.655000	21.798201	0.000459	20.746013
116.042181	-2.962600	3.861800	-11.439000	21.835602	0.000459	20.728443
117.042690	-2.992700	3.860500	-11.552000	21.830687	0.000460	20.737275
118.036616	-2.991700	3.859900	-11.546000	21.823779	0.000459	20.746009
119.032666	-3.027200	3.860100	-11.684000	21.842757	0.000460	20.738451
120.051074	-2.986200	3.860000	-11.526000	21.859436	0.000459	20.751352
121.034503	-3.004800	3.860600	-11.600000	21.866991	0.000461	20.722403
122.033478	-3.001600	3.859100	-11.582000	21.889980	0.000461	20.745889
123.035663	-3.007400	3.859500	-11.606000	21.898807	0.000461	20.736232
124.036570	-3.021600	3.857900	-11.656000	21.896138	0.000461	20.749208
125.034810	-2.994900	3.859600	-11.558000	21.890981	0.000461	20.752581
126.037235	-3.008300	3.859500	-11.610000	21.903273	0.000460	20.770100
127.040011	-3.033900	3.859000	-11.707000	21.896616	0.000460	20.738306
128.038732	-3.010900	3.858700	-11.617000	21.914744	0.000460	20.722312
129.037997	-2.999300	3.858900	-11.573000	21.933737	0.000459	20.757446
130.033040	-2.974600	3.859600	-11.480000	21.915317	0.000463	20.728575
131.036775	-2.989400	3.856800	-11.529000	21.932596	0.000459	20.758201
132.048102	-2.977200	3.857900	-11.485000	21.955605	0.000461	20.745196
133.041122	-3.008700	3.856800	-11.603000	21.923897	0.000460	20.738112
134.044878	-3.002700	3.856700	-11.580000	21.963011	0.000461	20.760671
135.039370	-2.998800	3.858400	-11.570000	21.986175	0.000463	20.750668
136.041760	-3.008600	3.857000	-11.604000	22.001287	0.000460	20.749200
137.043672	-3.003300	3.856500	-11.581000	22.001060	0.000462	20.748499
138.040651	-3.004800	3.856900	-11.589000	22.017716	0.000460	20.750474
139.039282	-3.009800	3.856700	-11.607000	22.017869	0.000460	20.758213
140.038473	-2.984700	3.857500	-11.512000	22.013231	0.000461	20.758786
141.044289	-2.991900	3.855300	-11.534000	22.040830	0.000461	20.776932
142.040431	-2.983700	3.856400	-11.505000	22.035097	0.000462	20.731363
143.039582	-3.009000	3.855100	-11.600000	22.037441	0.000463	20.746037
144.046010	-3.018500	3.856200	-11.638000	22.053026	0.000462	20.745518
145.044956	-3.019500	3.855100	-11.639000	22.033631	0.000464	20.766406
146.047854	-3.010900	3.855200	-11.606000	22.057066	0.000465	20.786073
147.048742	-3.002900	3.854400	-11.574000	22.083441	0.000464	20.737086
148.043671	-3.010600	3.854800	-11.604000	22.086060	0.000465	20.769581
149.047290	-2.981600	3.854200	-11.491000	22.084713	0.000466	20.760646
150.040159	-3.006800	3.855100	-11.590000	22.094713	0.000464	20.747897
151.044607	-2.999300	3.854800	-11.561000	22.099676	0.000466	20.747175
152.043894	-3.000900	3.855600	-11.570000	22.117080	0.000464	20.772661
153.045347	-2.979700	3.853900	-11.483000	22.127170	0.000465	20.764270
154.044736	-2.989000	3.854300	-11.520000	22.145472	0.000465	20.772162
155.044102	-2.989700	3.853900	-11.521000	22.133133	0.000464	20.769767
156.049086	-2.998800	3.855300	-11.561000	22.146670	0.000467	20.755344
157.042245	-2.984700	3.853800	-11.501000	22.161454	0.000467	20.763982
158.042951	-3.011500	3.854500	-11.606000	22.149042	0.000464	20.752503
159.055043	-2.993400	3.853900	-11.536000	22.154351	0.000467	20.759714
160.043603	-2.995100	3.853000	-11.538000	22.171054	0.000465	20.755575
161.045502	-2.982000	3.853500	-11.491000	22.192217	0.000467	20.731243
162.046687	-3.007900	3.851100	-11.583000	22.194313	0.000468	20.755628
163.046464	-2.980900	3.852900	-11.483000	22.214108	0.000466	20.767388
164.045580	-2.997500	3.852800	-11.548000	22.234546	0.000469	20.777419
165.048765	-3.002900	3.851100	-11.563000	22.204740	0.000468	20.763697
166.045435	-2.990700	3.851100	-11.517000	22.236844	0.000467	20.761702
167.046626	-2.987500	3.852200	-11.508000	22.218058	0.000469	20.753798
168.045515	-2.980900	3.851900	-11.481000	22.236453	0.000468	20.773164
169.045711	-3.011200	3.851500	-11.597000	22.242806	0.000468	20.752499
170.045632	-3.010600	3.850300	-11.591000	22.248024	0.000468	20.777164
171.046603	-2.996800	3.851400	-11.542000	22.254456	0.000468	20.755154
172.045223	-2.999600	3.850800	-11.550000	22.272525	0.000467	20.761393
173.047753	-3.007900	3.850900	-11.583000	22.286361	0.000468	20.767186
174.046918	-3.004200	3.850100	-11.565000	22.284500	0.000468	20.746356
175.049251	-3.010900	3.850900	-11.594000	22.277644	0.000470	20.767466
176.049386	-2.990700	3.850700	-11.515000	22.307312	0.000468	20.774414
177.046031	-3.016100	3.850100	-11.611000	22.304442	0.000468	20.761583
178.055047	-2.983000	3.850300	-11.485000	22.310231	0.000469	20.777812
179.048598	-2.995200	3.849600	-11.529000	22.344378	0.000470	20.781185
180.048360	-3.004100	3.848500	-11.560000	22.329152	0.000469	20.770679
181.055397	-2.989900	3.848500	-11.505000	22.323725	0.000471	20.785159
182.047563	-2.967400	3.849800	-11.423000	22.327641	0.000472	20.786236
183.048432	-2.982400	3.850700	-11.482000	22.354286	0.000471	20.755543
184.056311	-3.002700	3.849100	-11.557000	22.356958	0.000473	20.782876
185.063979	-2.982900	3.849300	-11.481000	22.358131	0.000473	20.772197
186.056163	-3.000600	3.847800	-11.545000	22.383902	0.000474	20.760070
187.049820	-3.008000	3.848600	-11.576000	22.395571	0.000476	20.757057
188.049256	-2.993900	3.847600	-11.518000	22.395246	0.000476	20.785655
189.053494	-3.002300	3.848900	-11.555000	22.389819	0.000476	20.772160
190.057376	-3.000800	3.847500	-11.545000	22.376092	0.000476	20.758413
191.052619	-2.994000	3.847800	-11.519000	22.394184	0.000476	20.788859
192.053464	-2.975800	3.849200	-11.453000	22.397177	0.000477	20.772416
193.053076	-3.003300	3.847400	-11.554000	22.392792	0.000475	20.791733
194.055134	-3.010900	3.847300	-11.582000	22.418888	0.000477	20.776139
195.053394	-3.024800	3.847100	-11.636000	22.443632	0.000477	20.768202
196.053929	-2.999700	3.846400	-11.537000	22.469830	0.000477	20.786377
197.058029	-3.005000	3.846100	-11.557000	22.458565	0.000479	20.780786
198.052485	-2.995300	3.846900	-11.522000	22.469159	0.000478	20.786653
199.051789	-3.014700	3.846000	-11.594000	22.471530	0.000479	20.773855
200.057253	-2.997700	3.845200	-11.526000	22.462283	0.000479	20.778820
201.053573	-2.996000	3.847400	-11.525000	22.472300	0.000478	20.786006
202.052149	-3.001900	3.845900	-11.544000	22.478583	0.000479	20.788031
203.059660	-2.995100	3.847700	-11.522000	22.498068	0.000480	20.805649
204.060706	-2.989600	3.844700	-11.492000	22.513042	0.000479	20.790298
205.055789	-2.990600	3.846600	-11.503000	22.526347	0.000480	20.790348
206.059206	-3.010700	3.845200	-11.575000	22.531856	0.000482	20.786381
207.055593	-3.016900	3.844700	-11.599000	22.544535	0.000481	20.780114
208.051868	-3.022900	3.845100	-11.622000	22.556873	0.000482	20.770660
209.060489	-3.015600	3.846100	-11.598000	22.570747	0.000484	20.787874
210.058015	-3.027900	3.843700	-11.637000	22.573143	0.000482	20.796438
211.059402	-3.006700	3.844700	-11.559000	22.543012	0.000482	20.779063
212.056253	-2.988900	3.845200	-11.491000	22.558211	0.000482	20.789544
213.059934	-2.993100	3.844100	-11.505000	22.589955	0.000482	20.802845
214.056559	-2.997500	3.845200	-11.525000	22.594837	0.000484	20.801096
215.058157	-2.994200	3.845000	-11.512000	22.615864	0.000484	20.801768
216.060826	-2.996400	3.843300	-11.515000	22.594187	0.000487	20.786220
217.060362	-2.997300	3.843200	-11.518000	22.593886	0.000483	20.801092
218.060695	-2.981900	3.844700	-11.464000	22.628794	0.000483	20.795279
219.059248	-3.014100	3.841700	-11.579000	22.617857	0.000484	20.802816
220.066851	-3.024800	3.843200	-11.625000	22.645664	0.000485	20.828770
221.062593	-2.998400	3.841900	-11.518000	22.623863	0.000481	20.818314
222.063091	-3.009100	3.842400	-11.561000	22.661310	0.000484	20.803191
223.066018	-3.000500	3.841800	-11.527000	22.644021	0.000485	20.797254
224.062346	-3.012900	3.841500	-11.573000	22.658766	0.000485	20.803962
225.065226	-3.002000	3.841100	-11.530000	22.657918	0.000487	20.807854
226.060601	-3.000700	3.841700	-11.528000	22.651443	0.000485	20.809429
227.061292	-3.012400	3.840700	-11.569000	22.638987	0.000487	20.817341
228.061620	-2.998900	3.841500	-11.519000	22.690363	0.000485	20.814748
229.067489	-2.995400	3.841000	-11.503000	22.693174	0.000486	20.813770
230.064221	-3.016300	3.839900	-11.582000	22.705457	0.000486	20.802840
231.062460	-2.999300	3.842000	-11.523000	22.726289	0.000487	20.819914
232.067722	-2.988800	3.841900	-11.482000	22.742531	0.000487	20.804415
233.064503	-2.984200	3.840400	-11.459000	22.756060	0.000486	20.810856
234.067414	-2.992600	3.840500	-11.492000	22.764856	0.000488	20.805916
235.062973	-3.004200	3.839900	-11.534000	22.793927	0.000486	20.817968
236.062696	-3.007000	3.840000	-11.546000	22.739695	0.000486	20.833343
237.067785	-3.004400	3.839700	-11.536000	22.789548	0.000489	20.829228
238.065234	-3.001700	3.839400	-11.524000	22.786358	0.000489	20.805644
239.063058	-3.010800	3.838500	-11.557000	22.776595	0.000489	20.835693
240.061044	-3.020200	3.838100	-11.591000	22.797023	0.000489	20.830551
241.065005	-3.023200	3.837900	-11.602000	22.777991	0.000488	20.813857
242.072489	-3.002300	3.838300	-11.523000	22.755320	0.000489	20.821493
243.068645	-2.982000	3.838600	-11.446000	22.788383	0.000488	20.825217
244.063159	-3.003000	3.838300	-11.525000	22.823854	0.000491	20.835144
245.065746	-2.998700	3.837500	-11.506000	22.836213	0.000492	20.812913
246.066262	-2.989700	3.838700	-11.475000	22.843658	0.000491	20.828906
247.066752	-3.008300	3.837100	-11.542000	22.879185	0.000491	20.826091
248.068400	-3.023900	3.837100	-11.603000	22.860076	0.000491	20.843456
249.069515	-3.000000	3.836900	-11.510000	22.853598	0.000493	20.834596
250.067196	-3.014200	3.836600	-11.564000	22.845502	0.000492	20.824590
251.070299	-3.023000	3.835800	-11.595000	22.865529	0.000492	20.836117
252.067851	-2.995900	3.836800	-11.493000	22.892260	0.000492	20.843930
253.067267	-2.984900	3.837600	-11.454000	22.884736	0.000490	20.827859
254.070186	-2.984400	3.836800	-11.450000	22.870089	0.000492	20.843056
255.071534	-2.983300	3.836200	-11.443000	22.902050	0.000493	20.847101
256.073742	-2.977000	3.836300	-11.420000	22.907405	0.000492	20.834922
257.068015	-2.959900	3.837000	-11.356000	22.928278	0.000495	20.839713
258.071631	-2.970000	3.835800	-11.391000	22.936570	0.000495	20.843279
259.072510	-3.000000	3.835700	-11.506000	22.892881	0.000493	20.842182
260.071692	-3.011900	3.834800	-11.550000	22.881646	0.000494	20.847047
261.070689	-2.987700	3.835600	-11.459000	22.910742	0.000494	20.849645
262.068269	-3.008800	3.835600	-11.539000	22.928998	0.000494	20.847072
263.071681	-2.994700	3.835300	-11.484000	22.940233	0.000494	20.844104
264.071652	-3.003700	3.836200	-11.522000	22.965122	0.000494	20.837272
265.080049	-2.987200	3.835400	-11.456000	22.988805	0.000496	20.842508
266.072690	-3.008600	3.833800	-11.533000	23.008529	0.000496	20.838562
267.075402	-3.001400	3.833200	-11.504000	23.009475	0.000496	20.850890
268.073507	-2.983600	3.834300	-11.439000	23.013088	0.000496	20.838389
269.074374	-2.998600	3.833800	-11.495000	23.013508	0.000497	20.874369
270.069483	-2.971500	3.834300	-11.393000	23.016175	0.000498	20.876093
271.070789	-3.007800	3.832500	-11.527000	23.017891	0.000499	20.864536
272.069878	-3.003300	3.833500	-11.511000	23.047408	0.000499	20.853335
273.073718	-3.006000	3.832300	-11.519000	23.024141	0.000500	20.855153
274.093546	-2.995800	3.832900	-11.482000	23.045811	0.000501	20.861217
275.073911	-2.972500	3.833300	-11.394000	23.042292	0.000502	20.872864
276.075748	-2.968100	3.834600	-11.381000	23.039453	0.000503	20.863856
277.074896	-2.995500	3.831800	-11.478000	23.059600	0.000503	20.870766
278.075217	-3.000400	3.832700	-11.499000	23.055271	0.000502	20.854101
279.078944	-3.017800	3.829900	-11.557000	23.060768	0.000502	20.858187
280.075766	-2.988800	3.831400	-11.450000	23.094094	0.000504	20.846061
281.080738	-3.008000	3.831200	-11.524000	23.102381	0.000504	20.852468
282.078355	-2.994600	3.831000	-11.471000	23.148852	0.000505	20.869162
283.075656	-2.999600	3.830300	-11.488000	23.116667	0.000504	20.863464
284.073699	-2.979400	3.830300	-11.411000	23.122621	0.000505	20.863266
285.073071	-2.998900	3.830700	-11.487000	23.130834	0.000505	20.879081
286.079132	-2.976700	3.831000	-11.404000	23.139997	0.000508	20.868823
287.076668	-3.002400	3.830500	-11.499000	23.141861	0.000507	20.880173
288.079086	-3.005300	3.829200	-11.507000	23.156480	0.000507	20.866848
289.078624	-2.981500	3.830300	-11.419000	23.155184	0.000508	20.878351
290.074687	-2.979300	3.830000	-11.410000	23.177562	0.000509	20.869956
291.080792	-3.005400	3.829700	-11.508000	23.155097	0.000507	20.871152
292.076210	-3.013700	3.827900	-11.535000	23.179693	0.000510	20.869721
293.077853	-2.998900	3.828600	-11.481000	23.203425	0.000511	20.884019
294.079934	-3.007600	3.828400	-11.514000	23.172937	0.000510	20.873856
295.075898	-3.005400	3.828500	-11.506000	23.168008	0.000512	20.862753
296.075147	-2.995300	3.828800	-11.468000	23.197134	0.000512	20.883404
297.079484	-2.981800	3.827500	-11.412000	23.192447	0.000512	20.882975
298.076210	-3.005900	3.827800	-11.505000	23.202956	0.000511	20.880704
299.080491	-3.003400	3.827700	-11.496000	23.196549	0.000510	20.885189
300.081630	-3.013700	3.826800	-11.532000	23.205835	0.000513	20.888331
301.082081	-3.024400	3.824900	-11.567000	23.234989	0.000513	20.895261
302.083547	-2.981400	3.827800	-11.411000	23.255252	0.000513	20.870998
303.080389	-3.013900	3.826200	-11.530000	23.247208	0.000512	20.892334
304.083440	-2.981200	3.827600	-11.410000	23.247994	0.000513	20.910189
305.079335	-3.008100	3.826200	-11.509000	23.261764	0.000512	20.889378
306.078187	-3.024100	3.825300	-11.567000	23.252096	0.000513	20.888697
307.083281	-2.996000	3.826800	-11.464000	23.249105	0.000511	20.890915
308.083134	-2.999800	3.826400	-11.478000	23.271766	0.000511	20.898926
309.084169	-2.995000	3.825400	-11.455000	23.274995	0.000510	20.913541
310.084470	-2.983400	3.824800	-11.410000	23.302308	0.000514	20.896345
311.082107	-3.006100	3.823900	-11.494000	23.296183	0.000511	20.889732
312.083634	-2.991600	3.825200	-11.442000	23.306591	0.000514	20.917231
313.085926	-3.002400	3.824200	-11.480000	23.289427	0.000512	20.892919
314.080275	-2.994500	3.823500	-11.449000	23.313108	0.000514	20.917597
315.084352	-2.994300	3.824100	-11.450000	23.335713	0.000511	20.909909
316.081371	-2.985200	3.823600	-11.414000	23.341242	0.000512	20.923509
317.083942	-2.992400	3.823600	-11.441000	23.339399	0.000513	20.926403
318.085701	-3.008500	3.823400	-11.502000	23.363626	0.000512	20.918443
319.088120	-2.977300	3.824700	-11.387000	23.357447	0.000515	20.918888
320.089277	-2.994600	3.822800	-11.447000	23.351449	0.000514	20.914773
321.086112	-3.005600	3.823400	-11.490000	23.340045	0.000515	20.918991
322.087242	-3.000100	3.822200	-11.466000	23.357998	0.000516	20.916596
323.082065	-2.983300	3.822200	-11.402000	23.365370	0.000513	20.942947
324.089464	-2.992600	3.821600	-11.435000	23.393002	0.000515	20.920858
325.083471	-2.988200	3.822000	-11.420000	23.387872	0.000516	20.903865
326.084190	-2.989400	3.823000	-11.428000	23.376843	0.000516	20.930740
327.088710	-3.005300	3.821800	-11.485000	23.379233	0.000518	20.904689
328.085088	-3.006200	3.821900	-11.489000	23.387547	0.000517	20.923452
329.090283	-2.999700	3.821300	-11.462000	23.420435	0.000516	20.918958
330.088771	-2.987100	3.820100	-11.409000	23.416676	0.000519	20.916138
331.088254	-3.000300	3.820000	-11.461000	23.400266	0.000520	20.921502
332.090826	-2.985600	3.820500	-11.405000	23.415055	0.000519	20.908350
333.087038	-3.002600	3.821100	-11.472000	23.427054	0.000521	20.915161
334.088356	-2.979200	3.821500	-11.384000	23.485086	0.000521	20.920224
335.090179	-3.002600	3.818600	-11.464000	23.458744	0.000521	20.915631
336.093104	-3.014100	3.817700	-11.507000	23.446421	0.000521	20.911339
337.091960	-3.004000	3.819300	-11.471000	23.446022	0.000521	20.919947
338.093089	-3.008600	3.819300	-11.489000	23.450600	0.000520	20.917424
339.094262	-3.011300	3.818000	-11.496000	23.468000	0.000518	20.921588
340.092845	-2.998700	3.818700	-11.450000	23.450917	0.000521	20.934809
341.092923	-3.010600	3.817000	-11.491000	23.467975	0.000520	20.915874
342.093734	-3.001200	3.817700	-11.457000	23.504394	0.000523	20.912077
343.092585	-3.024000	3.817600	-11.544000	23.487316	0.000522	20.896856
344.093943	-3.003000	3.817600	-11.463000	23.489628	0.000522	20.873571
345.092458	-3.003600	3.818100	-11.467000	23.487090	0.000522	20.920335
346.090127	-2.986300	3.817400	-11.399000	23.458757	0.000520	20.918014
347.093578	-3.001200	3.816600	-11.453000	23.502399	0.000523	20.903914
348.101953	-2.999300	3.817700	-11.450000	23.492063	0.000523	20.906355
349.090586	-2.996100	3.816900	-11.435000	23.501202	0.000523	20.903189
350.101010	-2.997000	3.817900	-11.442000	23.560349	0.000523	20.916484
351.094615	-3.011200	3.816500	-11.492000	23.536148	0.000523	20.906450
352.094899	-3.015800	3.815600	-11.506000	23.536226	0.000522	20.892305
353.092966	-2.993900	3.815100	-11.421000	23.523229	0.000524	20.902983
354.097044	-3.012100	3.816100	-11.494000	23.550515	0.000523	20.900938
355.094368	-2.983700	3.815000	-11.381000	23.546357	0.000525	20.893451
356.095953	-3.006000	3.815600	-11.469000	23.549668	0.000523	20.892977
357.096004	-2.972500	3.814400	-11.338000	23.585241	0.000525	20.893550
358.094099	-3.004200	3.816000	-11.463000	23.566922	0.000523	20.888462
359.094264	-2.984400	3.813900	-11.382000	23.584522	0.000525	20.889510
360.098313	-3.011800	3.814000	-11.486000	23.600155	0.000526	20.897120
361.093750	-2.982800	3.814600	-11.377000	23.581935	0.000525	20.894502
362.094480	-3.009200	3.813300	-11.474000	23.617758	0.000527	20.905283
363.093579	-3.009700	3.812600	-11.474000	23.631947	0.000526	20.885370
364.095538	-2.992100	3.813700	-11.409000	23.609368	0.000526	20.894028
365.095351	-2.968700	3.813900	-11.320000	23.594705	0.000526	20.894028
366.100139	-2.988900	3.812500	-11.394000	23.608047	0.000527	20.895075
367.095286	-2.988600	3.814200	-11.399000	23.659408	0.000526	20.909105
368.092616	-2.970800	3.812700	-11.326000	23.625926	0.000526	20.876964
369.096005	-2.965700	3.812300	-11.305000	23.618111	0.000524	20.888570
370.092327	-2.998100	3.811900	-11.426000	23.630906	0.000526	20.881483
371.095150	-3.004400	3.811200	-11.449000	23.627221	0.000529	20.893434
372.093745	-2.974800	3.811800	-11.338000	23.658782	0.000529	20.888566
373.096214	-3.017700	3.809800	-11.496000	23.678400	0.000530	20.903964
374.098073	-3.005500	3.812100	-11.457000	23.687336	0.000528	20.890165
375.098145	-3.009500	3.810600	-11.466000	23.693982	0.000527	20.895405
376.096197	-3.007600	3.811100	-11.462000	23.694509	0.000529	20.882183
377.095490	-3.007100	3.810300	-11.457000	23.683179	0.000530	20.882678
378.095718	-3.011700	3.811500	-11.478000	23.678478	0.000529	20.874173
379.092166	-3.010600	3.810000	-11.470000	23.687637	0.000531	20.880984
380.102945	-3.005400	3.808600	-11.445000	23.650372	0.000532	20.887246
381.094577	-3.023400	3.809200	-11.516000	23.684478	0.000532	20.896782
382.095889	-3.003800	3.808500	-11.438000	23.710510	0.000530	20.884950
383.095825	-2.994100	3.808200	-11.401000	23.698991	0.000530	20.894263
384.093958	-2.994600	3.809100	-11.406000	23.750240	0.000531	20.871679
385.097259	-2.993300	3.807100	-11.395000	23.775679	0.000531	20.899078
386.100906	-2.999400	3.808500	-11.422000	23.754225	0.000530	20.887527
387.094756	-2.970000	3.809200	-11.312000	23.760447	0.000531	20.885704
388.093347	-2.992600	3.807700	-11.394000	23.760546	0.000532	20.866838
389.097095	-3.006800	3.808200	-11.449000	23.782102	0.000531	20.885131
390.102122	-2.977400	3.808700	-11.339000	23.756516	0.000532	20.877022
391.102930	-2.994600	3.807100	-11.400000	23.757811	0.000532	20.873105
392.097287	-3.023700	3.807000	-11.510000	23.789319	0.000532	20.896160
393.099095	-3.015100	3.806400	-11.476000	23.787979	0.000531	20.859731
394.098373	-3.016100	3.806000	-11.479000	23.798152	0.000531	20.870405
395.099257	-2.975300	3.806500	-11.325000	23.796388	0.000532	20.872903
396.098508	-2.989300	3.806200	-11.377000	23.810674	0.000533	20.874424
397.095256	-2.979900	3.806700	-11.343000	23.788575	0.000532	20.878819
398.098865	-3.022900	3.805000	-11.502000	23.811895	0.000534	20.865692
399.099689	-2.986500	3.806400	-11.366000	23.808362	0.000533	20.855513
400.098490	-3.001100	3.804000	-11.415000	23.825234	0.000533	20.869584
401.099528	-2.994600	3.804700	-11.393000	23.843352	0.000533	20.870681
402.095225	-3.003900	3.804100	-11.427000	23.863040	0.000533	20.861025
403.099795	-3.009300	3.803000	-11.443000	23.827648	0.000533	20.867263
404.100272	-3.017800	3.803000	-11.475000	23.822298	0.000535	20.875649
405.099883	-3.004700	3.801700	-11.421000	23.845169	0.000534	20.887675
406.098787	-2.991700	3.803000	-11.376000	23.847460	0.000536	20.875274
407.100480	-2.983800	3.804000	-11.350000	23.847883	0.000535	20.849147
408.100688	-2.996900	3.802900	-11.396000	23.857937	0.000533	20.879615
409.098895	-2.992300	3.803100	-11.379000	23.882205	0.000534	20.888776
410.100642	-2.990800	3.801900	-11.370000	23.898402	0.000536	20.879887
411.101895	-3.015000	3.801000	-11.459000	23.882304	0.000534	20.870858
412.103446	-3.004000	3.802200	-11.420000	23.884944	0.000534	20.867815
413.098813	-3.013900	3.802000	-11.458000	23.892686	0.000535	20.861355
414.107262	-2.975400	3.803600	-11.316000	23.913965	0.000535	20.858510
415.100530	-3.021200	3.801300	-11.483000	23.914088	0.000537	20.867168
416.106249	-2.977700	3.801800	-11.319000	23.913615	0.000535	20.869539
417.105075	-3.008400	3.800500	-11.433000	23.873052	0.000536	20.860633
418.105202	-2.976900	3.801500	-11.315000	23.892316	0.000534	20.842019
419.109598	-2.989200	3.799700	-11.356000	23.870363	0.000536	20.868842
420.105087	-2.998400	3.800600	-11.395000	23.860610	0.000537	20.855744
421.109753	-2.985200	3.801200	-11.346000	23.868352	0.000537	20.850231
422.105945	-2.994100	3.799600	-11.375000	23.889652	0.000537	20.857838
423.106714	-2.989300	3.800200	-11.358000	23.898217	0.000540	20.853625
424.104960	-2.996800	3.800500	-11.388000	23.913521	0.000535	20.863754
425.106252	-3.006300	3.800200	-11.424000	23.893040	0.000536	20.857442
426.107809	-3.017300	3.797900	-11.459000	23.896901	0.000536	20.848512
427.105739	-3.007400	3.798300	-11.423000	23.886922	0.000536	20.847514
428.108099	-2.981000	3.799000	-11.324000	23.882292	0.000536	20.860415
429.108297	-3.001700	3.798000	-11.399000	23.906185	0.000536	20.855451
430.104306	-3.016800	3.797400	-11.455000	23.914898	0.000537	20.843800
431.112541	-2.995000	3.798000	-11.374000	23.932644	0.000536	20.863491
432.112422	-2.999300	3.797500	-11.389000	23.963654	0.000538	20.839112
433.108919	-2.992400	3.797000	-11.362000	23.991653	0.000538	20.857232
434.115350	-2.999700	3.797500	-11.390000	23.988191	0.000538	20.862769
435.111875	-3.001100	3.797300	-11.395000	23.966663	0.000539	20.864888
436.112210	-2.993800	3.795900	-11.364000	23.959575	0.000536	20.837393
437.117906	-3.005400	3.796100	-11.408000	23.976375	0.000541	20.860403
438.114893	-2.989700	3.796400	-11.349000	24.006787	0.000541	20.858659
439.111039	-3.012700	3.795000	-11.433000	23.980955	0.000540	20.846504
440.117056	-2.996000	3.796200	-11.373000	23.988027	0.000541	20.851225
441.120275	-3.010800	3.795400	-11.426000	23.993877	0.000540	20.852825
442.116253	-2.990300	3.795400	-11.349000	24.032569	0.000542	20.846109
443.115214	-2.998700	3.794300	-11.377000	24.043152	0.000541	20.857669
444.125719	-3.002000	3.792900	-11.385000	24.073755	0.000541	20.837628
445.108601	-2.995600	3.793700	-11.364000	24.094709	0.000540	20.856746
446.113783	-2.988400	3.795000	-11.340000	24.066343	0.000541	20.848211
447.117337	-2.998100	3.793600	-11.372000	24.064324	0.000542	20.845713
448.110754	-2.989200	3.794200	-11.341000	24.081299	0.000542	20.833814
449.111547	-2.966100	3.793500	-11.251000	24.069780	0.000542	20.837908
450.114265	-3.003300	3.793300	-11.391000	24.051543	0.000543	20.845696
451.114161	-3.003100	3.791200	-11.385000	24.039324	0.000543	20.845296
452.111488	-2.997800	3.791900	-11.367000	24.027159	0.000543	20.831674
453.119388	-2.998100	3.793600	-11.373000	24.020988	0.000543	20.849193
454.110229	-3.003600	3.792000	-11.388000	24.009813	0.000542	20.838461
455.114995	-3.004200	3.791300	-11.389000	24.006384	0.000544	20.855884
456.118197	-3.002700	3.791700	-11.385000	24.011980	0.000543	20.823090
457.112950	-3.002500	3.791500	-11.383000	24.009895	0.000543	20.837595
458.119921	-3.000300	3.790200	-11.371000	24.031936	0.000542	20.847370
459.118870	-3.028900	3.791000	-11.482000	24.035476	0.000543	20.820101
460.113939	-3.007500	3.790700	-11.399000	24.080366	0.000543	20.828611
461.114447	-3.019400	3.789300	-11.439000	24.103704	0.000543	20.822620
462.119496	-3.013600	3.789100	-11.418000	24.104029	0.000542	20.835274
463.118058	-3.020400	3.789700	-11.446000	24.107511	0.000543	20.838292
464.117562	-3.007800	3.789000	-11.395000	24.134413	0.000541	20.838246
465.117037	-3.020500	3.788500	-11.442000	24.103959	0.000542	20.821453
466.115989	-3.019300	3.788200	-11.437000	24.113188	0.000543	20.829761
467.114859	-2.996000	3.789800	-11.353000	24.111223	0.000541	20.819256
468.116802	-3.009100	3.787500	-11.395000	24.100005	0.000541	20.827444
469.115055	-3.012200	3.787700	-11.409000	24.123347	0.000544	20.833785
470.117495	-3.014200	3.787800	-11.416000	24.137081	0.000541	20.824327
471.119442	-2.994900	3.787800	-11.343000	24.152337	0.000543	20.814498
472.118560	-2.968200	3.787900	-11.242000	24.177396	0.000545	20.823511
473.124109	-2.994800	3.787000	-11.340000	24.193169	0.000544	20.812305
474.120794	-2.994300	3.787200	-11.338000	24.166873	0.000544	20.825284
475.116708	-3.006000	3.785900	-11.379000	24.160879	0.000545	20.835393
476.119318	-2.995300	3.786700	-11.341000	24.131421	0.000543	20.811064
477.120591	-3.013100	3.786300	-11.408000	24.120621	0.000544	20.835319
478.122082	-2.989200	3.785500	-11.315000	24.107964	0.000544	20.816461
479.124475	-3.001800	3.785300	-11.361000	24.135782	0.000544	20.808800
480.122446	-3.004300	3.785400	-11.372000	24.176118	0.000546	20.823177
481.121500	-2.998800	3.785000	-11.348000	24.170194	0.000544	20.803486
482.117348	-2.989200	3.785100	-11.313000	24.177462	0.000546	20.801766
483.121878	-3.003600	3.784900	-11.367000	24.190505	0.000544	20.839978
484.117896	-2.981300	3.785300	-11.284000	24.213566	0.000545	20.829918
485.121156	-3.009600	3.783100	-11.385000	24.238451	0.000545	20.806990
486.122169	-3.019000	3.784100	-11.423000	24.240219	0.000546	20.816350
487.123741	-3.008700	3.785000	-11.387000	24.222585	0.000547	20.829481
488.122303	-3.025500	3.782300	-11.443000	24.233260	0.000544	20.809844
489.125877	-3.016400	3.783300	-11.412000	24.231571	0.000545	20.818106
490.127057	-3.009200	3.782500	-11.381000	24.222544	0.000544	20.803362
491.124757	-3.010100	3.781400	-11.382000	24.240207	0.000547	20.813493
492.126511	-2.991200	3.783000	-11.315000	24.266781	0.000547	20.801742
493.121100	-3.021500	3.782300	-11.427000	24.280863	0.000546	20.799747
494.126820	-3.001200	3.782200	-11.350000	24.279075	0.000545	20.809333
495.137595	-2.996400	3.781200	-11.329000	24.270271	0.000545	20.819941
496.126022	-3.000000	3.781800	-11.344000	24.301070	0.000548	20.825705
497.126165	-2.982700	3.780700	-11.276000	24.294259	0.000545	20.803227
498.128854	-2.990300	3.781800	-11.308000	24.262544	0.000546	20.806501
499.135898	-3.010400	3.779500	-11.377000	24.246945	0.000546	20.811716
500.125584	-3.002000	3.780200	-11.348000	24.280235	0.000545	20.794849
501.127189	-2.997000	3.780500	-11.328000	24.303072	0.000547	20.798316
502.123248	-2.989200	3.780300	-11.299000	24.334844	0.000547	20.800316
503.127000	-3.002900	3.780400	-11.351000	24.340392	0.000546	20.799718
504.126915	-3.002800	3.779600	-11.347000	24.347339	0.000545	20.798152
505.130151	-2.990100	3.780300	-11.303000	24.356644	0.000547	20.786624
506.123844	-3.000800	3.779200	-11.340000	24.350853	0.000546	20.786030
507.125695	-3.006700	3.777600	-11.357000	24.347594	0.000544	20.802201
508.132523	-3.004600	3.778100	-11.350000	24.291970	0.000546	20.796664
509.128356	-3.000500	3.778500	-11.337000	24.338967	0.000545	20.795917
510.129475	-3.001700	3.777700	-11.338000	24.326431	0.000546	20.789506
511.130236	-3.019100	3.777600	-11.405000	24.311556	0.000546	20.807301
512.133204	-3.027600	3.775600	-11.430000	24.299246	0.000547	20.775987
513.126857	-3.002700	3.777400	-11.341000	24.319078	0.000546	20.773121
514.140035	-3.015300	3.776300	-11.386000	24.307405	0.000546	20.773265
515.134278	-2.989200	3.776900	-11.289000	24.291938	0.000548	20.782406
516.132356	-2.975300	3.778400	-11.241000	24.275743	0.000547	20.792714
517.141324	-2.976800	3.776400	-11.241000	24.307689	0.000548	20.771179
518.136517	-2.994300	3.776000	-11.306000	24.321622	0.000547	20.798433
519.143862	-3.014100	3.775400	-11.378000	24.294807	0.000547	20.773431
520.130845	-2.995500	3.774600	-11.306000	24.348569	0.000549	20.795118
521.136773	-3.007300	3.774300	-11.350000	24.353000	0.000548	20.786287
522.129688	-3.004600	3.774000	-11.339000	24.322054	0.000548	20.780848
523.144612	-3.011200	3.774900	-11.367000	24.321360	0.000545	20.775410
524.132948	-3.003800	3.773700	-11.334000	24.322162	0.000547	20.777637
525.133270	-3.002000	3.773600	-11.328000	24.346642	0.000547	20.792711
526.137438	-2.973900	3.775900	-11.228000	24.344603	0.000547	20.780709
527.133204	-3.015900	3.772800	-11.378000	24.382592	0.000547	20.784205
528.137337	-3.005300	3.773200	-11.339000	24.384261	0.000546	20.783034
529.141502	-3.017300	3.772000	-11.380000	24.374360	0.000549	20.776895
530.138246	-3.003100	3.773000	-11.330000	24.395732	0.000549	20.788378
531.140032	-3.001200	3.772200	-11.320000	24.432992	0.000550	20.786877
532.146178	-3.002500	3.771400	-11.323000	24.450980	0.000548	20.774578
533.137300	-3.006500	3.772800	-11.342000	24.459138	0.000550	20.786556
534.139239	-3.003200	3.771100	-11.325000	24.444540	0.000547	20.776652
535.158259	-2.991200	3.772200	-11.283000	24.444964	0.000548	20.783715
536.135594	-2.991900	3.770500	-11.279000	24.452526	0.000548	20.796043
537.137110	-2.984200	3.770700	-11.252000	24.435191	0.000545	20.789558
538.135514	-3.013700	3.769900	-11.360000	24.430165	0.000548	20.775032
539.144317	-2.998800	3.771000	-11.308000	24.470411	0.000548	20.775106
540.134432	-3.005400	3.770300	-11.331000	24.452255	0.000548	20.770166
541.146226	-2.992400	3.768900	-11.278000	24.443004	0.000550	20.759463
542.136150	-3.006400	3.770000	-11.333000	24.442934	0.000548	20.768402
543.138087	-3.017500	3.768900	-11.372000	24.463552	0.000549	20.754948
544.158053	-2.985700	3.769500	-11.254000	24.470099	0.000549	20.762939
545.147185	-2.979200	3.769700	-11.229000	24.451269	0.000551	20.777238
546.146163	-2.991500	3.769000	-11.274000	24.416718	0.000551	20.777663
547.137989	-2.993600	3.768500	-11.281000	24.437365	0.000550	20.754280
548.140954	-3.015000	3.766700	-11.356000	24.417466	0.000551	20.768930
549.137836	-2.991300	3.767700	-11.270000	24.459081	0.000549	20.749514
550.155528	-3.003100	3.767900	-11.315000	24.470950	0.000550	20.783233
551.142038	-2.979400	3.766900	-11.222000	24.463314	0.000551	20.754235
552.139439	-3.007100	3.766500	-11.325000	24.496898	0.000551	20.768015
553.140539	-2.998000	3.767000	-11.293000	24.501349	0.000551	20.764420
554.136607	-3.017300	3.764700	-11.358000	24.449933	0.000553	20.760251
555.139523	-2.987100	3.765700	-11.247000	24.446329	0.000551	20.768489
556.139732	-2.987300	3.766800	-11.252000	24.448442	0.000552	20.752116
557.145954	-2.991200	3.765400	-11.262000	24.458839	0.000552	20.757806
558.139949	-3.020300	3.764900	-11.370000	24.495875	0.000551	20.759402
559.145830	-3.013000	3.765200	-11.344000	24.497593	0.000551	20.760651
560.150091	-3.009800	3.764800	-11.330000	24.499532	0.000553	20.747424
561.142602	-3.010600	3.764200	-11.332000	24.496475	0.000551	20.765220
562.143905	-2.988600	3.764200	-11.249000	24.516718	0.000553	20.767986
563.144520	-3.008400	3.764000	-11.323000	24.483435	0.000550	20.775370
564.137070	-2.990400	3.763400	-11.253000	24.441726	0.000552	20.760552
565.143277	-3.006300	3.763300	-11.313000	24.476819	0.000551	20.765887
566.138522	-2.989300	3.763300	-11.248000	24.470449	0.000551	20.763289
567.137043	-2.994700	3.762300	-11.265000	24.507611	0.000550	20.744624
568.145175	-3.007800	3.762200	-11.316000	24.525373	0.000550	20.762444
569.139390	-3.012400	3.761300	-11.328000	24.536365	0.000550	20.749765
570.139344	-2.994000	3.763200	-11.266000	24.535991	0.000550	20.761719
571.143378	-3.020400	3.761700	-11.361000	24.517959	0.000549	20.755480
572.136611	-3.005900	3.760700	-11.303000	24.530546	0.000548	20.751514
573.138671	-2.997700	3.760900	-11.274000	24.532260	0.000548	20.759397
574.146170	-3.009300	3.761000	-11.317000	24.544255	0.000549	20.761950
575.138642	-3.015300	3.760900	-11.339000	24.520425	0.000549	20.771705
576.151277	-2.993800	3.762200	-11.262000	24.525476	0.000548	20.773453
577.147739	-3.004400	3.761300	-11.298000	24.556842	0.000549	20.736646
578.145994	-2.999800	3.760600	-11.279000	24.559353	0.000550	20.738691
579.144272	-2.997400	3.759100	-11.266000	24.565698	0.000549	20.760705
580.150999	-2.998700	3.759800	-11.274000	24.557069	0.000549	20.759159
581.147295	-2.993500	3.759400	-11.253000	24.561597	0.000547	20.749477
582.155437	-2.984000	3.759700	-11.218000	24.527798	0.000549	20.738798
583.150731	-2.980700	3.758400	-11.202000	24.500663	0.000547	20.748084
584.145687	-2.992800	3.759100	-11.250000	24.551205	0.000547	20.752801
585.157633	-3.007000	3.759300	-11.304000	24.529717	0.000548	20.767752
586.146149	-2.975300	3.760300	-11.187000	24.563615	0.000548	20.768098
587.147043	-3.006400	3.758400	-11.298000	24.577817	0.000548	20.741095
588.148139	-3.004600	3.758500	-11.292000	24.583442	0.000547	20.745317
589.150047	-2.997400	3.758100	-11.264000	24.592972	0.000549	20.761044
590.149303	-2.987100	3.758000	-11.225000	24.641718	0.000547	20.768704
591.147274	-2.986400	3.757100	-11.218000	24.631376	0.000547	20.764491
592.146516	-3.006700	3.757200	-11.296000	24.660948	0.000547	20.752913
593.150189	-2.983700	3.756500	-11.208000	24.609692	0.000548	20.742733
594.149038	-3.002200	3.755300	-11.274000	24.585469	0.000548	20.746402
595.149441	-2.977300	3.757300	-11.186000	24.631232	0.000549	20.744432
596.147467	-2.986700	3.755100	-11.214000	24.639043	0.000547	20.754167
597.149229	-3.016800	3.754500	-11.325000	24.629125	0.000547	20.761758
598.150734	-3.006000	3.754900	-11.287000	24.650339	0.000549	20.758389
599.167926	-2.989700	3.755800	-11.227000	24.651929	0.000548	20.755717
600.153499	-2.996500	3.754100	-11.249000	24.636463	0.000549	20.746836
601.151596	-3.007300	3.753600	-11.288000	24.625324	0.000549	20.744667
602.155883	-3.015200	3.752400	-11.314000	24.603164	0.000547	20.756097
603.152151	-2.990800	3.754500	-11.227000	24.581455	0.000548	20.744746
604.151119	-3.017400	3.754500	-11.328000	24.566308	0.000550	20.743773
605.151575	-2.996600	3.753300	-11.246000	24.599983	0.000548	20.761915
606.151446	-2.995400	3.753900	-11.243000	24.611403	0.000546	20.764364
607.150058	-3.012100	3.752700	-11.302000	24.600238	0.000550	20.742256
608.151715	-2.992300	3.753000	-11.229000	24.665769	0.000550	20.727878
609.155163	-2.988500	3.752700	-11.214000	24.641197	0.000548	20.754431
610.153509	-3.003600	3.751300	-11.266000	24.626105	0.000549	20.763944
611.153733	-2.997600	3.751800	-11.246000	24.604122	0.000546	20.749946
612.151634	-2.998000	3.750700	-11.244000	24.643269	0.000550	20.742285
613.153422	-3.001000	3.751100	-11.257000	24.659142	0.000549	20.771964
614.150302	-3.000600	3.751500	-11.255000	24.647078	0.000550	20.756539
615.160648	-3.000400	3.749200	-11.248000	24.621689	0.000548	20.758564
616.151342	-3.009900	3.749600	-11.285000	24.641663	0.000548	20.762011
617.154088	-2.988500	3.751500	-11.210000	24.641889	0.000549	20.746116
618.155187	-3.027000	3.748000	-11.345000	24.646269	0.000549	20.761418
619.156707	-2.996200	3.750900	-11.237000	24.650370	0.000548	20.754152
620.154915	-2.983600	3.750300	-11.189000	24.687231	0.000550	20.750363
621.152636	-3.013700	3.748800	-11.297000	24.705988	0.000549	20.753539
622.153903	-3.016400	3.747200	-11.302000	24.726129	0.000550	20.753361
623.155842	-3.005800	3.748700	-11.267000	24.719666	0.000549	20.741185
624.155527	-2.987300	3.749400	-11.199000	24.720504	0.000548	20.748190
625.153727	-3.010000	3.748000	-11.281000	24.725882	0.000549	20.751217
626.159049	-2.988500	3.748400	-11.201000	24.703581	0.000549	20.765348
627.155784	-2.995200	3.747700	-11.224000	24.733266	0.000550	20.763842
628.153863	-2.996900	3.747600	-11.229000	24.744531	0.000550	20.776571
629.157946	-2.995900	3.747400	-11.226000	24.706313	0.000546	20.749123
630.157125	-3.002800	3.747800	-11.252000	24.704246	0.000550	20.760325
631.158353	-2.998600	3.747200	-11.235000	24.687265	0.000546	20.776476
632.159914	-2.976700	3.747800	-11.156000	24.654040	0.000548	20.764948
633.155725	-3.001600	3.746100	-11.244000	24.640283	0.000547	20.754462
634.157739	-2.996800	3.746900	-11.227000	24.619742	0.000549	20.743808
635.157416	-3.002800	3.746100	-11.248000	24.680428	0.000549	20.759658
636.159956	-3.003600	3.746000	-11.251000	24.736130	0.000549	20.762923
637.156213	-3.011500	3.745600	-11.279000	24.775149	0.000548	20.746604
638.169864	-3.012000	3.744800	-11.279000	24.774996	0.000549	20.767314
639.156034	-3.019400	3.744000	-11.304000	24.759055	0.000548	20.754635
640.158411	-3.033500	3.744200	-11.357000	24.764729	0.000548	20.750846
641.161799	-2.999600	3.744300	-11.230000	24.737818	0.000547	20.763195
642.159854	-2.987300	3.745000	-11.187000	24.700417	0.000551	20.765966
643.158663	-3.003000	3.744000	-11.242000	24.717525	0.000547	20.771281
644.158752	-3.016700	3.744000	-11.293000	24.738192	0.000547	20.759303
645.168527	-2.987400	3.743700	-11.183000	24.733216	0.000547	20.760474
646.160388	-2.995400	3.743200	-11.212000	24.719715	0.000547	20.758305
647.165773	-2.992400	3.742600	-11.198000	24.725681	0.000547	20.798905
648.162539	-3.000400	3.742600	-11.229000	24.747366	0.000547	20.767562
649.164885	-3.024500	3.742000	-11.316000	24.730283	0.000544	20.780764
650.165877	-3.009500	3.742100	-11.261000	24.717003	0.000546	20.772654
651.164274	-3.010500	3.741400	-11.263000	24.734979	0.000545	20.762242
652.161311	-3.006400	3.740900	-11.246000	24.776853	0.000544	20.780083
653.167951	-3.026900	3.740900	-11.322000	24.782975	0.000543	20.769157
654.165591	-2.999900	3.740700	-11.220000	24.761093	0.000543	20.784182
655.163241	-3.017700	3.740200	-11.286000	24.716580	0.000544	20.755633
656.165917	-3.000600	3.740900	-11.224000	24.697203	0.000544	20.794984
657.163078	-3.005100	3.741300	-11.242000	24.743907	0.000546	20.776892
658.165304	-2.978200	3.739900	-11.137000	24.776134	0.000544	20.762766
659.162635	-3.007600	3.739300	-11.245000	24.772605	0.000544	20.769182
660.165304	-3.018500	3.739200	-11.285000	24.773575	0.000543	20.759249
661.164537	-2.999700	3.738600	-11.214000	24.775769	0.000542	20.763348
662.171680	-2.999400	3.740700	-11.219000	24.743710	0.000545	20.776694
663.165765	-2.997300	3.739400	-11.208000	24.791179	0.000543	20.789245
664.166575	-3.009900	3.738000	-11.250000	24.783472	0.000541	20.787674
665.167790	-2.982300	3.739200	-11.150000	24.798916	0.000543	20.793216
666.166854	-3.020800	3.737400	-11.289000	24.842505	0.000542	20.763467
667.166596	-2.995600	3.738300	-11.197000	24.812563	0.000541	20.765660
668.169415	-2.973600	3.737600	-11.114000	24.799133	0.000540	20.806236
669.171513	-2.993500	3.738500	-11.191000	24.805550	0.000541	20.817418
670.170118	-2.981400	3.737800	-11.143000	24.828878	0.000540	20.771128
671.173504	-2.972200	3.736900	-11.106000	24.853691	0.000540	20.778488
672.167251	-3.007800	3.736200	-11.236000	24.883331	0.000540	20.792589
673.171079	-3.002200	3.736200	-11.215000	24.920727	0.000540	20.778438
674.174732	-3.012100	3.735200	-11.250000	24.933708	0.000541	20.785303
675.169087	-2.984700	3.737100	-11.153000	24.914630	0.000539	20.776587
676.174876	-3.005800	3.735000	-11.225000	24.846058	0.000540	20.790742
677.177422	-2.990100	3.735700	-11.169000	24.819449	0.000540	20.791537
678.169172	-3.005100	3.735500	-11.224000	24.819128	0.000540	20.789793
679.176754	-3.024600	3.734200	-11.294000	24.830718	0.000542	20.792416
680.172160	-3.012000	3.734100	-11.246000	24.829872	0.000540	20.802472
681.170823	-3.013900	3.733500	-11.251000	24.849464	0.000540	20.782780
682.175432	-3.008800	3.733000	-11.230000	24.899571	0.000542	20.788025
683.174678	-2.997300	3.735000	-11.194000	24.847406	0.000541	20.793043
684.172330	-3.020600	3.733000	-11.274000	24.856732	0.000538	20.791971
685.174462	-3.020700	3.733400	-11.276000	24.830053	0.000541	20.791748
686.179062	-2.999000	3.731900	-11.191000	24.792104	0.000541	20.785431
687.172816	-2.987900	3.734200	-11.156000	24.781065	0.000539	20.793793
688.178625	-2.989700	3.733100	-11.160000	24.806159	0.000540	20.794321
689.178107	-3.015200	3.730800	-11.248000	24.810736	0.000540	20.785164
690.172877	-2.993400	3.732300	-11.171000	24.829260	0.000539	20.774357
691.176758	-2.986700	3.732000	-11.146000	24.852533	0.000538	20.788231
692.178602	-2.983200	3.732300	-11.133000	24.865195	0.000540	20.800939
693.172967	-2.991900	3.732900	-11.167000	24.854329	0.000542	20.799517
694.174122	-2.998400	3.730800	-11.185000	24.859181	0.000542	20.797274
695.173324	-2.991300	3.730800	-11.159000	24.871538	0.000539	20.811572
696.178177	-2.983200	3.731100	-11.129000	24.852887	0.000540	20.798543
697.177485	-3.006900	3.730800	-11.217000	24.879348	0.000538	20.787642
698.174686	-2.993200	3.730800	-11.166000	24.848393	0.000539	20.790240
699.173666	-3.014200	3.729400	-11.239000	24.847074	0.000538	20.813572
700.177704	-3.006200	3.730400	-11.213000	24.833550	0.000540	20.798103
701.176692	-3.002000	3.729200	-11.195000	24.851179	0.000538	20.788294
702.181561	-2.982600	3.728600	-11.120000	24.840563	0.000538	20.798503
703.175518	-3.006500	3.727800	-11.206000	24.857074	0.000538	20.809384
704.179497	-2.983100	3.729700	-11.125000	24.851355	0.000538	20.801748
705.178495	-2.994700	3.729100	-11.167000	24.883786	0.000539	20.825287
706.175728	-2.982000	3.729900	-11.121000	24.890646	0.000539	20.811309
707.191730	-3.002800	3.728100	-11.194000	24.905694	0.000537	20.809817
708.177916	-2.982100	3.728600	-11.118000	24.921530	0.000539	20.811487
709.177809	-2.979600	3.728900	-11.110000	24.958328	0.000536	20.792471
710.178800	-3.001900	3.728600	-11.191000	24.933788	0.000538	20.819523
711.182374	-2.997800	3.727700	-11.174000	24.901939	0.000539	20.794669
712.179650	-3.001000	3.726900	-11.184000	24.893140	0.000537	20.813339
713.183923	-2.997900	3.728000	-11.175000	24.909449	0.000538	20.816905
714.181572	-3.001300	3.725900	-11.181000	24.927224	0.000536	20.815305
715.180768	-3.002500	3.726500	-11.188000	24.931003	0.000537	20.801080
716.180711	-2.990500	3.726200	-11.142000	24.951222	0.000535	20.814262
717.182360	-3.005000	3.727300	-11.200000	24.958633	0.000538	20.803682
718.183783	-3.008400	3.725100	-11.205000	24.973922	0.000535	20.836097
719.189415	-2.986100	3.725900	-11.125000	24.965197	0.000536	20.824970
720.182438	-3.019200	3.724400	-11.244000	24.951005	0.000535	20.809303
721.185974	-3.009400	3.723700	-11.205000	24.933226	0.000536	20.819907
722.183685	-3.002700	3.724500	-11.182000	24.972484	0.000535	20.800516
723.184934	-3.013700	3.724700	-11.224000	25.009852	0.000535	20.824747
724.187179	-3.006200	3.723400	-11.192000	24.970599	0.000535	20.818538
725.183137	-3.001100	3.723100	-11.172000	24.944770	0.000534	20.810631
726.184203	-2.998000	3.724200	-11.164000	24.878085	0.000534	20.826677
727.185897	-3.003400	3.722800	-11.180000	24.859488	0.000536	20.820815
728.186814	-2.991900	3.723800	-11.140000	24.830245	0.000536	20.809010
729.183058	-2.992400	3.723700	-11.142000	24.880530	0.000536	20.823441
730.186251	-2.984800	3.722900	-11.111000	24.882346	0.000535	20.820048
731.184721	-3.000900	3.722400	-11.170000	24.899555	0.000536	20.815983
732.186849	-2.990300	3.722100	-11.129000	24.909775	0.000535	20.832879
733.186322	-2.989500	3.722300	-11.127000	24.961863	0.000536	20.834425
734.187969	-3.009300	3.720900	-11.196000	25.003191	0.000534	20.826596
735.187186	-2.999100	3.721700	-11.161000	25.003019	0.000536	20.810302
736.186912	-3.002900	3.720800	-11.172000	25.015104	0.000534	20.843769
737.192779	-2.993800	3.720600	-11.138000	25.031164	0.000533	20.815320
738.188643	-3.009800	3.720900	-11.198000	25.014837	0.000532	20.836863
739.191202	-3.000800	3.720600	-11.164000	25.063067	0.000535	20.836913
740.188003	-2.987000	3.720200	-11.111000	25.073936	0.000534	20.826960
741.192384	-3.005700	3.719400	-11.179000	25.036275	0.000535	20.842735
742.189746	-3.014500	3.720300	-11.213000	25.058156	0.000534	20.846681
743.192466	-3.006800	3.720100	-11.185000	25.048886	0.000533	20.825522
744.192309	-3.004100	3.718900	-11.171000	25.005079	0.000534	20.837499
745.189773	-3.006400	3.718500	-11.178000	25.013331	0.000533	20.830610
746.191505	-3.028300	3.717400	-11.256000	24.990139	0.000530	20.819185
747.190928	-3.014200	3.717900	-11.204000	25.035339	0.000533	20.828520
748.190784	-2.993000	3.719500	-11.132000	25.068360	0.000533	20.831320
749.189803	-3.003300	3.718000	-11.165000	25.114501	0.000533	20.832594
750.192672	-3.007200	3.717700	-11.179000	25.092581	0.000533	20.831927
751.190968	-2.987300	3.719300	-11.110000	25.099371	0.000531	20.840165
752.191750	-3.016400	3.716400	-11.209000	25.114161	0.000530	20.833675
753.193599	-2.998400	3.717500	-11.145000	25.079862	0.000530	20.845236
754.192797	-2.990000	3.717400	-11.114000	25.024045	0.000532	20.818606
755.191263	-3.009000	3.715600	-11.179000	24.982136	0.000530	20.829644
756.196230	-2.968300	3.716500	-11.030000	24.964982	0.000530	20.837082
757.193509	-3.005200	3.715900	-11.166000	24.946937	0.000531	20.866383
758.192297	-3.013000	3.715000	-11.192000	24.932096	0.000531	20.838686
759.197080	-3.001300	3.715600	-11.151000	24.972726	0.000531	20.851966
760.193801	-2.976700	3.715600	-11.059000	24.937572	0.000529	20.845131
761.197112	-3.029100	3.715000	-11.253000	24.923355	0.000529	20.822802
762.198301	-2.989800	3.716500	-11.111000	24.932060	0.000530	20.848133
763.196711	-3.013500	3.715200	-11.195000	24.977784	0.000530	20.832862
764.199516	-2.995400	3.714800	-11.126000	25.005979	0.000529	20.828446
765.199888	-2.983200	3.713700	-11.077000	24.993899	0.000528	20.827700
766.196313	-3.012600	3.713600	-11.187000	25.036018	0.000530	20.861443
767.196781	-3.002600	3.714800	-11.154000	25.033484	0.000526	20.836615
768.202117	-2.986700	3.712700	-11.088000	25.022127	0.000527	20.829957
769.196656	-3.009100	3.712800	-11.172000	25.061132	0.000527	20.846349
770.197480	-3.008800	3.712000	-11.168000	25.095888	0.000528	20.848048
771.201015	-2.994700	3.712500	-11.117000	25.101950	0.000529	20.847969
772.198328	-2.977100	3.712100	-11.050000	25.083066	0.000528	20.837073
773.199009	-2.987500	3.713400	-11.093000	25.039083	0.000527	20.834174
774.205456	-2.999600	3.712200	-11.134000	25.051114	0.000528	20.850043
775.197894	-2.973000	3.712600	-11.037000	25.087238	0.000528	20.859753
776.198948	-2.960700	3.712700	-10.991000	25.078387	0.000527	20.843282
777.201994	-2.969600	3.712800	-11.025000	25.104267	0.000527	20.856459
778.202513	-3.007100	3.710700	-11.157000	25.113640	0.000529	20.860178
779.211901	-3.017500	3.710500	-11.195000	25.099298	0.000528	20.843884
780.202321	-2.999900	3.711300	-11.132000	25.064944	0.000527	20.862978
781.201902	-3.018800	3.709700	-11.198000	25.061736	0.000526	20.831784
782.200994	-2.999400	3.709800	-11.126000	25.069869	0.000526	20.838525
783.204987	-2.989500	3.710400	-11.092000	25.035555	0.000523	20.860504
784.203883	-2.973200	3.710500	-11.031000	25.021113	0.000525	20.848378
785.200621	-2.987900	3.709800	-11.084000	25.056417	0.000525	20.833557
786.206423	-2.998300	3.709500	-11.121000	25.072083	0.000525	20.865876
787.202204	-3.001000	3.709600	-11.131000	25.095203	0.000526	20.874860
788.201430	-3.013100	3.707900	-11.171000	25.116709	0.000528	20.845242
789.209864	-3.008700	3.709200	-11.159000	25.126180	0.000524	20.863757
790.203795	-3.010700	3.708100	-11.163000	25.138687	0.000526	20.871570
791.204009	-2.987900	3.709400	-11.082000	25.117383	0.000524	20.853978
792.209328	-3.007100	3.708700	-11.152000	25.095114	0.000525	20.862443
793.205091	-3.005700	3.709000	-11.147000	25.119675	0.000524	20.861495
794.206995	-2.998900	3.707100	-11.116000	25.133225	0.000524	20.859450
795.205791	-3.024800	3.708600	-11.217000	25.108738	0.000524	20.860947
796.207280	-2.982400	3.707300	-11.056000	25.069662	0.000524	20.865342
797.205451	-3.016500	3.705600	-11.178000	25.077150	0.000523	20.881393
798.211048	-3.025100	3.706400	-11.211000	25.147625	0.000523	20.865371
799.206683	-3.014600	3.706100	-11.172000	25.151802	0.000522	20.859133
800.207438	-3.023700	3.705300	-11.202000	25.145564	0.000523	20.873258
801.211312	-3.009900	3.705700	-11.153000	25.145844	0.000524	20.874962
802.208582	-2.991500	3.705700	-11.085000	25.145022	0.000522	20.873189
803.206030	-2.996100	3.705400	-11.101000	25.118125	0.000523	20.878429
804.209641	-2.999200	3.706300	-11.115000	25.148235	0.000523	20.882577
805.206524	-2.996200	3.704700	-11.099000	25.181498	0.000523	20.887046
806.208282	-3.017100	3.705400	-11.178000	25.177050	0.000521	20.867410
807.210384	-3.003400	3.703900	-11.123000	25.186624	0.000522	20.871331
808.208560	-3.000000	3.704800	-11.114000	25.172430	0.000521	20.862772
809.208538	-3.017600	3.703800	-11.176000	25.165296	0.000521	20.876472
810.210242	-3.014700	3.703300	-11.163000	25.168381	0.000524	20.859655
811.209612	-2.994200	3.703700	-11.089000	25.167042	0.000520	20.886759
812.212419	-2.990500	3.703400	-11.073000	25.164262	0.000521	20.869271
813.210783	-2.983800	3.703700	-11.051000	25.144553	0.000519	20.880304
814.212063	-2.995000	3.704000	-11.092000	25.189402	0.000519	20.869379
815.209738	-2.983000	3.703900	-11.048000	25.143884	0.000520	20.874417
816.216751	-3.004200	3.703200	-11.125000	25.135411	0.000518	20.875394
817.212943	-2.993300	3.702800	-11.083000	25.145064	0.000520	20.867067
818.214820	-3.000900	3.701500	-11.107000	25.149118	0.000520	20.877300
819.215661	-3.001700	3.700500	-11.107000	25.168959	0.000518	20.879201
820.212918	-2.979700	3.700800	-11.027000	25.186833	0.000520	20.887187
821.215706	-3.010200	3.701000	-11.140000	25.224990	0.000519	20.898467
822.226599	-3.005200	3.701100	-11.121000	25.216966	0.000519	20.874766
823.217195	-2.985900	3.701600	-11.051000	25.200534	0.000519	20.899993
824.216966	-2.993500	3.700500	-11.076000	25.193828	0.000520	20.886623
825.223858	-2.992600	3.701200	-11.076000	25.199225	0.000519	20.882559
826.217555	-2.997700	3.699800	-11.089000	25.184982	0.000519	20.890545
827.220606	-2.992200	3.700400	-11.071000	25.190950	0.000519	20.878045
828.221451	-3.005700	3.699000	-11.117000	25.212149	0.000517	20.884154
829.221058	-2.992500	3.698700	-11.068000	25.201296	0.000517	20.892223
830.216855	-3.003400	3.699100	-11.109000	25.188318	0.000518	20.884410
831.219007	-2.992600	3.698800	-11.068000	25.176141	0.000518	20.875980
832.219906	-2.995800	3.698900	-11.080000	25.193965	0.000518	20.886761
833.218628	-2.996600	3.699200	-11.084000	25.191328	0.000517	20.855667
834.225507	-2.987400	3.698000	-11.046000	25.165430	0.000518	20.889882
835.219221	-2.981200	3.698300	-11.025000	25.150169	0.000516	20.880252
836.220784	-3.024000	3.696900	-11.178000	25.164441	0.000517	20.879407
837.222502	-2.987700	3.698200	-11.049000	25.175703	0.000518	20.868902
838.222137	-2.998400	3.696300	-11.082000	25.160018	0.000517	20.880182
839.217705	-2.938900	3.698700	-10.869000	25.148437	0.000516	20.895581
840.229712	-2.998900	3.697700	-11.088000	25.151320	0.000518	20.869080
841.224376	-3.027900	3.696800	-11.193000	25.179166	0.000516	20.883758
842.221606	-2.993700	3.697500	-11.067000	25.177498	0.000514	20.875920
843.230040	-3.007100	3.696200	-11.114000	25.232682	0.000514	20.861622
844.226847	-2.989200	3.696500	-11.049000	25.243225	0.000515	20.863197
845.229008	-3.013900	3.694900	-11.135000	25.258632	0.000513	20.847373
846.226444	-3.017400	3.694800	-11.148000	25.268107	0.000514	20.857834
847.229768	-3.002100	3.695000	-11.092000	25.260403	0.000514	20.865271
848.228175	-3.012700	3.693300	-11.126000	25.179048	0.000513	20.866096
849.225057	-3.016800	3.693200	-11.140000	25.176012	0.000512	20.847403
850.222383	-3.015900	3.693000	-11.137000	25.201073	0.000512	20.840320
851.234298	-2.997900	3.695900	-11.079000	25.197516	0.000512	20.873732
852.231466	-2.985700	3.694900	-11.030000	25.232126	0.000513	20.858218
853.229159	-2.999000	3.693600	-11.076000	25.276642	0.000512	20.855971
854.232903	-3.010600	3.692600	-11.116000	25.307987	0.000512	20.849985
855.233370	-2.990400	3.694200	-11.046000	25.277542	0.000512	20.851185
856.229715	-2.984900	3.693000	-11.023000	25.255768	0.000511	20.857300
857.234798	-2.999400	3.692800	-11.075000	25.224298	0.000512	20.856524
858.232099	-2.994400	3.692100	-11.055000	25.190992	0.000513	20.843002
859.227979	-2.993900	3.692800	-11.055000	25.186200	0.000510	20.844355
860.230540	-2.986200	3.693100	-11.028000	25.231495	0.000510	20.841939
861.231017	-3.003000	3.692100	-11.086000	25.234132	0.000510	20.848379
862.234183	-2.998400	3.691400	-11.067000	25.230078	0.000510	20.832931
863.233369	-3.010400	3.691000	-11.111000	25.269847	0.000510	20.847253
864.239532	-3.005000	3.690600	-11.088000	25.210990	0.000509	20.849328
865.230838	-2.990300	3.691900	-11.039000	25.249279	0.000509	20.822810
866.233000	-2.972300	3.691300	-10.970000	25.183873	0.000508	20.844389
867.239352	-3.001700	3.691100	-11.079000	25.203143	0.000506	20.829596
868.233553	-3.006800	3.688900	-11.091000	25.197102	0.000510	20.833014
869.233055	-3.009900	3.688300	-11.101000	25.209484	0.000508	20.833592
870.232807	-2.992800	3.689300	-11.041000	25.216544	0.000509	20.843524
871.231263	-3.006700	3.689100	-11.091000	25.216676	0.000505	20.833226
872.237711	-3.002900	3.689000	-11.076000	25.250184	0.000509	20.848848
873.238371	-2.999800	3.688600	-11.064000	25.213646	0.000507	20.829235
874.235467	-3.018200	3.688600	-11.131000	25.208948	0.000506	20.828786
875.234499	-3.005300	3.689300	-11.087000	25.154983	0.000507	20.846680
876.234388	-3.008400	3.688100	-11.094000	25.156901	0.000506	20.841019
877.239355	-2.999000	3.687900	-11.058000	25.139622	0.000504	20.835053
878.235862	-2.997300	3.687700	-11.052000	25.142559	0.000505	20.834209
879.238993	-2.978800	3.688000	-10.984000	25.163021	0.000506	20.833413
880.236282	-2.990400	3.686300	-11.022000	25.218678	0.000506	20.833339
881.237643	-2.972400	3.687100	-10.958000	25.249430	0.000502	20.824859
882.235953	-2.979400	3.688800	-10.990000	25.257237	0.000503	20.824162
883.238819	-3.008100	3.686900	-11.089000	25.241205	0.000504	20.817075
884.236404	-2.996200	3.686700	-11.045000	25.231513	0.000502	20.803552
885.240646	-2.995200	3.686900	-11.042000	25.210487	0.000503	20.823693
886.239398	-2.979000	3.687500	-10.984000	25.245588	0.000504	20.805354
887.241089	-3.022600	3.685400	-11.138000	25.221629	0.000502	20.799319
888.240710	-2.998300	3.685000	-11.048000	25.202315	0.000502	20.812644
889.239159	-2.991600	3.685400	-11.024000	25.208336	0.000502	20.826750
890.255426	-2.985700	3.685000	-11.001000	25.201355	0.000502	20.821164
891.241607	-2.992600	3.685400	-11.028000	25.189651	0.000502	20.817474
892.245794	-2.988400	3.684700	-11.011000	25.203052	0.000499	20.833773
893.239142	-2.993000	3.683800	-11.025000	25.209989	0.000501	20.807072
894.241832	-2.985400	3.684900	-11.001000	25.215834	0.000501	20.798241
895.243309	-3.018000	3.683000	-11.115000	25.221649	0.000503	20.815459
896.241055	-2.994700	3.683800	-11.031000	25.201345	0.000502	20.805507
897.243686	-3.020300	3.682400	-11.121000	25.210343	0.000501	20.809799
898.238194	-2.984100	3.682500	-10.988000	25.206024	0.000501	20.809255
899.247887	-2.998600	3.682100	-11.040000	25.204011	0.000503	20.793485
900.243766	-3.016000	3.682700	-11.106000	25.228324	0.000501	20.805091
901.241161	-2.998200	3.682200	-11.039000	25.252415	0.000501	20.763845
902.242662	-3.010600	3.681500	-11.083000	25.252066	0.000501	20.808539
903.243580	-3.003000	3.680800	-11.052000	25.248937	0.000500	20.803501
904.244599	-2.984700	3.681200	-10.986000	25.252120	0.000499	20.791049
905.244601	-2.995400	3.681000	-11.025000	25.258731	0.000501	20.801007
906.244638	-2.984300	3.682400	-10.989000	25.243496	0.000498	20.828858
907.247695	-3.011200	3.680600	-11.082000	25.268831	0.000499	20.818733
908.245904	-3.015600	3.679100	-11.094000	25.259828	0.000497	20.791203
909.242736	-3.007300	3.681500	-11.070000	25.286649	0.000499	20.784940
910.245087	-3.002100	3.681000	-11.050000	25.268905	0.000499	20.804108
911.244373	-3.015500	3.679500	-11.095000	25.271163	0.000498	20.793099
912.243212	-3.009400	3.680000	-11.073000	25.301712	0.000499	20.796744
913.244811	-2.991900	3.679800	-11.009000	25.312229	0.000497	20.787389
914.243118	-3.001500	3.679400	-11.043000	25.275393	0.000497	20.787864
915.245864	-3.009900	3.679800	-11.075000	25.245759	0.000498	20.798888
916.248361	-3.017900	3.677500	-11.097000	25.259366	0.000496	20.798325
917.245555	-3.026200	3.677700	-11.129000	25.284218	0.000497	20.804785
918.243131	-3.008200	3.678400	-11.064000	25.324384	0.000494	20.777309
919.243335	-3.023900	3.677900	-11.121000	25.377229	0.000495	20.783428
920.244265	-3.008100	3.677600	-11.062000	25.396565	0.000496	20.781981
921.245430	-2.980700	3.679000	-10.965000	25.370544	0.000493	20.783354
922.249426	-3.006500	3.676800	-11.052000	25.350986	0.000494	20.802123
923.247807	-2.999000	3.676800	-11.026000	25.311564	0.000493	20.782455
924.254356	-3.004700	3.677300	-11.048000	25.275555	0.000494	20.766689
925.254560	-2.996100	3.677800	-11.017000	25.271807	0.000493	20.788056
926.250604	-3.010900	3.676200	-11.068000	25.295793	0.000495	20.795544
927.245821	-3.007800	3.677000	-11.057000	25.330119	0.000493	20.779748
928.254730	-3.015300	3.675100	-11.080000	25.329721	0.000493	20.787409
929.247913	-3.011600	3.675900	-11.069000	25.330719	0.000493	20.775609
930.248403	-3.009500	3.675200	-11.060000	25.328388	0.000494	20.780854
931.253450	-3.019800	3.674900	-11.096000	25.325111	0.000491	20.777091
932.248171	-3.015300	3.675800	-11.082000	25.334876	0.000493	20.775041
933.252545	-2.981700	3.675400	-10.957000	25.314073	0.000491	20.777861
934.261130	-3.001100	3.673800	-11.025000	25.311544	0.000491	20.774848
935.252596	-3.001100	3.674000	-11.025000	25.293628	0.000491	20.790525
936.254768	-2.967600	3.674200	-10.903000	25.294524	0.000489	20.777673
937.258255	-2.980000	3.673600	-10.946000	25.305262	0.000490	20.774705
938.249944	-2.989800	3.673000	-10.980000	25.309016	0.000491	20.780844
939.254770	-2.972700	3.672600	-10.917000	25.325578	0.000489	20.760016
940.255783	-2.951800	3.674100	-10.844000	25.330852	0.000488	20.768630
941.250212	-2.987200	3.673800	-10.974000	25.322371	0.000489	20.775762
942.254787	-2.995400	3.673600	-11.003000	25.321559	0.000488	20.779688
943.251052	-2.993000	3.672800	-10.991000	25.283362	0.000489	20.774527
944.254797	-2.986000	3.672500	-10.965000	25.296959	0.000491	20.765419
945.253804	-3.004600	3.671400	-11.030000	25.262189	0.000489	20.765597
946.254605	-2.999900	3.671600	-11.014000	25.286077	0.000489	20.789107
947.255930	-2.996200	3.669400	-10.993000	25.317570	0.000489	20.781847
948.255486	-2.991600	3.670300	-10.979000	25.327939	0.000486	20.769025
949.253277	-2.996100	3.670100	-10.995000	25.334083	0.000488	20.773297
950.258223	-3.012600	3.669800	-11.055000	25.348073	0.000488	20.763636
951.256373	-3.016100	3.669200	-11.066000	25.366342	0.000490	20.782928
952.253933	-3.016600	3.668900	-11.066000	25.416667	0.000487	20.761388
953.252416	-3.004900	3.668500	-11.023000	25.437522	0.000489	20.768106
954.257297	-3.004100	3.668500	-11.019000	25.459611	0.000485	20.749984
955.260376	-2.965600	3.669700	-10.881000	25.379845	0.000486	20.772778
956.258486	-2.989900	3.669400	-10.970000	25.345146	0.000486	20.751214
957.261548	-3.003100	3.669000	-11.017000	25.374375	0.000485	20.764915
958.263270	-3.018600	3.667900	-11.071000	25.415727	0.000484	20.760445
959.257246	-3.016800	3.668100	-11.065000	25.432436	0.000488	20.767740
960.256688	-2.997500	3.668200	-10.995000	25.435387	0.000483	20.780187
961.262424	-3.002600	3.667500	-11.011000	25.447118	0.000484	20.752137
962.258482	-2.994300	3.667200	-10.980000	25.427882	0.000482	20.760322
963.255803	-3.003200	3.667600	-11.013000	25.414940	0.000481	20.750171
964.264312	-2.987500	3.668000	-10.957000	25.431462	0.000483	20.771978
965.257551	-3.023000	3.666900	-11.083000	25.441108	0.000481	20.758430
966.258371	-2.994200	3.668100	-10.981000	25.446253	0.000481	20.764545
967.262298	-2.992600	3.665700	-10.969000	25.410415	0.000479	20.745627
968.258651	-2.981000	3.666800	-10.929000	25.413622	0.000481	20.757857
969.261330	-2.995800	3.665000	-10.979000	25.447945	0.000481	20.757709
970.264817	-2.994300	3.666100	-10.977000	25.451697	0.000480	20.755787
971.261817	-2.996800	3.664700	-10.981000	25.473565	0.000480	20.762574
972.260699	-3.006100	3.664900	-11.016000	25.466635	0.000479	20.746605
973.266607	-3.001000	3.664400	-10.996000	25.461716	0.000480	20.751149
974.260338	-2.999400	3.665100	-10.992000	25.488733	0.000477	20.750779
975.259823	-2.998800	3.664900	-10.989000	25.433292	0.000476	20.758642
976.264460	-3.010600	3.663700	-11.029000	25.451383	0.000476	20.760213
977.260296	-2.985600	3.664400	-10.939000	25.442023	0.000477	20.757926
978.262294	-3.006500	3.662700	-11.011000	25.413588	0.000476	20.763512
979.264574	-3.010100	3.663200	-11.025000	25.398384	0.000478	20.750142
980.263827	-3.004800	3.663600	-11.007000	25.402339	0.000478	20.751268
981.264002	-2.991000	3.664600	-10.960000	25.418866	0.000476	20.748423
982.262969	-3.004300	3.662000	-11.001000	25.458657	0.000476	20.761354
983.260725	-2.996000	3.662300	-10.971000	25.434600	0.000474	20.747628
984.264930	-3.005000	3.662300	-11.005000	25.469473	0.000475	20.760835
985.263449	-3.008100	3.662000	-11.015000	25.495049	0.000474	20.730567
986.262791	-2.994000	3.662300	-10.964000	25.536564	0.000475	20.746655
987.260010	-2.997300	3.661000	-10.972000	25.512445	0.000475	20.746615
988.258862	-3.011000	3.661200	-11.022000	25.511255	0.000475	20.759171
989.265263	-2.976800	3.662300	-10.901000	25.530642	0.000476	20.761097
990.263078	-3.011000	3.659800	-11.018000	25.476300	0.000472	20.743982
991.263616	-3.006400	3.661500	-11.007000	25.448938	0.000474	20.734998
992.262277	-3.006900	3.659500	-11.003000	25.444270	0.000475	20.744536
993.260415	-3.003800	3.660500	-10.995000	25.376298	0.000473	20.736025
994.264390	-3.019900	3.659900	-11.052000	25.365467	0.000475	20.746487
995.261944	-3.008600	3.658500	-11.005000	25.383264	0.000474	20.753925
996.265846	-2.993100	3.659800	-10.953000	25.409486	0.000473	20.741849
997.264151	-3.013200	3.657200	-11.018000	25.431477	0.000472	20.749707
998.262634	-3.007100	3.656700	-10.995000	25.453129	0.000474	20.742051
999.265389	-2.988600	3.659900	-10.937000	25.495580	0.000473	20.723040
1000.275941	-2.998800	3.657000	-10.966000	25.495954	0.000471	20.739063
1001.267660	-3.012200	3.656900	-11.015000	25.522444	0.000472	20.723939
1002.268244	-2.996000	3.658100	-10.959000	25.482783	0.000474	20.732000
1003.270077	-3.031100	3.654800	-11.077000	25.518180	0.000470	20.739098
1004.267675	-3.000600	3.657100	-10.973000	25.507069	0.000470	20.739320
1005.275162	-3.008300	3.657200	-11.000000	25.463458	0.000471	20.741044
1006.270267	-2.998300	3.657500	-10.965000	25.457797	0.000471	20.722082
1007.266819	-2.982900	3.656300	-10.904000	25.476064	0.000469	20.711976
1008.267301	-3.014800	3.656100	-11.021000	25.430415	0.000471	20.735838
1009.265528	-2.988000	3.656400	-10.925000	25.388862	0.000471	20.727303
1010.268706	-3.019300	3.654100	-11.032000	25.450517	0.000470	20.713823
1011.269763	-3.019600	3.654400	-11.034000	25.402733	0.000468	20.739335
1012.270651	-2.991400	3.655300	-10.934000	25.446376	0.000469	20.739063
1013.268494	-3.032500	3.652700	-11.075000	25.472002	0.000467	20.734924
1014.269292	-3.017400	3.653800	-11.024000	25.484003	0.000470	20.746976
1015.271151	-3.003600	3.653600	-10.973000	25.462312	0.000467	20.738945
1016.270479	-2.998300	3.653800	-10.954000	25.440966	0.000468	20.721776
1017.271831	-3.012300	3.653800	-11.005000	25.398896	0.000466	20.751130
1018.270453	-3.009400	3.653100	-10.993000	25.444896	0.000467	20.735206
1019.268810	-3.003600	3.652700	-10.971000	25.444802	0.000465	20.742225
1020.271113	-3.014500	3.652700	-11.010000	25.403249	0.000464	20.717568
1021.271351	-2.994100	3.653000	-10.937000	25.417937	0.000467	20.729471
1022.276128	-3.004200	3.651500	-10.968000	25.418316	0.000467	20.720368
1023.271610	-2.996000	3.651800	-10.939000	25.406506	0.000465	20.725105
1024.273875	-2.997500	3.651900	-10.946000	25.384194	0.000465	20.728780
1025.272153	-2.994900	3.652300	-10.938000	25.409496	0.000465	20.734747
1026.276227	-2.999300	3.650900	-10.949000	25.448167	0.000466	20.724740
1027.272813	-3.009300	3.650600	-10.985000	25.445113	0.000462	20.722147
1028.278575	-2.993500	3.649900	-10.925000	25.463680	0.000463	20.739844
1029.275195	-2.999800	3.651100	-10.951000	25.481151	0.000465	20.731309
1030.277055	-3.004400	3.649700	-10.964000	25.487968	0.000464	20.722033
1031.277517	-3.004200	3.649600	-10.963000	25.501360	0.000462	20.705610
1032.274790	-3.030000	3.648100	-11.053000	25.535980	0.000461	20.723308
1033.278136	-2.988800	3.649700	-10.907000	25.436353	0.000461	20.734688
1034.274880	-2.993000	3.648300	-10.918000	25.428798	0.000461	20.729946
1035.281438	-3.000900	3.649700	-10.951000	25.387776	0.000460	20.748499
1036.275586	-3.009600	3.647600	-10.977000	25.384962	0.000459	20.737612
1037.278274	-2.998900	3.648600	-10.941000	25.406836	0.000462	20.717850
1038.276149	-2.999800	3.647600	-10.940000	25.447120	0.000461	20.739810
1039.280328	-3.004200	3.646500	-10.954000	25.497077	0.000460	20.750148
1040.289991	-3.004600	3.648000	-10.960000	25.508359	0.000458	20.739193
1041.277743	-2.982000	3.647600	-10.876000	25.502546	0.000460	20.744735
1042.279147	-2.996700	3.646500	-10.927000	25.480758	0.000457	20.722854
1043.280523	-3.014000	3.647100	-10.991000	25.452752	0.000458	20.744044
1044.280490	-2.996900	3.646100	-10.926000	25.453996	0.000460	20.719213
1045.282822	-3.008300	3.645900	-10.967000	25.479125	0.000458	20.732594
1046.282190	-3.005900	3.645300	-10.957000	25.521349	0.000458	20.717149
1047.280041	-2.989600	3.646500	-10.901000	25.535041	0.000459	20.726633
1048.282843	-3.000100	3.644400	-10.933000	25.527069	0.000457	20.721471
1049.283224	-2.985900	3.645300	-10.884000	25.522525	0.000458	20.718330
1050.284245	-2.975400	3.645300	-10.845000	25.538529	0.000457	20.722074
1051.284095	-2.980700	3.643900	-10.861000	25.552663	0.000458	20.741011
1052.283998	-3.002400	3.643600	-10.939000	25.530704	0.000458	20.724173
1053.281569	-2.996800	3.644300	-10.920000	25.509364	0.000454	20.738305
1054.280292	-3.003900	3.643400	-10.943000	25.481236	0.000455	20.763639
1055.282228	-3.002700	3.641800	-10.934000	25.484197	0.000455	20.735791
1056.281615	-2.988600	3.642900	-10.886000	25.435390	0.000453	20.740360
1057.286150	-2.999200	3.642100	-10.922000	25.445808	0.000454	20.737545
1058.282454	-3.004300	3.642100	-10.941000	25.451750	0.000453	20.732131
1059.285645	-3.006700	3.641700	-10.949000	25.516191	0.000453	20.737575
1060.284159	-3.017000	3.641500	-10.985000	25.518803	0.000452	20.725498
1061.292291	-3.007000	3.642700	-10.952000	25.532997	0.000454	20.725053
1062.284819	-3.021200	3.639200	-10.993000	25.572956	0.000452	20.747641
1063.282544	-3.002100	3.639900	-10.926000	25.526318	0.000454	20.723088
1064.287599	-3.002400	3.640800	-10.930000	25.488693	0.000455	20.735565
1065.283071	-2.970300	3.640700	-10.813000	25.494807	0.000453	20.721314
1066.286122	-2.993100	3.639500	-10.893000	25.553948	0.000453	20.729025
1067.282490	-2.988700	3.639300	-10.876000	25.548956	0.000454	20.748195
1068.285727	-3.009800	3.638200	-10.950000	25.541048	0.000454	20.738829
1069.286342	-3.004000	3.639100	-10.931000	25.580235	0.000452	20.746416
1070.283459	-3.016500	3.637900	-10.973000	25.608936	0.000453	20.737308
1071.285864	-2.998100	3.639300	-10.910000	25.581504	0.000452	20.745794
1072.285114	-3.012900	3.638100	-10.959000	25.565943	0.000451	20.738701
1073.283791	-3.004100	3.636800	-10.924000	25.542464	0.000452	20.754477
1074.285000	-2.998900	3.637800	-10.909000	25.523494	0.000451	20.720726
1075.286395	-2.986600	3.637500	-10.862000	25.503885	0.000452	20.753192
1076.286303	-2.962200	3.638800	-10.777000	25.495135	0.000450	20.746302
1077.285932	-2.992500	3.636300	-10.881000	25.501421	0.000452	20.737441
1078.286536	-2.998300	3.635800	-10.901000	25.541603	0.000451	20.730852
1079.282770	-2.995000	3.637300	-10.893000	25.565101	0.000452	20.748287
1080.282185	-2.991400	3.635900	-10.876000	25.554341	0.000449	20.733212
1081.286705	-2.990100	3.635800	-10.871000	25.582240	0.000449	20.759810
1082.286998	-3.002400	3.635700	-10.915000	25.576545	0.000450	20.746504
1083.285476	-3.011000	3.633700	-10.940000	25.617049	0.000450	20.722696
1084.287629	-3.012500	3.634400	-10.948000	25.571770	0.000448	20.734121
1085.287877	-2.996500	3.634100	-10.889000	25.581827	0.000450	20.746118
1086.287760	-3.004100	3.634600	-10.918000	25.586469	0.000447	20.759316
1087.287423	-2.993600	3.633900	-10.877000	25.540662	0.000447	20.753142
1088.285741	-3.004400	3.633800	-10.917000	25.576195	0.000446	20.767490
1089.286733	-2.998500	3.632800	-10.891000	25.589061	0.000446	20.750064
1090.289071	-3.008700	3.632700	-10.929000	25.608412	0.000446	20.746266
1091.286210	-3.009900	3.632600	-10.933000	25.617028	0.000447	20.754445
1092.288199	-3.007500	3.631800	-10.921000	25.660142	0.000447	20.744166
1093.292502	-3.021700	3.632000	-10.973000	25.685324	0.000448	20.745278
1094.289916	-3.013400	3.631900	-10.943000	25.622580	0.000446	20.738683
1095.286889	-3.000500	3.631000	-10.894000	25.598945	0.000444	20.780381
1096.290667	-2.962700	3.633500	-10.764000	25.613030	0.000445	20.745687
1097.285626	-3.012300	3.631000	-10.936000	25.579725	0.000443	20.766294
1098.289356	-2.991200	3.630700	-10.859000	25.564214	0.000445	20.756879
1099.290525	-2.990700	3.631300	-10.860000	25.540405	0.000445	20.740081
1100.293567	-3.009100	3.630200	-10.923000	25.558942	0.000445	20.768180
1101.290617	-3.005000	3.629500	-10.905000	25.593372	0.000445	20.782371
1102.294502	-3.000700	3.630200	-10.893000	25.647684	0.000443	20.751095
1103.299606	-3.006500	3.628700	-10.909000	25.636821	0.000444	20.743029
1104.288235	-3.001200	3.628300	-10.888000	25.599446	0.000442	20.779935
1105.295020	-3.017200	3.626800	-10.942000	25.627590	0.000443	20.776908
1106.296485	-3.000200	3.627900	-10.883000	25.609921	0.000442	20.760583
1107.292363	-2.987600	3.627200	-10.836000	25.588621	0.000442	20.772383
1108.293179	-2.963600	3.629200	-10.754000	25.589236	0.000440	20.778691
1109.296493	-2.994900	3.627400	-10.862000	25.593751	0.000442	20.767103
1110.293609	-3.011300	3.627800	-10.923000	25.597326	0.000442	20.770694
1111.290255	-3.002700	3.627300	-10.891000	25.591754	0.000441	20.766994
1112.294677	-3.003500	3.626400	-10.891000	25.576617	0.000440	20.761275
1113.289381	-2.997100	3.626600	-10.868000	25.529870	0.000442	20.745622
1114.293644	-2.997300	3.625800	-10.867000	25.553546	0.000438	20.776038
1115.291557	-3.009500	3.625400	-10.909000	25.591385	0.000438	20.769469
1116.294053	-3.008800	3.625200	-10.906000	25.643760	0.000439	20.779397
1117.296107	-2.986400	3.625200	-10.826000	25.672179	0.000438	20.779491
1118.300692	-2.990600	3.625100	-10.840000	25.708450	0.000439	20.775618
1119.298188	-2.997400	3.625500	-10.866000	25.690806	0.000437	20.785872
1120.295454	-2.999700	3.624300	-10.870000	25.671618	0.000436	20.790782
1121.299703	-2.990000	3.623600	-10.834000	25.660854	0.000437	20.786134
1122.293247	-2.999200	3.623200	-10.866000	25.645073	0.000435	20.783561
1123.293395	-2.993000	3.624700	-10.848000	25.645811	0.000437	20.789043
1124.296238	-3.012100	3.623100	-10.912000	25.652066	0.000438	20.782049
1125.297254	-3.019300	3.622600	-10.936000	25.607138	0.000436	20.774384
1126.296849	-3.002100	3.622500	-10.874000	25.631653	0.000435	20.790471
1127.303880	-2.990500	3.623700	-10.835000	25.608716	0.000438	20.790668
1128.298036	-3.008400	3.621100	-10.893000	25.642477	0.000436	20.789962
1129.294566	-2.993900	3.622000	-10.843000	25.669903	0.000435	20.783843
1130.303323	-2.987400	3.621900	-10.819000	25.660953	0.000434	20.772957
1131.297659	-3.008100	3.620000	-10.888000	25.666613	0.000434	20.769633
1132.297433	-2.999600	3.621700	-10.863000	25.668669	0.000433	20.821484
1133.302428	-3.003800	3.620900	-10.876000	25.692568	0.000432	20.804237
1134.298238	-2.986000	3.619900	-10.808000	25.674840	0.000433	20.794966
1135.299906	-2.977700	3.620300	-10.779000	25.694338	0.000431	20.811705
1136.305426	-2.983000	3.620500	-10.800000	25.692175	0.000432	20.793885
1137.303991	-2.981600	3.620200	-10.793000	25.684715	0.000431	20.808203
1138.301438	-2.992500	3.619700	-10.830000	25.638298	0.000431	20.788136
1139.306500	-3.016100	3.617500	-10.909000	25.629844	0.000432	20.816155
1140.298301	-2.997500	3.618200	-10.844000	25.665026	0.000429	20.814032
1141.300702	-3.016200	3.617000	-10.909000	25.659902	0.000431	20.811256
1142.303825	-3.000300	3.618600	-10.855000	25.668739	0.000429	20.804485
1143.303269	-3.003500	3.616800	-10.862000	25.674876	0.000430	20.816813
1144.304375	-3.003500	3.618100	-10.866000	25.649654	0.000428	20.804757
1145.309989	-3.025000	3.617100	-10.941000	25.673352	0.000429	20.804377
1146.307292	-2.995500	3.617700	-10.836000	25.640969	0.000425	20.824484
1147.309125	-3.020300	3.615400	-10.918000	25.652472	0.000426	20.796682
1148.308351	-3.020200	3.614400	-10.915000	25.703408	0.000426	20.809909
1149.302823	-3.011200	3.616200	-10.888000	25.712898	0.000425	20.812803
1150.305464	-3.012500	3.614700	-10.888000	25.706879	0.000424	20.809128
1151.307969	-3.002300	3.613900	-10.848000	25.692919	0.000424	20.813124
1152.305095	-3.012400	3.614200	-10.887000	25.657734	0.000423	20.805760
1153.302907	-3.005300	3.613900	-10.859000	25.668218	0.000423	20.830040
1154.309027	-3.007300	3.615000	-10.870000	25.619868	0.000424	20.815144
1155.303484	-2.991400	3.614200	-10.811000	25.647220	0.000422	20.805632
1156.309451	-3.005700	3.614200	-10.862000	25.620060	0.000422	20.827191
1157.305826	-3.022400	3.612300	-10.917000	25.586938	0.000420	20.811470
1158.306876	-3.011300	3.613000	-10.879000	25.560026	0.000420	20.807676
1159.311424	-3.002300	3.613200	-10.846000	25.571682	0.000418	20.829813
1160.309046	-2.990700	3.613500	-10.806000	25.599237	0.000419	20.830934
1161.307415	-2.992500	3.612900	-10.811000	25.642622	0.000419	20.811919
1162.307836	-2.994500	3.611300	-10.813000	25.650648	0.000421	20.823299
1163.308151	-2.986600	3.612900	-10.789000	25.644732	0.000420	20.825417
1164.308007	-2.989100	3.612100	-10.796000	25.596803	0.000420	20.799092
1165.317158	-3.013800	3.610200	-10.880000	25.617507	0.000417	20.821782
1166.311842	-3.020900	3.611000	-10.908000	25.635644	0.000420	20.830988
1167.309847	-3.008500	3.610600	-10.862000	25.645332	0.000417	20.826020
1168.323767	-2.984500	3.609500	-10.772000	25.611443	0.000417	20.828020
1169.313284	-2.982100	3.611300	-10.769000	25.581548	0.000417	20.806531
1170.314047	-2.999100	3.610700	-10.828000	25.575961	0.000417	20.825101
1171.315752	-2.998400	3.609600	-10.822000	25.563464	0.000415	20.846215
1172.312741	-3.005900	3.609200	-10.848000	25.587218	0.000416	20.832613
1173.315181	-3.017800	3.609400	-10.891000	25.585231	0.000416	20.837256
1174.314857	-2.993700	3.610500	-10.807000	25.599886	0.000416	20.834905
1175.316166	-3.013700	3.608700	-10.874000	25.628218	0.000416	20.848660
1176.309325	-3.009000	3.606900	-10.851000	25.689388	0.000416	20.811000
1177.312546	-3.001700	3.607500	-10.828000	25.716921	0.000417	20.815421
1178.316975	-2.993100	3.606800	-10.794000	25.727031	0.000417	20.819411
1179.313015	-2.973500	3.607400	-10.726000	25.724695	0.000415	20.828445
1180.313322	-2.998400	3.606600	-10.813000	25.707524	0.000415	20.817836
1181.313856	-3.004600	3.605500	-10.832000	25.718062	0.000412	20.826049
1182.313984	-2.959100	3.607300	-10.673000	25.721715	0.000413	20.841572
1183.316536	-3.008900	3.604200	-10.844000	25.750215	0.000414	20.834164
1184.321796	-2.976800	3.606800	-10.736000	25.785511	0.000414	20.853495
1185.313055	-3.018700	3.603400	-10.875000	25.783898	0.000413	20.822004
1186.314418	-3.002200	3.606100	-10.825000	25.788299	0.000412	20.830692
1187.315448	-2.988500	3.604600	-10.771000	25.746336	0.000413	20.843543
1188.316943	-3.006700	3.604100	-10.836000	25.742510	0.000411	20.856295
1189.313613	-3.013600	3.604700	-10.862000	25.701613	0.000411	20.838925
1190.316195	-3.005200	3.604800	-10.833000	25.777343	0.000410	20.845291
1191.311866	-3.019800	3.602500	-10.878000	25.771630	0.000410	20.824854
1192.314500	-2.990500	3.603400	-10.774000	25.702286	0.000410	20.843395
1193.317119	-2.977200	3.603600	-10.727000	25.668847	0.000411	20.840155
1194.317434	-3.002600	3.602600	-10.816000	25.673121	0.000409	20.842550
1195.319468	-3.002300	3.601700	-10.813000	25.685616	0.000409	20.841824
1196.324229	-2.992200	3.601500	-10.775000	25.713665	0.000407	20.832065
1197.318851	-3.017800	3.601700	-10.868000	25.737396	0.000405	20.857797
1198.321187	-3.007700	3.600400	-10.828000	25.708527	0.000408	20.829748
1199.322627	-2.995700	3.600400	-10.785000	25.727409	0.000407	20.837335
1200.317199	-3.013200	3.600300	-10.848000	25.756155	0.000406	20.842501
1201.319135	-2.990800	3.600700	-10.768000	25.776379	0.000408	20.854280
1202.322647	-3.029700	3.599300	-10.904000	25.755408	0.000409	20.856922
1203.316506	-2.996000	3.598600	-10.781000	25.709692	0.000405	20.847514
1204.322315	-3.011500	3.600000	-10.840000	25.707853	0.000406	20.848986
1205.322120	-3.005000	3.598900	-10.814000	25.686138	0.000407	20.865580
1206.318778	-3.026400	3.597200	-10.885000	25.672447	0.000404	20.855149
1207.316900	-2.992300	3.599100	-10.769000	25.704691	0.000405	20.855767
1208.323420	-3.006400	3.597700	-10.814000	25.685484	0.000405	20.845010
1209.315447	-2.988400	3.598600	-10.753000	25.728068	0.000406	20.860281
1210.321312	-3.010800	3.597000	-10.829000	25.763768	0.000400	20.860103
1211.318698	-3.011400	3.598400	-10.834000	25.738080	0.000402	20.865595
1212.319664	-2.991000	3.597200	-10.759000	25.719866	0.000402	20.870534
1213.321522	-2.990900	3.596700	-10.756000	25.712535	0.000399	20.875498
1214.322112	-3.013400	3.596600	-10.838000	25.750673	0.000405	20.876821
1215.321219	-2.988500	3.596000	-10.746000	25.763394	0.000403	20.862099
1216.325127	-3.013900	3.595900	-10.837000	25.806944	0.000400	20.851317
1217.326822	-3.036800	3.594900	-10.916000	25.811783	0.000399	20.859970
1218.318655	-3.009800	3.595400	-10.819000	25.785944	0.000400	20.870051
1219.326685	-2.999900	3.595300	-10.785000	25.736950	0.000398	20.850710
1220.325591	-3.005400	3.594400	-10.802000	25.736704	0.000399	20.877488
1221.321516	-2.985400	3.595000	-10.732000	25.679682	0.000400	20.858148
1222.320940	-2.996300	3.594100	-10.768000	25.776056	0.000397	20.868653
1223.327762	-3.013000	3.594800	-10.830000	25.817693	0.000397	20.873019
1224.325549	-3.003800	3.593100	-10.792000	25.781101	0.000398	20.869927
1225.326787	-3.002900	3.593300	-10.790000	25.756850	0.000396	20.877809
1226.324298	-3.021700	3.591600	-10.852000	25.749798	0.000395	20.860770
1227.325990	-3.021400	3.591100	-10.849000	25.750890	0.000396	20.878461
1228.325469	-2.975900	3.593400	-10.693000	25.730316	0.000397	20.866806
1229.326974	-2.987400	3.592400	-10.731000	25.761521	0.000396	20.870174
1230.327241	-3.012400	3.592200	-10.819000	25.744581	0.000394	20.868332
1231.327235	-3.002100	3.590900	-10.778000	25.725694	0.000395	20.879706
1232.332890	-3.003600	3.591600	-10.787000	25.723589	0.000394	20.878540
1233.330614	-3.022100	3.590600	-10.850000	25.777147	0.000393	20.861689
1234.327542	-2.975900	3.591500	-10.688000	25.776779	0.000393	20.867008
1235.327925	-3.007200	3.590900	-10.798000	25.770593	0.000394	20.893509
1236.326505	-2.996700	3.590100	-10.758000	25.752955	0.000390	20.887173
1237.328284	-2.998200	3.590300	-10.763000	25.740829	0.000393	20.885899
1238.333473	-3.028900	3.587100	-10.864000	25.745353	0.000391	20.858202
1239.329133	-2.998600	3.589200	-10.761000	25.686492	0.000390	20.872574
1240.330690	-2.997200	3.588200	-10.754000	25.714836	0.000391	20.860267
1241.333907	-3.000100	3.587500	-10.762000	25.772137	0.000391	20.885104
1242.333544	-3.007000	3.588400	-10.790000	25.825447	0.000390	20.902616
1243.330688	-2.996200	3.587200	-10.747000	25.841647	0.000391	20.884279
1244.335680	-3.016400	3.586500	-10.817000	25.856850	0.000391	20.884378
1245.329449	-3.015200	3.586300	-10.812000	25.842390	0.000390	20.882180
1246.333893	-2.985700	3.586400	-10.707000	25.838142	0.000389	20.869853
1247.334596	-2.994400	3.587200	-10.741000	25.868625	0.000389	20.890991
1248.332838	-2.982600	3.586900	-10.698000	25.778318	0.000389	20.889415
1249.335483	-3.030300	3.584900	-10.863000	25.814418	0.000388	20.893435
1250.338850	-2.994300	3.585000	-10.734000	25.832728	0.000389	20.893337
1251.332628	-3.009400	3.584700	-10.787000	25.872225	0.000386	20.898399
1252.332664	-2.998900	3.585500	-10.752000	25.898784	0.000386	20.880511
1253.336220	-3.010900	3.583900	-10.790000	25.929438	0.000386	20.880012
1254.334925	-3.012900	3.584300	-10.798000	25.942156	0.000385	20.902745
1255.335476	-3.023900	3.582900	-10.834000	25.901945	0.000385	20.876574
1256.338672	-3.027200	3.583100	-10.845000	25.865444	0.000385	20.880210
1257.347503	-2.989900	3.582100	-10.709000	25.824438	0.000387	20.892595
1258.337544	-3.008200	3.582800	-10.777000	25.804338	0.000385	20.882837
1259.332279	-3.001300	3.582700	-10.752000	25.772515	0.000386	20.889751
1260.334754	-3.016000	3.582300	-10.804000	25.831597	0.000384	20.864701
1261.342036	-3.012600	3.581300	-10.789000	25.796048	0.000383	20.883044
1262.334095	-2.976000	3.583700	-10.664000	25.810730	0.000384	20.897791
1263.332335	-2.975600	3.582300	-10.658000	25.840418	0.000382	20.883044
1264.338738	-2.994200	3.580300	-10.720000	25.796249	0.000383	20.882772
1265.333996	-2.999400	3.582100	-10.743000	25.774988	0.000383	20.856675
1266.332494	-2.994200	3.580000	-10.717000	25.804628	0.000381	20.876964
1267.336345	-2.989800	3.580400	-10.703000	25.835437	0.000380	20.877566
1268.335745	-2.970000	3.579600	-10.630000	25.880601	0.000382	20.874099
1269.336277	-3.006300	3.579200	-10.759000	25.901123	0.000382	20.877645
1270.333151	-2.993900	3.579700	-10.716000	25.926983	0.000382	20.871383
1271.343191	-3.005900	3.581100	-10.764000	25.893350	0.000377	20.863673
1272.345744	-3.004800	3.577900	-10.750000	25.908955	0.000378	20.863703
1273.338071	-3.010900	3.578900	-10.774000	25.912883	0.000378	20.858166
1274.335149	-2.968700	3.578600	-10.623000	25.932062	0.000377	20.871269
1275.337306	-3.006000	3.577900	-10.754000	25.884293	0.000379	20.874015
1276.333637	-3.008800	3.578000	-10.764000	25.849518	0.000377	20.860892
1277.339200	-2.997000	3.578300	-10.723000	25.838440	0.000377	20.845024
1278.333844	-2.998400	3.576500	-10.723000	25.842841	0.000378	20.867461
1279.339040	-3.000700	3.577600	-10.734000	25.845948	0.000377	20.869160
1280.332619	-2.995000	3.577000	-10.712000	25.812238	0.000378	20.846678
1281.342526	-2.983200	3.576700	-10.668000	25.758677	0.000377	20.854516
1282.338879	-2.988700	3.576500	-10.688000	25.754354	0.000375	20.872933
1283.334306	-2.997600	3.574900	-10.715000	25.740345	0.000375	20.851750
1284.338852	-3.024300	3.574700	-10.811000	25.709637	0.000374	20.849829
1285.338854	-2.979700	3.575000	-10.652000	25.724546	0.000376	20.859114
1286.350946	-2.986400	3.574700	-10.674000	25.768029	0.000377	20.858220
1287.338220	-2.996900	3.573600	-10.708000	25.830681	0.000378	20.837704
1288.341204	-2.988600	3.575400	-10.684000	25.843302	0.000376	20.862235
1289.335967	-2.989000	3.572100	-10.677000	25.815055	0.000373	20.842396
1290.341506	-2.994900	3.574500	-10.705000	25.758637	0.000374	20.843097
1291.336798	-3.014900	3.571800	-10.767000	25.785190	0.000373	20.836578
1292.342630	-3.017800	3.572800	-10.781000	25.816919	0.000375	20.846164
1293.337715	-3.008100	3.572500	-10.746000	25.811628	0.000373	20.843695
1294.334897	-3.000800	3.571100	-10.715000	25.848416	0.000372	20.856467
1295.342297	-2.993300	3.572900	-10.694000	25.872291	0.000373	20.842045
1296.339619	-3.012500	3.571300	-10.758000	25.877336	0.000372	20.850905
1297.338857	-3.007400	3.570500	-10.737000	25.883599	0.000370	20.849137
1298.339790	-3.021800	3.569100	-10.784000	25.858500	0.000370	20.834355
1299.338677	-2.980700	3.572100	-10.647000	25.816299	0.000368	20.835585
1300.339580	-2.991200	3.570800	-10.680000	25.782357	0.000371	20.823302
1301.341825	-2.993900	3.570100	-10.687000	25.765069	0.000371	20.833437
1302.339938	-2.976600	3.570800	-10.628000	25.796174	0.000371	20.840499
1303.338459	-3.008600	3.568100	-10.734000	25.820473	0.000367	20.846890
1304.344631	-2.985400	3.568900	-10.654000	25.792122	0.000369	20.842119
1305.339141	-3.000500	3.567900	-10.704000	25.755505	0.000369	20.828572
1306.339379	-2.992000	3.568800	-10.676000	25.763903	0.000367	20.833688
1307.350067	-2.989900	3.568400	-10.668000	25.748031	0.000368	20.824857
1308.340189	-2.991400	3.568800	-10.674000	25.760324	0.000368	20.848584
1309.342498	-3.032700	3.566000	-10.815000	25.783277	0.000368	20.842243
1310.349228	-2.999800	3.566800	-10.699000	25.749963	0.000367	20.832962
1311.345774	-3.021200	3.566600	-10.775000	25.747652	0.000368	20.851029
1312.341656	-3.008600	3.566200	-10.729000	25.793219	0.000366	20.852229
1313.345761	-2.997500	3.565800	-10.687000	25.841537	0.000366	20.830118
1314.341719	-3.002400	3.566000	-10.706000	25.878899	0.000369	20.843468
1315.341383	-3.004400	3.564500	-10.708000	25.918448	0.000365	20.809705
1316.346322	-3.012500	3.564800	-10.738000	25.954711	0.000365	20.843290
1317.341095	-2.988900	3.565300	-10.655000	25.987752	0.000366	20.829070
1318.361527	-3.005100	3.564500	-10.711000	25.979405	0.000365	20.842495
1319.347764	-2.993300	3.565000	-10.669000	25.932508	0.000362	20.833787
1320.346241	-2.998500	3.564100	-10.686000	25.914696	0.000363	20.832962
1321.343479	-2.998100	3.564200	-10.684000	25.877459	0.000362	20.840598
1322.342967	-2.984100	3.565300	-10.638000	25.888383	0.000360	20.810796
1323.340423	-3.000000	3.562700	-10.687000	25.911761	0.000363	20.819583
1324.349235	-3.051100	3.563800	-10.871000	25.905237	0.000363	20.823460
1325.346456	-3.026200	3.562000	-10.778000	25.941673	0.000361	20.830192
1326.345922	-3.033000	3.561600	-10.801000	25.879794	0.000359	20.817340
1327.352142	-2.980300	3.561300	-10.613000	25.891392	0.000359	20.828043
1328.343256	-3.012600	3.562100	-10.729000	25.877237	0.000360	20.832789
1329.348516	-2.976200	3.561000	-10.597000	25.894003	0.000359	20.815019
1330.350009	-2.999100	3.559900	-10.675000	25.906176	0.000360	20.825351
1331.348577	-3.037800	3.559600	-10.812000	25.914598	0.000361	20.827648
1332.349692	-3.005000	3.560000	-10.697000	25.890847	0.000358	20.831762
1333.350915	-2.996300	3.560000	-10.666000	25.891073	0.000360	20.840050
1334.345494	-2.989800	3.559800	-10.642000	25.908807	0.000357	20.817089
1335.349635	-3.017800	3.559200	-10.740000	25.900193	0.000356	20.806539
1336.356148	-3.001500	3.558900	-10.681000	25.894976	0.000357	20.814100
1337.351183	-3.005900	3.558400	-10.696000	25.876293	0.000354	20.821884
1338.350760	-3.016600	3.557900	-10.732000	25.928914	0.000356	20.840134
1339.350314	-2.999100	3.559500	-10.673000	25.919298	0.000357	20.801550
1340.352712	-2.996900	3.559900	-10.668000	25.899976	0.000354	20.817227
1341.352532	-2.991700	3.558800	-10.646000	25.935296	0.000355	20.823786
1342.358770	-2.990000	3.558400	-10.639000	25.873766	0.000355	20.809863
1343.351820	-2.999900	3.555900	-10.666000	25.862841	0.000354	20.833500
1344.350513	-2.991300	3.557500	-10.640000	25.894312	0.000353	20.812485
1345.347208	-3.013400	3.555300	-10.712000	25.890369	0.000354	20.810420
1346.348990	-2.997400	3.555100	-10.655000	25.882596	0.000352	20.820629
1347.349844	-3.015300	3.555600	-10.721000	25.927135	0.000352	20.810371
1348.352477	-3.003100	3.555500	-10.676000	25.894597	0.000352	20.825573
1349.353332	-2.996000	3.556300	-10.654000	25.884189	0.000352	20.807531
1350.346977	-2.995500	3.554500	-10.646000	25.838655	0.000352	20.816317
1351.349555	-3.003600	3.554900	-10.677000	25.863696	0.000350	20.794057
1352.349428	-3.001300	3.554200	-10.666000	25.899076	0.000349	20.811581
1353.350997	-3.024200	3.552800	-10.743000	25.853715	0.000349	20.800626
1354.347255	-3.003500	3.552900	-10.670000	25.827927	0.000349	20.819765
1355.348918	-2.992200	3.554400	-10.634000	25.828350	0.000347	20.797905
1356.349184	-3.004900	3.552800	-10.674000	25.846409	0.000348	20.805615
1357.349077	-3.004200	3.552400	-10.671000	25.785725	0.000348	20.796813
1358.352714	-3.000000	3.552600	-10.657000	25.769892	0.000347	20.795608
1359.349221	-3.016400	3.551900	-10.713000	25.760721	0.000345	20.799673
1360.351935	-2.997600	3.551700	-10.645000	25.768751	0.000347	20.796359
1361.355584	-2.990700	3.550700	-10.618000	25.775310	0.000346	20.798206
1362.353351	-2.987200	3.551200	-10.608000	25.760082	0.000346	20.783858
1363.353446	-2.993000	3.551600	-10.629000	25.777769	0.000346	20.824383
1364.357787	-2.983800	3.550000	-10.592000	25.787087	0.000345	20.793914
1365.350370	-2.996800	3.550700	-10.640000	25.783684	0.000345	20.802824
1366.353740	-2.963900	3.551100	-10.524000	25.811485	0.000345	20.801826
1367.352914	-2.967400	3.550600	-10.535000	25.780857	0.000345	20.813734
1368.353690	-2.986000	3.548600	-10.595000	25.817700	0.000345	20.798586
1369.354341	-3.013500	3.548700	-10.693000	25.855756	0.000343	20.787029
1370.351390	-3.012200	3.548100	-10.687000	25.879233	0.000343	20.783586
1371.354393	-3.004100	3.548700	-10.660000	25.810890	0.000343	20.808815
1372.354683	-3.011700	3.547900	-10.684000	25.788532	0.000342	20.804849
1373.358376	-3.009800	3.546400	-10.673000	25.778049	0.000342	20.792422
1374.365234	-3.020700	3.546100	-10.710000	25.807866	0.000341	20.787759
1375.355965	-3.019400	3.546300	-10.707000	25.808210	0.000342	20.780045
1376.356655	-2.988400	3.547000	-10.599000	25.771224	0.000342	20.814490
1377.359000	-2.986700	3.546600	-10.592000	25.747396	0.000343	20.805254
1378.356108	-3.012600	3.544100	-10.676000	25.775620	0.000342	20.789982
1379.350946	-2.988800	3.545600	-10.596000	25.756473	0.000340	20.804888
1380.360387	-2.976800	3.546200	-10.556000	25.815497	0.000340	20.809175
1381.352393	-2.985200	3.543900	-10.578000	25.849536	0.000342	20.783151
1382.355155	-3.010500	3.543900	-10.668000	25.892635	0.000340	20.780454
1383.357104	-2.990900	3.543700	-10.598000	25.938343	0.000341	20.779906
1384.355063	-3.019300	3.543200	-10.697000	25.945649	0.000340	20.789142
1385.352955	-2.999700	3.544600	-10.631000	25.886553	0.000337	20.789043
1386.356061	-3.009200	3.542800	-10.660000	25.855357	0.000335	20.757230
1387.357387	-3.013800	3.543300	-10.678000	25.883751	0.000339	20.799979
1388.355890	-3.010300	3.540700	-10.658000	25.915153	0.000336	20.770358
1389.357604	-2.986400	3.542000	-10.577000	25.926406	0.000336	20.784983
1390.356033	-2.985400	3.542000	-10.574000	25.886140	0.000337	20.784361
1391.353650	-2.993700	3.541600	-10.601000	25.850194	0.000338	20.784761
1392.358764	-3.005600	3.540600	-10.640000	25.860185	0.000337	20.780098
1393.355812	-2.984000	3.542200	-10.570000	25.875987	0.000338	20.777007
1394.355403	-2.995800	3.540900	-10.606000	25.906293	0.000334	20.794175
1395.357638	-3.003200	3.541000	-10.633000	25.915610	0.000336	20.789784
1396.355922	-2.997700	3.539200	-10.609000	25.928279	0.000334	20.787813
1397.359135	-3.007300	3.540200	-10.645000	25.903962	0.000335	20.776187
1398.357221	-2.993500	3.540200	-10.597000	25.938141	0.000336	20.774488
1399.361741	-3.006500	3.540400	-10.643000	26.002853	0.000333	20.779758
1400.360703	-3.020000	3.537500	-10.682000	26.027320	0.000333	20.776364
1401.357994	-3.008600	3.538100	-10.644000	25.947359	0.000332	20.775688
1402.363512	-2.973400	3.538300	-10.520000	25.877457	0.000333	20.778009
1403.361741	-2.972200	3.537200	-10.512000	25.817945	0.000333	20.770383
1404.358397	-2.990100	3.535700	-10.571000	25.834343	0.000330	20.764095
1405.358109	-2.995900	3.536400	-10.594000	25.809473	0.000333	20.767563
1406.366729	-2.989200	3.537700	-10.573000	25.801370	0.000331	20.767009
1407.360200	-2.989800	3.536400	-10.571000	25.759811	0.000332	20.777421
1408.360194	-2.980600	3.536200	-10.538000	25.768362	0.000331	20.764199
1409.364993	-2.987600	3.537000	-10.566000	25.771396	0.000332	20.779575
1410.360916	-2.980200	3.535900	-10.536000	25.784214	0.000330	20.768743
1411.358128	-2.972000	3.534800	-10.504000	25.790454	0.000332	20.755570
1412.358178	-3.007800	3.534800	-10.631000	25.743422	0.000329	20.761433
1413.369745	-3.012300	3.533400	-10.643000	25.718280	0.000329	20.757042
1414.363646	-3.014400	3.533400	-10.650000	25.731419	0.000330	20.760282
1415.366441	-2.998700	3.533300	-10.594000	25.782434	0.000329	20.777387
1416.361356	-2.981700	3.533100	-10.534000	25.761438	0.000327	20.762460
1417.363064	-2.989600	3.534000	-10.564000	25.772694	0.000330	20.752429
1418.364844	-2.991400	3.533900	-10.571000	25.818727	0.000330	20.748882
1419.370586	-2.995200	3.533600	-10.583000	25.872565	0.000330	20.761714
1420.362724	-2.993700	3.530700	-10.569000	25.917994	0.000330	20.766575
1421.360905	-2.990800	3.532100	-10.563000	25.902866	0.000328	20.762757
1422.363930	-2.994500	3.531600	-10.574000	25.880510	0.000328	20.751204
1423.365026	-3.014900	3.531600	-10.646000	25.879296	0.000327	20.768950
1424.366433	-3.028200	3.529100	-10.686000	25.891809	0.000326	20.752597
1425.364312	-3.001500	3.531300	-10.598000	25.907035	0.000327	20.762678
1426.362793	-2.993200	3.531200	-10.568000	25.891558	0.000329	20.764199
1427.366251	-2.976200	3.530100	-10.506000	25.853420	0.000325	20.763819
1428.362362	-2.991000	3.529700	-10.557000	25.860849	0.000326	20.749470
1429.369606	-3.029100	3.527100	-10.683000	25.874679	0.000325	20.750562
1430.364686	-3.017400	3.529000	-10.648000	25.846433	0.000326	20.767706
1431.382210	-2.995600	3.527800	-10.568000	25.876218	0.000325	20.753056
1432.373447	-3.036100	3.527900	-10.710000	25.890049	0.000325	20.770744
1433.368611	-2.979700	3.527700	-10.510000	25.896180	0.000323	20.712415
1434.368975	-2.998900	3.526800	-10.576000	25.902915	0.000325	20.747633
1435.375791	-3.021000	3.526700	-10.653000	25.927104	0.000323	20.752493
1436.371070	-2.997300	3.526700	-10.569000	25.879901	0.000323	20.752962
1437.374253	-3.010800	3.526200	-10.616000	25.864074	0.000322	20.754607
1438.374405	-2.992300	3.525900	-10.550000	25.867000	0.000324	20.750908
1439.374071	-2.998700	3.526700	-10.574000	25.892512	0.000322	20.759468
1440.379725	-2.983600	3.525600	-10.518000	25.906691	0.000323	20.740995
1441.373622	-2.992500	3.525900	-10.551000	25.902193	0.000322	20.763977
1442.376265	-2.990500	3.524100	-10.538000	25.918732	0.000321	20.758307
1443.371042	-3.008200	3.525900	-10.605000	25.930974	0.000320	20.769183
1444.375295	-3.001600	3.524400	-10.578000	25.920045	0.000321	20.737340
1445.376189	-2.985400	3.523800	-10.518000	25.942021	0.000320	20.763212
1446.377491	-3.000800	3.523500	-10.572000	25.958319	0.000320	20.748290
1447.377916	-2.983700	3.522900	-10.510000	26.000470	0.000321	20.733739
1448.378852	-3.002000	3.522500	-10.573000	25.955379	0.000317	20.752449
1449.374247	-2.999400	3.522600	-10.565000	25.932022	0.000320	20.756011
1450.373508	-2.990600	3.521800	-10.531000	25.896372	0.000318	20.761923
1451.376537	-3.017100	3.521800	-10.625000	25.901014	0.000318	20.737187
1452.374238	-3.005200	3.520700	-10.580000	25.887597	0.000318	20.745520
1453.386723	-3.012100	3.522000	-10.607000	25.910645	0.000318	20.757770
1454.380303	-3.017900	3.521000	-10.625000	25.966809	0.000317	20.741173
1455.378040	-3.010500	3.520900	-10.599000	25.951928	0.000317	20.741396
1456.378460	-2.996600	3.519300	-10.545000	25.904003	0.000317	20.748252
1457.380493	-2.993600	3.520100	-10.537000	25.918532	0.000321	20.777547
1458.376733	-3.003200	3.520700	-10.572000	25.891879	0.000318	20.755987
1459.379735	-2.977300	3.519400	-10.477000	25.875768	0.000315	20.795753
1460.378543	-2.994400	3.519500	-10.537000	25.879372	0.000316	20.763337
1461.378644	-3.015600	3.518400	-10.610000	25.892406	0.000316	20.775957
1462.380313	-3.009400	3.517900	-10.586000	25.881845	0.000317	20.767244
1463.377274	-2.978900	3.518800	-10.481000	25.918134	0.000316	20.765293
1464.386114	-3.016500	3.517500	-10.609000	25.900961	0.000313	20.738557
1465.380374	-3.006900	3.516400	-10.573000	25.957200	0.000316	20.764711
1466.381881	-2.995800	3.518100	-10.538000	25.910391	0.000312	20.761308
1467.381203	-3.005400	3.516700	-10.568000	25.917914	0.000315	20.765546
1468.381526	-2.996600	3.516600	-10.537000	25.955067	0.000314	20.754981
1469.379808	-2.989100	3.515100	-10.506000	25.976974	0.000314	20.759446
1470.377650	-2.999500	3.515500	-10.544000	25.924089	0.000312	20.739506
1471.382965	-2.994900	3.516000	-10.529000	25.946862	0.000313	20.777559
1472.382852	-3.004000	3.515000	-10.559000	25.999986	0.000314	20.774506
1473.381714	-3.007600	3.515000	-10.571000	26.010758	0.000313	20.770630
1474.387472	-3.021100	3.515300	-10.620000	26.035220	0.000314	20.769128
1475.381256	-2.992400	3.515200	-10.518000	26.022129	0.000312	20.761191
1476.388725	-2.996200	3.513700	-10.526000	25.983823	0.000310	20.754948
1477.380798	-3.015200	3.513800	-10.593000	26.035653	0.000312	20.771934
1478.381729	-3.010000	3.512200	-10.571000	25.998960	0.000313	20.774424
1479.383517	-3.017300	3.512900	-10.599000	26.034503	0.000311	20.763667
1480.377174	-3.034900	3.512900	-10.660000	25.995229	0.000310	20.777788
1481.381379	-2.992400	3.511600	-10.507000	26.001208	0.000309	20.761034
1482.380006	-3.035600	3.511100	-10.657000	25.996710	0.000309	20.773585
1483.382200	-3.003400	3.510300	-10.542000	25.992089	0.000309	20.750924
1484.382069	-2.974300	3.513200	-10.449000	25.983314	0.000307	20.780515
1485.386084	-2.989000	3.511700	-10.496000	25.987458	0.000305	20.759074
1486.380919	-2.983100	3.510900	-10.472000	25.998161	0.000308	20.769827
1487.385498	-2.994900	3.509700	-10.510000	25.993761	0.000307	20.771571
1488.379554	-2.986700	3.509700	-10.481000	25.976098	0.000306	20.762834
1489.389274	-2.995100	3.510900	-10.515000	25.959427	0.000303	20.765052
1490.386398	-2.995600	3.508700	-10.510000	25.921316	0.000303	20.774180
1491.385183	-2.990600	3.508600	-10.491000	25.936095	0.000302	20.776699
1492.389137	-3.004800	3.507700	-10.539000	25.945111	0.000303	20.755885
1493.388025	-2.978400	3.509900	-10.452000	25.988108	0.000302	20.753563
1494.382929	-3.016200	3.506400	-10.575000	25.984254	0.000304	20.764865
1495.387229	-3.014700	3.506600	-10.571000	25.954201	0.000303	20.756008
1496.384871	-2.989800	3.507000	-10.484000	25.986167	0.000303	20.776269
1497.385593	-3.006700	3.507200	-10.545000	25.968233	0.000301	20.776743
1498.386239	-2.982400	3.505100	-10.452000	25.964747	0.000302	20.760440
1499.385778	-2.989400	3.507500	-10.484000	25.964625	0.000300	20.760790
1500.387714	-3.020500	3.506400	-10.590000	25.890603	0.000299	20.782680
1501.387630	-3.012800	3.505100	-10.560000	25.910619	0.000300	20.794253
1502.389198	-2.994500	3.506700	-10.500000	25.913303	0.000302	20.779406
1503.388270	-3.010200	3.503600	-10.546000	25.936951	0.000300	20.765231
1504.388836	-3.006200	3.504100	-10.532000	25.951955	0.000300	20.767977
1505.388694	-2.983000	3.503600	-10.450000	25.914842	0.000301	20.768624
1506.387549	-3.001700	3.503600	-10.516000	25.950790	0.000298	20.771074
1507.387858	-2.998700	3.502800	-10.503000	25.965987	0.000299	20.791557
1508.388394	-2.999600	3.501900	-10.504000	25.981360	0.000298	20.779026
1509.389448	-3.000800	3.503700	-10.513000	25.997809	0.000298	20.781327
1510.388855	-3.018300	3.501900	-10.569000	25.957393	0.000297	20.793354
1511.390409	-3.013100	3.502400	-10.552000	25.996712	0.000296	20.790184
1512.390645	-2.982100	3.503100	-10.445000	26.009086	0.000297	20.801667
1513.392844	-3.009800	3.500200	-10.533000	25.996589	0.000297	20.789586
1514.389538	-2.992400	3.502800	-10.481000	25.992745	0.000297	20.783826
1515.391523	-2.992400	3.501800	-10.478000	25.996270	0.000298	20.798274
1516.393405	-2.975400	3.501300	-10.416000	26.038350	0.000296	20.802620
1517.391646	-2.980100	3.501500	-10.434000	26.004273	0.000295	20.769804
1518.395660	-2.987400	3.500200	-10.455000	25.948529	0.000296	20.768802
1519.390927	-2.988700	3.498700	-10.456000	25.912138	0.000294	20.776339
1520.395599	-2.997200	3.497700	-10.482000	25.927713	0.000296	20.791038
1521.389619	-2.993100	3.498900	-10.471000	25.969147	0.000295	20.783826
1522.399186	-2.998800	3.498100	-10.488000	25.971758	0.000293	20.801622
1523.393195	-2.992300	3.499000	-10.468000	25.958017	0.000292	20.790662
1524.394042	-3.028700	3.495900	-10.586000	25.998133	0.000292	20.796352
1525.400258	-2.993900	3.497600	-10.471000	26.026847	0.000294	20.785847
1526.394766	-3.001600	3.496600	-10.495000	26.015771	0.000292	20.785624
1527.393974	-2.990100	3.497400	-10.457000	26.043192	0.000292	20.780932
1528.397707	-2.973600	3.496300	-10.395000	25.972279	0.000291	20.794085
1529.397851	-2.983900	3.497100	-10.434000	25.971954	0.000289	20.800397
1530.393261	-2.990800	3.495600	-10.454000	25.959113	0.000291	20.805040
1531.401428	-2.989600	3.495500	-10.449000	25.919345	0.000290	20.776467
1532.401774	-3.012900	3.494600	-10.527000	25.923917	0.000291	20.768258
1533.396279	-2.997100	3.496100	-10.477000	25.909109	0.000288	20.797478
1534.395323	-2.983300	3.494100	-10.423000	25.944733	0.000287	20.784429
1535.394968	-3.003200	3.495100	-10.495000	25.998663	0.000291	20.803049
1536.391897	-2.995000	3.494100	-10.465000	26.013166	0.000288	20.806240
1537.399204	-2.989600	3.494500	-10.446000	26.028440	0.000288	20.795507
1538.397653	-3.012400	3.492900	-10.522000	26.015260	0.000288	20.801705
1539.397174	-3.023100	3.490900	-10.552000	26.010491	0.000287	20.792647
1540.398354	-3.012300	3.492400	-10.519000	26.019802	0.000289	20.804847
1541.392579	-3.002600	3.491200	-10.482000	25.981530	0.000285	20.788207
1542.394750	-3.014800	3.491000	-10.524000	25.997178	0.000287	20.795867
1543.399559	-2.996000	3.492200	-10.461000	25.981034	0.000285	20.781070
1544.395716	-2.967200	3.492200	-10.361000	25.952918	0.000284	20.792178
1545.395399	-3.005800	3.491000	-10.492000	25.922732	0.000285	20.799310
1546.395410	-3.001000	3.490500	-10.474000	25.905598	0.000283	20.800115
1547.399322	-2.984800	3.490200	-10.416000	25.906792	0.000285	20.807479
1548.396986	-2.991400	3.489900	-10.439000	25.903041	0.000283	20.814141
1549.410134	-3.015000	3.488400	-10.517000	25.917303	0.000284	20.790537
1550.398817	-3.013200	3.490100	-10.515000	25.904604	0.000282	20.798169
1551.399523	-2.985900	3.489300	-10.418000	25.955105	0.000283	20.773512
1552.399843	-3.009000	3.488200	-10.495000	25.972691	0.000283	20.793551
1553.400509	-2.999600	3.487700	-10.460000	26.022795	0.000284	20.796000
1554.404088	-3.000300	3.487400	-10.461000	26.002699	0.000282	20.797146
1555.403596	-2.999100	3.486600	-10.456000	25.991672	0.000283	20.785593
1556.402866	-2.979600	3.486800	-10.389000	26.002576	0.000280	20.804609
1557.401865	-2.995100	3.486800	-10.442000	25.997606	0.000282	20.815737
1558.398936	-3.003500	3.486200	-10.470000	26.011592	0.000281	20.818409
1559.398592	-2.990600	3.486100	-10.425000	25.998697	0.000280	20.789807
1560.399432	-3.010700	3.485600	-10.492000	25.971329	0.000281	20.793605
1561.407210	-3.003800	3.486100	-10.470000	25.969264	0.000281	20.809074
1562.405235	-3.009000	3.484800	-10.485000	25.989111	0.000280	20.820004
1563.402076	-3.003000	3.484600	-10.464000	26.007246	0.000280	20.803137
1564.409117	-2.986800	3.483900	-10.405000	26.059679	0.000280	20.813144
1565.406435	-3.004700	3.484100	-10.467000	26.067160	0.000279	20.828721
1566.403586	-3.001900	3.483500	-10.456000	26.061866	0.000278	20.801591
1567.409183	-3.016700	3.482600	-10.506000	26.060328	0.000280	20.801942
1568.406622	-3.012900	3.482300	-10.491000	26.011621	0.000279	20.817016
1569.411885	-2.970400	3.483800	-10.348000	26.018076	0.000279	20.836303
1570.407006	-2.998200	3.481900	-10.439000	26.017230	0.000278	20.799892
1571.409807	-2.992700	3.482200	-10.420000	26.017958	0.000277	20.802994
1572.405931	-2.965200	3.483600	-10.329000	26.028832	0.000279	20.792108
1573.410881	-2.977100	3.483200	-10.369000	26.052182	0.000278	20.812724
1574.411389	-2.995500	3.481200	-10.427000	26.042415	0.000280	20.809074
1575.411991	-2.996000	3.480700	-10.427000	26.026123	0.000279	20.801715
1576.416814	-3.014400	3.481200	-10.493000	26.048500	0.000278	20.798119
1577.411862	-2.996500	3.480200	-10.428000	26.060471	0.000277	20.817258
1578.412251	-2.993900	3.480100	-10.418000	26.061989	0.000278	20.815465
1579.409139	-2.988900	3.479500	-10.399000	26.077907	0.000276	20.836199
1580.413474	-2.998800	3.479100	-10.433000	26.048623	0.000276	20.808200
1581.413948	-3.003200	3.478800	-10.447000	26.043157	0.000277	20.819777
1582.423160	-3.004700	3.477800	-10.449000	26.051101	0.000278	20.807370
1583.414365	-2.993600	3.478400	-10.412000	26.036492	0.000275	20.819718
1584.417222	-2.989900	3.478300	-10.399000	26.035302	0.000275	20.816152
1585.419323	-2.986700	3.479300	-10.391000	25.963936	0.000276	20.809411
1586.419698	-3.002000	3.477900	-10.440000	25.931026	0.000273	20.798633
1587.417925	-2.993200	3.477400	-10.408000	25.987012	0.000273	20.819318
1588.416937	-3.004200	3.477000	-10.445000	25.976177	0.000276	20.826451
1589.418194	-3.001800	3.477000	-10.437000	25.976276	0.000275	20.814696
1590.417054	-2.981300	3.475600	-10.361000	26.025033	0.000273	20.809154
1591.417299	-2.990200	3.476300	-10.394000	26.044903	0.000272	20.816790
1592.413439	-2.999400	3.476500	-10.427000	26.074280	0.000272	20.839194
1593.418707	-3.006100	3.475400	-10.446000	26.036979	0.000272	20.835855
1594.419906	-3.014000	3.475000	-10.472000	26.003812	0.000273	20.820075
1595.417795	-3.004200	3.473900	-10.435000	26.021170	0.000271	20.845575
1596.421516	-3.003000	3.475400	-10.435000	26.025245	0.000273	20.837816
1597.417660	-2.999600	3.473400	-10.417000	25.981773	0.000272	20.835391
1598.419838	-2.987200	3.474700	-10.377000	26.008703	0.000273	20.833998
1599.414654	-3.017600	3.473500	-10.481000	26.008428	0.000272	20.844627
1600.417390	-2.999200	3.473600	-10.417000	26.070948	0.000270	20.830630
1601.414082	-2.999200	3.473500	-10.416000	26.085666	0.000269	20.828349
1602.412918	-2.978200	3.473400	-10.344000	26.047544	0.000270	20.828926
1603.422246	-2.982300	3.472800	-10.356000	26.015625	0.000269	20.838108
1604.419383	-3.020400	3.470500	-10.482000	26.029906	0.000267	20.830645
1605.419567	-2.993500	3.472100	-10.393000	26.015896	0.000270	20.842173
1606.423532	-3.013200	3.471200	-10.457000	26.036567	0.000269	20.822165
1607.416819	-3.012600	3.469700	-10.452000	26.030752	0.000268	20.835288
1608.423597	-2.997200	3.470900	-10.402000	26.011624	0.000266	20.848312
1609.418179	-2.986500	3.470100	-10.362000	25.972079	0.000268	20.832764
1610.418253	-2.992400	3.468800	-10.379000	25.941003	0.000269	20.864131
1611.424529	-2.978500	3.471000	-10.338000	25.964581	0.000269	20.845620
1612.422102	-2.986500	3.468400	-10.358000	25.949228	0.000267	20.852954
1613.422802	-3.011200	3.468900	-10.445000	25.951760	0.000268	20.839852
1614.418543	-2.987500	3.468600	-10.362000	25.954661	0.000268	20.848455
1615.419902	-2.977900	3.467800	-10.326000	26.021156	0.000265	20.859311
1616.419349	-2.987000	3.467100	-10.355000	25.975579	0.000267	20.848608
1617.417932	-2.997600	3.466700	-10.391000	25.977590	0.000264	20.859163
1618.417236	-2.988800	3.466500	-10.360000	25.980692	0.000267	20.845211
1619.418289	-2.992300	3.467200	-10.374000	25.987271	0.000266	20.847078
1620.418567	-2.999900	3.465700	-10.395000	26.032055	0.000265	20.844658
1621.418679	-2.996000	3.465400	-10.381000	26.053140	0.000266	20.854936
1622.419125	-2.987800	3.465900	-10.355000	26.039076	0.000266	20.849815
1623.421245	-2.984900	3.464300	-10.340000	26.042330	0.000265	20.860196
1624.418220	-3.043800	3.464500	-10.544000	26.048687	0.000265	20.862789
1625.419909	-2.996400	3.465500	-10.383000	26.008494	0.000265	20.882623
1626.421096	-2.967200	3.465600	-10.282000	26.010058	0.000264	20.867600
1627.420189	-3.008100	3.463400	-10.417000	26.052305	0.000262	20.863106
1628.424361	-3.006800	3.464600	-10.416000	26.059900	0.000263	20.876900
1629.421982	-2.987400	3.463500	-10.346000	26.044996	0.000263	20.870460
1630.425072	-2.996900	3.464100	-10.380000	26.043452	0.000262	20.870806
1631.426417	-2.997400	3.463000	-10.378000	26.046058	0.000265	20.856355
1632.422545	-2.997900	3.462400	-10.379000	26.030726	0.000263	20.856124
1633.423467	-3.015800	3.461400	-10.439000	26.023426	0.000264	20.883401
1634.426995	-2.995200	3.462200	-10.369000	26.034271	0.000261	20.877228
1635.425103	-3.001200	3.461500	-10.388000	26.071602	0.000262	20.868269
1636.424323	-2.999800	3.460600	-10.380000	26.092488	0.000263	20.862229
1637.418812	-3.002900	3.460700	-10.391000	26.098299	0.000258	20.880394
1638.424486	-3.006900	3.461500	-10.408000	26.073677	0.000259	20.869880
1639.422220	-3.007300	3.460000	-10.403000	26.050873	0.000261	20.874942
1640.424146	-3.023300	3.458700	-10.456000	26.085421	0.000259	20.885472
1641.427048	-2.975700	3.460300	-10.296000	26.094933	0.000259	20.870848
1642.423819	-3.002800	3.459800	-10.388000	26.114571	0.000258	20.873511
1643.426098	-2.994200	3.458500	-10.354000	26.116262	0.000257	20.867624
1644.423159	-2.969600	3.459200	-10.272000	26.128424	0.000256	20.876998
1645.424831	-2.987200	3.458700	-10.331000	26.196044	0.000256	20.873823
1646.427188	-3.012500	3.457200	-10.414000	26.211718	0.000256	20.863496
1647.426743	-2.992400	3.457300	-10.344000	26.202699	0.000256	20.862968
1648.426257	-3.011900	3.457500	-10.412000	26.131443	0.000256	20.890462
1649.428203	-3.002400	3.457200	-10.379000	26.147782	0.000257	20.887440
1650.425478	-3.023200	3.457100	-10.451000	26.183545	0.000254	20.874066
1651.430839	-2.979900	3.458500	-10.304000	26.189650	0.000252	20.891105
1652.429794	-2.978600	3.456400	-10.294000	26.144351	0.000253	20.894424
1653.424606	-2.989300	3.455700	-10.329000	26.113625	0.000254	20.891999
1654.439641	-2.990500	3.455300	-10.333000	26.130933	0.000253	20.886631
1655.426174	-3.006600	3.454000	-10.384000	26.089603	0.000253	20.904371
1656.430710	-2.998800	3.455800	-10.362000	26.078774	0.000252	20.895862
1657.427438	-2.997000	3.455000	-10.353000	26.069930	0.000252	20.889348
1658.429873	-3.019000	3.454000	-10.426000	26.039777	0.000252	20.884182
1659.429025	-3.014300	3.455100	-10.414000	26.049486	0.000249	20.870704
1660.430045	-2.988900	3.453400	-10.320000	26.049334	0.000251	20.895206
1661.431997	-3.007600	3.453500	-10.386000	26.023579	0.000251	20.891141
1662.438722	-3.015100	3.452600	-10.409000	26.025615	0.000250	20.884651
1663.430387	-3.016800	3.452600	-10.415000	26.050229	0.000249	20.896104
1664.430318	-2.981600	3.453800	-10.297000	26.042452	0.000251	20.900144
1665.430358	-3.003600	3.451900	-10.366000	26.062120	0.000252	20.895250
1666.436200	-2.981100	3.452700	-10.292000	26.054147	0.000251	20.896722
1667.434036	-2.986800	3.452200	-10.310000	26.082905	0.000250	20.908072
1668.435227	-2.995600	3.451100	-10.338000	26.103328	0.000248	20.888766
1669.434146	-2.997800	3.450500	-10.343000	26.109577	0.000249	20.893621
1670.430219	-3.005700	3.449700	-10.367000	26.111986	0.000249	20.896041
1671.434367	-3.006200	3.449700	-10.369000	26.109523	0.000248	20.914428
1672.430071	-2.997600	3.450500	-10.342000	26.151024	0.000247	20.901129
1673.434587	-3.010900	3.449900	-10.385000	26.173129	0.000249	20.897262
1674.435554	-3.022000	3.448400	-10.420000	26.135148	0.000246	20.898452
1675.436106	-3.008000	3.448700	-10.372000	26.127618	0.000246	20.918859
1676.437824	-3.009900	3.448300	-10.378000	26.113339	0.000246	20.932011
1677.432659	-2.992600	3.448900	-10.321000	26.108788	0.000247	20.901362
1678.437724	-2.977000	3.448200	-10.263000	26.138762	0.000247	20.911092
1679.436747	-3.012400	3.446700	-10.382000	26.163846	0.000245	20.912114
1680.437551	-3.005500	3.448600	-10.363000	26.099095	0.000245	20.899210
1681.439602	-3.006800	3.446400	-10.363000	26.070997	0.000245	20.910806
1682.435265	-3.006100	3.446400	-10.358000	26.089274	0.000246	20.916368
1683.435742	-3.019000	3.446900	-10.405000	26.134674	0.000244	20.896554
1684.433496	-3.014700	3.446600	-10.390000	26.177114	0.000245	20.932557
1685.433836	-2.981500	3.445400	-10.271000	26.134473	0.000244	20.918161
1686.438131	-2.998100	3.445100	-10.328000	26.066791	0.000241	20.922226
1687.445376	-3.025900	3.444000	-10.420000	26.065715	0.000240	20.926360
1688.438110	-3.009100	3.443500	-10.361000	26.105404	0.000243	20.927832
1689.441670	-2.998100	3.444800	-10.326000	26.123213	0.000245	20.908270
1690.439706	-2.981200	3.444000	-10.267000	26.157848	0.000244	20.900873
1691.441360	-2.988800	3.443500	-10.291000	26.131571	0.000242	20.932312
1692.441029	-2.998500	3.443800	-10.325000	26.130795	0.000241	20.934377
1693.436931	-2.993800	3.443100	-10.307000	26.158615	0.000244	20.946209
1694.440354	-3.008800	3.442600	-10.357000	26.183640	0.000242	20.934373
1695.446702	-3.015100	3.441800	-10.375000	26.149144	0.000243	20.935272
1696.441112	-2.991000	3.440900	-10.290000	26.141221	0.000241	20.957179
1697.441743	-3.000200	3.441300	-10.324000	26.126436	0.000243	20.917672
1698.445190	-3.002000	3.440700	-10.328000	26.148266	0.000241	20.931544
1699.444592	-2.995100	3.441300	-10.306000	26.130703	0.000240	20.931441
1700.437023	-3.005000	3.438800	-10.332000	26.141675	0.000242	20.927293
1701.441338	-3.000700	3.440900	-10.324000	26.183220	0.000242	20.923521
1702.446915	-3.002700	3.440500	-10.330000	26.166848	0.000239	20.930302
1703.440751	-2.989800	3.439600	-10.283000	26.142109	0.000239	20.931522
1704.438697	-2.999600	3.439400	-10.316000	26.185763	0.000240	20.934610
1705.444613	-2.987300	3.439700	-10.275000	26.172694	0.000242	20.934280
1706.443063	-2.994700	3.437900	-10.294000	26.139885	0.000239	20.916960
1707.440878	-2.980400	3.439300	-10.249000	26.130590	0.000237	20.937491
1708.441601	-3.011100	3.437700	-10.350000	26.065661	0.000238	20.941003
1709.441587	-2.986000	3.437500	-10.263000	26.038634	0.000239	20.931867
1710.444865	-3.010400	3.438000	-10.349000	26.044166	0.000238	20.940268
1711.440030	-2.989200	3.437300	-10.274000	26.078217	0.000238	20.928016
1712.444796	-2.992100	3.437700	-10.285000	26.106576	0.000240	20.918105
1713.441592	-3.000800	3.436700	-10.312000	26.135800	0.000238	20.922813
1714.443297	-2.983000	3.438200	-10.256000	26.131057	0.000237	20.923736
1715.444781	-3.013100	3.434800	-10.349000	26.133908	0.000239	20.926127
1716.444538	-3.018700	3.435300	-10.368000	26.148356	0.000239	20.932583
1717.444353	-2.989600	3.436200	-10.271000	26.154510	0.000236	20.912691
1718.445161	-2.990800	3.435000	-10.273000	26.131384	0.000236	20.926910
1719.445518	-2.986900	3.435700	-10.261000	26.152791	0.000238	20.906222
1720.442510	-3.027200	3.434100	-10.395000	26.226072	0.000235	20.928175
1721.449810	-3.001800	3.433000	-10.305000	26.201355	0.000234	20.928467
1722.447061	-3.006500	3.434600	-10.325000	26.197502	0.000237	20.927915
1723.446054	-3.001800	3.433400	-10.306000	26.162355	0.000234	20.915831
1724.441355	-3.007200	3.432600	-10.322000	26.115585	0.000232	20.914355
1725.444842	-2.996400	3.432400	-10.284000	26.104276	0.000235	20.928594
1726.447258	-2.979300	3.433000	-10.227000	26.101666	0.000233	20.931187
1727.445656	-2.983600	3.432800	-10.241000	26.097267	0.000230	20.913019
1728.451003	-3.001900	3.432100	-10.301000	26.144919	0.000235	20.918700
1729.447448	-2.987300	3.432800	-10.254000	26.204719	0.000232	20.921416
1730.449256	-3.005900	3.430100	-10.309000	26.165698	0.000234	20.939576
1731.445206	-2.991400	3.430600	-10.261000	26.175401	0.000232	20.937000
1732.450714	-3.003800	3.430300	-10.302000	26.141894	0.000233	20.919454
1733.445712	-3.016900	3.430500	-10.349000	26.138287	0.000234	20.893072
1734.446550	-3.008200	3.429100	-10.314000	26.132046	0.000232	20.914774
1735.446928	-2.989000	3.428900	-10.248000	26.123749	0.000232	20.930143
1736.447987	-2.999800	3.429400	-10.287000	26.137700	0.000231	20.913343
1737.444877	-3.003500	3.430000	-10.301000	26.135636	0.000233	20.920278
1738.445641	-3.002000	3.428100	-10.290000	26.189171	0.000231	20.922388
1739.450330	-3.028000	3.427000	-10.376000	26.222122	0.000230	20.918043
1740.450731	-3.009100	3.427900	-10.313000	26.258322	0.000230	20.916963
1741.452037	-3.002200	3.427100	-10.288000	26.283403	0.000233	20.908977
1742.448394	-3.006200	3.427100	-10.302000	26.242990	0.000228	20.941855
1743.448449	-3.016800	3.427300	-10.339000	26.246883	0.000232	20.913528
1744.450413	-2.985100	3.427500	-10.231000	26.254301	0.000229	20.915767
1745.451033	-2.994300	3.426900	-10.260000	26.187989	0.000227	20.912667
1746.446962	-2.995000	3.426000	-10.260000	26.144450	0.000227	20.918702
1747.449105	-3.029600	3.425200	-10.375000	26.151967	0.000228	20.922462
1748.448044	-2.992900	3.424400	-10.249000	26.196023	0.000227	20.912205
1749.447823	-2.996000	3.425700	-10.262000	26.239318	0.000228	20.910667
1750.451387	-2.984800	3.425000	-10.222000	26.228592	0.000225	20.915536
1751.454694	-2.983100	3.425400	-10.217000	26.291436	0.000226	20.903774
1752.454304	-3.020200	3.423400	-10.338000	26.290463	0.000225	20.905642
1753.450657	-2.993200	3.424100	-10.247000	26.297011	0.000227	20.916014
1754.451141	-3.015400	3.422900	-10.320000	26.284469	0.000225	20.925694
1755.457972	-3.003800	3.423500	-10.282000	26.242297	0.000224	20.889481
1756.454397	-3.010300	3.422400	-10.302000	26.254384	0.000222	20.911109
1757.447985	-3.016300	3.423000	-10.324000	26.253588	0.000224	20.908887
1758.457128	-3.005400	3.420900	-10.281000	26.240816	0.000224	20.900320
1759.453733	-2.993500	3.422100	-10.243000	26.250100	0.000223	20.894004
1760.449548	-3.002900	3.421500	-10.274000	26.288884	0.000221	20.915908
1761.456166	-3.007000	3.420800	-10.285000	26.279165	0.000222	20.895237
1762.452999	-2.996600	3.422100	-10.254000	26.275116	0.000224	20.900650
1763.451924	-2.994600	3.420200	-10.241000	26.235006	0.000220	20.888319
1764.454931	-3.004800	3.420400	-10.277000	26.200283	0.000224	20.910322
1765.454301	-3.000000	3.420600	-10.261000	26.171027	0.000221	20.904633
1766.455754	-2.999200	3.419100	-10.254000	26.171294	0.000221	20.886885
1767.453240	-3.011200	3.418700	-10.294000	26.225459	0.000222	20.887734
1768.456846	-3.021200	3.418100	-10.326000	26.260867	0.000218	20.902926
1769.454350	-3.001500	3.418300	-10.259000	26.233620	0.000219	20.919165
1770.456430	-3.020300	3.418300	-10.323000	26.218369	0.000220	20.900049
1771.459304	-3.019400	3.417900	-10.319000	26.258098	0.000219	20.913419
1772.454018	-3.018600	3.417600	-10.315000	26.223252	0.000218	20.915859
1773.459411	-3.013100	3.416600	-10.293000	26.187888	0.000219	20.895498
1774.458019	-3.004000	3.417300	-10.265000	26.166379	0.000216	20.894273
1775.458201	-3.019400	3.416200	-10.313000	26.142113	0.000215	20.895968
1776.457742	-2.973600	3.417300	-10.161000	26.136844	0.000218	20.895889
1777.462285	-2.982700	3.416000	-10.188000	26.137337	0.000215	20.902548
1778.453247	-3.014100	3.416200	-10.296000	26.141009	0.000217	20.888696
1779.457926	-2.993500	3.415100	-10.222000	26.154247	0.000217	20.910529
1780.456230	-2.994700	3.415500	-10.228000	26.175448	0.000218	20.906230
1781.456119	-2.991300	3.415700	-10.216000	26.239197	0.000217	20.902486
1782.456489	-2.987600	3.414300	-10.200000	26.273362	0.000215	20.891776
1783.460842	-3.027700	3.413200	-10.334000	26.306114	0.000214	20.892448
1784.457107	-3.001400	3.415100	-10.250000	26.265238	0.000214	20.908741
1785.455238	-2.984700	3.414200	-10.189000	26.242066	0.000214	20.893990
1786.458380	-2.995600	3.413300	-10.224000	26.206071	0.000214	20.890536
1787.464467	-2.986200	3.413900	-10.194000	26.173245	0.000214	20.897379
1788.459572	-3.014300	3.412700	-10.286000	26.194795	0.000212	20.881103
1789.462646	-3.019300	3.411600	-10.300000	26.169910	0.000213	20.892131
1790.466052	-2.990400	3.412500	-10.204000	26.161486	0.000212	20.884142
1791.457115	-2.998300	3.410800	-10.226000	26.220465	0.000214	20.874181
1792.465575	-3.013600	3.411100	-10.279000	26.210309	0.000212	20.898114
1793.459047	-2.990700	3.412000	-10.203000	26.298238	0.000211	20.881689
1794.461865	-3.001900	3.410700	-10.237000	26.320138	0.000210	20.898007
1795.460876	-2.987500	3.410200	-10.188000	26.347576	0.000214	20.904719
1796.461027	-3.011400	3.409200	-10.266000	26.332922	0.000212	20.902319
1797.461205	-2.997100	3.409400	-10.217000	26.350797	0.000210	20.892784
1798.461978	-3.010300	3.408000	-10.258000	26.324352	0.000211	20.889440
1799.460856	-2.982600	3.409500	-10.168000	26.290600	0.000213	20.910520
1800.460834	-3.011700	3.407900	-10.262000	26.311138	0.000211	20.883747
1801.462535	-3.004600	3.408000	-10.239000	26.316024	0.000213	20.872537
1802.464611	-2.986600	3.408900	-10.180000	26.332615	0.000208	20.864555
1803.470995	-3.005200	3.408100	-10.241000	26.334691	0.000210	20.878495
1804.465239	-3.010500	3.407200	-10.256000	26.347553	0.000209	20.899954
1805.464087	-3.016700	3.405800	-10.273000	26.265705	0.000210	20.895460
1806.472847	-2.991600	3.407700	-10.194000	26.232106	0.000209	20.884457
1807.467496	-3.010100	3.406100	-10.251000	26.231479	0.000207	20.881930
1808.468539	-2.987600	3.405200	-10.172000	26.261151	0.000208	20.869075
1809.464938	-3.004700	3.406100	-10.234000	26.275971	0.000207	20.874485
1810.468720	-3.016400	3.406200	-10.274000	26.286995	0.000206	20.874658
1811.465301	-3.011800	3.405000	-10.254000	26.327374	0.000205	20.891528
1812.467298	-3.009100	3.403900	-10.241000	26.364444	0.000205	20.886111
1813.467312	-2.989000	3.405300	-10.178000	26.347460	0.000206	20.871413
1814.466122	-2.986900	3.405000	-10.168000	26.365335	0.000204	20.860455
1815.472451	-2.990300	3.404300	-10.178000	26.351029	0.000204	20.865518
1816.467906	-2.977900	3.403900	-10.136000	26.341791	0.000203	20.876147
1817.466252	-2.996100	3.403400	-10.196000	26.383726	0.000202	20.884154
1818.469043	-3.014700	3.403200	-10.259000	26.315764	0.000201	20.872750
1819.468934	-3.017900	3.401400	-10.264000	26.301458	0.000201	20.880183
1820.466213	-3.014200	3.402000	-10.253000	26.354874	0.000202	20.867011
1821.467268	-3.014300	3.401300	-10.252000	26.317081	0.000201	20.878814
1822.468234	-3.016600	3.401200	-10.259000	26.353159	0.000202	20.862917
1823.470294	-3.014000	3.401400	-10.251000	26.370837	0.000203	20.884475
1824.475989	-3.014600	3.400800	-10.251000	26.323284	0.000201	20.887419
1825.473842	-3.015200	3.400300	-10.252000	26.354197	0.000199	20.871546
1826.471521	-2.991200	3.400400	-10.171000	26.371629	0.000198	20.881478
1827.470519	-3.020600	3.400900	-10.272000	26.365422	0.000200	20.876189
1828.474699	-3.000000	3.399200	-10.196000	26.345085	0.000199	20.863812
1829.473309	-2.986200	3.400000	-10.153000	26.351243	0.000200	20.875216
1830.477821	-3.012100	3.398000	-10.234000	26.348733	0.000198	20.865107
1831.474882	-2.987600	3.399100	-10.154000	26.304138	0.000198	20.870549
1832.474412	-2.984300	3.400000	-10.146000	26.253977	0.000197	20.856176
1833.475832	-3.000600	3.398500	-10.197000	26.279255	0.000196	20.855975
1834.477262	-3.000500	3.397200	-10.192000	26.300511	0.000195	20.854103
1835.480377	-2.981900	3.397800	-10.131000	26.316080	0.000198	20.849361
1836.473642	-3.006400	3.397400	-10.213000	26.306845	0.000196	20.853356
1837.480548	-2.978100	3.398300	-10.120000	26.336048	0.000198	20.855203
1838.477559	-2.993900	3.396800	-10.169000	26.356905	0.000199	20.859095
1839.475389	-2.990800	3.396000	-10.156000	26.346948	0.000196	20.848141
1840.478823	-3.001700	3.395300	-10.191000	26.340441	0.000195	20.851559
1841.478358	-2.985700	3.396100	-10.139000	26.346620	0.000196	20.853027
1842.479308	-2.999300	3.395800	-10.185000	26.389454	0.000196	20.843919
1843.483870	-2.992000	3.395000	-10.156000	26.400107	0.000194	20.852256
1844.481360	-3.005800	3.394500	-10.202000	26.348905	0.000195	20.858168
1845.478341	-2.998100	3.394900	-10.177000	26.338350	0.000195	20.839026
1846.481147	-2.995400	3.393700	-10.165000	26.313488	0.000195	20.878523
1847.482643	-2.984600	3.394300	-10.130000	26.326530	0.000195	20.838527
1848.484999	-2.987600	3.394200	-10.139000	26.329304	0.000194	20.857909
1849.482235	-3.001000	3.393000	-10.181000	26.308295	0.000194	20.849597
1850.486598	-3.000100	3.392900	-10.179000	26.357735	0.000193	20.851395
1851.483452	-2.996300	3.392900	-10.165000	26.325945	0.000193	20.862593
1852.478502	-2.989600	3.392000	-10.141000	26.325473	0.000193	20.860697
1853.486974	-3.030500	3.391200	-10.276000	26.324448	0.000192	20.843072
1854.477539	-2.983100	3.391400	-10.116000	26.241704	0.000190	20.859015
1855.481923	-3.016300	3.390500	-10.226000	26.232341	0.000191	20.847710
1856.478023	-3.015000	3.390400	-10.222000	26.289255	0.000192	20.848007
1857.477946	-2.999800	3.391400	-10.172000	26.278601	0.000191	20.861481
1858.478535	-3.007300	3.388300	-10.189000	26.309018	0.000189	20.864075
1859.476899	-3.032700	3.388700	-10.275000	26.328559	0.000189	20.836773
1860.484921	-3.002800	3.388800	-10.175000	26.331756	0.000191	20.843778
1861.480823	-2.998400	3.390000	-10.163000	26.356933	0.000189	20.843952
1862.483073	-2.999000	3.389100	-10.163000	26.344343	0.000188	20.845523
1863.488318	-2.982700	3.389600	-10.109000	26.308412	0.000189	20.852560
1864.479662	-2.995000	3.388300	-10.147000	26.308683	0.000188	20.842876
1865.484109	-2.987300	3.387100	-10.117000	26.312655	0.000185	20.846393
1866.480655	-2.989000	3.388700	-10.128000	26.368375	0.000185	20.854028
1867.482082	-2.995700	3.387700	-10.147000	26.372223	0.000188	20.851732
1868.485981	-2.971500	3.387600	-10.066000	26.396998	0.000187	20.826847
1869.481894	-3.007500	3.387000	-10.185000	26.421776	0.000185	20.860284
1870.483178	-2.972900	3.387600	-10.070000	26.442512	0.000187	20.826599
1871.489650	-2.989700	3.385500	-10.121000	26.384412	0.000185	20.807559
1872.481471	-2.993800	3.386200	-10.136000	26.400403	0.000186	20.828846
1873.485330	-3.014600	3.386100	-10.207000	26.394836	0.000184	20.826571
1874.487154	-2.993100	3.385500	-10.132000	26.413210	0.000183	20.832710
1875.488104	-3.015200	3.384400	-10.203000	26.407328	0.000182	20.808780
1876.490471	-2.999400	3.384300	-10.150000	26.387288	0.000183	20.803337
1877.488451	-2.998200	3.384600	-10.147000	26.370825	0.000182	20.847956
1878.488523	-2.979800	3.384500	-10.084000	26.392178	0.000181	20.838123
1879.489031	-3.007000	3.383200	-10.172000	26.408468	0.000180	20.828418
1880.485925	-3.003700	3.383500	-10.162000	26.462494	0.000180	20.819656
1881.489362	-3.000200	3.383400	-10.149000	26.410327	0.000180	20.828389
1882.503037	-2.999200	3.383500	-10.147000	26.406528	0.000179	20.826942
1883.491852	-2.989500	3.382200	-10.110000	26.428155	0.000180	20.818333
1884.485322	-3.005800	3.381700	-10.164000	26.418248	0.000180	20.839195
1885.486674	-2.952900	3.382700	-9.988000	26.444863	0.000179	20.811893
1886.488984	-3.016900	3.381500	-10.201000	26.487394	0.000178	20.820028
1887.488519	-2.987400	3.381600	-10.101000	26.446627	0.000178	20.808924
1888.494063	-3.015300	3.379900	-10.191000	26.412489	0.000178	20.807329
1889.493242	-3.005900	3.379200	-10.156000	26.358210	0.000177	20.820580
1890.488718	-3.001000	3.380200	-10.142000	26.421230	0.000177	20.804261
1891.495971	-3.013400	3.379400	-10.182000	26.454126	0.000177	20.816461
1892.492594	-3.002600	3.380600	-10.149000	26.409014	0.000176	20.812845
1893.490273	-3.009800	3.379600	-10.170000	26.401244	0.000176	20.798872
1894.492130	-3.008100	3.379500	-10.165000	26.420488	0.000178	20.820110
1895.491577	-2.992000	3.378600	-10.108000	26.391907	0.000175	20.820782
1896.494835	-2.986700	3.378900	-10.091000	26.389130	0.000177	20.805662
1897.495929	-2.997600	3.378600	-10.127000	26.390643	0.000175	20.813822
1898.494300	-3.019100	3.376700	-10.193000	26.360577	0.000176	20.815372
1899.494230	-2.959300	3.378300	-9.996400	26.352327	0.000175	20.812297
1900.500479	-2.999100	3.377400	-10.129000	26.331002	0.000175	20.812201
1901.493771	-3.012100	3.377100	-10.171000	26.306694	0.000176	20.815273
1902.495513	-2.995600	3.376700	-10.114000	26.321767	0.000173	20.801972
1903.497470	-2.980600	3.377500	-10.066000	26.318341	0.000174	20.792365
1904.498606	-2.987400	3.377200	-10.088000	26.352880	0.000175	20.809534
1905.496377	-2.984300	3.376300	-10.075000	26.388465	0.000172	20.798356
1906.499366	-2.999500	3.373200	-10.117000	26.437704	0.000175	20.820818
1907.496573	-3.015500	3.375000	-10.176000	26.440457	0.000174	20.794662
1908.498515	-3.013700	3.375500	-10.172000	26.465307	0.000170	20.813001
1909.500546	-3.012000	3.374200	-10.161000	26.479365	0.000174	20.798681
1910.497793	-2.998900	3.373800	-10.117000	26.473260	0.000171	20.823366
1911.499174	-3.013300	3.372100	-10.160000	26.435940	0.000172	20.802924
1912.499994	-3.013700	3.373700	-10.166000	26.394474	0.000174	20.813405
1913.501101	-3.021800	3.372000	-10.189000	26.342927	0.000174	20.785306
1914.501322	-3.002200	3.372700	-10.124000	26.364482	0.000172	20.787054
1915.502319	-2.990700	3.372900	-10.086000	26.327531	0.000173	20.788798
1916.503544	-2.997500	3.373100	-10.111000	26.312683	0.000171	20.797110
1917.502407	-2.985900	3.372100	-10.068000	26.316799	0.000172	20.798876
1918.505297	-2.968700	3.372500	-10.010000	26.340314	0.000172	20.796905
1919.504282	-2.997500	3.371900	-10.106000	26.376519	0.000170	20.795359
1920.502620	-2.979100	3.370900	-10.041000	26.395210	0.000172	20.802290
1921.504370	-2.991800	3.370900	-10.084000	26.437348	0.000173	20.774467
1922.505205	-2.992900	3.370900	-10.088000	26.488665	0.000170	20.801391
1923.504911	-3.006800	3.370000	-10.132000	26.529376	0.000170	20.782096
1924.506096	-2.983200	3.369500	-10.051000	26.532506	0.000170	20.801363
1925.511223	-2.985100	3.370400	-10.060000	26.494867	0.000168	20.807626
1926.507448	-2.996200	3.369100	-10.093000	26.491512	0.000168	20.784339
1927.502443	-2.972300	3.368600	-10.011000	26.506255	0.000168	20.797735
1928.512346	-2.987400	3.369000	-10.064000	26.545583	0.000167	20.787955
1929.506653	-2.990400	3.367800	-10.070000	26.549497	0.000167	20.792838
1930.504090	-2.980800	3.367300	-10.036000	26.527478	0.000168	20.792042
1931.508605	-3.000900	3.367600	-10.105000	26.475663	0.000166	20.794961
1932.503586	-2.977100	3.368400	-10.026000	26.472583	0.000164	20.785701
1933.513262	-2.993200	3.367900	-10.080000	26.421335	0.000166	20.811952
1934.505868	-2.992800	3.367300	-10.078000	26.400028	0.000167	20.793857
1935.503938	-2.999700	3.367300	-10.100000	26.390343	0.000166	20.780329
1936.507789	-2.993900	3.366200	-10.077000	26.387811	0.000164	20.782052
1937.506408	-2.988100	3.366200	-10.058000	26.409981	0.000167	20.808601
1938.509031	-2.992100	3.366200	-10.071000	26.502417	0.000166	20.798145
1939.511502	-3.012300	3.365300	-10.136000	26.526967	0.000165	20.794847
1940.509098	-3.009800	3.365100	-10.127000	26.468227	0.000165	20.784642
1941.509124	-2.992600	3.364900	-10.068000	26.435997	0.000167	20.813887
1942.506695	-3.011100	3.363900	-10.128000	26.444587	0.000165	20.783640
1943.508463	-2.994500	3.363900	-10.072000	26.509510	0.000165	20.810016
1944.508099	-3.029500	3.363400	-10.188000	26.561693	0.000165	20.799408
1945.509189	-2.986600	3.363600	-10.045000	26.586939	0.000165	20.775473
1946.512450	-2.991600	3.363900	-10.063000	26.530036	0.000164	20.794613
1947.508710	-2.993900	3.363600	-10.069000	26.489817	0.000163	20.794489
1948.507637	-2.988900	3.363300	-10.051000	26.440281	0.000162	20.784054
1949.514626	-3.003600	3.363400	-10.101000	26.388236	0.000164	20.800023
1950.509155	-3.019500	3.360900	-10.147000	26.429874	0.000163	20.782603
1951.513389	-2.987100	3.361000	-10.039000	26.452441	0.000163	20.806707
1952.513725	-2.983700	3.360700	-10.026000	26.461277	0.000162	20.798993
1953.514777	-3.005000	3.360400	-10.097000	26.473267	0.000161	20.783070
1954.511712	-2.995900	3.362200	-10.071000	26.459157	0.000163	20.809190
1955.519708	-2.996000	3.360500	-10.067000	26.468050	0.000163	20.802007
1956.517269	-2.984900	3.358800	-10.025000	26.478526	0.000161	20.790727
1957.520021	-3.010100	3.358800	-10.109000	26.489721	0.000163	20.794393
1958.515873	-2.985100	3.360300	-10.030000	26.482666	0.000161	20.792991
1959.519723	-3.009100	3.358200	-10.105000	26.437777	0.000160	20.810460
1960.516551	-2.988100	3.359200	-10.036000	26.449021	0.000159	20.810857
1961.516881	-3.010300	3.357800	-10.107000	26.482412	0.000160	20.784201
1962.521339	-3.007400	3.358000	-10.098000	26.512254	0.000159	20.795705
1963.518247	-2.983900	3.358500	-10.020000	26.560988	0.000159	20.804388
1964.517673	-3.012700	3.356800	-10.112000	26.593953	0.000157	20.792481
1965.520168	-3.011300	3.355900	-10.105000	26.527321	0.000158	20.773391
1966.519574	-3.002600	3.356700	-10.077000	26.494121	0.000157	20.773210
1967.515019	-2.989500	3.356200	-10.033000	26.440889	0.000157	20.806476
1968.515699	-3.000400	3.354900	-10.066000	26.475002	0.000155	20.800934
1969.517286	-2.994400	3.355900	-10.048000	26.486045	0.000157	20.789275
1970.517916	-3.008400	3.354800	-10.091000	26.518868	0.000155	20.797137
1971.517702	-2.985700	3.356100	-10.019000	26.540637	0.000156	20.790096
1972.520005	-2.995700	3.354300	-10.047000	26.580953	0.000157	20.818293
1973.519969	-3.001900	3.353600	-10.067000	26.547586	0.000155	20.798029
1974.521132	-2.984400	3.354800	-10.011000	26.498200	0.000156	20.780156
1975.521663	-3.011900	3.352700	-10.096000	26.480053	0.000154	20.813598
1976.520295	-3.009000	3.353200	-10.089000	26.526376	0.000154	20.801840
1977.518958	-3.020000	3.353100	-10.125000	26.539060	0.000155	20.783294
1978.519184	-3.015100	3.351500	-10.104000	26.560209	0.000154	20.806924
1979.520015	-3.008800	3.351100	-10.081000	26.548539	0.000155	20.826488
1980.518894	-2.984300	3.352700	-10.004000	26.521254	0.000152	20.806174
1981.525756	-2.981200	3.353000	-9.994100	26.499650	0.000154	20.809114
1982.521966	-2.990500	3.352200	-10.024000	26.505061	0.000152	20.805070
1983.522077	-2.993400	3.350600	-10.029000	26.447932	0.000151	20.824934
1984.521166	-3.007600	3.351100	-10.078000	26.487403	0.000152	20.801545
1985.523077	-2.998500	3.350700	-10.046000	26.526186	0.000149	20.813502
1986.520543	-2.996800	3.349900	-10.038000	26.568114	0.000152	20.798276
1987.525242	-3.023900	3.348800	-10.125000	26.623617	0.000151	20.805706
1988.526956	-2.996300	3.349200	-10.035000	26.662519	0.000148	20.795027
1989.523639	-3.007200	3.348100	-10.067000	26.675844	0.000150	20.806053
1990.521136	-2.991700	3.349300	-10.019000	26.680881	0.000148	20.805427
1991.524542	-3.012000	3.349600	-10.088000	26.662462	0.000150	20.795445
1992.520093	-2.989700	3.348500	-10.011000	26.662733	0.000148	20.818951
1993.523447	-3.011000	3.346900	-10.076000	26.684549	0.000148	20.817174
1994.525159	-3.009100	3.346500	-10.069000	26.615659	0.000147	20.810034
1995.524721	-2.983100	3.348100	-9.987000	26.590508	0.000148	20.811304
1996.526279	-2.985400	3.348000	-9.994300	26.586760	0.000146	20.809432
1997.524572	-3.008300	3.347200	-10.069000	26.613966	0.000145	20.831565
1998.527339	-3.010500	3.344600	-10.067000	26.590033	0.000147	20.802766
1999.526482	-3.003200	3.345900	-10.048000	26.574316	0.000145	20.804036
2000.527027	-2.999300	3.344800	-10.031000	26.549239	0.000144	20.807277
2001.526848	-2.989300	3.345500	-10.000000	26.577442	0.000145	20.814764
2002.527709	-3.021000	3.345000	-10.104000	26.585334	0.000142	20.814163
2003.527699	-2.991300	3.344800	-10.004000	26.640417	0.000144	20.820224
2004.527506	-2.989200	3.345000	-9.997900	26.613110	0.000144	20.806997
2005.524046	-2.985800	3.345200	-9.986700	26.595035	0.000144	20.807794
2006.524093	-3.018700	3.343400	-10.092000	26.584313	0.000143	20.810292
2007.530330	-2.981700	3.342900	-9.966900	26.575548	0.000143	20.810016
2008.527094	-2.984800	3.344600	-9.980800	26.557796	0.000141	20.822517
2009.529658	-3.031700	3.341800	-10.130000	26.581504	0.000141	20.843503
2010.540096	-3.026600	3.342100	-10.114000	26.617996	0.000143	20.804797
2011.527045	-3.028200	3.341400	-10.117000	26.672961	0.000143	20.813112
2012.526930	-3.004400	3.343100	-10.043000	26.633987	0.000140	20.809018
2013.527913	-2.983700	3.343500	-9.975000	26.643392	0.000141	20.821317
2014.528541	-3.002800	3.341000	-10.032000	26.656647	0.000142	20.813306
2015.527828	-3.022600	3.340500	-10.096000	26.605158	0.000139	20.811806
2016.526590	-3.003800	3.340600	-10.033000	26.590864	0.000138	20.827782
2017.532172	-2.999900	3.339400	-10.017000	26.574330	0.000139	20.820645
2018.535705	-2.987800	3.339700	-9.977500	26.542551	0.000139	20.823787
2019.532569	-3.005900	3.339600	-10.038000	26.620727	0.000138	20.830301
2020.532673	-2.993600	3.341300	-10.002000	26.581853	0.000139	20.813034
2021.533021	-2.994600	3.338700	-9.997500	26.544863	0.000137	20.821845
2022.530745	-3.016900	3.339800	-10.075000	26.596700	0.000138	20.817528
2023.537247	-3.001800	3.338300	-10.021000	26.585080	0.000138	20.815805
2024.529529	-3.008600	3.336900	-10.038000	26.607598	0.000137	20.827534
2025.531942	-2.991700	3.338100	-9.985700	26.567632	0.000135	20.829084
2026.531215	-3.002500	3.337000	-10.018000	26.595859	0.000135	20.806251
2027.531060	-3.028300	3.336400	-10.102000	26.589452	0.000135	20.814510
2028.540447	-3.035300	3.336100	-10.125000	26.615993	0.000134	20.834551
2029.530616	-2.999600	3.336400	-10.007000	26.632924	0.000133	20.840665
2030.532331	-3.015600	3.336900	-10.062000	26.665148	0.000132	20.832283
2031.530907	-3.011700	3.334600	-10.042000	26.692355	0.000134	20.835927
2032.532144	-3.017400	3.334200	-10.060000	26.676566	0.000134	20.838546
2033.533051	-3.006400	3.335200	-10.026000	26.633202	0.000132	20.841893
2034.532307	-3.018700	3.334700	-10.066000	26.674683	0.000132	20.839498
2035.535251	-2.989000	3.334700	-9.967000	26.713455	0.000133	20.841967
2036.537288	-2.994900	3.334800	-9.986400	26.727632	0.000131	20.825401
2037.535265	-2.979400	3.334000	-9.931800	26.715722	0.000133	20.826229
2038.537996	-2.987900	3.334500	-9.961700	26.749080	0.000131	20.812825
2039.536279	-2.998400	3.333600	-9.994400	26.701126	0.000131	20.822460
2040.536271	-3.007900	3.333200	-10.025000	26.724285	0.000132	20.819665
2041.538713	-3.004700	3.332000	-10.011000	26.702615	0.000129	20.844819
2042.540905	-3.016600	3.332300	-10.051000	26.690602	0.000132	20.824683
2043.543730	-2.970300	3.334600	-9.903700	26.727192	0.000131	20.839183
2044.536526	-3.035400	3.331500	-10.112000	26.712896	0.000131	20.842353
2045.539168	-3.001800	3.330500	-9.997200	26.705325	0.000128	20.833794
2046.541116	-3.001400	3.332100	-10.001000	26.636690	0.000127	20.828805
2047.538830	-3.021700	3.330700	-10.063000	26.633663	0.000128	20.844727
2048.537797	-3.028800	3.329400	-10.083000	26.661540	0.000125	20.811587
2049.541089	-2.992800	3.330900	-9.968100	26.642772	0.000126	20.846298
2050.543219	-2.970400	3.330600	-9.892300	26.679758	0.000128	20.828479
2051.541776	-3.002300	3.329000	-9.994000	26.670079	0.000127	20.846249
2052.543904	-3.000300	3.330500	-9.991800	26.637563	0.000126	20.839639
2053.542725	-2.995800	3.329200	-9.973100	26.658365	0.000126	20.840163
2054.542443	-2.990000	3.328200	-9.950100	26.751403	0.000124	20.855463
2055.540598	-3.014100	3.327500	-10.029000	26.797497	0.000126	20.852020
2056.545279	-3.011100	3.327600	-10.018000	26.855202	0.000127	20.838918
2057.542719	-3.004900	3.327600	-9.998600	26.855923	0.000123	20.827790
2058.544361	-3.012100	3.327200	-10.021000	26.831426	0.000125	20.849150
2059.545411	-3.025500	3.325700	-10.061000	26.765108	0.000124	20.833207
2060.545011	-3.003000	3.326300	-9.987700	26.769550	0.000124	20.841939
2061.547652	-2.994500	3.326800	-9.961300	26.781167	0.000124	20.849826
2062.546536	-3.009100	3.325800	-10.007000	26.793182	0.000123	20.851001
2063.542293	-2.978000	3.326000	-9.903700	26.785735	0.000122	20.853471
2064.547933	-3.007700	3.325100	-10.000000	26.857042	0.000121	20.854992
2065.551232	-3.023500	3.324700	-10.052000	26.907745	0.000124	20.849076
2066.547531	-3.002900	3.325100	-9.984100	26.908565	0.000121	20.859383
2067.550546	-3.024100	3.323400	-10.050000	26.926114	0.000122	20.845262
2068.553374	-2.984700	3.324600	-9.921900	26.903701	0.000121	20.856390
2069.549010	-2.982900	3.323600	-9.912900	26.876626	0.000119	20.863778
2070.547347	-2.994500	3.324300	-9.953900	26.922468	0.000122	20.861510
2071.547901	-2.993900	3.322900	-9.947400	26.941945	0.000118	20.856439
2072.551425	-3.013500	3.323200	-10.013000	26.984061	0.000119	20.868919
2073.551867	-3.004400	3.322300	-9.981000	26.968702	0.000118	20.852052
2074.551668	-2.997600	3.322200	-9.956700	26.960609	0.000117	20.869991
2075.556155	-2.992900	3.321500	-9.940000	26.944081	0.000117	20.857165
2076.554585	-2.994900	3.322200	-9.949300	26.884548	0.000117	20.863208
2077.552582	-2.973400	3.322000	-9.876600	26.858411	0.000117	20.848308
2078.553686	-2.973000	3.321500	-9.873300	26.774171	0.000115	20.858439
2079.551881	-2.980000	3.322300	-9.898900	26.762331	0.000117	20.869294
2080.552411	-2.985400	3.319600	-9.909500	26.760617	0.000116	20.843864
2081.558338	-3.004700	3.319500	-9.972400	26.830469	0.000117	20.859093
2082.555595	-2.992300	3.319100	-9.930800	26.892244	0.000114	20.863835
2083.555291	-3.009600	3.318600	-9.986300	26.885389	0.000114	20.861209
2084.555754	-2.997900	3.319100	-9.949600	26.883408	0.000117	20.851157
2085.557415	-3.009200	3.318100	-9.983600	26.918302	0.000115	20.852579
2086.556137	-3.023100	3.318800	-10.031000	26.941558	0.000114	20.847990
2087.559806	-3.008200	3.317100	-9.977800	26.926892	0.000116	20.859320
2088.559679	-3.001100	3.316800	-9.954300	26.894707	0.000115	20.846398
2089.554819	-2.984900	3.317300	-9.901100	26.859883	0.000115	20.876339
2090.560888	-2.986700	3.316100	-9.903100	26.898772	0.000116	20.854278
2091.559305	-2.980100	3.315600	-9.880200	26.925751	0.000113	20.853432
2092.559731	-2.980400	3.317400	-9.886900	26.920318	0.000113	20.868831
2093.557863	-3.003600	3.315100	-9.956000	26.886149	0.000113	20.854388
2094.563583	-3.017400	3.314400	-10.000000	26.821988	0.000114	20.863842
2095.558046	-3.010800	3.315200	-9.981100	26.846415	0.000113	20.861376
2096.553862	-2.983600	3.315300	-9.891000	26.804740	0.000112	20.877319
2097.557803	-2.986800	3.315000	-9.900800	26.776691	0.000112	20.868084
2098.557273	-2.987700	3.314300	-9.901200	26.763908	0.000112	20.851440
2099.559122	-3.018700	3.312400	-9.997600	26.764109	0.000113	20.871555
2100.563048	-3.013400	3.313700	-9.985200	26.772073	0.000112	20.872450
2101.564706	-3.005600	3.313000	-9.956200	26.776314	0.000114	20.867231
2102.559630	-2.996400	3.313500	-9.927400	26.797515	0.000112	20.877167
2103.561382	-2.981600	3.312900	-9.875800	26.881778	0.000109	20.888397
2104.559923	-2.983500	3.312300	-9.881100	26.937318	0.000111	20.853209
2105.554716	-2.999400	3.312700	-9.935100	26.929253	0.000113	20.860746
2106.564322	-2.988800	3.310900	-9.894800	26.966749	0.000113	20.860045
2107.558616	-3.004800	3.310200	-9.945700	27.003228	0.000111	20.851684
2108.559180	-3.005600	3.310900	-9.950200	27.039459	0.000112	20.853032
2109.560384	-2.968200	3.311400	-9.828700	27.027397	0.000111	20.871721
2110.560710	-2.986400	3.311300	-9.887400	27.068908	0.000110	20.888337
2111.562492	-3.017700	3.309900	-9.987300	27.096028	0.000111	20.882895
2112.562179	-2.997000	3.310700	-9.921000	27.115875	0.000112	20.858286
2113.563636	-3.009400	3.308500	-9.955700	27.046791	0.000112	20.861828
2114.570705	-3.009300	3.309700	-9.959500	27.007957	0.000109	20.877775
2115.561414	-3.001600	3.308500	-9.929600	26.986215	0.000110	20.893368
2116.561098	-2.987700	3.308500	-9.883800	26.996683	0.000108	20.872128
2117.562214	-3.003300	3.307200	-9.931400	27.032689	0.000110	20.896481
2118.565456	-2.983800	3.308900	-9.872500	27.060802	0.000108	20.873547
2119.564031	-2.994900	3.307900	-9.905600	27.087225	0.000109	20.879257
2120.564887	-2.991400	3.306400	-9.890300	27.045929	0.000107	20.885615
2121.565294	-3.012500	3.306700	-9.960100	26.982826	0.000108	20.875263
2122.566537	-2.975000	3.306600	-9.836600	26.902561	0.000106	20.877527
2123.560050	-2.970100	3.308000	-9.824500	26.905682	0.000107	20.871657
2124.564772	-3.002800	3.305900	-9.926600	26.899352	0.000106	20.891368
2125.559747	-3.002000	3.303900	-9.917200	26.926581	0.000107	20.911635
2126.563546	-3.016200	3.303000	-9.961700	27.021869	0.000106	20.879437
2127.562965	-3.003800	3.303600	-9.922400	27.057022	0.000105	20.900090
2128.565637	-2.995100	3.304100	-9.895500	27.052783	0.000107	20.883025
2129.564654	-2.976700	3.305100	-9.837400	26.988554	0.000106	20.903306
2130.562411	-3.009500	3.304300	-9.943500	26.938746	0.000104	20.909169
2131.568946	-3.004900	3.302600	-9.923200	26.891092	0.000104	20.885435
2132.561909	-3.001500	3.302500	-9.911500	26.927299	0.000102	20.906193
2133.563869	-3.010200	3.302000	-9.939100	26.986309	0.000101	20.912901
2134.561904	-2.985500	3.302900	-9.859200	27.038121	0.000101	20.907159
2135.562037	-3.011600	3.301100	-9.940400	27.098240	0.000101	20.916885
2136.563135	-3.012100	3.301100	-9.942100	27.136801	0.000100	20.912519
2137.563038	-3.014200	3.299900	-9.945900	27.069801	0.000100	20.921000
2138.562077	-2.999400	3.301300	-9.901200	27.074319	9.991483E-5	20.916535
2139.561695	-3.006500	3.300700	-9.922600	27.093244	9.839671E-5	20.907120
2140.563293	-3.009300	3.299600	-9.928600	27.056840	9.938679E-5	20.925508
2141.565858	-3.005500	3.299700	-9.916200	27.002172	9.859473E-5	20.896138
2142.565305	-3.023700	3.297800	-9.971100	26.939207	9.644957E-5	20.927648
2143.563124	-3.016200	3.298100	-9.945700	26.980898	9.595454E-5	20.915046
2144.567411	-3.011200	3.298700	-9.932400	26.992657	9.707662E-5	20.921655
2145.565587	-3.018300	3.298200	-9.953800	26.964560	9.592153E-5	20.928013
2146.563744	-3.018400	3.297800	-9.953200	26.928130	9.562451E-5	20.928837
2147.567294	-2.996800	3.297800	-9.881400	26.976644	9.503047E-5	20.904131
2148.562591	-2.991800	3.298000	-9.864900	27.092974	9.466744E-5	20.920123
2149.566021	-3.002100	3.297800	-9.899300	27.071185	9.341335E-5	20.915279
2150.564626	-2.989100	3.297100	-9.853200	27.117159	9.648258E-5	20.941599
2151.566362	-3.006700	3.295700	-9.908600	27.178322	9.380938E-5	20.935312
2152.564863	-3.022700	3.294600	-9.956700	27.161126	9.295132E-5	20.903321
2153.566200	-2.993700	3.296100	-9.866600	27.126282	9.341335E-5	20.941291
2154.567308	-3.021700	3.295300	-9.956300	27.140548	9.295132E-5	20.942363
2155.566358	-2.964600	3.295300	-9.768300	27.078834	9.268730E-5	20.916808
2156.566306	-2.992100	3.294100	-9.855400	27.026053	9.166422E-5	20.925841
2157.571614	-3.008300	3.292800	-9.904400	27.002352	9.163122E-5	20.945152
2158.567626	-2.987300	3.294100	-9.839600	26.978333	9.338035E-5	20.929535
2159.571766	-3.014900	3.292200	-9.924100	26.949835	9.354536E-5	20.934541
2160.568938	-2.999800	3.293500	-9.878000	27.025796	9.136720E-5	20.931746
2161.564816	-3.004600	3.293000	-9.892800	27.074981	9.123519E-5	20.926209
2162.572046	-2.993600	3.292800	-9.856900	27.141699	9.357836E-5	20.921238
2163.567759	-3.015400	3.290200	-9.920800	27.183111	9.146621E-5	20.940128
2164.567696	-2.997700	3.291100	-9.864700	27.222731	9.041013E-5	20.924978
2165.569706	-3.006800	3.290700	-9.893200	27.165123	8.984909E-5	20.944320
2166.569480	-2.979300	3.291700	-9.806200	27.134849	9.087217E-5	20.942796
2167.567771	-3.000100	3.289400	-9.867600	27.099610	8.892502E-5	20.951450
2168.570144	-2.991600	3.290200	-9.842500	27.088939	8.955207E-5	20.934556
2169.567526	-2.991800	3.289400	-9.840500	27.146530	8.998110E-5	20.950275
2170.576657	-2.992900	3.290000	-9.845200	27.140725	9.080616E-5	20.961030
2171.568640	-2.988900	3.290500	-9.834200	27.120699	8.922204E-5	20.953219
2172.571926	-3.000700	3.290000	-9.871400	27.134023	9.110318E-5	20.941964
2173.575792	-2.993300	3.288400	-9.842900	27.193968	8.842999E-5	20.961002
2174.569503	-2.985100	3.287200	-9.811700	27.231455	8.859500E-5	20.947027
2175.569482	-3.000300	3.286300	-9.859100	27.291469	9.169723E-5	20.948124
2176.577048	-2.995100	3.287100	-9.844000	27.314390	8.872701E-5	20.976867
2177.573273	-2.997400	3.289300	-9.858800	27.314689	8.889202E-5	20.965789
2178.574174	-2.995500	3.285900	-9.841600	27.293126	9.021212E-5	20.946946
2179.573618	-3.010000	3.286500	-9.889900	27.240254	8.773694E-5	20.959195
2180.571686	-2.998200	3.286700	-9.853400	27.212491	8.823197E-5	20.941229
2181.570611	-3.024400	3.285300	-9.934800	27.205666	8.872701E-5	20.957596
2182.572801	-3.010100	3.283900	-9.883900	27.264738	8.849599E-5	20.968174
2183.575233	-2.984900	3.284800	-9.804000	27.286569	8.806696E-5	20.949359
2184.572982	-2.992100	3.284400	-9.826600	27.253246	8.720890E-5	20.960409
2185.577891	-2.995000	3.283300	-9.832200	27.298670	8.641684E-5	20.939248
2186.570857	-3.005800	3.283000	-9.866800	27.306110	8.529476E-5	20.964746
2187.575381	-3.005900	3.283200	-9.867400	27.326826	8.618582E-5	20.965196
2188.570293	-2.983300	3.282600	-9.792400	27.363074	8.526176E-5	20.953297
2189.573948	-2.992300	3.283000	-9.822400	27.358930	8.479972E-5	20.961456
2190.580159	-2.993200	3.281900	-9.822100	27.346647	8.394166E-5	20.933456
2191.570675	-2.981300	3.282800	-9.785500	27.384678	8.361163E-5	20.966020
2192.574301	-3.009400	3.282300	-9.876100	27.327814	8.453570E-5	20.967612
2193.574479	-3.003300	3.281800	-9.855500	27.313575	8.387565E-5	20.971780
2194.574489	-2.982800	3.281200	-9.786700	27.348132	8.206052E-5	20.940639
2195.574045	-2.987900	3.279600	-9.797800	27.310525	8.097144E-5	20.951171
2196.574036	-3.004200	3.280200	-9.853700	27.247259	8.004737E-5	20.966240
2197.575035	-2.984200	3.280700	-9.789800	27.269737	8.024539E-5	20.955187
2198.573957	-2.997700	3.280100	-9.831200	27.241753	7.928832E-5	20.951221
2199.574725	-3.019800	3.279200	-9.901200	27.231432	8.027839E-5	20.948426
2200.575002	-3.013900	3.279100	-9.882600	27.233096	7.859527E-5	20.940617
2201.571751	-3.006000	3.278000	-9.852800	27.246516	7.826524E-5	20.951270
2202.576226	-2.983700	3.277700	-9.778900	27.306033	7.895829E-5	20.938594
2203.573241	-3.042100	3.276800	-9.967100	27.306431	7.793522E-5	20.940416
2204.578549	-2.991600	3.277300	-9.803500	27.266293	7.777021E-5	20.954093
2205.578959	-2.981800	3.276700	-9.769900	27.314500	7.691214E-5	20.937627
2206.573834	-3.014400	3.275000	-9.870800	27.340076	7.542704E-5	20.923054
2207.577950	-2.990800	3.275200	-9.793200	27.353003	7.605408E-5	20.928945
2208.573689	-2.986600	3.275000	-9.780200	27.372032	7.750619E-5	20.938130
2209.582861	-2.998100	3.275700	-9.819600	27.329189	7.691214E-5	20.917319
2210.576992	-2.987200	3.274000	-9.779700	27.300763	7.707716E-5	20.949412
2211.574243	-2.983400	3.274600	-9.768600	27.292078	7.628510E-5	20.926454
2212.581243	-2.997700	3.274400	-9.814900	27.295508	7.536103E-5	20.939860
2213.576671	-2.998100	3.273100	-9.812200	27.294910	7.608708E-5	20.917450
2214.576254	-3.022800	3.272600	-9.891700	27.227350	7.638411E-5	20.943847
2215.583662	-3.009500	3.272600	-9.847700	27.222714	7.773721E-5	20.908841
2216.582459	-2.991400	3.273100	-9.789100	27.243979	7.532803E-5	20.932599
2217.580853	-3.021600	3.271600	-9.884400	27.251866	7.397493E-5	20.908767
2218.585162	-3.014200	3.271000	-9.858800	27.275189	7.506401E-5	20.929854
2219.578195	-3.016200	3.270500	-9.863600	27.259208	7.638411E-5	20.937960
2220.578523	-2.985600	3.269600	-9.760600	27.253727	7.519602E-5	20.920121
2221.578521	-2.995900	3.270800	-9.797800	27.281465	7.417294E-5	20.921469
2222.581995	-2.982400	3.270900	-9.753700	27.309374	7.278684E-5	20.938635
2223.580580	-2.999100	3.270900	-9.809500	27.306648	7.390893E-5	20.920722
2224.581055	-3.001100	3.268600	-9.807600	27.278313	7.450297E-5	20.911661
2225.578139	-2.981500	3.269000	-9.746000	27.255191	7.341389E-5	20.905947
2226.581264	-3.029900	3.267500	-9.899200	27.327187	7.377692E-5	20.912935
2227.581603	-3.022200	3.268800	-9.877600	27.407737	7.149975E-5	20.895343
2228.579283	-2.984000	3.267300	-9.749200	27.457175	7.037767E-5	20.918999
2229.582476	-3.010700	3.267400	-9.836300	27.461786	7.156575E-5	20.922215
2230.579647	-2.988800	3.267500	-9.765500	27.437673	7.034466E-5	20.912656
2231.581309	-3.022800	3.265400	-9.869400	27.419939	7.067469E-5	20.916625
2232.583647	-3.000400	3.266600	-9.800700	27.392676	7.235781E-5	20.904373
2233.585181	-3.005200	3.265900	-9.814000	27.403569	6.932159E-5	20.916752
2234.580743	-2.991000	3.265500	-9.766300	27.422693	6.961861E-5	20.892371
2235.584879	-2.971700	3.264200	-9.699400	27.371663	6.912357E-5	20.904571
2236.585061	-3.010400	3.265500	-9.828500	27.343857	7.159876E-5	20.904574
2237.586066	-2.993900	3.263900	-9.771300	27.359535	7.143374E-5	20.918921
2238.586786	-3.011500	3.263900	-9.827800	27.378314	6.701142E-5	20.905572
2239.586997	-3.005500	3.263700	-9.807900	27.462078	6.928859E-5	20.897856
2240.590535	-2.993000	3.264100	-9.767500	27.517296	6.899157E-5	20.911208
2241.584758	-2.995300	3.262500	-9.771200	27.498694	6.747345E-5	20.920468
2242.593037	-2.993400	3.262600	-9.765400	27.481974	6.671440E-5	20.908389
2243.589220	-3.002700	3.261100	-9.791600	27.465110	6.859554E-5	20.912758
2244.590166	-2.989700	3.261200	-9.750000	27.485298	6.697842E-5	20.917895
2245.587943	-3.012900	3.259900	-9.820700	27.533692	6.621936E-5	20.883611
2246.589970	-3.000900	3.260500	-9.783300	27.496113	6.513028E-5	20.907440
2247.595026	-2.996400	3.259400	-9.765900	27.476393	6.625236E-5	20.885706
2248.594879	-2.999000	3.260500	-9.776800	27.446131	6.631837E-5	20.880391
2249.590675	-3.002600	3.260200	-9.788400	27.490183	6.456924E-5	20.901001
2250.589514	-2.990300	3.258900	-9.743900	27.483286	6.460224E-5	20.909708
2251.590085	-2.997700	3.258600	-9.767200	27.479541	6.394220E-5	20.894088
2252.595482	-2.983500	3.259200	-9.722800	27.521035	6.278711E-5	20.903591
2253.595002	-3.002800	3.258300	-9.782500	27.510944	6.460224E-5	20.895336
2254.589522	-3.003600	3.257100	-9.781900	27.486853	6.324914E-5	20.893858
2255.591620	-2.971100	3.258300	-9.680500	27.483751	6.031193E-5	20.891211
2256.590261	-2.976400	3.257900	-9.696500	27.418863	6.037793E-5	20.898949
2257.595538	-3.006700	3.257400	-9.793400	27.423822	6.249009E-5	20.897300
2258.594955	-3.002900	3.255600	-9.775400	27.465694	5.932186E-5	20.900071
2259.597527	-2.988000	3.255700	-9.727100	27.531796	6.083997E-5	20.894505
2260.598518	-3.010400	3.254000	-9.795000	27.501037	6.136801E-5	20.886792
2261.593191	-3.001900	3.255100	-9.770200	27.515671	6.242408E-5	20.892506
2262.594016	-3.011200	3.254500	-9.799000	27.493022	6.031193E-5	20.880151
2263.595559	-2.982500	3.254800	-9.707000	27.443913	6.004791E-5	20.878159
2264.593977	-2.988300	3.254200	-9.723500	27.446565	6.011392E-5	20.884146
2265.596590	-2.987700	3.254300	-9.722100	27.495058	5.836479E-5	20.892630
2266.597063	-3.018000	3.251100	-9.811100	27.469187	6.153302E-5	20.881775
2267.598316	-3.011900	3.252300	-9.794800	27.487170	5.885982E-5	20.892754
2268.596867	-2.988500	3.251300	-9.715200	27.474818	5.879382E-5	20.898344
2269.597856	-3.008900	3.251800	-9.783200	27.536453	5.714370E-5	20.876907
2270.597076	-2.995700	3.251400	-9.738300	27.559496	5.753973E-5	20.906252
2271.599525	-3.012900	3.250700	-9.793200	27.555778	5.579060E-5	20.886867
2272.595651	-3.017000	3.251300	-9.807200	27.562597	5.460251E-5	20.883771
2273.601951	-3.014000	3.249900	-9.794200	27.505008	5.486653E-5	20.882727
2274.598948	-3.002100	3.249100	-9.753600	27.523511	5.585660E-5	20.871946
2275.600334	-2.994100	3.249400	-9.728000	27.555880	5.562559E-5	20.886021
2276.601773	-3.005800	3.249000	-9.764300	27.513836	5.489953E-5	20.892556
2277.601765	-2.986600	3.248400	-9.700800	27.556949	5.440450E-5	20.887570
2278.603746	-2.980600	3.247700	-9.679300	27.590780	5.496554E-5	20.883678
2279.603971	-3.017600	3.247700	-9.799700	27.643635	5.595561E-5	20.876644
2280.602561	-2.998900	3.247100	-9.736900	27.654276	5.463551E-5	20.877868
2281.598294	-3.002100	3.246500	-9.744500	27.645745	5.565859E-5	20.882086
2282.601157	-3.010500	3.244500	-9.766700	27.568712	5.476752E-5	20.852467
2283.599169	-2.994600	3.246300	-9.720500	27.614598	5.377745E-5	20.861178
2284.603907	-2.994500	3.244200	-9.714000	27.637396	5.542757E-5	20.864203
2285.598872	-2.998500	3.245500	-9.731000	27.607413	5.285338E-5	20.865803
2286.605879	-3.027900	3.242800	-9.817600	27.573062	5.420648E-5	20.870119
2287.598478	-2.976100	3.244900	-9.656700	27.575176	5.262237E-5	20.855177
2288.604736	-2.965000	3.245900	-9.623500	27.630159	5.420648E-5	20.846491
2289.604316	-3.011000	3.242500	-9.762200	27.610715	5.417348E-5	20.865332
2290.602951	-3.017700	3.243000	-9.785600	27.619623	5.331542E-5	20.877139
2291.604603	-2.999800	3.241700	-9.724000	27.626343	5.361244E-5	20.863987
2292.600984	-2.994400	3.242100	-9.707400	27.616177	5.315040E-5	20.857551
2293.603322	-3.013900	3.241000	-9.767200	27.561020	5.420648E-5	20.862745
2294.618503	-2.997200	3.242200	-9.716500	27.587684	4.991617E-5	20.860176
2295.608172	-2.993000	3.241400	-9.700900	27.561815	5.179731E-5	20.852640
2296.598794	-2.981300	3.240900	-9.661500	27.491698	4.952014E-5	20.863647
2297.603127	-3.000000	3.240000	-9.719500	27.479075	5.100525E-5	20.865172
2298.603545	-2.997300	3.240700	-9.712900	27.562195	4.935513E-5	20.853022
2299.602537	-3.002300	3.237900	-9.719200	27.631294	4.895910E-5	20.850004
2300.602593	-2.996700	3.237600	-9.701400	27.676404	4.994917E-5	20.860307
2301.603455	-2.991100	3.237800	-9.683600	27.712517	5.001517E-5	20.860611
2302.603220	-2.995200	3.237600	-9.696400	27.693300	5.100525E-5	20.873041
2303.601511	-3.008500	3.237400	-9.738600	27.708452	4.965215E-5	20.859840
2304.604753	-2.987300	3.236900	-9.668700	27.650716	4.932212E-5	20.854847
2305.604883	-3.004700	3.237100	-9.725500	27.655006	5.209433E-5	20.845414
2306.603861	-2.999700	3.235600	-9.705300	27.683060	4.948714E-5	20.845195
2307.604578	-2.993200	3.234600	-9.681000	27.593480	4.886009E-5	20.866007
2308.600376	-2.987100	3.235000	-9.662700	27.547944	4.681394E-5	20.842477
2309.601954	-3.010100	3.234000	-9.733500	27.486781	4.935513E-5	20.850166
2310.601161	-2.998000	3.234000	-9.694900	27.494026	4.810103E-5	20.833748
2311.603747	-3.008700	3.234600	-9.731000	27.578259	4.753999E-5	20.859702
2312.607331	-3.012600	3.233200	-9.739700	27.619798	5.031220E-5	20.829902
2313.603086	-3.019000	3.232800	-9.759100	27.668488	4.869508E-5	20.840963
2314.602859	-2.966200	3.235700	-9.596700	27.635552	4.664893E-5	20.821573
2315.611863	-3.001300	3.232000	-9.699500	27.663579	4.829905E-5	20.826066
2316.603575	-2.986000	3.232400	-9.650100	27.647111	4.724297E-5	20.839841
2317.612541	-2.987100	3.233000	-9.656900	27.623107	4.661593E-5	20.846981
2318.611058	-2.991600	3.231000	-9.665400	27.635405	4.833205E-5	20.828062
2319.604175	-3.004200	3.230600	-9.703800	27.663505	4.691295E-5	20.848751
2320.607755	-3.007100	3.228500	-9.708300	27.629975	4.777101E-5	20.834452
2321.609005	-3.006400	3.232400	-9.717100	27.611126	4.701195E-5	20.835400
2322.611034	-3.017400	3.229300	-9.742600	27.584139	4.760600E-5	20.825790
2323.610858	-2.975600	3.230400	-9.611700	27.683468	4.694595E-5	20.833752
2324.610586	-2.979200	3.228100	-9.616700	27.719057	4.829905E-5	20.845382
2325.611630	-3.006800	3.226000	-9.699600	27.679624	4.638491E-5	20.839841
2326.608571	-2.978700	3.227800	-9.613500	27.718434	4.595588E-5	20.829583
2327.606080	-2.999300	3.227000	-9.678300	27.787847	4.506481E-5	20.818830
2328.611026	-2.970200	3.227100	-9.584500	27.798954	4.539484E-5	20.834749
2329.611519	-3.010200	3.226000	-9.709800	27.785467	4.658292E-5	20.818806
2330.610275	-3.004700	3.226600	-9.694200	27.806369	4.466878E-5	20.830832
2331.612461	-3.002000	3.225100	-9.680700	27.819241	4.628590E-5	20.830036
2332.613337	-3.002100	3.224900	-9.681100	27.779837	4.450377E-5	20.812666
2333.607714	-2.996700	3.225700	-9.665200	27.802551	4.394273E-5	20.817507
2334.608529	-3.001400	3.223500	-9.674500	27.852611	4.430576E-5	20.819050
2335.614747	-2.988800	3.224100	-9.634700	27.913461	4.351370E-5	20.842835
2336.612587	-3.003700	3.222500	-9.678600	27.868780	4.321668E-5	20.834374
2337.612837	-2.994400	3.223300	-9.651000	27.812491	4.189658E-5	20.827036
2338.611506	-2.979900	3.223000	-9.604000	27.747148	4.183057E-5	20.812960
2339.619916	-2.982900	3.221100	-9.607200	27.782362	4.225961E-5	20.830854
2340.612206	-2.977200	3.221500	-9.590500	27.753101	4.057648E-5	20.810890
2341.612817	-3.023600	3.219800	-9.734800	27.775914	4.176457E-5	20.815356
2342.614541	-2.991100	3.219700	-9.629800	27.713821	4.031246E-5	20.815458
2343.614761	-3.021300	3.219300	-9.726300	27.685008	4.166556E-5	20.807801
2344.616983	-3.022400	3.219300	-9.729400	27.683742	4.140154E-5	20.799889
2345.614168	-2.990100	3.218600	-9.623000	27.746606	4.100551E-5	20.818579
2346.613539	-2.979200	3.218300	-9.586900	27.771779	4.321668E-5	20.824470
2347.615321	-2.982300	3.218400	-9.597000	27.797639	4.034547E-5	20.795969
2348.611696	-2.988900	3.218300	-9.618800	27.786778	3.968542E-5	20.803056
2349.611817	-2.979200	3.218600	-9.587600	27.740682	4.199559E-5	20.809298
2350.615382	-2.998600	3.216900	-9.645300	27.785815	3.942140E-5	20.820104
2351.621988	-3.027700	3.215700	-9.735100	27.852467	4.051048E-5	20.795671
2352.617575	-3.026900	3.216700	-9.735000	27.927647	4.037847E-5	20.816336
2353.616459	-3.020700	3.218500	-9.721400	27.939821	3.912438E-5	20.833805
2354.619040	-2.968400	3.214800	-9.541800	27.881553	3.922338E-5	20.816410
2355.617086	-3.009900	3.215800	-9.678800	27.784605	3.823331E-5	20.812249
2356.617266	-3.006800	3.214500	-9.664500	27.735028	3.856333E-5	20.799815
2357.617065	-3.014900	3.213000	-9.685800	27.791595	3.905837E-5	20.814068
2358.614185	-3.009600	3.213000	-9.668700	27.738080	3.757326E-5	20.816636
2359.618264	-3.001500	3.213800	-9.645600	27.770935	3.744125E-5	20.819828
2360.623087	-3.006000	3.212100	-9.654800	27.805135	3.608815E-5	20.821530
2361.619226	-3.030700	3.210500	-9.729100	27.782815	3.519709E-5	20.802861
2362.618891	-2.990000	3.212300	-9.603500	27.811109	3.671520E-5	20.805257
2363.616279	-2.962600	3.210800	-9.511400	27.779964	3.701222E-5	20.818009
2364.620823	-3.002000	3.210000	-9.635700	27.728090	3.476806E-5	20.816067
2365.620221	-2.999000	3.211300	-9.629000	27.708543	3.569212E-5	20.806354
2366.618985	-2.981700	3.209100	-9.568300	27.764296	3.410801E-5	20.796552
2367.620216	-3.006100	3.209700	-9.648100	27.727271	3.331595E-5	20.808130
2368.621363	-2.982400	3.208500	-9.567700	27.765534	3.486706E-5	20.800643
2369.622090	-2.998400	3.208400	-9.618600	27.767397	3.437203E-5	20.773594
2370.621686	-3.004800	3.207200	-9.635800	27.830531	3.542810E-5	20.796354
2371.627292	-2.980700	3.207100	-9.559000	27.901174	3.209486E-5	20.821933
2372.624607	-2.997700	3.205600	-9.609100	27.942183	3.357997E-5	20.816268
2373.623931	-2.981100	3.204700	-9.552900	27.992715	3.328295E-5	20.787472
2374.622694	-3.000400	3.204000	-9.612400	28.037194	3.232588E-5	20.791467
2375.624411	-3.011000	3.203900	-9.646000	27.978709	3.387699E-5	20.798980
2376.630871	-3.008400	3.203300	-9.635600	27.911520	3.272191E-5	20.809588
2377.630281	-3.006700	3.203200	-9.629900	27.821041	3.143481E-5	20.801028
2378.622899	-3.005000	3.203100	-9.624800	27.772910	3.321694E-5	20.788626
2379.624744	-3.029900	3.203400	-9.704600	27.840854	3.265590E-5	20.807691
2380.625867	-2.991600	3.201700	-9.577900	27.933194	3.159982E-5	20.785409
2381.624628	-3.012500	3.200700	-9.641600	27.935226	3.123680E-5	20.782239
2382.623544	-3.010500	3.202700	-9.641200	27.885986	3.054375E-5	20.789578
2383.623034	-3.005200	3.199900	-9.615600	27.876785	3.037873E-5	20.791697
2384.627677	-2.987800	3.199300	-9.558200	27.900569	3.080777E-5	20.782918
2385.624763	-2.993300	3.201500	-9.582400	27.881897	3.143481E-5	20.773608
2386.625054	-2.976900	3.199600	-9.523700	27.861688	3.295292E-5	20.769391
2387.627835	-3.010200	3.198800	-9.626800	27.853932	3.159982E-5	20.789086
2388.626665	-2.996200	3.198600	-9.582900	27.844137	3.133580E-5	20.783495
2389.625453	-3.007000	3.197700	-9.614300	27.850585	3.011471E-5	20.793778
2390.632975	-3.008500	3.198300	-9.621100	27.909801	3.093978E-5	20.773244
2391.626166	-3.018300	3.196900	-9.648400	27.973376	2.978469E-5	20.783654
2392.632491	-3.002400	3.196400	-9.596000	28.026606	3.219387E-5	20.782232
2393.634939	-3.005700	3.196500	-9.607200	28.093541	2.968568E-5	20.773746
2394.627396	-3.005000	3.194500	-9.598600	28.101352	2.968568E-5	20.778290
2395.634821	-3.014200	3.194200	-9.626900	28.106635	2.991670E-5	20.774125
2396.631726	-3.025300	3.191900	-9.654900	28.098557	3.202886E-5	20.781167
2397.635684	-2.961500	3.194100	-9.458700	28.024904	2.909164E-5	20.781942
2398.633850	-2.978100	3.193500	-9.509700	28.002765	2.803556E-5	20.785735
2399.638481	-2.995700	3.193400	-9.566000	27.988981	2.879462E-5	20.811689
2400.634037	-3.016700	3.191700	-9.627300	28.044892	2.796956E-5	20.789733
2401.633975	-2.995800	3.190700	-9.557900	27.928810	2.777154E-5	20.789057
2402.633782	-3.031900	3.189700	-9.669700	27.978277	2.734251E-5	20.776733
2403.634669	-3.036200	3.190800	-9.687100	28.011100	2.998270E-5	20.787960
2404.633132	-3.033400	3.188800	-9.672000	28.030863	2.618743E-5	20.800267
2405.640650	-2.978800	3.189300	-9.499700	28.004234	2.773854E-5	20.779627
2406.639814	-3.010600	3.188500	-9.597700	27.980635	2.750752E-5	20.781478
2407.636451	-3.014000	3.188000	-9.608000	27.984875	2.813457E-5	20.773891
2408.634090	-3.000700	3.186700	-9.561300	28.008474	2.668246E-5	20.787688
2409.634037	-2.981800	3.185800	-9.497600	28.087464	2.727651E-5	20.783750
2410.640643	-3.006200	3.186600	-9.578400	28.021547	2.714450E-5	20.788045
2411.633322	-3.003500	3.185600	-9.567100	27.971070	2.546137E-5	20.779436
2412.632621	-3.021900	3.184500	-9.622400	28.005658	2.608842E-5	20.778216
2413.635829	-3.005600	3.184300	-9.570700	28.016492	2.473532E-5	20.779164
2414.638242	-2.997900	3.183400	-9.542400	27.929450	2.598941E-5	20.787331
2415.634293	-3.020500	3.182900	-9.613300	27.924141	2.532936E-5	20.780565
2416.635591	-3.009200	3.182200	-9.574700	27.965723	2.430629E-5	20.770261
2417.640661	-2.973700	3.182400	-9.462700	28.008889	2.516435E-5	20.763923
2418.634261	-2.997400	3.181100	-9.534100	28.039408	2.565939E-5	20.793696
2419.638215	-3.004500	3.180600	-9.554800	28.091671	2.628643E-5	20.777080
2420.637722	-2.990500	3.180000	-9.508100	28.119292	2.361324E-5	20.786867
2421.638324	-2.999700	3.180300	-9.538300	28.061804	2.414128E-5	20.767876
2422.634392	-3.026900	3.178100	-9.618200	28.064018	2.315120E-5	20.773899
2423.637344	-2.995900	3.178700	-9.522500	28.116104	2.539537E-5	20.757105
2424.639094	-3.001400	3.178100	-9.538000	28.193494	2.532936E-5	20.772427
2425.638408	-2.987500	3.177700	-9.492500	28.208495	2.325021E-5	20.763347
2426.640375	-2.972000	3.177500	-9.442500	28.175158	2.173210E-5	20.765820
2427.640939	-2.988300	3.176400	-9.491800	28.110857	2.496634E-5	20.768418
2428.641998	-2.973100	3.174400	-9.437100	28.102009	2.103905E-5	20.766150
2429.638119	-3.009400	3.174800	-9.553600	28.074223	2.226014E-5	20.778481
2430.638322	-3.020500	3.172800	-9.582400	28.076332	2.064302E-5	20.769225
2431.640327	-2.991900	3.173800	-9.494800	28.110670	2.308520E-5	20.768230
2432.636669	-2.999500	3.173700	-9.517800	28.144734	2.047801E-5	20.755106
2433.642408	-3.007300	3.171400	-9.536500	28.199273	2.087404E-5	20.757856
2434.645816	-2.971000	3.172500	-9.422500	28.124660	2.282118E-5	20.773779
2435.641822	-2.997200	3.170200	-9.501000	28.127117	2.216113E-5	20.755863
2436.643773	-2.983000	3.170100	-9.455400	28.126203	2.130307E-5	20.760159
2437.641195	-2.993100	3.169300	-9.484800	28.134063	1.988396E-5	20.765227
2438.637816	-2.997900	3.168600	-9.498400	28.085201	2.090704E-5	20.763454
2439.640337	-3.017200	3.168800	-9.559800	28.118646	2.222714E-5	20.776734
2440.641294	-3.022500	3.167500	-9.573100	28.154572	2.160009E-5	20.789667
2441.650184	-3.003300	3.167400	-9.511500	28.152193	1.998297E-5	20.771625
2442.639163	-2.997900	3.166000	-9.490600	28.210844	1.945493E-5	20.760022
2443.639946	-2.999600	3.165600	-9.494900	28.203603	2.004897E-5	20.776915
2444.641297	-2.975700	3.165400	-9.417300	28.157680	2.044500E-5	20.784735
2445.641992	-2.998400	3.164000	-9.485300	28.125557	1.806883E-5	20.775631
2446.641125	-2.986200	3.163000	-9.443900	28.079767	1.674873E-5	20.768890
2447.648335	-3.001600	3.163200	-9.493600	28.059394	1.866287E-5	20.739371
2448.648948	-2.996200	3.162700	-9.475100	28.071493	1.892689E-5	20.777156
2449.644658	-3.008900	3.161100	-9.510900	28.141403	1.585767E-5	20.758391
2450.650951	-3.020900	3.160100	-9.545400	28.146362	1.744178E-5	20.764806
2451.642960	-2.997000	3.158900	-9.466800	28.110320	1.952094E-5	20.774990
2452.641970	-3.009400	3.160000	-9.508600	28.101895	1.849786E-5	20.757025
2453.651259	-2.988300	3.159900	-9.441600	28.188259	1.866287E-5	20.779959
2454.645579	-3.002000	3.158100	-9.479600	28.208342	1.902590E-5	20.777418
2455.640757	-3.022400	3.156600	-9.538800	28.197440	2.054401E-5	20.775451
2456.646556	-3.005400	3.156800	-9.486300	28.180207	1.952094E-5	20.787499
2457.650731	-2.967300	3.156700	-9.366200	28.229416	2.008198E-5	20.763547
2458.650363	-3.001700	3.155400	-9.469400	28.222327	1.988396E-5	20.753091
2459.650014	-2.987300	3.155100	-9.424200	28.136859	1.961994E-5	20.775154
2460.648218	-2.988000	3.154000	-9.423200	28.114898	1.899290E-5	20.769641
2461.645675	-3.004700	3.153100	-9.473000	28.139267	1.981796E-5	20.780897
2462.649819	-2.983900	3.152000	-9.403900	28.137604	2.004897E-5	20.756937
2463.658501	-2.976800	3.152200	-9.382500	28.068021	2.001597E-5	20.768919
2464.646963	-3.008700	3.150400	-9.477800	28.052551	1.889389E-5	20.786063
2465.650405	-2.996300	3.151100	-9.441300	28.055377	1.810183E-5	20.762355
2466.649789	-3.004300	3.149000	-9.459100	28.147994	1.856387E-5	20.781148
2467.650514	-3.000700	3.149000	-9.448500	28.117973	1.796982E-5	20.773685
2468.653846	-3.010700	3.147400	-9.475200	28.133365	1.971895E-5	20.759782
2469.655633	-2.986200	3.146600	-9.395500	28.193180	1.783781E-5	20.782068
2470.655151	-2.993600	3.145900	-9.416500	28.236934	1.664973E-5	20.782971
2471.652677	-3.009300	3.145300	-9.464300	28.199577	1.549464E-5	20.782344
2472.648931	-3.003700	3.143500	-9.441200	28.171125	1.602268E-5	20.770296
2473.652679	-2.988700	3.143700	-9.394400	28.220500	1.664973E-5	20.762157
2474.653783	-2.994500	3.143600	-9.412100	28.256788	1.605568E-5	20.786364
2475.650042	-2.976700	3.142700	-9.353800	28.229873	1.618769E-5	20.783448
2476.657463	-3.010100	3.140800	-9.451900	28.204512	1.668273E-5	20.766449
2477.652444	-3.001000	3.139500	-9.420900	28.289908	1.595667E-5	20.786994
2478.654583	-3.007400	3.139800	-9.442200	28.332336	1.905890E-5	20.775186
2479.655186	-2.984000	3.137300	-9.361300	28.283041	1.730977E-5	20.788615
2480.664608	-3.006200	3.137700	-9.431400	28.264400	1.536263E-5	20.784545
2481.650711	-2.993200	3.136800	-9.388300	28.255972	1.539563E-5	20.792181
2482.657410	-2.989100	3.135900	-9.372100	28.234260	1.559365E-5	20.795925
2483.655803	-3.008000	3.134800	-9.428400	28.208926	1.549464E-5	20.768523
2484.651665	-3.018100	3.133000	-9.455200	28.251857	1.513161E-5	20.780451
2485.660853	-3.016500	3.132700	-9.448800	28.316821	1.532963E-5	20.788961
2486.652507	-3.020000	3.132600	-9.459600	28.342127	1.506561E-5	20.786941
2487.658422	-3.011000	3.131600	-9.428200	28.361184	1.506561E-5	20.789535
2488.656325	-3.014500	3.129900	-9.433900	28.355382	1.503261E-5	20.777054
2489.658134	-3.013700	3.128800	-9.428400	28.381801	1.457057E-5	20.779474
2490.659779	-3.022000	3.128400	-9.453400	28.377981	1.417454E-5	20.795543
2491.656835	-3.013600	3.127900	-9.425400	28.385368	1.539563E-5	20.784488
2492.657848	-3.003200	3.127400	-9.391900	28.404597	1.391052E-5	20.789626
2493.660242	-2.983000	3.127300	-9.327700	28.374260	1.437256E-5	20.775200
2494.656383	-2.989400	3.126700	-9.345600	28.281560	1.321747E-5	20.787598
2495.654551	-3.016200	3.124200	-9.422900	28.185634	1.173236E-5	20.772100
2496.658573	-3.001800	3.124200	-9.377500	28.233500	1.377851E-5	20.775720
2497.657512	-2.994700	3.123800	-9.354200	28.236543	1.245842E-5	20.789689
2498.659527	-2.976300	3.122900	-9.293500	28.183648	1.265643E-5	20.790489
2499.657065	-2.993500	3.122000	-9.344300	28.298011	1.480159E-5	20.793256
2500.659659	-2.996800	3.120300	-9.349200	28.290972	1.367951E-5	20.773366
2501.656227	-2.974200	3.120800	-9.281300	28.300506	1.117132E-5	20.790552
2502.661158	-2.999300	3.118400	-9.351400	28.339420	1.064328E-5	20.807923
2503.658714	-2.959400	3.119800	-9.231300	28.351512	1.163336E-5	20.787382
2504.656559	-2.997300	3.117300	-9.342200	28.354829	1.430655E-5	20.784558
2505.661453	-3.004800	3.115800	-9.361500	28.403777	1.245842E-5	20.808241
2506.658577	-2.989700	3.115200	-9.312300	28.377555	1.295345E-5	20.800803
2507.657710	-3.005600	3.114100	-9.359100	28.435666	1.321747E-5	20.806687
2508.660680	-3.001100	3.114400	-9.345500	28.439728	1.420755E-5	20.802243
2509.662354	-2.996800	3.111500	-9.322900	28.471869	1.226040E-5	20.796677
2510.658302	-3.018100	3.109800	-9.384700	28.534936	1.443856E-5	20.813722
2511.660280	-2.986000	3.110900	-9.288500	28.563677	1.226040E-5	20.807579
2512.661888	-2.980700	3.110300	-9.270100	28.550269	1.064328E-5	20.773213
2513.658902	-2.960700	3.109400	-9.204600	28.574277	1.245842E-5	20.808297
2514.660953	-3.005400	3.107200	-9.337600	28.597694	9.587206E-6	20.798216
2515.664991	-2.991000	3.108000	-9.295400	28.626633	9.389191E-6	20.808870
2516.659338	-2.978200	3.105200	-9.246900	28.648088	1.173236E-5	20.795392
2517.660436	-3.000400	3.105200	-9.316000	28.558687	1.057728E-5	20.807296
2518.666749	-2.963200	3.105000	-9.200300	28.531528	8.894155E-6	20.813608
2519.661166	-3.002900	3.103600	-9.318700	28.476637	1.018125E-5	20.800056
2520.663762	-3.007000	3.101700	-9.325400	28.486549	1.074229E-5	20.798658
2521.663431	-3.014200	3.100700	-9.345200	28.487094	1.094031E-5	20.805371
2522.664215	-2.990900	3.099000	-9.268200	28.513309	1.047827E-5	20.797158
2523.662142	-2.989100	3.098400	-9.259400	28.548347	1.120432E-5	20.806365
2524.665878	-2.999400	3.096500	-9.286700	28.530210	8.927157E-6	20.803272
2525.664759	-3.004500	3.096300	-9.301500	28.544408	8.729143E-6	20.803821
2526.661919	-2.989300	3.097000	-9.257300	28.570774	8.795147E-6	20.814252
2527.668104	-3.008900	3.095300	-9.313200	28.558111	8.498126E-6	20.807189
2528.666287	-2.986100	3.095000	-9.241100	28.533326	1.130333E-5	20.828221
2529.665110	-2.994000	3.094600	-9.264300	28.564600	9.884227E-6	20.800923
2530.665166	-3.020800	3.091000	-9.336100	28.620498	9.356189E-6	20.820709
2531.669430	-3.001500	3.090000	-9.273600	28.543660	1.156735E-5	20.835783
2532.664939	-2.988700	3.090700	-9.236000	28.531541	8.960159E-6	20.825476
2533.667324	-2.985800	3.088500	-9.220900	28.522244	8.696140E-6	20.850725
2534.673882	-2.956700	3.088800	-9.131700	28.540115	9.191176E-6	20.829368
2535.667648	-3.001600	3.085100	-9.259600	28.551934	1.067629E-5	20.837478
2536.664062	-2.993600	3.085900	-9.237200	28.506335	8.960159E-6	20.812419
2537.662477	-3.002900	3.084300	-9.261100	28.512452	1.008224E-5	20.824743
2538.667325	-2.983100	3.083700	-9.198300	28.543133	1.212839E-5	20.825295
2539.667293	-3.002100	3.082800	-9.254200	28.488713	1.110532E-5	20.816010
2540.667120	-2.989700	3.082100	-9.214000	28.510790	8.696140E-6	20.841561
2541.667041	-3.028300	3.079200	-9.323200	28.531232	8.333113E-6	20.817578
2542.668711	-3.034600	3.078200	-9.339900	28.579427	8.993162E-6	20.830079
2543.664762	-3.028300	3.078100	-9.320700	28.542753	9.059167E-6	20.833921
2544.674222	-2.984500	3.078300	-9.186600	28.561037	8.729143E-6	20.842378
2545.672002	-3.002700	3.076200	-9.235600	28.480572	9.092169E-6	20.852855
2546.667500	-2.987700	3.073200	-9.181200	28.465329	9.026164E-6	20.825652
2547.681680	-3.018700	3.073700	-9.277300	28.482079	8.300111E-6	20.834459
2548.670604	-2.987200	3.072800	-9.178300	28.466836	9.323186E-6	20.835704
2549.674048	-2.987300	3.071800	-9.175500	28.444998	8.432121E-6	20.846429
2550.672506	-2.994500	3.068900	-9.189200	28.468516	1.166636E-5	20.840715
2551.670898	-3.002900	3.068600	-9.213900	28.532672	7.772072E-6	20.845580
2552.672424	-3.010700	3.066800	-9.232700	28.525382	8.927157E-6	20.849143
2553.672816	-2.979300	3.068100	-9.140100	28.524710	9.950232E-6	20.838036
2554.674247	-3.030400	3.064300	-9.284500	28.550008	9.224179E-6	20.843124
2555.677234	-2.998600	3.064400	-9.188100	28.560436	7.178028E-6	20.860738
2556.673893	-3.009700	3.062700	-9.216400	28.547499	8.498126E-6	20.840124
2557.672292	-3.010300	3.061300	-9.214300	28.562513	1.080830E-5	20.838174
2558.673730	-2.995200	3.060500	-9.165500	28.570913	8.762145E-6	20.847582
2559.670481	-2.987500	3.059900	-9.140400	28.637783	6.815002E-6	20.839066
2560.675293	-2.975200	3.058400	-9.098300	28.681220	8.201104E-6	20.842512
2561.688715	-3.004500	3.056500	-9.182000	28.670213	8.531128E-6	20.840909
2562.674598	-3.002700	3.057200	-9.179700	28.634705	8.267109E-6	20.842604
2563.674177	-3.014400	3.055400	-9.209600	28.611212	5.791926E-6	20.827478
2564.674900	-3.023700	3.052600	-9.229700	28.542377	6.848004E-6	20.849189
2565.679281	-2.991200	3.052000	-9.128100	28.518186	8.135099E-6	20.830991
2566.677626	-2.993500	3.052900	-9.137700	28.579711	7.475050E-6	20.856442
2567.675434	-2.972300	3.051200	-9.068100	28.694752	7.442048E-6	20.852349
2568.685242	-2.988800	3.048900	-9.112000	28.649900	5.923936E-6	20.848425
2569.674392	-3.017300	3.047700	-9.194000	28.650146	4.636841E-6	20.846302
2570.673982	-2.992900	3.046100	-9.115400	28.639118	6.088948E-6	20.844678
2571.685217	-2.951100	3.046300	-8.987700	28.628589	5.824929E-6	20.853039
2572.673717	-3.009500	3.043700	-9.159200	28.600265	6.748997E-6	20.853909
2573.675703	-3.027000	3.042000	-9.206800	28.540620	4.438827E-6	20.865911
2574.680882	-2.998200	3.042300	-9.120500	28.525329	6.022943E-6	20.865210
2575.677350	-3.019300	3.040000	-9.177800	28.525326	5.923936E-6	20.851931
2576.677254	-3.011300	3.038500	-9.149100	28.584967	6.980014E-6	20.875485
2577.678141	-2.990300	3.038400	-9.085100	28.566757	7.178028E-6	20.860940
2578.678955	-3.030300	3.035700	-9.198000	28.565886	8.960159E-6	20.865752
2579.678357	-2.993600	3.035300	-9.085700	28.567098	8.366116E-6	20.878351
2580.678705	-2.971700	3.034000	-9.015200	28.621580	6.781999E-6	20.868738
2581.676038	-3.005700	3.031600	-9.110600	28.632383	6.220958E-6	20.862076
2582.679082	-3.013000	3.030900	-9.131100	28.717341	7.013016E-6	20.863247
2583.682499	-3.020400	3.029000	-9.148500	28.767312	8.102096E-6	20.865692
2584.681814	-2.993600	3.028300	-9.064800	28.805805	6.286963E-6	20.845198
2585.679672	-2.969700	3.027700	-8.990500	28.784202	7.310038E-6	20.878437
2586.681399	-2.989100	3.025700	-9.043700	28.818910	5.956939E-6	20.873098
2587.684696	-2.989100	3.025500	-9.042700	28.860896	5.164880E-6	20.864185
2588.682258	-2.962100	3.024700	-8.957600	28.822100	4.240812E-6	20.879629
2589.680605	-3.019300	3.022400	-9.124500	28.774977	7.013016E-6	20.861560
2590.679121	-2.991000	3.019700	-9.031500	28.742273	4.801853E-6	20.878876
2591.685513	-3.037800	3.019100	-9.170900	28.727132	4.735849E-6	20.881169
2592.680931	-2.985400	3.018200	-9.010200	28.780398	6.253960E-6	20.884088
2593.683973	-2.984400	3.016100	-8.999600	28.802767	5.659917E-6	20.875327
2594.681746	-2.977800	3.015900	-8.980300	28.866977	3.844783E-6	20.884059
2595.683967	-3.015000	3.012800	-9.083000	28.765131	4.009795E-6	20.900951
2596.683757	-3.010200	3.012500	-9.067000	28.738693	2.722700E-6	20.875271
2597.684539	-2.993000	3.012000	-9.014100	28.722193	7.095522E-7	20.889943
2598.684339	-3.000600	3.010900	-9.034000	28.786064	4.108802E-6	20.867985
2599.685330	-2.988800	3.009100	-8.992100	28.785319	2.854710E-6	20.892838
2600.684050	-3.014900	3.006200	-9.062100	28.883341	2.953717E-6	20.900544
2601.681462	-2.993200	3.007900	-9.002300	28.859934	2.293669E-6	20.880284
2602.686503	-3.012400	3.004500	-9.048900	28.880742	2.128657E-6	20.881806
2603.684972	-3.008100	3.002500	-9.031000	28.846408	2.392676E-6	20.886572
2604.685854	-3.020000	3.001800	-9.064500	28.839769	4.339819E-6	20.891263
2605.689305	-3.004000	3.000500	-9.012900	28.860827	1.072579E-6	20.900148
2606.690985	-3.004100	2.999700	-9.010500	28.864093	1.930642E-6	20.887792
2607.687130	-2.985800	2.998400	-8.951800	28.833548	2.260666E-6	20.897324
2608.689262	-3.005700	2.996000	-9.003800	28.845171	3.943790E-6	20.900498
2609.691040	-2.984600	2.995200	-8.938000	28.783236	3.316744E-6	20.891688
2610.683079	-2.982400	2.993600	-8.927400	28.825725	1.765630E-6	20.895608
2611.689051	-2.990100	2.994100	-8.951900	28.769094	2.557688E-6	20.880288
2612.695202	-2.999200	2.990800	-8.968200	28.776446	3.547761E-6	20.904761
2613.690950	-3.015700	2.989200	-9.014100	28.856095	5.230885E-6	20.892537
2614.688745	-3.025300	2.986600	-9.033700	28.810340	3.844783E-6	20.893386
2615.690195	-2.992300	2.986600	-8.936100	28.770334	2.128657E-6	20.902398
2616.689234	-3.004600	2.984800	-8.967400	28.748182	3.184734E-6	20.893836
2617.697740	-2.986400	2.984700	-8.912900	28.718877	2.722700E-6	20.905094
2618.692010	-3.031600	2.979900	-9.032200	28.739635	5.527907E-6	20.930741
2619.698779	-2.958500	2.982400	-8.822300	28.691869	3.481756E-6	20.884530
2620.688962	-3.013500	2.977400	-8.971800	28.690137	3.217737E-6	20.899854
2621.689412	-2.978700	2.977800	-8.868500	28.719713	3.151732E-6	20.909255
2622.694279	-3.014400	2.977000	-8.972800	28.745558	6.682992E-6	20.907312
2623.690924	-3.012700	2.974600	-8.960900	28.841107	5.164880E-6	20.877914
2624.689339	-3.019100	2.973000	-8.974800	28.889660	5.428900E-6	20.904538
2625.696031	-3.017000	2.970300	-8.960500	28.882948	3.877785E-6	20.905363
2626.695396	-2.965700	2.971700	-8.811500	28.922553	4.537834E-6	20.912071
2627.694639	-2.992900	2.969600	-8.885900	28.897310	1.798632E-6	20.925994
2628.695426	-2.986900	2.967600	-8.863100	28.869292	4.372822E-6	20.902037
2629.693167	-3.002000	2.966200	-8.903300	28.880117	4.669844E-6	20.923372
2630.693368	-2.991600	2.964100	-8.866600	28.863026	8.201104E-6	20.917534
2631.695520	-2.992400	2.964400	-8.869400	28.859404	6.385970E-6	20.917679
2632.698390	-2.986200	2.960700	-8.840200	28.941594	3.976793E-6	20.932674
2633.698290	-2.994100	2.959200	-8.859300	28.906344	5.890934E-6	20.909492
2634.697871	-3.024100	2.958100	-8.944100	28.894575	1.897640E-6	20.920393
2635.700050	-3.030000	2.955500	-8.954300	28.911395	4.372822E-6	20.911736
2636.698585	-2.982800	2.955800	-8.816000	28.876784	3.613766E-6	20.911481
2637.696288	-2.980400	2.954200	-8.803200	28.872450	4.240812E-6	20.905218
2638.703722	-2.973900	2.952900	-8.780600	28.869774	1.534613E-6	20.944243
2639.700584	-3.011000	2.951100	-8.884400	28.885278	6.154953E-6	20.911976
2640.702702	-2.964200	2.950300	-8.742700	28.967166	6.385970E-6	20.942315
2641.706963	-2.969300	2.947500	-8.751300	29.031837	6.517980E-6	20.934928
2642.704400	-2.969500	2.947800	-8.751700	29.024999	3.514759E-6	20.915713
2643.704797	-2.994600	2.945400	-8.819200	28.978953	1.567615E-6	20.906305
2644.711938	-3.005700	2.941600	-8.840900	28.975139	4.768851E-6	20.931857
2645.703939	-2.981500	2.942200	-8.771400	28.943354	2.326671E-6	20.935395
2646.705358	-3.012500	2.940800	-8.857900	28.922818	3.910788E-6	20.932724
2647.711221	-3.012300	2.938300	-8.850200	28.963564	4.372822E-6	20.935367
2648.704654	-3.037100	2.936400	-8.917300	29.015156	1.996647E-6	20.933294
2649.702348	-3.000000	2.934500	-8.802000	29.000939	2.722700E-6	20.909964
2650.700728	-3.024300	2.932200	-8.866400	28.931185	1.765630E-6	20.922662
2651.704093	-3.008700	2.931400	-8.818600	28.822879	4.108802E-6	20.940625
2652.705821	-3.009500	2.929800	-8.815700	28.817378	1.435606E-6	20.953100
2653.721945	-3.020900	2.928100	-8.844600	28.931125	3.844783E-6	20.943463
2654.709580	-3.011100	2.926500	-8.810600	29.013190	2.887713E-6	20.948381
2655.708467	-3.016800	2.925200	-8.823500	29.025268	2.128657E-6	20.965763
2656.708153	-3.016100	2.923200	-8.815900	28.991633	2.062652E-6	20.963170
2657.710987	-2.990300	2.921600	-8.735200	29.042480	9.405693E-7	20.936168
2658.709373	-2.986200	2.921200	-8.722200	29.017166	6.765498E-7	20.945749
2659.708387	-3.008900	2.916800	-8.775500	28.996431	1.468608E-6	20.946195
2660.705926	-2.989500	2.915800	-8.715900	29.025834	4.785352E-7	20.939310
2661.705242	-2.973100	2.915400	-8.666800	29.076506	1.237591E-6	20.945321
2662.713282	-2.959700	2.913400	-8.621100	29.038736	7.755571E-7	20.939508
2663.712014	-2.985100	2.912700	-8.693100	28.999153	-1.006574E-6	20.938981
2664.706030	-2.989600	2.909500	-8.697400	29.014385	1.138584E-6	20.923984
2665.709589	-2.985300	2.908500	-8.681600	28.983152	-4.455328E-7	20.947989
2666.706681	-2.973100	2.906300	-8.639700	28.984564	1.501611E-6	20.952256
2667.710019	-3.036600	2.903300	-8.814700	28.976139	1.485109E-7	20.930020
2668.712189	-2.999300	2.902600	-8.705500	29.028029	1.155085E-7	20.943418
2669.712007	-2.976700	2.902500	-8.639100	29.083857	1.798632E-6	20.952727
2670.717526	-3.008500	2.899200	-8.721200	29.186188	-2.326671E-6	20.961957
2671.709025	-3.001100	2.897300	-8.694200	29.121674	-2.145158E-7	20.922084
2672.711998	-3.011800	2.895500	-8.719600	29.135148	1.468608E-6	20.927126
2673.710965	-2.990900	2.893800	-8.654500	29.083411	8.745644E-7	20.952751
2674.713469	-3.018400	2.891400	-8.725700	29.106047	-5.775425E-7	20.928622
2675.710982	-2.979200	2.890700	-8.610400	29.114047	3.795279E-7	20.929570
2676.713512	-3.004000	2.888000	-8.674900	29.087646	1.072579E-6	20.920513
2677.713747	-3.003800	2.885200	-8.666100	29.179878	-4.785352E-7	20.935213
2678.710284	-3.000800	2.884100	-8.653500	29.257731	1.138584E-6	20.932588
2679.710737	-2.989600	2.882200	-8.615800	29.281701	4.009795E-6	20.907910
2680.714204	-2.997700	2.880900	-8.634900	29.269472	-3.135231E-7	20.923085
2681.714796	-3.027500	2.878700	-8.714100	29.269149	1.765630E-6	20.923234
2682.711657	-2.985000	2.877200	-8.588000	29.251744	2.161659E-6	20.901428
2683.712727	-3.031600	2.874100	-8.712600	29.193225	7.095522E-7	20.919267
2684.709856	-3.014600	2.873400	-8.661700	29.191988	6.105450E-7	20.922763
2685.715340	-3.007700	2.870200	-8.632300	29.094314	1.485109E-7	20.919646
2686.710796	-3.011100	2.868900	-8.637000	29.105583	6.765498E-7	20.938111
2687.714041	-2.970300	2.867900	-8.517400	29.152242	3.778778E-6	20.922540
2688.714132	-2.972400	2.866300	-8.519200	29.048844	8.415620E-7	20.912237
2689.711162	-3.009600	2.863300	-8.616600	29.044015	1.072579E-6	20.916380
2690.711889	-2.993500	2.861500	-8.565300	29.030863	2.458681E-6	20.891751
2691.718561	-3.016900	2.858600	-8.622900	29.019098	1.138584E-6	20.908345
2692.718911	-2.968600	2.859000	-8.486700	29.064671	-8.415620E-7	20.898314
2693.713018	-2.993100	2.856100	-8.548200	29.051470	3.580764E-6	20.890704
2694.722555	-3.032000	2.853600	-8.651300	29.072770	1.204589E-6	20.892250
2695.715405	-3.012200	2.851200	-8.587500	29.111156	-1.105581E-6	20.908642
2696.719064	-3.001100	2.849300	-8.550600	29.208214	9.075668E-7	20.924889
2697.715778	-2.982600	2.849000	-8.497100	29.263734	1.072579E-6	20.922992
2698.715344	-3.002600	2.845100	-8.542300	29.326329	7.755571E-7	20.920643
2699.722300	-2.993300	2.842700	-8.508200	29.449837	7.425547E-7	20.883443
2700.716519	-2.982800	2.841400	-8.474900	29.395341	2.326671E-6	20.896793
2701.725620	-2.998100	2.839200	-8.510600	29.356319	-1.930642E-6	20.892550
2702.719001	-3.017700	2.835900	-8.556700	29.356740	6.765498E-7	20.911465
2703.720353	-2.986800	2.835500	-8.467600	29.324675	7.095522E-7	20.908072
2704.719319	-3.025700	2.831700	-8.567000	29.336166	1.039577E-6	20.896895
2705.718929	-2.998700	2.831100	-8.489200	29.345772	1.534613E-6	20.888085
2706.719573	-3.017500	2.826600	-8.529100	29.334955	1.666623E-6	20.889511
2707.723709	-2.978200	2.825500	-8.413500	29.295930	-1.650122E-8	20.901863
2708.716601	-3.004200	2.824100	-8.483600	29.319258	-2.475182E-7	20.888863
2709.724007	-2.985600	2.820400	-8.419800	29.310933	1.138584E-6	20.913188
2710.718871	-2.968800	2.820300	-8.372000	29.287686	9.405693E-7	20.867478
2711.721687	-3.008500	2.815000	-8.468000	29.315992	-6.105450E-7	20.894581
2712.726043	-3.028500	2.814400	-8.522300	29.309971	7.755571E-7	20.896573
2713.719101	-3.001700	2.811400	-8.437500	29.325647	9.405693E-7	20.873019
2714.727076	-3.019100	2.808600	-8.478500	29.336001	2.805207E-7	20.882979
2715.721061	-3.013600	2.805200	-8.452700	29.356354	-4.125304E-7	20.879784
2716.724000	-2.993100	2.803300	-8.389500	29.416426	-5.115377E-7	20.885802
2717.719737	-2.999300	2.801500	-8.401700	29.397781	-6.765498E-7	20.901622
2718.727619	-3.009000	2.797300	-8.416000	29.416426	1.336598E-6	20.880113
2719.723511	-2.971200	2.796100	-8.306000	29.429994	-4.785352E-7	20.887150
2720.719171	-3.008000	2.792000	-8.398000	29.397240	-4.125304E-7	20.876422
2721.718524	-3.001400	2.791200	-8.376500	29.376937	-9.405693E-7	20.884882
2722.719234	-2.997900	2.787800	-8.356700	29.446785	-1.485109E-7	20.869463
2723.719258	-3.018400	2.782800	-8.398900	29.553219	7.095522E-7	20.875279
2724.718114	-2.977400	2.782500	-8.282700	29.609367	-1.815134E-7	20.873560
2725.718675	-2.990900	2.780000	-8.314400	29.632462	4.125304E-7	20.867920
2726.717231	-2.967000	2.777600	-8.240400	29.606573	1.864637E-6	20.880225
2727.718795	-3.001300	2.773700	-8.323300	29.636179	-3.135231E-7	20.881149
2728.718918	-3.004600	2.770800	-8.324300	29.641676	1.072579E-6	20.896646
2729.718565	-3.032900	2.766700	-8.390000	29.598159	2.425679E-6	20.873641
2730.718696	-3.023000	2.762900	-8.350800	29.559987	-5.115377E-7	20.882101
2731.719803	-3.001200	2.760800	-8.285100	29.491810	-1.204589E-6	20.866483
2732.723341	-2.957500	2.758300	-8.156200	29.523101	8.415620E-7	20.858670
2733.718971	-2.980100	2.754700	-8.208000	29.526720	-1.485109E-7	20.844775
2734.721993	-2.988600	2.751100	-8.220600	29.489314	6.765498E-7	20.866812
2735.722349	-2.986700	2.747500	-8.205200	29.492684	1.138584E-6	20.877320
2736.720372	-3.004000	2.744100	-8.242700	29.501003	2.458681E-6	20.865792
2737.719613	-2.988500	2.742400	-8.195000	29.477188	-2.475182E-7	20.852694
2738.719338	-3.050700	2.738100	-8.351600	29.520046	9.735717E-7	20.862229
2739.721183	-2.975900	2.735500	-8.139500	29.460924	1.204589E-6	20.856214
2740.726181	-2.979900	2.730900	-8.136800	29.540968	2.095654E-6	20.860559
2741.722959	-2.961700	2.730600	-8.086800	29.597955	2.161659E-6	20.861108
2742.720431	-2.987600	2.724700	-8.138800	29.683508	1.666623E-6	20.844467
2743.721596	-2.982300	2.721000	-8.114000	29.685414	4.603839E-6	20.861560
2744.718998	-2.979400	2.717100	-8.094600	29.752982	4.438827E-6	20.851922
2745.724092	-2.993300	2.714200	-8.123700	29.786894	5.032870E-6	20.860035
2746.722716	-2.994600	2.710200	-8.115300	29.733062	3.514759E-6	20.843218
2747.725828	-3.021000	2.707100	-8.177600	29.731159	1.930642E-6	20.865481
2748.721052	-3.003200	2.703100	-8.117100	29.702594	3.019722E-6	20.869872
2749.728658	-2.995900	2.698600	-8.083900	29.761899	2.029649E-6	20.859016
2750.727219	-3.016100	2.694600	-8.126000	29.758534	1.336598E-6	20.852304
2751.727246	-2.971400	2.690700	-7.994100	29.750388	4.702846E-6	20.859264
2752.733874	-3.004700	2.687200	-8.073800	29.716924	2.656696E-6	20.848759
2753.726446	-3.005500	2.682400	-8.061100	29.721898	3.085727E-6	20.864678
2754.726601	-2.976500	2.678200	-7.970700	29.656848	4.999868E-6	20.835607
2755.720502	-3.010100	2.673200	-8.045200	29.660211	1.600618E-6	20.850376
2756.722693	-2.979200	2.669100	-7.950100	29.620980	1.402603E-6	20.852078
2757.723262	-3.007000	2.664600	-8.011700	29.582184	2.194662E-6	20.857063
2758.723831	-2.979000	2.662400	-7.930600	29.683231	2.986720E-6	20.847506
2759.719156	-2.994300	2.656800	-7.954400	29.764100	2.887713E-6	20.861235
2760.722387	-2.994200	2.651500	-7.938100	29.745584	1.765630E-6	20.843041
2761.721986	-2.997700	2.647200	-7.935200	29.661895	1.138584E-6	20.853023
2762.726102	-3.021200	2.641900	-7.980600	29.622535	-4.785352E-7	20.855542
2763.729052	-2.988900	2.638400	-7.884900	29.592904	8.085595E-7	20.850801
2764.729002	-2.971100	2.632800	-7.821800	29.552201	1.815134E-7	20.846753
2765.723928	-2.983700	2.627700	-7.839400	29.580327	-1.699625E-6	20.839071
2766.724080	-3.009000	2.622500	-7.890300	29.592033	8.085595E-7	20.837122
2767.732349	-2.987600	2.617600	-7.819800	29.634859	-2.475182E-7	20.876025
2768.727519	-3.037700	2.611100	-7.931300	29.686422	-1.204589E-6	20.873007
2769.728863	-3.010200	2.606800	-7.846500	29.712682	2.475182E-7	20.846852
2770.729195	-3.027000	2.601200	-7.873300	29.814334	9.075668E-7	20.859254
2771.727725	-3.007400	2.596400	-7.806100	29.911124	1.369601E-6	20.855857
2772.731970	-2.994500	2.590400	-7.756000	29.920731	2.475182E-7	20.838519
2773.733829	-3.013500	2.584600	-7.787800	29.886231	-1.039577E-6	20.869635
2774.729300	-2.994700	2.580400	-7.726400	29.785852	6.105450E-7	20.827692
2775.728108	-2.999500	2.572600	-7.715400	29.707929	1.204589E-6	20.837320
2776.732693	-3.014500	2.567700	-7.739400	29.743155	1.815134E-7	20.847230
2777.725944	-2.994400	2.561500	-7.668600	29.805652	1.369601E-6	20.847655
2778.729706	-2.997100	2.556000	-7.658700	29.793551	1.798632E-6	20.843041
2779.730279	-2.975100	2.549200	-7.582900	29.870720	2.029649E-6	20.850677
2780.727997	-3.007800	2.542300	-7.646300	29.960455	2.590691E-6	20.836852
2781.726259	-2.966700	2.537900	-7.528300	29.970382	1.798632E-6	20.848759
2782.734444	-3.028300	2.531000	-7.663000	29.975154	1.930642E-6	20.823700
2783.729332	-2.990700	2.524000	-7.547500	29.842334	2.755703E-6	20.827745
2784.733678	-2.988400	2.519200	-7.527600	29.865379	1.237591E-6	20.836757
2785.734255	-3.012400	2.512100	-7.565800	29.861789	3.943790E-6	20.848309
2786.727090	-2.953100	2.507200	-7.403000	29.812958	2.689698E-6	20.866401
2787.730995	-2.982600	2.501200	-7.459200	29.858248	3.448754E-6	20.832886
2788.735633	-3.019600	2.494200	-7.530500	29.875475	1.897640E-6	20.824178
