LabVIEW Measurement	
Writer_Version	2
Reader_Version	2
Separator	Tab
Decimal_Separator	.
Multi_Headings	No
X_Columns	One
Time_Pref	Absolute
Operator	admin
Description	Clolumns are: time, Current, Voltage, Power, Battery Temp, and Chamber Temp
Date	2024/08/16
Time	13:07:17.8513970375061035156
***End_of_Header***	
	
Channels	6						
Samples	1	1	1	1	1	1	
Date	2024/09/18	2024/09/18	2024/09/18	2024/09/18	2024/09/18	2024/09/18	
Time	18:08:11.9599242210388183594	18:08:11.9711775779724121094	18:08:11.9789261817932128907	18:08:11.9382410049438476563	18:08:11.9382410049438476563	18:08:11.9382410049438476563	
X_Dimension	Time	Time	Time	Time	Time	Time	
X0	0.0000000000000000E+0	0.0000000000000000E+0	0.0000000000000000E+0	0.0000000000000000E+0	0.0000000000000000E+0	0.0000000000000000E+0	
Delta_X	1.000000	1.000000	1.000000	1.000000	1.000000	1.000000	
***End_of_Header***							
X_Value	Untitled	Untitled 1	Untitled 2	Untitled 3	Untitled 4	Untitled 5	Comment
0.000000	0.024792	4.087000	0.101340	20.867649	0.000474	20.801269
0.998932	-2.990600	3.914500	-11.706000	20.852700	0.000471	20.826148
1.997717	-2.987800	3.908300	-11.676000	20.864231	0.000471	20.797851
2.998609	-3.008400	3.903000	-11.741000	20.873518	0.000470	20.797656
4.000329	-2.987600	3.899500	-11.650000	20.867680	0.000469	20.825482
5.000106	-2.984600	3.896900	-11.630000	20.896675	0.000470	20.811806
6.003582	-2.993800	3.894100	-11.658000	20.887472	0.000468	20.823465
6.999981	-2.986100	3.893900	-11.626000	20.880884	0.000467	20.808816
7.997411	-2.992500	3.890300	-11.640000	20.872204	0.000467	20.809618
9.000899	-2.978800	3.888800	-11.583000	20.929823	0.000468	20.790429
10.000162	-3.038100	3.885100	-11.802000	20.918770	0.000466	20.840066
11.002811	-2.988300	3.886700	-11.613000	20.918922	0.000466	20.818882
12.001405	-3.017900	3.883400	-11.718000	20.906276	0.000467	20.815243
13.000863	-3.004700	3.883200	-11.666000	20.931435	0.000465	20.803895
14.004983	-3.018700	3.880800	-11.714000	20.918039	0.000463	20.815628
15.003107	-3.003400	3.879800	-11.651000	20.933164	0.000462	20.818901
16.013283	-2.999600	3.879100	-11.635000	20.928497	0.000464	20.814234
17.002878	-2.995700	3.878200	-11.617000	20.954102	0.000464	20.800961
18.004979	-2.999800	3.877500	-11.631000	20.970100	0.000462	20.803685
19.014937	-2.997700	3.876300	-11.618000	20.950666	0.000463	20.813645
20.003380	-3.023300	3.875000	-11.715000	20.960947	0.000463	20.794056
21.004169	-3.017400	3.873900	-11.688000	20.991068	0.000462	20.795259
22.006962	-3.003000	3.874700	-11.634000	20.993219	0.000460	20.783185
23.006814	-3.015300	3.873800	-11.680000	21.000754	0.000460	20.806369
24.005501	-3.007400	3.873700	-11.648000	21.004203	0.000460	20.797491
25.003755	-2.990200	3.873000	-11.579000	21.014732	0.000457	20.794745
26.004116	-2.991300	3.871800	-11.581000	21.029010	0.000459	20.813293
27.008810	-2.985000	3.872000	-11.558000	21.046801	0.000458	20.792207
28.002609	-3.012500	3.870500	-11.659000	21.046231	0.000459	20.796853
29.004565	-3.009100	3.870700	-11.646000	21.052899	0.000458	20.806841
30.004486	-2.983200	3.870100	-11.544000	21.052775	0.000458	20.798657
31.003778	-3.014500	3.870100	-11.665000	21.077676	0.000457	20.799382
32.005893	-3.011700	3.869800	-11.653000	21.074789	0.000458	20.794598
33.004979	-3.015700	3.868500	-11.664000	21.075889	0.000458	20.797121
34.004974	-2.988700	3.869100	-11.562000	21.091210	0.000455	20.802962
35.003874	-2.999600	3.868300	-11.603000	21.114890	0.000454	20.802941
36.004254	-2.983800	3.868700	-11.543000	21.116341	0.000457	20.786848
37.003520	-2.975800	3.868300	-11.510000	21.120985	0.000457	20.790071
38.004128	-2.984600	3.866200	-11.537000	21.101129	0.000455	20.777322
39.003543	-2.989800	3.866700	-11.559000	21.131392	0.000454	20.803326
40.002460	-2.967300	3.867400	-11.475000	21.132096	0.000458	20.777477
41.004370	-2.983800	3.865500	-11.533000	21.136167	0.000454	20.780127
42.004887	-3.001600	3.865800	-11.603000	21.160943	0.000454	20.791160
43.008562	-2.967100	3.864900	-11.467000	21.160122	0.000456	20.777536
44.008993	-2.999900	3.864700	-11.592000	21.170575	0.000454	20.780880
45.005920	-2.980900	3.864400	-11.519000	21.183652	0.000456	20.779737
46.002728	-3.012900	3.864600	-11.643000	21.185650	0.000455	20.788375
47.011357	-3.001100	3.863400	-11.593000	21.206410	0.000455	20.778321
48.014293	-2.981200	3.863400	-11.517000	21.208536	0.000456	20.803207
49.008756	-2.991400	3.864000	-11.558000	21.215596	0.000455	20.768070
50.010925	-3.016700	3.862900	-11.653000	21.239323	0.000456	20.775211
51.007420	-3.009800	3.862800	-11.625000	21.222988	0.000454	20.777836
52.013505	-2.986900	3.862300	-11.535000	21.253149	0.000454	20.773395
53.013744	-2.988900	3.862300	-11.544000	21.256346	0.000455	20.777542
54.009308	-3.009400	3.862400	-11.623000	21.269023	0.000454	20.761774
55.006865	-2.994800	3.861700	-11.564000	21.275559	0.000453	20.775900
56.016197	-3.005900	3.860900	-11.605000	21.284444	0.000452	20.769615
57.010068	-3.014300	3.860600	-11.636000	21.278509	0.000453	20.751823
58.011616	-3.015800	3.859700	-11.639000	21.287790	0.000453	20.772014
59.008247	-2.997400	3.860600	-11.570000	21.297074	0.000453	20.775613
60.011806	-2.965700	3.861800	-11.452000	21.321422	0.000455	20.767729
61.007928	-2.976100	3.860400	-11.489000	21.326781	0.000453	20.774512
62.012086	-2.995800	3.859900	-11.562000	21.367167	0.000455	20.753277
63.015006	-2.999900	3.860800	-11.581000	21.347142	0.000453	20.767856
64.010118	-2.998100	3.858200	-11.566000	21.399004	0.000454	20.768535
65.013300	-2.985900	3.859500	-11.523000	21.360967	0.000456	20.768886
66.011842	-2.999500	3.860100	-11.578000	21.353433	0.000453	20.758029
67.017001	-2.981700	3.859300	-11.506000	21.380645	0.000453	20.752063
68.009628	-3.022400	3.857200	-11.657000	21.393196	0.000455	20.774105
69.016575	-3.002400	3.858400	-11.584000	21.395842	0.000454	20.755888
70.013366	-2.996000	3.858500	-11.559000	21.395145	0.000453	20.756140
71.014150	-3.003300	3.859300	-11.589000	21.418338	0.000455	20.752318
72.018262	-2.986400	3.859400	-11.525000	21.431635	0.000454	20.760407
73.011572	-2.997200	3.857200	-11.558000	21.436201	0.000457	20.766398
74.017540	-3.006600	3.857000	-11.595000	21.432856	0.000456	20.768266
75.015393	-2.982300	3.857500	-11.503000	21.457749	0.000456	20.754292
76.012824	-2.987600	3.856600	-11.521000	21.467898	0.000455	20.739791
77.017792	-3.006800	3.856500	-11.594000	21.478175	0.000454	20.770938
78.016115	-2.990200	3.856800	-11.531000	21.469621	0.000455	20.756214
79.017827	-3.008600	3.855900	-11.600000	21.494609	0.000454	20.737594
80.015840	-3.004000	3.856800	-11.585000	21.482659	0.000456	20.755510
81.015915	-2.990400	3.856300	-11.531000	21.503637	0.000456	20.766543
82.014868	-2.997800	3.857500	-11.562000	21.505080	0.000456	20.751391
83.015642	-2.999200	3.855800	-11.564000	21.515381	0.000456	20.754112
84.017225	-3.009500	3.855500	-11.603000	21.525753	0.000457	20.763543
85.019632	-3.017900	3.854600	-11.632000	21.545379	0.000458	20.752835
86.013859	-2.988100	3.855800	-11.520000	21.563533	0.000457	20.744923
87.017806	-2.976600	3.856800	-11.480000	21.563261	0.000457	20.728528
88.024366	-2.999200	3.856500	-11.565000	21.579219	0.000458	20.761094
89.017984	-2.988400	3.855200	-11.520000	21.572586	0.000456	20.741653
90.021618	-2.987000	3.854900	-11.514000	21.602161	0.000458	20.725255
91.016840	-2.995700	3.854500	-11.545000	21.589764	0.000455	20.748886
92.021939	-3.013100	3.855100	-11.615000	21.595577	0.000456	20.750436
93.022450	-2.990300	3.855500	-11.528000	21.622334	0.000457	20.757771
94.021624	-2.998900	3.854500	-11.558000	21.631683	0.000456	20.753851
95.025432	-3.008800	3.853200	-11.593000	21.617621	0.000457	20.773918
96.024086	-2.983100	3.854900	-11.499000	21.636945	0.000455	20.744417
97.024791	-2.983400	3.853500	-11.495000	21.655472	0.000456	20.750156
98.021832	-3.006000	3.853000	-11.582000	21.664001	0.000456	20.753950
99.020811	-2.995800	3.853800	-11.544000	21.670284	0.000456	20.744590
100.021943	-2.999700	3.852800	-11.556000	21.682033	0.000457	20.749236
101.023033	-2.989000	3.854500	-11.520000	21.692906	0.000456	20.758221
102.022556	-2.996900	3.853000	-11.546000	21.686495	0.000457	20.734261
103.022927	-2.992000	3.852500	-11.526000	21.712529	0.000457	20.735184
104.029138	-3.002900	3.852500	-11.568000	21.732105	0.000457	20.773270
105.025806	-3.009200	3.851600	-11.590000	21.703505	0.000458	20.747017
106.025900	-2.977500	3.853000	-11.472000	21.720731	0.000457	20.762835
107.026343	-2.994000	3.851300	-11.530000	21.725147	0.000459	20.759668
108.031401	-2.989000	3.852800	-11.514000	21.731310	0.000456	20.754930
109.030769	-3.003600	3.851700	-11.568000	21.727817	0.000458	20.732941
110.029002	-3.005300	3.852100	-11.576000	21.755719	0.000460	20.745220
111.028065	-3.009700	3.851500	-11.590000	21.781652	0.000458	20.733716
112.032508	-3.005600	3.852100	-11.577000	21.778686	0.000459	20.737859
113.025204	-2.982500	3.853000	-11.490000	21.805039	0.000461	20.748114
114.026587	-3.000300	3.851700	-11.555000	21.802772	0.000461	20.728302
115.027578	-3.005400	3.850500	-11.571000	21.813644	0.000458	20.746296
116.030859	-3.009100	3.851100	-11.587000	21.829277	0.000461	20.744399
117.033547	-2.990100	3.850700	-11.514000	21.833791	0.000462	20.766462
118.027828	-2.979500	3.852200	-11.477000	21.836330	0.000464	20.765684
119.029859	-3.011500	3.848900	-11.590000	21.847003	0.000464	20.742700
120.031125	-2.997700	3.849800	-11.540000	21.828078	0.000465	20.749364
121.032310	-2.996200	3.849400	-11.533000	21.855081	0.000462	20.770227
122.030670	-3.000300	3.849500	-11.549000	21.861861	0.000464	20.758521
123.033097	-2.989300	3.850000	-11.508000	21.876744	0.000464	20.758246
124.028054	-2.999000	3.849100	-11.542000	21.888287	0.000466	20.735659
125.031414	-3.000800	3.849300	-11.550000	21.888909	0.000463	20.750507
126.028537	-2.989500	3.849700	-11.507000	21.887562	0.000464	20.749633
127.029786	-3.001600	3.849600	-11.554000	21.917182	0.000463	20.746091
128.033536	-2.985400	3.850100	-11.492000	21.922361	0.000466	20.758862
129.032446	-2.998200	3.848300	-11.538000	21.940761	0.000465	20.758787
130.030538	-2.971000	3.849200	-11.435000	21.925408	0.000465	20.751006
131.035078	-2.992000	3.847700	-11.512000	21.949262	0.000466	20.745960
132.031860	-2.998100	3.849500	-11.540000	21.955148	0.000465	20.761335
133.037536	-3.008500	3.847200	-11.573000	21.955742	0.000464	20.760507
134.035281	-2.978500	3.848600	-11.462000	21.953278	0.000467	20.768472
135.030141	-3.019800	3.845500	-11.612000	21.962052	0.000466	20.755917
136.035196	-3.009200	3.845600	-11.572000	21.982695	0.000465	20.750029
137.034761	-2.994800	3.847600	-11.522000	21.989673	0.000466	20.769343
138.038109	-3.006100	3.846600	-11.562000	21.992812	0.000464	20.744983
139.035373	-2.996200	3.846100	-11.523000	22.022801	0.000467	20.759357
140.033353	-2.999100	3.846100	-11.534000	22.022504	0.000467	20.752896
141.033161	-2.988800	3.846400	-11.495000	22.030927	0.000468	20.758483
142.037336	-2.969000	3.847200	-11.421000	22.036837	0.000468	20.751597
143.039588	-3.010600	3.845800	-11.578000	22.038905	0.000467	20.744184
144.037258	-3.022100	3.844700	-11.618000	22.064403	0.000470	20.768763
145.037537	-3.011500	3.844800	-11.577000	22.062438	0.000468	20.757786
146.033954	-2.996700	3.845100	-11.522000	22.065177	0.000469	20.761003
147.033583	-3.000700	3.845400	-11.538000	22.088636	0.000471	20.760780
148.037596	-2.985100	3.845600	-11.478000	22.093319	0.000467	20.752666
149.038228	-2.994600	3.845000	-11.512000	22.106955	0.000470	20.768214
150.039394	-2.982500	3.846100	-11.471000	22.091920	0.000471	20.774025
151.045454	-3.006500	3.843100	-11.553000	22.136065	0.000471	20.752786
152.040915	-2.980300	3.844200	-11.456000	22.118464	0.000472	20.765985
153.040609	-3.008400	3.844300	-11.563000	22.141593	0.000472	20.765908
154.040506	-3.005000	3.844600	-11.552000	22.135588	0.000473	20.750886
155.038893	-3.006500	3.843500	-11.554000	22.140921	0.000473	20.777563
156.041166	-3.014700	3.843000	-11.584000	22.165445	0.000472	20.772719
157.046196	-2.998200	3.843400	-11.521000	22.162851	0.000473	20.774864
158.038960	-2.995900	3.842600	-11.511000	22.161703	0.000473	20.777981
159.043173	-3.007400	3.841700	-11.553000	22.164643	0.000471	20.761485
160.047172	-3.014500	3.842700	-11.583000	22.173840	0.000472	20.772589
161.043021	-3.013600	3.841600	-11.575000	22.205842	0.000474	20.752946
162.041100	-2.980000	3.843900	-11.454000	22.187199	0.000474	20.773162
163.042941	-3.008500	3.841500	-11.556000	22.213115	0.000473	20.752642
164.041886	-2.993400	3.842600	-11.501000	22.217126	0.000474	20.754762
165.049176	-3.028000	3.841300	-11.631000	22.222039	0.000475	20.774854
166.052134	-3.020000	3.841100	-11.599000	22.223180	0.000474	20.793067
167.042132	-2.988900	3.841700	-11.481000	22.255008	0.000475	20.766138
168.046777	-3.001300	3.842900	-11.533000	22.264553	0.000477	20.765739
169.046356	-2.999100	3.840500	-11.517000	22.251866	0.000474	20.771528
170.050342	-2.984500	3.842100	-11.466000	22.267864	0.000475	20.776167
171.046005	-2.996300	3.841500	-11.509000	22.270232	0.000476	20.773796
172.046666	-2.985200	3.841500	-11.466000	22.288153	0.000476	20.791266
173.042511	-2.975700	3.839900	-11.425000	22.298867	0.000475	20.777812
174.045880	-3.020000	3.839100	-11.593000	22.297270	0.000476	20.761514
175.054288	-3.004500	3.840300	-11.537000	22.326728	0.000476	20.772519
176.044459	-2.996100	3.840100	-11.505000	22.322116	0.000477	20.784497
177.044679	-2.994700	3.840900	-11.501000	22.322342	0.000475	20.777137
178.056827	-3.003100	3.840100	-11.532000	22.345541	0.000478	20.791832
179.057820	-3.003500	3.839300	-11.531000	22.347287	0.000477	20.789787
180.044127	-3.007300	3.838700	-11.542000	22.365652	0.000477	20.781150
181.046493	-2.985400	3.838900	-11.459000	22.371037	0.000475	20.780378
182.044513	-2.996700	3.840200	-11.507000	22.369068	0.000479	20.785045
183.047797	-3.015800	3.837600	-11.573000	22.376846	0.000477	20.793308
184.047429	-3.003100	3.839600	-11.530000	22.382227	0.000477	20.786369
185.048679	-2.988600	3.838400	-11.470000	22.397506	0.000478	20.795505
186.053486	-3.002700	3.838200	-11.524000	22.411012	0.000482	20.800020
187.051144	-2.991200	3.838100	-11.479000	22.401545	0.000479	20.784376
188.047809	-2.999800	3.838400	-11.513000	22.428781	0.000481	20.792211
189.046649	-3.001700	3.837500	-11.519000	22.420735	0.000478	20.803594
190.055154	-3.044900	3.837600	-11.683000	22.434141	0.000480	20.795682
191.050646	-2.995300	3.838200	-11.496000	22.438205	0.000479	20.774621
192.059735	-3.009300	3.837000	-11.546000	22.442964	0.000481	20.784603
193.050108	-2.985800	3.836300	-11.454000	22.482887	0.000482	20.787600
194.058033	-3.011800	3.835900	-11.552000	22.485632	0.000482	20.780392
195.048888	-3.021200	3.836200	-11.589000	22.468485	0.000481	20.801152
196.049829	-3.008500	3.835000	-11.537000	22.490911	0.000483	20.803696
197.054842	-3.014900	3.836400	-11.566000	22.502401	0.000483	20.781064
198.061646	-2.983900	3.836500	-11.447000	22.492712	0.000486	20.787008
199.046696	-2.960400	3.835700	-11.354000	22.522437	0.000485	20.766517
200.054176	-2.988900	3.835200	-11.461000	22.509308	0.000486	20.791301
201.051761	-2.984700	3.835000	-11.445000	22.515162	0.000486	20.785310
202.053349	-2.998400	3.835000	-11.497000	22.536220	0.000486	20.808770
203.056759	-3.005100	3.835300	-11.524000	22.536696	0.000488	20.800713
204.050138	-2.998800	3.834000	-11.496000	22.535948	0.000487	20.807075
205.053579	-2.999100	3.834800	-11.500000	22.514519	0.000488	20.797942
206.053120	-2.998000	3.835000	-11.496000	22.556259	0.000486	20.796123
207.054206	-2.990400	3.833600	-11.463000	22.537445	0.000487	20.783919
208.049905	-3.010500	3.833800	-11.541000	22.560498	0.000486	20.814119
209.053233	-3.008100	3.833300	-11.530000	22.569992	0.000486	20.813670
210.056602	-3.003900	3.833500	-11.514000	22.578315	0.000489	20.790713
211.056397	-3.015000	3.833900	-11.558000	22.609709	0.000487	20.801767
212.062089	-2.992500	3.832000	-11.466000	22.603332	0.000487	20.819087
213.060378	-3.013800	3.832000	-11.548000	22.647011	0.000490	20.797404
214.050930	-3.033800	3.831300	-11.622000	22.651197	0.000489	20.811080
215.051918	-2.997700	3.831500	-11.485000	22.652395	0.000488	20.834090
216.052720	-2.993900	3.833000	-11.475000	22.644100	0.000489	20.810135
217.053949	-3.025400	3.831500	-11.591000	22.650508	0.000487	20.788104
218.058980	-2.983200	3.832700	-11.433000	22.663615	0.000493	20.801706
219.057961	-3.004400	3.832000	-11.512000	22.680034	0.000489	20.816730
220.059931	-3.018800	3.831500	-11.565000	22.668429	0.000491	20.817908
221.060519	-3.008600	3.830900	-11.525000	22.667359	0.000489	20.783645
222.054358	-2.994800	3.830300	-11.470000	22.682362	0.000489	20.802466
223.057429	-2.980900	3.831000	-11.419000	22.716946	0.000491	20.809607
224.055521	-3.010500	3.830400	-11.531000	22.702798	0.000491	20.811556
225.056514	-2.984600	3.830500	-11.431000	22.707284	0.000493	20.804196
226.055273	-3.002900	3.829000	-11.497000	22.719966	0.000491	20.792243
227.056808	-3.011200	3.829500	-11.530000	22.738582	0.000495	20.790976
228.069579	-2.998300	3.828800	-11.478000	22.757018	0.000493	20.808495
229.057469	-2.996200	3.828900	-11.471000	22.763771	0.000491	20.817631
230.059958	-2.992400	3.828800	-11.456000	22.763927	0.000493	20.799295
231.065395	-3.008500	3.829800	-11.521000	22.752867	0.000492	20.818562
232.060975	-2.991800	3.829200	-11.455000	22.766371	0.000493	20.813123
233.061596	-2.997200	3.829200	-11.476000	22.752499	0.000493	20.823883
234.061433	-2.983200	3.827800	-11.419000	22.766427	0.000495	20.799429
235.059811	-3.018300	3.828800	-11.555000	22.766932	0.000494	20.814634
236.072468	-3.010700	3.827600	-11.522000	22.767134	0.000493	20.802982
237.061477	-3.016600	3.826400	-11.541000	22.785346	0.000494	20.811743
238.063316	-3.006300	3.827100	-11.504000	22.785473	0.000497	20.801913
239.062469	-3.002300	3.827800	-11.490000	22.820252	0.000498	20.818735
240.061753	-3.016100	3.825400	-11.537000	22.813731	0.000496	20.815048
241.063693	-3.005100	3.826500	-11.498000	22.819789	0.000496	20.825857
242.073640	-2.990700	3.826900	-11.444000	22.813858	0.000495	20.830822
243.066362	-2.993300	3.827000	-11.454000	22.834412	0.000497	20.828653
244.066789	-2.989800	3.825300	-11.435000	22.835613	0.000498	20.824166
245.062445	-2.994600	3.827300	-11.460000	22.854022	0.000499	20.823168
246.072861	-2.984900	3.826000	-11.419000	22.851087	0.000498	20.818331
247.067078	-2.985500	3.826100	-11.421000	22.849141	0.000499	20.827287
248.065239	-3.017900	3.826400	-11.547000	22.860525	0.000503	20.806449
249.066979	-2.986800	3.826500	-11.428000	22.853503	0.000501	20.835450
250.065123	-3.012300	3.824300	-11.519000	22.868723	0.000501	20.831257
251.063352	-3.021400	3.824400	-11.554000	22.871192	0.000501	20.809549
252.069926	-3.015100	3.825500	-11.533000	22.881028	0.000502	20.817507
253.066919	-2.999800	3.823400	-11.469000	22.884419	0.000503	20.817110
254.070213	-3.010200	3.824200	-11.510000	22.906063	0.000500	20.830259
255.066273	-2.990100	3.823800	-11.432000	22.918163	0.000503	20.833373
256.072706	-3.011700	3.823600	-11.515000	22.921233	0.000503	20.826965
257.068997	-2.985700	3.823900	-11.415000	22.896446	0.000502	20.842434
258.068552	-3.010500	3.824000	-11.511000	22.914179	0.000504	20.828907
259.067744	-2.991200	3.823000	-11.435000	22.925912	0.000505	20.828334
260.069528	-2.973600	3.823800	-11.370000	22.941975	0.000504	20.813607
261.070904	-2.979800	3.823400	-11.392000	22.915620	0.000503	20.825610
262.068057	-2.998200	3.822400	-11.460000	22.933802	0.000503	20.832446
263.071231	-2.992500	3.822800	-11.439000	22.945680	0.000505	20.828699
264.069393	-2.975900	3.822600	-11.375000	22.957038	0.000504	20.821587
265.071107	-2.997200	3.820800	-11.451000	22.966429	0.000504	20.842848
266.066885	-3.007200	3.822200	-11.493000	22.971006	0.000506	20.836529
267.071468	-2.988800	3.823000	-11.426000	23.004006	0.000509	20.831186
268.070133	-2.997900	3.821400	-11.455000	23.007619	0.000507	20.837177
269.065433	-2.996400	3.820000	-11.445000	23.021685	0.000506	20.847477
270.069329	-3.002900	3.821900	-11.476000	23.047409	0.000507	20.841009
271.067253	-2.986200	3.821200	-11.410000	23.059688	0.000509	20.834820
272.073121	-2.995400	3.819700	-11.440000	23.074110	0.000508	20.853064
273.067680	-3.006400	3.819600	-11.483000	23.061027	0.000509	20.826679
274.068141	-2.994700	3.819900	-11.438000	23.070092	0.000508	20.845718
275.074270	-2.999200	3.819000	-11.453000	23.103661	0.000509	20.851854
276.069065	-2.976700	3.821500	-11.374000	23.079450	0.000510	20.854621
277.070173	-2.996800	3.819100	-11.443000	23.116059	0.000510	20.831088
278.068416	-3.041400	3.817700	-11.609000	23.071900	0.000510	20.856539
279.068143	-2.997900	3.818900	-11.448000	23.077949	0.000510	20.827040
280.066732	-2.995700	3.818200	-11.437000	23.101906	0.000511	20.851044
281.073839	-3.001000	3.818400	-11.459000	23.089402	0.000509	20.847049
282.068004	-3.003400	3.817800	-11.465000	23.092961	0.000511	20.841133
283.069810	-2.989100	3.818400	-11.413000	23.089773	0.000512	20.864964
284.072360	-3.018000	3.817300	-11.519000	23.119905	0.000510	20.843950
285.069753	-2.993100	3.818000	-11.427000	23.121099	0.000513	20.860318
286.069571	-2.988100	3.816800	-11.404000	23.147371	0.000513	20.862462
287.074079	-2.998700	3.817900	-11.448000	23.155486	0.000514	20.865378
288.077126	-3.007200	3.816500	-11.475000	23.146496	0.000513	20.878653
289.072680	-3.026600	3.815200	-11.546000	23.137555	0.000515	20.875858
290.082718	-2.989900	3.817000	-11.412000	23.168957	0.000515	20.862282
291.072713	-3.018700	3.816800	-11.521000	23.166644	0.000514	20.850956
292.078942	-3.019100	3.814500	-11.515000	23.160963	0.000516	20.865176
293.076226	-2.992800	3.815500	-11.417000	23.154162	0.000513	20.858836
294.074392	-3.009900	3.814800	-11.481000	23.193731	0.000514	20.878098
295.073203	-2.999400	3.814600	-11.441000	23.225881	0.000517	20.887082
296.074025	-2.997400	3.813600	-11.430000	23.204589	0.000518	20.872384
297.078726	-3.024900	3.813100	-11.533000	23.220101	0.000516	20.868963
298.076721	-3.011600	3.814700	-11.487000	23.228345	0.000516	20.876750
299.075561	-3.008300	3.812900	-11.470000	23.258675	0.000516	20.865895
300.076549	-2.994900	3.814700	-11.423000	23.268261	0.000517	20.853691
301.076648	-2.964200	3.815200	-11.308000	23.273469	0.000517	20.900159
302.076468	-3.006000	3.813800	-11.464000	23.288185	0.000515	20.873184
303.079982	-2.999400	3.814400	-11.440000	23.304246	0.000517	20.862254
304.074779	-3.024300	3.812300	-11.528000	23.306012	0.000518	20.869713
305.077765	-3.010700	3.813800	-11.480000	23.312437	0.000516	20.900806
306.074327	-3.010300	3.812400	-11.476000	23.305337	0.000516	20.887528
307.076615	-3.012700	3.811500	-11.482000	23.307233	0.000518	20.883264
308.075696	-2.996100	3.811400	-11.418000	23.319732	0.000518	20.887729
309.076601	-3.004500	3.812500	-11.454000	23.317518	0.000517	20.860856
310.076680	-3.002100	3.810800	-11.439000	23.352227	0.000518	20.881417
311.076725	-2.993500	3.811600	-11.409000	23.326059	0.000519	20.870838
312.075715	-3.009600	3.811800	-11.470000	23.337141	0.000518	20.886211
313.079727	-3.011500	3.809800	-11.472000	23.374737	0.000518	20.894968
314.076093	-2.984900	3.810300	-11.372000	23.342197	0.000519	20.884640
315.074775	-2.988100	3.810100	-11.384000	23.352657	0.000519	20.871892
316.074595	-3.026500	3.809500	-11.528000	23.337342	0.000518	20.905377
317.075866	-3.033000	3.810100	-11.556000	23.334980	0.000520	20.880727
318.077152	-3.008000	3.810000	-11.460000	23.372103	0.000520	20.880476
319.075317	-3.001400	3.809000	-11.432000	23.376364	0.000521	20.888539
320.077376	-2.997800	3.810600	-11.422000	23.365759	0.000521	20.897823
321.076518	-3.015900	3.808900	-11.486000	23.385078	0.000521	20.893478
322.075804	-3.013200	3.807700	-11.473000	23.373003	0.000520	20.876637
323.080014	-2.997600	3.808700	-11.416000	23.402609	0.000521	20.894929
324.079059	-2.994500	3.807900	-11.401000	23.426788	0.000520	20.891663
325.077833	-2.979200	3.807400	-11.343000	23.446678	0.000524	20.887892
326.078796	-3.014200	3.808600	-11.479000	23.440832	0.000523	20.886773
327.081230	-3.008500	3.808000	-11.456000	23.454649	0.000522	20.910104
328.080824	-2.994900	3.808600	-11.406000	23.468491	0.000523	20.905487
329.083602	-2.990300	3.806500	-11.381000	23.431173	0.000522	20.894161
330.080300	-2.982500	3.807700	-11.356000	23.427487	0.000524	20.904691
331.081402	-3.006000	3.807200	-11.444000	23.435706	0.000523	20.904867
332.081099	-3.016200	3.806100	-11.479000	23.427738	0.000523	20.897356
333.080434	-3.004900	3.807100	-11.440000	23.447931	0.000522	20.899104
334.088679	-3.007300	3.806100	-11.446000	23.461225	0.000522	20.886826
335.086993	-3.011500	3.804200	-11.455000	23.502979	0.000524	20.904496
336.083063	-3.025300	3.805700	-11.512000	23.521402	0.000526	20.910160
337.082831	-2.988000	3.806000	-11.371000	23.535720	0.000524	20.901280
338.086889	-3.014100	3.804300	-11.466000	23.499100	0.000525	20.890651
339.085481	-3.007100	3.805800	-11.444000	23.533927	0.000525	20.908964
340.088430	-2.985900	3.804700	-11.360000	23.557605	0.000528	20.898562
341.084426	-3.023100	3.802700	-11.495000	23.549342	0.000525	20.923467
342.084560	-3.009100	3.803700	-11.445000	23.550609	0.000526	20.902928
343.088765	-3.014200	3.803500	-11.464000	23.544961	0.000526	20.912913
344.084924	-3.048000	3.802300	-11.588000	23.514865	0.000525	20.905504
345.088234	-3.011900	3.803900	-11.456000	23.549719	0.000527	20.914837
346.085711	-3.002700	3.803700	-11.420000	23.549447	0.000526	20.910298
347.086909	-3.011200	3.803400	-11.452000	23.586793	0.000527	20.917388
348.087947	-3.013200	3.803200	-11.459000	23.595031	0.000526	20.910949
349.087249	-3.011300	3.802800	-11.450000	23.608497	0.000526	20.912594
350.085364	-2.996500	3.803100	-11.395000	23.622044	0.000529	20.911476
351.091228	-2.993100	3.803200	-11.382000	23.637031	0.000530	20.903742
352.089248	-3.017400	3.801900	-11.471000	23.626177	0.000526	20.904241
353.087161	-2.994800	3.802300	-11.387000	23.618662	0.000529	20.901923
354.091939	-2.998500	3.801600	-11.399000	23.595363	0.000527	20.907963
355.092536	-2.989600	3.802000	-11.365000	23.608511	0.000527	20.915927
356.092760	-2.995300	3.800600	-11.383000	23.583990	0.000528	20.893244
357.090704	-3.019600	3.799400	-11.471000	23.589041	0.000530	20.885506
358.089753	-3.018300	3.800900	-11.471000	23.613544	0.000530	20.907223
359.092176	-2.983500	3.801000	-11.339000	23.630420	0.000529	20.908493
360.089983	-3.019700	3.800100	-11.474000	23.625192	0.000530	20.909891
361.091947	-2.995700	3.799500	-11.381000	23.632269	0.000530	20.896124
362.090068	-3.015600	3.800200	-11.458000	23.656687	0.000531	20.912541
363.090004	-2.997500	3.799100	-11.387000	23.619647	0.000530	20.892005
364.091934	-2.994000	3.798100	-11.371000	23.638940	0.000531	20.889062
365.091272	-3.002100	3.798400	-11.403000	23.663961	0.000530	20.907506
366.091163	-3.021400	3.797500	-11.472000	23.683331	0.000530	20.891365
367.090353	-3.008900	3.798000	-11.427000	23.710564	0.000530	20.900649
368.091573	-3.004500	3.798500	-11.412000	23.713179	0.000529	20.878617
369.093340	-3.020200	3.797400	-11.468000	23.700311	0.000531	20.877095
370.092932	-2.986600	3.797800	-11.342000	23.677708	0.000531	20.888099
371.099833	-2.971500	3.799200	-11.288000	23.667134	0.000532	20.865645
372.092011	-3.021400	3.795400	-11.467000	23.694565	0.000531	20.886981
373.092760	-3.008300	3.796300	-11.420000	23.673607	0.000532	20.883039
374.093636	-3.017400	3.796200	-11.454000	23.674408	0.000530	20.886213
375.097640	-3.026700	3.794900	-11.485000	23.698278	0.000532	20.876005
376.092134	-3.023600	3.794300	-11.471000	23.717943	0.000531	20.883393
377.096676	-3.012600	3.795200	-11.433000	23.720163	0.000532	20.887515
378.092581	-3.001200	3.795000	-11.389000	23.728655	0.000533	20.876115
379.094029	-3.027100	3.794000	-11.484000	23.758350	0.000533	20.861792
380.097345	-2.980900	3.794800	-11.310000	23.725125	0.000532	20.880163
381.102065	-2.986900	3.795300	-11.335000	23.758057	0.000532	20.869085
382.100229	-2.997600	3.792800	-11.369000	23.763933	0.000533	20.886355
383.095752	-2.987800	3.794400	-11.336000	23.790794	0.000531	20.878199
384.095711	-2.984600	3.794500	-11.324000	23.779543	0.000532	20.868342
385.097252	-2.994500	3.793300	-11.358000	23.771906	0.000533	20.850254
386.095806	-2.983300	3.793800	-11.317000	23.740044	0.000535	20.864775
387.097666	-2.990600	3.793900	-11.345000	23.756081	0.000532	20.859043
388.098515	-2.999400	3.791800	-11.371000	23.748239	0.000533	20.867775
389.098599	-2.983600	3.792200	-11.313000	23.744085	0.000534	20.896799
390.099391	-3.022800	3.791800	-11.461000	23.775149	0.000534	20.859669
391.097160	-3.003600	3.791000	-11.386000	23.779010	0.000536	20.854058
392.103481	-3.002300	3.790500	-11.379000	23.809928	0.000535	20.862772
393.105134	-3.001800	3.792000	-11.382000	23.828223	0.000534	20.855512
394.099710	-2.995600	3.791700	-11.357000	23.847537	0.000535	20.852593
395.099031	-2.977600	3.792400	-11.291000	23.848437	0.000537	20.852073
396.102661	-2.968900	3.791100	-11.254000	23.853264	0.000535	20.851224
397.103602	-2.994100	3.791000	-11.350000	23.838115	0.000536	20.850732
398.105776	-2.995100	3.791200	-11.354000	23.815914	0.000537	20.869722
399.101969	-3.023800	3.789600	-11.458000	23.878785	0.000539	20.858796
400.102838	-2.968700	3.792100	-11.256000	23.883419	0.000539	20.851588
401.104992	-2.974500	3.790100	-11.272000	23.899796	0.000539	20.860897
402.105589	-2.995200	3.791200	-11.355000	23.926921	0.000538	20.854907
403.103959	-2.999200	3.788500	-11.362000	23.936459	0.000539	20.845980
404.101910	-3.006900	3.789500	-11.394000	23.942235	0.000539	20.850350
405.102517	-2.989000	3.788500	-11.323000	23.962119	0.000539	20.852745
406.104712	-2.994400	3.788900	-11.344000	23.929024	0.000538	20.863180
407.102858	-2.997500	3.788600	-11.356000	23.862376	0.000537	20.845188
408.129111	-3.003400	3.786700	-11.371000	23.853618	0.000540	20.846362
409.105069	-3.002100	3.786800	-11.367000	23.874621	0.000539	20.847509
410.102468	-2.973700	3.787400	-11.261000	23.892968	0.000539	20.849784
411.104300	-3.005500	3.787700	-11.383000	23.938284	0.000539	20.840698
412.106122	-2.988200	3.786500	-11.314000	23.934504	0.000539	20.834537
413.103112	-2.988300	3.787200	-11.316000	23.920714	0.000538	20.842046
414.106009	-2.994900	3.785200	-11.336000	23.951128	0.000539	20.833189
415.103436	-2.982900	3.785900	-11.291000	23.939903	0.000543	20.840425
416.103313	-2.998600	3.786700	-11.354000	23.919723	0.000540	20.832517
417.105959	-2.978700	3.785300	-11.275000	23.916508	0.000542	20.831664
418.105448	-3.003300	3.784700	-11.365000	23.928305	0.000541	20.843493
419.106690	-3.015400	3.785000	-11.412000	23.929575	0.000541	20.841922
420.105533	-2.989400	3.785100	-11.315000	23.961481	0.000540	20.837881
421.105945	-2.999000	3.784000	-11.348000	23.959289	0.000540	20.848011
422.105369	-3.019200	3.783800	-11.423000	23.978202	0.000541	20.822408
423.106484	-3.025400	3.782600	-11.443000	23.946893	0.000540	20.840797
424.110118	-3.002500	3.784500	-11.362000	23.949536	0.000542	20.847240
425.110662	-3.022800	3.782800	-11.434000	23.985224	0.000541	20.835613
426.106044	-3.018100	3.781800	-11.413000	23.980545	0.000542	20.834714
427.112277	-3.022000	3.782900	-11.431000	24.000654	0.000543	20.833543
428.109279	-3.005600	3.782000	-11.366000	23.998915	0.000540	20.826583
429.104871	-3.003100	3.782200	-11.358000	24.045620	0.000541	20.825532
430.111613	-3.014700	3.782100	-11.401000	24.035123	0.000541	20.838239
431.106642	-2.991300	3.782700	-11.315000	24.028282	0.000543	20.830904
432.108583	-3.001500	3.779500	-11.343000	24.015121	0.000542	20.808697
433.110413	-2.992800	3.780600	-11.313000	24.005196	0.000543	20.803959
434.109632	-2.997200	3.780800	-11.329000	24.022961	0.000545	20.821301
435.110851	-2.998400	3.780200	-11.333000	24.027442	0.000542	20.831010
436.107985	-2.989000	3.780700	-11.299000	24.026719	0.000544	20.826017
437.108311	-2.998400	3.780300	-11.333000	24.038592	0.000543	20.816588
438.111537	-2.995200	3.779200	-11.319000	24.017965	0.000544	20.837627
439.110424	-2.985900	3.779800	-11.284000	24.023092	0.000543	20.838975
440.111008	-2.981600	3.779800	-11.269000	24.078902	0.000546	20.819556
441.115719	-2.989000	3.780200	-11.297000	24.086848	0.000543	20.814249
442.110253	-2.987400	3.778700	-11.287000	24.113270	0.000545	20.811351
443.113265	-2.991000	3.779200	-11.302000	24.105060	0.000545	20.813548
444.115404	-3.008100	3.778700	-11.365000	24.114889	0.000544	20.824355
445.110762	-2.995300	3.777700	-11.313000	24.103440	0.000544	20.810976
446.112072	-2.994000	3.778700	-11.313000	24.120513	0.000543	20.830943
447.111036	-3.010600	3.777200	-11.370000	24.134396	0.000544	20.814996
448.113895	-3.022400	3.776800	-11.414000	24.120460	0.000547	20.832786
449.113086	-2.996900	3.779100	-11.325000	24.110288	0.000544	20.840129
450.111830	-3.004000	3.777600	-11.346000	24.110655	0.000546	20.821057
451.111826	-2.985800	3.777900	-11.279000	24.120488	0.000546	20.823332
452.109441	-2.990700	3.776900	-11.294000	24.104097	0.000545	20.843876
453.112601	-2.993900	3.777100	-11.307000	24.105166	0.000544	20.824560
454.113800	-2.994200	3.775500	-11.304000	24.091283	0.000547	20.830551
455.114254	-2.991900	3.777600	-11.302000	24.106482	0.000546	20.810233
456.111240	-3.010700	3.775500	-11.366000	24.085433	0.000543	20.828477
457.111613	-2.990700	3.776000	-11.292000	24.102802	0.000543	20.805594
458.111998	-3.002700	3.775400	-11.335000	24.103077	0.000545	20.817250
459.113712	-3.020800	3.773400	-11.397000	24.109001	0.000546	20.837889
460.122925	-2.991100	3.774800	-11.290000	24.139508	0.000545	20.818226
461.114538	-2.982100	3.775900	-11.260000	24.137494	0.000544	20.825689
462.120739	-3.007400	3.773900	-11.349000	24.174618	0.000544	20.828311
463.117466	-2.974900	3.775900	-11.232000	24.160686	0.000546	20.820976
464.116368	-3.002200	3.773800	-11.328000	24.134438	0.000544	20.797969
465.118556	-2.999000	3.773800	-11.316000	24.166589	0.000544	20.812672
466.115803	-2.984300	3.774400	-11.263000	24.175423	0.000545	20.814420
467.115291	-2.998000	3.773100	-11.312000	24.183061	0.000544	20.807382
468.117049	-3.004700	3.773700	-11.337000	24.212719	0.000544	20.811999
469.118768	-3.012900	3.772600	-11.365000	24.187269	0.000544	20.806387
470.115529	-3.023400	3.772000	-11.403000	24.212377	0.000543	20.799328
471.115348	-2.978800	3.773200	-11.239000	24.201603	0.000544	20.804643
472.120245	-3.007700	3.770800	-11.341000	24.193394	0.000544	20.790719
473.116421	-2.995300	3.772300	-11.299000	24.221683	0.000543	20.792542
474.116555	-2.979300	3.771900	-11.237000	24.212187	0.000543	20.808621
475.115797	-2.993800	3.770700	-11.288000	24.239354	0.000545	20.805050
476.119447	-2.972900	3.771500	-11.211000	24.245326	0.000547	20.804877
477.115290	-2.999600	3.770100	-11.308000	24.285209	0.000547	20.812166
478.115574	-2.992000	3.770900	-11.282000	24.298695	0.000543	20.796297
479.118541	-2.993500	3.769900	-11.284000	24.269988	0.000546	20.799269
480.117836	-3.009500	3.770400	-11.346000	24.231501	0.000544	20.810925
481.122031	-2.981900	3.769700	-11.240000	24.242226	0.000543	20.818837
482.119246	-2.980900	3.768600	-11.234000	24.229096	0.000545	20.799503
483.120306	-3.019200	3.767900	-11.375000	24.237781	0.000544	20.822913
484.116930	-3.010800	3.766600	-11.340000	24.261992	0.000545	20.788403
485.116224	-3.008900	3.767600	-11.335000	24.275026	0.000543	20.786305
486.117752	-3.002600	3.767400	-11.310000	24.244057	0.000547	20.816881
487.117532	-2.982300	3.768300	-11.237000	24.273936	0.000544	20.809393
488.118680	-2.998800	3.768100	-11.299000	24.287471	0.000546	20.797366
489.123540	-2.998100	3.766400	-11.291000	24.278765	0.000543	20.783418
490.123522	-2.998700	3.766700	-11.294000	24.265883	0.000545	20.797522
491.124200	-3.000600	3.766500	-11.301000	24.250760	0.000546	20.786146
492.126754	-3.007700	3.766300	-11.327000	24.289969	0.000546	20.799872
493.125069	-2.983500	3.767700	-11.240000	24.300590	0.000543	20.799146
494.126548	-3.008300	3.765200	-11.326000	24.344853	0.000544	20.796606
495.123909	-2.999700	3.765600	-11.295000	24.316817	0.000544	20.783181
496.123026	-3.006900	3.764500	-11.318000	24.308782	0.000545	20.788397
497.122116	-2.992200	3.765600	-11.267000	24.349908	0.000546	20.778918
498.121921	-3.024800	3.764500	-11.386000	24.298887	0.000546	20.778472
499.124932	-3.014400	3.763700	-11.344000	24.288686	0.000546	20.786731
500.123008	-2.999700	3.763600	-11.288000	24.309488	0.000547	20.770613
501.125330	-3.013600	3.762200	-11.336000	24.292446	0.000543	20.774856
502.122899	-2.998100	3.762400	-11.279000	24.314087	0.000544	20.797987
503.126476	-3.009500	3.763300	-11.325000	24.327178	0.000544	20.786936
504.126256	-3.004300	3.763000	-11.304000	24.336455	0.000544	20.800036
505.129145	-3.016800	3.761400	-11.346000	24.304888	0.000545	20.769318
506.123061	-3.005000	3.762800	-11.307000	24.309146	0.000544	20.782124
507.124082	-3.018100	3.760900	-11.349000	24.286810	0.000546	20.781056
508.126797	-3.018800	3.762200	-11.356000	24.274241	0.000545	20.770819
509.122447	-3.017200	3.760200	-11.345000	24.274224	0.000545	20.781707
510.130744	-3.012800	3.760000	-11.327000	24.297488	0.000546	20.791767
511.126182	-3.017400	3.761900	-11.350000	24.326621	0.000549	20.797284
512.127598	-2.991000	3.760700	-11.247000	24.314882	0.000546	20.777921
513.125171	-3.002600	3.761400	-11.292000	24.327094	0.000548	20.766463
514.126450	-3.008800	3.759800	-11.312000	24.327225	0.000548	20.777975
515.128453	-3.007500	3.759900	-11.306000	24.342749	0.000547	20.766520
516.127546	-2.985900	3.761000	-11.228000	24.348746	0.000546	20.766372
517.132934	-3.015000	3.759500	-11.335000	24.337500	0.000547	20.762203
518.126449	-3.000100	3.758600	-11.275000	24.360114	0.000547	20.762603
519.128602	-2.976900	3.758900	-11.189000	24.382727	0.000548	20.780547
520.126626	-3.005400	3.757900	-11.293000	24.368474	0.000547	20.772412
521.128955	-3.023200	3.758200	-11.361000	24.414990	0.000548	20.785887
522.127222	-2.958000	3.760000	-11.121000	24.406388	0.000549	20.758764
523.127155	-3.011300	3.758400	-11.317000	24.386463	0.000547	20.788562
524.133123	-3.010600	3.758600	-11.315000	24.413407	0.000548	20.772445
525.129181	-3.011800	3.758000	-11.317000	24.438181	0.000549	20.761737
526.130483	-3.002100	3.757400	-11.279000	24.414373	0.000550	20.775785
527.128500	-3.018600	3.756000	-11.336000	24.446466	0.000547	20.773842
528.131707	-3.009400	3.757000	-11.305000	24.449450	0.000548	20.764982
529.128480	-2.988600	3.757100	-11.228000	24.432732	0.000549	20.751054
530.132987	-2.995200	3.756300	-11.250000	24.421096	0.000545	20.773046
531.131397	-3.002900	3.756600	-11.279000	24.466891	0.000549	20.769204
532.131004	-3.000200	3.756000	-11.268000	24.469801	0.000547	20.765485
533.131403	-2.994200	3.756400	-11.247000	24.502160	0.000549	20.758121
534.133181	-2.991900	3.754800	-11.233000	24.496764	0.000548	20.777838
535.130554	-3.001700	3.755900	-11.274000	24.500294	0.000548	20.775690
536.134601	-3.023300	3.753900	-11.348000	24.488779	0.000549	20.765559
537.135455	-2.977400	3.754800	-11.179000	24.472636	0.000547	20.761217
538.140429	-2.963500	3.756100	-11.131000	24.472513	0.000549	20.768680
539.134733	-2.980900	3.755000	-11.192000	24.448258	0.000549	20.738655
540.132549	-3.009900	3.753000	-11.295000	24.455668	0.000551	20.756047
541.136620	-2.976700	3.753600	-11.172000	24.431416	0.000547	20.754002
542.133263	-2.986000	3.753300	-11.205000	24.439899	0.000548	20.777685
543.133519	-2.992800	3.753500	-11.233000	24.446540	0.000549	20.758269
544.132463	-2.992100	3.752700	-11.228000	24.477309	0.000548	20.772544
545.133065	-2.993100	3.753800	-11.234000	24.513950	0.000548	20.754303
546.132163	-3.013100	3.752900	-11.307000	24.572697	0.000548	20.757296
547.133225	-2.998200	3.753000	-11.251000	24.583044	0.000549	20.767678
548.132420	-3.010000	3.751400	-11.291000	24.597221	0.000549	20.746341
549.137175	-3.011800	3.751400	-11.297000	24.573823	0.000550	20.753209
550.138894	-3.013300	3.750800	-11.302000	24.576708	0.000548	20.756104
551.134262	-2.996300	3.751100	-11.239000	24.597599	0.000549	20.758574
552.144079	-2.996400	3.751600	-11.240000	24.604539	0.000550	20.745623
553.137076	-3.027300	3.749400	-11.350000	24.577550	0.000547	20.765485
554.137578	-3.006000	3.749900	-11.270000	24.562551	0.000548	20.768453
555.138818	-2.999500	3.750500	-11.248000	24.542140	0.000548	20.776897
556.137782	-3.017700	3.748300	-11.310000	24.531492	0.000546	20.736815
557.139392	-2.988700	3.750000	-11.206000	24.514656	0.000548	20.764494
558.137877	-2.992600	3.749400	-11.219000	24.502266	0.000547	20.763443
559.135197	-2.993200	3.748800	-11.220000	24.514758	0.000547	20.746105
560.135490	-2.993300	3.749500	-11.222000	24.541252	0.000548	20.764152
561.141305	-2.990600	3.749900	-11.213000	24.568809	0.000547	20.747704
562.134762	-3.007600	3.748700	-11.274000	24.559830	0.000549	20.726366
563.143866	-3.007200	3.748100	-11.270000	24.561100	0.000545	20.756091
564.138273	-3.014600	3.747900	-11.297000	24.634723	0.000548	20.757418
565.141424	-3.018400	3.747200	-11.310000	24.644223	0.000549	20.739923
566.138155	-3.018300	3.747400	-11.310000	24.667405	0.000547	20.741848
567.136794	-2.999600	3.747200	-11.239000	24.679296	0.000547	20.755203
568.140008	-2.972300	3.748300	-11.141000	24.671539	0.000551	20.738883
569.138373	-2.987300	3.746200	-11.190000	24.668605	0.000546	20.747794
570.137389	-2.983900	3.747400	-11.181000	24.672216	0.000546	20.740512
571.136825	-2.980000	3.746200	-11.163000	24.663390	0.000545	20.760105
572.139699	-2.995100	3.745200	-11.217000	24.620788	0.000546	20.729684
573.138310	-3.008300	3.745300	-11.266000	24.579680	0.000545	20.732533
574.140772	-2.985400	3.745800	-11.181000	24.562893	0.000547	20.729914
575.142576	-3.006400	3.746100	-11.259000	24.562675	0.000548	20.748188
576.141365	-2.998000	3.744300	-11.224000	24.607198	0.000548	20.734540
577.144111	-3.003100	3.743500	-11.241000	24.625282	0.000548	20.739884
578.142520	-3.005700	3.743900	-11.251000	24.656445	0.000545	20.738436
579.143618	-2.994700	3.744200	-11.212000	24.670201	0.000547	20.751292
580.146016	-2.993500	3.744700	-11.208000	24.651325	0.000547	20.733298
581.146025	-3.017500	3.743500	-11.295000	24.691719	0.000547	20.723571
582.151125	-2.995600	3.743600	-11.213000	24.673813	0.000545	20.729785
583.144128	-3.022000	3.741400	-11.305000	24.689931	0.000546	20.725571
584.148393	-2.996100	3.743000	-11.214000	24.686755	0.000548	20.722857
585.148818	-3.001800	3.742500	-11.232000	24.663005	0.000546	20.735062
586.143069	-2.997700	3.741400	-11.215000	24.638085	0.000547	20.721909
587.145629	-2.992300	3.741100	-11.194000	24.648632	0.000546	20.735338
588.141325	-2.987600	3.740800	-11.175000	24.648957	0.000545	20.745622
589.144094	-2.990900	3.741900	-11.191000	24.663137	0.000545	20.744203
590.143697	-2.981100	3.741100	-11.152000	24.697811	0.000545	20.721624
591.145155	-2.972600	3.741000	-11.119000	24.716715	0.000544	20.731111
592.145678	-2.985800	3.741200	-11.170000	24.687522	0.000544	20.725998
593.146868	-2.987400	3.740900	-11.174000	24.699536	0.000545	20.734261
594.151913	-3.000000	3.740300	-11.220000	24.667088	0.000545	20.728727
595.149207	-3.002700	3.739700	-11.228000	24.594395	0.000543	20.714580
596.144454	-2.988400	3.741200	-11.179000	24.601808	0.000545	20.728183
597.144422	-3.008900	3.738900	-11.248000	24.621856	0.000547	20.721272
598.144630	-3.003600	3.738600	-11.229000	24.633575	0.000547	20.725445
599.145542	-2.983600	3.740300	-11.158000	24.667650	0.000544	20.710798
600.146748	-3.009600	3.738100	-11.249000	24.663521	0.000544	20.731786
601.148661	-3.017700	3.738800	-11.281000	24.668579	0.000545	20.727852
602.144566	-2.992100	3.738000	-11.183000	24.633016	0.000546	20.722987
603.153362	-2.994700	3.737400	-11.191000	24.665550	0.000545	20.745677
604.146250	-3.012400	3.737700	-11.259000	24.695344	0.000544	20.736218
605.148756	-2.987500	3.737200	-11.164000	24.725239	0.000543	20.740613
606.155638	-2.997500	3.736600	-11.199000	24.707637	0.000544	20.722475
607.149963	-3.000100	3.736700	-11.210000	24.724076	0.000543	20.728540
608.148694	-3.028400	3.735500	-11.311000	24.739549	0.000546	20.722256
609.152499	-2.986400	3.738000	-11.162000	24.751517	0.000544	20.715300
610.150327	-2.991400	3.736200	-11.176000	24.699842	0.000543	20.752113
611.151824	-3.000300	3.736700	-11.211000	24.666544	0.000546	20.715852
612.150360	-2.982700	3.735700	-11.141000	24.661350	0.000543	20.746678
613.147601	-3.001200	3.735500	-11.210000	24.691468	0.000544	20.722371
614.147341	-2.985900	3.736800	-11.157000	24.676976	0.000545	20.728218
615.151685	-3.021200	3.734500	-11.282000	24.709205	0.000546	20.733533
616.150785	-2.988000	3.735500	-11.161000	24.733755	0.000544	20.739676
617.154228	-3.000300	3.733500	-11.200000	24.726774	0.000544	20.701849
618.153837	-2.985100	3.734500	-11.147000	24.748480	0.000542	20.733116
619.148440	-3.010300	3.733500	-11.238000	24.728565	0.000541	20.729252
620.153840	-2.995300	3.734100	-11.184000	24.701612	0.000543	20.730180
621.148530	-3.006200	3.732800	-11.221000	24.699303	0.000542	20.748252
622.150496	-2.992700	3.732900	-11.171000	24.755308	0.000542	20.739494
623.151077	-3.002800	3.734100	-11.212000	24.774215	0.000543	20.754676
624.147721	-2.979100	3.733000	-11.120000	24.800205	0.000541	20.742826
625.152174	-3.004000	3.732700	-11.212000	24.762954	0.000542	20.742426
626.148152	-2.983400	3.732500	-11.135000	24.756791	0.000542	20.751889
627.158678	-2.998700	3.732700	-11.192000	24.777757	0.000541	20.748747
628.151210	-3.011500	3.732400	-11.239000	24.771047	0.000541	20.710717
629.152678	-3.009100	3.731900	-11.229000	24.745315	0.000543	20.741321
630.148471	-2.974900	3.731900	-11.101000	24.735245	0.000540	20.727895
631.152567	-3.000800	3.730800	-11.194000	24.710059	0.000540	20.716370
632.158208	-3.017700	3.729800	-11.254000	24.731153	0.000541	20.730427
633.151385	-2.978000	3.732400	-11.114000	24.717676	0.000542	20.737766
634.149858	-2.996800	3.730600	-11.179000	24.740808	0.000540	20.738220
635.152217	-2.981400	3.731300	-11.123000	24.778163	0.000540	20.718333
636.152447	-3.000800	3.730300	-11.193000	24.766409	0.000541	20.716020
637.158171	-3.008900	3.729300	-11.220000	24.751014	0.000541	20.731866
638.157103	-3.024000	3.729400	-11.277000	24.753158	0.000542	20.736389
639.155788	-2.994400	3.729400	-11.166000	24.780842	0.000541	20.722918
640.157046	-2.999200	3.728900	-11.183000	24.782086	0.000542	20.732228
641.153243	-2.991600	3.729100	-11.155000	24.742349	0.000543	20.750198
642.158268	-3.016200	3.726500	-11.238000	24.772690	0.000539	20.742714
643.157810	-2.992300	3.728700	-11.157000	24.771207	0.000542	20.749761
644.154653	-3.020500	3.727100	-11.257000	24.749124	0.000541	20.738030
645.156682	-3.009600	3.726600	-11.214000	24.752135	0.000542	20.723034
646.162826	-2.989700	3.728000	-11.144000	24.769519	0.000540	20.725780
647.158926	-3.011400	3.726600	-11.220000	24.763479	0.000540	20.722089
648.155373	-2.998500	3.726400	-11.172000	24.764650	0.000540	20.758828
649.155608	-2.975500	3.726500	-11.087000	24.836272	0.000543	20.738244
650.153941	-3.006200	3.726300	-11.201000	24.839723	0.000541	20.755933
651.157559	-3.015000	3.725800	-11.233000	24.873615	0.000539	20.746326
652.155901	-3.006200	3.724500	-11.196000	24.843925	0.000540	20.738339
653.161357	-2.999300	3.725800	-11.174000	24.843704	0.000540	20.762299
654.156521	-3.002600	3.725100	-11.184000	24.833310	0.000540	20.751868
655.154491	-3.012500	3.725300	-11.221000	24.864935	0.000540	20.757529
656.157308	-3.015100	3.724500	-11.229000	24.854418	0.000541	20.742232
657.163920	-3.000000	3.724800	-11.173000	24.892940	0.000541	20.745332
658.157764	-3.007000	3.724700	-11.200000	24.882267	0.000541	20.751690
659.166839	-3.008600	3.724100	-11.203000	24.873886	0.000540	20.750392
660.160159	-2.973700	3.725000	-11.077000	24.891066	0.000539	20.757203
661.160693	-2.986000	3.725000	-11.121000	24.849817	0.000540	20.751839
662.165419	-3.013700	3.722500	-11.218000	24.817468	0.000540	20.735494
663.165433	-3.020500	3.722900	-11.244000	24.784042	0.000540	20.732294
664.164481	-3.012700	3.722200	-11.213000	24.869606	0.000541	20.756527
665.165497	-3.014200	3.722800	-11.221000	24.882160	0.000540	20.759170
666.161518	-3.011500	3.722600	-11.209000	24.879256	0.000538	20.753410
667.167095	-3.009800	3.720700	-11.197000	24.896415	0.000540	20.751666
668.161962	-2.989800	3.720800	-11.123000	24.920825	0.000540	20.763363
669.162397	-2.983600	3.721400	-11.103000	24.914186	0.000540	20.728724
670.167498	-2.991400	3.722600	-11.134000	24.894866	0.000541	20.750585
671.161949	-3.007600	3.720000	-11.188000	24.891584	0.000538	20.755352
672.162870	-2.998600	3.719600	-11.152000	24.883002	0.000537	20.763808
673.163913	-2.981800	3.721400	-11.096000	24.854980	0.000538	20.732365
674.171253	-2.987800	3.719700	-11.113000	24.828470	0.000537	20.773090
675.162120	-2.997200	3.719100	-11.146000	24.833593	0.000538	20.737453
676.166445	-3.000600	3.720800	-11.163000	24.858304	0.000538	20.774108
677.173851	-3.000000	3.720000	-11.159000	24.868106	0.000538	20.764031
678.162871	-2.981200	3.719500	-11.088000	24.870813	0.000538	20.762955
679.167869	-2.996400	3.718800	-11.142000	24.879366	0.000539	20.765849
680.168828	-2.988800	3.718500	-11.113000	24.885060	0.000537	20.753546
681.163972	-3.004900	3.718000	-11.171000	24.878068	0.000539	20.770711
682.167675	-2.984800	3.719200	-11.100000	24.928843	0.000539	20.780421
683.167453	-2.983200	3.719400	-11.095000	24.921506	0.000538	20.755513
684.166942	-2.993500	3.717900	-11.128000	24.907157	0.000536	20.760551
685.169893	-2.990200	3.718100	-11.116000	24.902059	0.000537	20.766340
686.164744	-3.000500	3.717700	-11.153000	24.905863	0.000538	20.774900
687.169744	-2.998000	3.718300	-11.146000	24.920163	0.000537	20.774079
688.169664	-3.011500	3.717600	-11.195000	24.943258	0.000537	20.778767
689.167883	-3.019100	3.716500	-11.220000	24.929106	0.000539	20.757925
690.169094	-3.004000	3.717700	-11.167000	24.934676	0.000539	20.774896
691.166313	-2.997700	3.716000	-11.138000	24.940863	0.000537	20.758819
692.167388	-2.981200	3.717000	-11.080000	24.959159	0.000539	20.765330
693.166860	-2.982400	3.716200	-11.082000	24.989569	0.000537	20.794905
694.169029	-2.972800	3.717500	-11.050000	24.967042	0.000537	20.768975
695.167191	-3.002500	3.714400	-11.152000	24.996079	0.000537	20.777258
696.172228	-3.014900	3.713800	-11.195000	24.972731	0.000537	20.787962
697.169475	-2.994000	3.715100	-11.122000	24.926539	0.000537	20.791858
698.175339	-3.009000	3.713400	-11.173000	24.915866	0.000534	20.792526
699.178082	-3.004800	3.714900	-11.162000	24.891202	0.000536	20.791479
700.172853	-2.997200	3.714800	-11.133000	24.902688	0.000537	20.769816
701.173715	-2.967900	3.715300	-11.025000	24.934487	0.000537	20.785138
702.175669	-2.979800	3.714200	-11.066000	24.947218	0.000536	20.777052
703.170885	-3.019100	3.712400	-11.207000	24.941771	0.000536	20.787232
704.171156	-3.002200	3.713500	-11.148000	24.921930	0.000535	20.793870
705.175595	-2.992700	3.712300	-11.108000	24.876154	0.000531	20.768789
706.174185	-2.993400	3.711900	-11.110000	24.920862	0.000534	20.790902
707.181103	-3.023700	3.711600	-11.222000	24.896370	0.000537	20.806623
708.172017	-3.004800	3.713700	-11.158000	24.937096	0.000534	20.782540
709.173033	-2.983800	3.712500	-11.076000	24.964890	0.000534	20.778668
710.175984	-2.996300	3.712700	-11.124000	24.971552	0.000534	20.794839
711.177397	-3.030800	3.711000	-11.246000	25.012276	0.000532	20.814378
712.174291	-2.985400	3.710600	-11.076000	24.996638	0.000533	20.797734
713.173713	-2.992800	3.711000	-11.105000	25.032986	0.000534	20.786803
714.176600	-2.992200	3.711000	-11.103000	25.048151	0.000534	20.791120
715.179638	-2.975300	3.710200	-11.039000	25.057274	0.000534	20.782734
716.179013	-3.003000	3.709500	-11.139000	25.019111	0.000533	20.805118
717.176801	-2.982600	3.709300	-11.062000	25.049042	0.000535	20.781584
718.179472	-3.020000	3.709200	-11.201000	25.041710	0.000533	20.803147
719.177357	-2.986800	3.708500	-11.076000	25.024677	0.000533	20.813076
720.179642	-2.993600	3.708200	-11.101000	25.055700	0.000533	20.806285
721.179725	-3.042700	3.707500	-11.279000	25.060748	0.000534	20.791438
722.180858	-3.020700	3.707800	-11.200000	25.059553	0.000532	20.815368
723.188695	-2.976100	3.709400	-11.038000	25.028226	0.000530	20.805258
724.181434	-2.995900	3.708700	-11.109000	24.999136	0.000531	20.792654
725.177378	-2.992400	3.708500	-11.096000	25.013972	0.000530	20.804228
726.187412	-3.008500	3.706200	-11.149000	25.008255	0.000531	20.812239
727.180804	-3.004900	3.708000	-11.141000	24.980507	0.000531	20.791026
728.181117	-3.008100	3.708100	-11.153000	24.986694	0.000531	20.817149
729.182051	-3.013000	3.705400	-11.163000	25.002303	0.000531	20.795359
730.187093	-3.012100	3.705800	-11.161000	25.032461	0.000528	20.799552
731.186363	-2.998400	3.706200	-11.112000	25.060449	0.000531	20.793508
732.180421	-3.014700	3.705400	-11.170000	25.072558	0.000530	20.810404
733.183476	-3.017000	3.705900	-11.180000	25.052538	0.000530	20.808801
734.186956	-3.000700	3.706300	-11.119000	25.079442	0.000531	20.801193
735.184376	-3.009800	3.705200	-11.151000	25.126441	0.000531	20.822769
736.181345	-2.992300	3.706400	-11.090000	25.098972	0.000530	20.823643
737.182933	-2.991000	3.705600	-11.083000	25.085866	0.000529	20.841306
738.187005	-2.993700	3.704700	-11.090000	25.102944	0.000529	20.795388
739.183238	-2.994200	3.705200	-11.093000	25.116136	0.000531	20.812899
740.184388	-3.020600	3.703000	-11.184000	25.101268	0.000529	20.834483
741.183778	-3.006600	3.704400	-11.137000	25.091201	0.000527	20.808257
742.186715	-3.008500	3.703900	-11.142000	25.066389	0.000526	20.813695
743.183033	-2.998800	3.702900	-11.103000	25.036306	0.000527	20.844188
744.190752	-2.994000	3.703500	-11.088000	25.028469	0.000528	20.817831
745.184561	-3.000500	3.703600	-11.111000	25.024933	0.000527	20.828979
746.186518	-3.017400	3.701800	-11.168000	24.991365	0.000527	20.828476
747.187790	-3.015000	3.703200	-11.164000	24.981967	0.000528	20.833741
748.186883	-3.002200	3.701900	-11.113000	25.014109	0.000529	20.830917
749.190063	-3.005000	3.701300	-11.122000	25.037703	0.000527	20.819039
750.185523	-2.999100	3.701500	-11.099000	25.039511	0.000527	20.851198
751.193562	-3.008300	3.701800	-11.135000	25.040747	0.000528	20.833948
752.183538	-3.003900	3.702900	-11.123000	25.026030	0.000527	20.840986
753.184174	-2.994700	3.702500	-11.087000	25.027020	0.000529	20.823014
754.183365	-2.995300	3.700600	-11.083000	25.046502	0.000528	20.823130
755.185018	-2.986600	3.702300	-11.055000	25.061145	0.000527	20.844940
756.181378	-2.987300	3.701100	-11.055000	25.104145	0.000526	20.846380
757.183571	-2.994300	3.700000	-11.078000	25.096337	0.000527	20.838068
758.189286	-2.987500	3.700000	-11.053000	25.080496	0.000526	20.823114
759.183037	-3.025300	3.700200	-11.193000	25.065603	0.000527	20.842303
760.189374	-3.008400	3.701300	-11.134000	25.073078	0.000526	20.838901
761.185156	-3.023900	3.700000	-11.187000	25.089853	0.000527	20.853843
762.186233	-3.001600	3.700600	-11.106000	25.139994	0.000526	20.870038
763.184914	-2.995700	3.699500	-11.081000	25.152862	0.000528	20.839809
764.184802	-2.998200	3.699200	-11.090000	25.177439	0.000527	20.854050
765.189898	-2.997100	3.698200	-11.083000	25.144747	0.000526	20.836404
766.188580	-3.004800	3.698300	-11.112000	25.110038	0.000525	20.872208
767.189711	-3.022600	3.697100	-11.173000	25.091366	0.000526	20.858207
768.184330	-2.993100	3.698700	-11.069000	25.091514	0.000525	20.855036
769.192174	-2.990300	3.698500	-11.058000	25.129346	0.000525	20.873573
770.187976	-3.006300	3.696700	-11.112000	25.094061	0.000524	20.859964
771.196033	-2.989600	3.698000	-11.055000	25.110047	0.000525	20.864631
772.192985	-2.996500	3.696800	-11.077000	25.089556	0.000524	20.857338
773.191712	-3.011000	3.695100	-11.125000	25.127741	0.000525	20.863427
774.189218	-3.005500	3.696300	-11.108000	25.148716	0.000525	20.871208
775.194636	-3.027200	3.696100	-11.187000	25.152117	0.000524	20.857553
776.196245	-3.018500	3.695200	-11.152000	25.147440	0.000523	20.874193
777.196616	-3.005500	3.695800	-11.107000	25.139456	0.000525	20.868075
778.192829	-3.009500	3.695400	-11.120000	25.203238	0.000524	20.862407
779.197593	-2.984800	3.696100	-11.031000	25.157741	0.000525	20.865095
780.196400	-3.002600	3.694900	-11.093000	25.139617	0.000524	20.877719
781.196574	-3.006000	3.695300	-11.107000	25.108440	0.000522	20.867759
782.196258	-2.985700	3.695400	-11.032000	25.111919	0.000520	20.894483
783.195912	-3.012000	3.693900	-11.126000	25.127473	0.000520	20.873589
784.195202	-2.973200	3.694700	-10.984000	25.173086	0.000522	20.881448
785.193665	-2.983700	3.693300	-11.018000	25.169703	0.000522	20.872835
786.195094	-2.978600	3.694700	-11.004000	25.118763	0.000520	20.877173
787.198737	-3.011300	3.693000	-11.119000	25.105407	0.000523	20.881783
788.197057	-2.978400	3.693100	-10.998000	25.158754	0.000521	20.856629
789.196753	-2.981800	3.693000	-11.011000	25.166156	0.000522	20.867852
790.195544	-2.991700	3.693300	-11.048000	25.184572	0.000520	20.877805
791.197725	-3.002200	3.691900	-11.082000	25.142627	0.000521	20.878845
792.202277	-3.020500	3.691600	-11.149000	25.155528	0.000520	20.893691
793.197023	-3.006700	3.691800	-11.100000	25.212598	0.000519	20.883657
794.196981	-3.020000	3.691300	-11.147000	25.234792	0.000520	20.895032
795.197474	-3.001700	3.692300	-11.083000	25.214755	0.000520	20.868753
796.195744	-3.001900	3.690700	-11.078000	25.258422	0.000518	20.908324
797.200425	-2.996800	3.691800	-11.063000	25.242337	0.000520	20.895020
798.203989	-3.013000	3.691500	-11.121000	25.225430	0.000518	20.883737
799.199852	-2.990500	3.690900	-11.036000	25.231143	0.000519	20.906066
800.199360	-2.984800	3.691200	-11.016000	25.211878	0.000519	20.876296
801.204333	-3.003700	3.690100	-11.083000	25.231883	0.000516	20.898275
802.198729	-2.996600	3.689900	-11.056000	25.253378	0.000519	20.881450
803.198497	-2.971900	3.690000	-10.965000	25.247904	0.000517	20.884015
804.197769	-3.015200	3.689000	-11.122000	25.283324	0.000517	20.893024
805.196301	-2.995800	3.689500	-11.053000	25.322541	0.000518	20.924810
806.199531	-2.998100	3.688200	-11.056000	25.315479	0.000516	20.909185
807.199704	-2.997800	3.689800	-11.059000	25.317434	0.000517	20.888391
808.200935	-2.979000	3.689300	-10.989000	25.276620	0.000514	20.896724
809.199495	-2.998400	3.687800	-11.055000	25.254793	0.000514	20.893302
810.198464	-2.988100	3.687700	-11.018000	25.254437	0.000516	20.900056
811.196249	-3.009600	3.687000	-11.096000	25.294128	0.000513	20.908137
812.196778	-2.992600	3.688200	-11.037000	25.329144	0.000517	20.902993
813.197803	-3.008800	3.686000	-11.090000	25.339579	0.000514	20.896401
814.199413	-3.008400	3.686400	-11.088000	25.298343	0.000513	20.933703
815.199009	-3.025700	3.686200	-11.152000	25.300376	0.000513	20.902083
816.204386	-2.981000	3.686500	-10.988000	25.233040	0.000514	20.923142
817.200980	-2.984900	3.686400	-11.003000	25.235841	0.000514	20.915524
818.202848	-3.012400	3.685900	-11.103000	25.225751	0.000513	20.926255
819.204956	-2.992900	3.685700	-11.029000	25.208745	0.000513	20.952327
820.202367	-3.018800	3.685500	-11.125000	25.232948	0.000511	20.927316
821.204233	-2.995800	3.684500	-11.036000	25.235059	0.000512	20.913790
822.202746	-3.002500	3.684700	-11.063000	25.244998	0.000513	20.934672
823.211479	-3.008100	3.685200	-11.084000	25.258936	0.000511	20.941553
824.208160	-2.989400	3.684900	-11.015000	25.260825	0.000511	20.906944
825.205778	-2.987800	3.685500	-11.011000	25.233980	0.000511	20.928353
826.205727	-2.983400	3.686100	-10.996000	25.279578	0.000511	20.921977
827.206801	-3.010600	3.683500	-11.088000	25.319145	0.000512	20.904806
828.202415	-3.012900	3.683500	-11.096000	25.293118	0.000510	20.934622
829.204762	-3.004800	3.683800	-11.068000	25.300421	0.000511	20.908765
830.206442	-3.003300	3.683800	-11.062000	25.302408	0.000510	20.935888
831.206156	-2.984200	3.683400	-10.992000	25.281626	0.000509	20.933040
832.211979	-3.024300	3.682700	-11.137000	25.290567	0.000510	20.938697
833.209407	-2.986500	3.682300	-10.996000	25.270876	0.000508	20.950695
834.202218	-2.989600	3.683000	-11.010000	25.291205	0.000509	20.946449
835.207370	-2.993600	3.682000	-11.022000	25.316822	0.000509	20.921439
836.204957	-2.992200	3.680400	-11.011000	25.348310	0.000510	20.929820
837.205977	-2.991600	3.682400	-11.015000	25.387899	0.000508	20.946810
838.212051	-3.004400	3.680800	-11.058000	25.366248	0.000508	20.959681
839.209942	-2.985200	3.682900	-10.993000	25.365793	0.000507	20.930779
840.205792	-3.014800	3.681600	-11.098000	25.401977	0.000510	20.946722
841.209880	-3.009700	3.680400	-11.077000	25.356666	0.000506	20.956699
842.206445	-3.013400	3.681500	-11.092000	25.338295	0.000507	20.937781
843.204578	-3.018500	3.681600	-11.112000	25.309855	0.000508	20.926771
844.213303	-3.010700	3.679700	-11.078000	25.328195	0.000506	20.943760
845.210124	-3.004400	3.680300	-11.056000	25.304900	0.000507	20.932227
846.210916	-2.995800	3.679500	-11.023000	25.312502	0.000507	20.923265
847.211002	-3.010100	3.679100	-11.073000	25.286623	0.000508	20.920516
848.210608	-3.009100	3.678100	-11.066000	25.340382	0.000505	20.931342
849.214309	-3.010300	3.678900	-11.073000	25.319748	0.000504	20.932436
850.211596	-3.004300	3.679200	-11.052000	25.330482	0.000507	20.915241
851.212614	-2.976400	3.678500	-10.947000	25.334282	0.000503	20.907676
852.210508	-3.002700	3.677800	-11.042000	25.341016	0.000505	20.928187
853.215540	-2.996800	3.678000	-11.021000	25.338183	0.000504	20.913489
854.212633	-2.987200	3.677000	-10.983000	25.349115	0.000505	20.931576
855.210818	-2.998600	3.678500	-11.030000	25.348093	0.000504	20.909690
856.214780	-2.991300	3.675900	-10.995000	25.313095	0.000502	20.926704
857.212432	-3.002700	3.675300	-11.034000	25.311826	0.000503	20.937283
858.212792	-3.005900	3.676900	-11.052000	25.336432	0.000503	20.924532
859.216871	-3.006600	3.676800	-11.054000	25.396950	0.000502	20.916073
860.216797	-2.989400	3.676400	-10.989000	25.406739	0.000502	20.917368
861.213850	-2.997900	3.675700	-11.018000	25.368465	0.000502	20.935833
862.220253	-3.006800	3.676200	-11.053000	25.349478	0.000502	20.896857
863.213825	-3.004500	3.675000	-11.041000	25.324668	0.000500	20.914144
864.216729	-2.997800	3.675800	-11.018000	25.343314	0.000501	20.901099
865.224996	-3.023600	3.674500	-11.110000	25.289102	0.000501	20.903565
866.216036	-2.969900	3.675600	-10.915000	25.265616	0.000503	20.903693
867.221108	-2.995600	3.675000	-11.007000	25.255025	0.000500	20.928145
868.218883	-3.005000	3.674000	-11.038000	25.271354	0.000499	20.911349
869.216926	-2.998400	3.674000	-11.015000	25.279583	0.000499	20.909655
870.223701	-2.997500	3.673900	-11.012000	25.283160	0.000500	20.890014
871.221797	-3.005400	3.672700	-11.038000	25.290371	0.000500	20.912899
872.217134	-3.026900	3.672500	-11.115000	25.332897	0.000498	20.913872
873.217197	-3.003200	3.672200	-11.028000	25.339656	0.000501	20.907383
874.221901	-3.002200	3.671700	-11.022000	25.397714	0.000499	20.886972
875.227947	-2.989000	3.672200	-10.975000	25.426367	0.000498	20.895828
876.220375	-3.007200	3.671900	-11.042000	25.474678	0.000499	20.893132
877.221777	-3.009100	3.671600	-11.047000	25.464413	0.000498	20.887566
878.215902	-2.991400	3.671800	-10.983000	25.433820	0.000497	20.905681
879.224509	-2.988000	3.672400	-10.972000	25.373279	0.000497	20.905108
880.225378	-3.004600	3.671700	-11.032000	25.370869	0.000497	20.895576
881.221248	-3.003100	3.670000	-11.021000	25.356752	0.000498	20.888040
882.225080	-2.999300	3.669700	-11.006000	25.364579	0.000496	20.882149
883.219259	-2.996500	3.669900	-10.995000	25.421913	0.000496	20.896097
884.223743	-2.997700	3.670000	-10.999000	25.410827	0.000497	20.896344
885.223793	-3.006500	3.670600	-11.035000	25.407099	0.000494	20.886438
886.226012	-3.006600	3.670400	-11.035000	25.420493	0.000495	20.876655
887.227537	-2.992900	3.669800	-10.982000	25.431925	0.000495	20.890029
888.222878	-3.009100	3.668900	-11.039000	25.452553	0.000494	20.899363
889.225175	-2.984200	3.669800	-10.951000	25.404636	0.000494	20.887757
890.221300	-2.975400	3.670300	-10.919000	25.408984	0.000491	20.876004
891.228189	-2.988300	3.668200	-10.960000	25.406472	0.000492	20.879644
892.222697	-2.967800	3.668600	-10.886000	25.348989	0.000492	20.880720
893.226572	-2.987800	3.668500	-10.960000	25.335590	0.000494	20.888129
894.224864	-2.976100	3.668100	-10.916000	25.330942	0.000492	20.885359
895.224720	-2.999000	3.666500	-10.995000	25.367701	0.000489	20.899508
896.227730	-2.986700	3.667400	-10.953000	25.422280	0.000491	20.892672
897.224027	-3.000500	3.667400	-11.003000	25.408311	0.000492	20.879595
898.228930	-3.014700	3.666200	-11.052000	25.387732	0.000492	20.901602
899.228327	-2.997800	3.667000	-10.992000	25.401602	0.000493	20.892771
900.227390	-2.991700	3.666900	-10.970000	25.449942	0.000491	20.881095
901.224601	-3.006400	3.664800	-11.017000	25.476260	0.000491	20.890928
902.229846	-3.019200	3.664400	-11.063000	25.475337	0.000491	20.878148
903.225502	-3.006400	3.664100	-11.015000	25.441344	0.000492	20.871988
904.234106	-2.997300	3.665300	-10.985000	25.465150	0.000491	20.879772
905.228821	-2.981800	3.664400	-10.925000	25.430064	0.000489	20.872515
906.225515	-3.007300	3.664200	-11.019000	25.444800	0.000487	20.875933
907.257202	-3.019700	3.663500	-11.062000	25.460382	0.000488	20.871666
908.228792	-2.997600	3.663500	-10.980000	25.442242	0.000489	20.863881
909.235360	-3.024100	3.663300	-11.077000	25.434913	0.000487	20.861737
910.228898	-3.048300	3.661200	-11.160000	25.436255	0.000489	20.843646
911.226550	-3.019300	3.662900	-11.058000	25.417417	0.000485	20.859816
912.228074	-3.015800	3.662600	-11.045000	25.427706	0.000486	20.831269
913.229029	-2.999700	3.663100	-10.987000	25.415679	0.000486	20.867080
914.239698	-2.998200	3.662500	-10.980000	25.440388	0.000484	20.858227
915.231190	-3.023400	3.661600	-11.069000	25.426941	0.000486	20.864638
916.230605	-3.024900	3.659800	-11.070000	25.452387	0.000487	20.860792
917.231108	-3.024200	3.660500	-11.069000	25.490812	0.000485	20.859076
918.232470	-2.987300	3.661700	-10.938000	25.507560	0.000485	20.850291
919.230881	-2.989000	3.663000	-10.948000	25.477990	0.000484	20.858528
920.231637	-2.994000	3.660600	-10.959000	25.405625	0.000486	20.857459
921.230509	-3.010100	3.659100	-11.014000	25.444546	0.000482	20.844859
922.232365	-2.996400	3.659600	-10.965000	25.475114	0.000482	20.853744
923.234624	-2.982900	3.660100	-10.916000	25.473078	0.000486	20.858810
924.234532	-3.005200	3.659100	-10.995000	25.477327	0.000484	20.848854
925.239048	-2.992800	3.659600	-10.951000	25.456625	0.000482	20.831385
926.234494	-3.002700	3.658200	-10.983000	25.430162	0.000482	20.843217
927.235069	-2.980800	3.659200	-10.907000	25.412268	0.000481	20.833310
928.231989	-3.004000	3.657500	-10.986000	25.378519	0.000482	20.828820
929.237149	-2.997100	3.657400	-10.961000	25.375869	0.000481	20.853658
930.235460	-3.023600	3.657700	-11.058000	25.411059	0.000481	20.855328
931.239871	-2.999300	3.657700	-10.970000	25.439267	0.000481	20.836239
932.238488	-3.004600	3.657600	-10.989000	25.427462	0.000481	20.850463
933.234057	-2.987200	3.658100	-10.925000	25.432861	0.000481	20.843556
934.236874	-2.998600	3.658300	-10.969000	25.408504	0.000480	20.846599
935.237134	-3.003900	3.656300	-10.983000	25.447921	0.000480	20.858679
936.235827	-3.030500	3.657300	-11.083000	25.478193	0.000480	20.840715
937.237880	-3.011500	3.656300	-11.010000	25.457044	0.000480	20.837495
938.238792	-3.012700	3.656200	-11.013000	25.440349	0.000479	20.834480
939.240610	-3.000800	3.655500	-10.968000	25.414279	0.000481	20.859985
940.238302	-3.009700	3.654800	-11.000000	25.445518	0.000478	20.829714
941.238912	-3.008500	3.654200	-10.993000	25.434460	0.000480	20.850378
942.240721	-2.994900	3.656200	-10.949000	25.486949	0.000479	20.814895
943.237942	-3.001000	3.653800	-10.963000	25.477009	0.000478	20.840000
944.241726	-2.994800	3.654500	-10.943000	25.443238	0.000481	20.835485
945.241312	-3.002100	3.652600	-10.965000	25.442741	0.000477	20.839728
946.242267	-3.001400	3.654800	-10.968000	25.439785	0.000478	20.844819
947.241137	-2.988500	3.652800	-10.915000	25.470723	0.000478	20.843645
948.236961	-2.991700	3.653500	-10.930000	25.463246	0.000478	20.840878
949.241740	-2.995700	3.653900	-10.945000	25.484293	0.000479	20.852055
950.238650	-3.004400	3.653000	-10.975000	25.500917	0.000479	20.830818
951.237957	-3.009200	3.652000	-10.989000	25.560260	0.000478	20.833514
952.240539	-2.987400	3.652900	-10.912000	25.547286	0.000478	20.837555
953.238554	-2.988900	3.651600	-10.912000	25.487820	0.000476	20.822882
954.242982	-2.988000	3.651700	-10.910000	25.433763	0.000477	20.841617
955.242436	-2.980200	3.651400	-10.881000	25.423896	0.000478	20.812270
956.241806	-3.005400	3.651900	-10.975000	25.456900	0.000476	20.846359
957.244621	-2.990500	3.649600	-10.913000	25.405005	0.000477	20.838344
958.244441	-2.991200	3.652100	-10.923000	25.416461	0.000475	20.849847
959.244948	-3.001000	3.651200	-10.956000	25.443372	0.000476	20.848422
960.246242	-2.977500	3.651100	-10.869000	25.497024	0.000474	20.830228
961.242981	-3.009100	3.650200	-10.983000	25.530494	0.000473	20.829226
962.247938	-3.010000	3.648500	-10.981000	25.502464	0.000475	20.839010
963.246006	-3.009900	3.648900	-10.982000	25.469205	0.000473	20.842594
964.245950	-3.007300	3.647700	-10.970000	25.468412	0.000473	20.822358
965.245313	-3.013400	3.649200	-10.995000	25.445568	0.000475	20.822178
966.245621	-2.997500	3.648600	-10.936000	25.453595	0.000472	20.852523
967.247741	-2.963400	3.648400	-10.810000	25.473374	0.000473	20.827341
968.245355	-2.991500	3.648100	-10.913000	25.462066	0.000470	20.820253
969.247081	-2.997900	3.647300	-10.933000	25.468176	0.000469	20.845829
970.246382	-2.977600	3.647600	-10.860000	25.448715	0.000472	20.817752
971.249334	-2.985000	3.648900	-10.891000	25.480523	0.000468	20.823615
972.249084	-3.008600	3.647900	-10.974000	25.520876	0.000469	20.829050
973.250278	-2.989700	3.646000	-10.899000	25.539712	0.000469	20.823311
974.249948	-2.987000	3.647400	-10.893000	25.559789	0.000469	20.838731
975.252294	-2.993600	3.646400	-10.915000	25.534216	0.000470	20.807834
976.257804	-3.004500	3.644700	-10.950000	25.516225	0.000470	20.818690
977.252170	-3.007900	3.647300	-10.970000	25.517986	0.000469	20.834209
978.254478	-2.988000	3.645100	-10.891000	25.508272	0.000468	20.835833
979.257330	-3.012900	3.645300	-10.982000	25.532894	0.000466	20.841120
980.256021	-2.985300	3.644900	-10.880000	25.561322	0.000469	20.826046
981.252372	-2.994000	3.644100	-10.910000	25.608929	0.000466	20.809374
982.249638	-2.985800	3.643800	-10.879000	25.591260	0.000468	20.825293
983.250978	-2.986200	3.643800	-10.880000	25.572177	0.000467	20.804232
984.256826	-2.980900	3.643900	-10.861000	25.557590	0.000467	20.800014
985.252870	-2.996900	3.642100	-10.913000	25.502843	0.000466	20.822321
986.252033	-2.976500	3.643700	-10.845000	25.537680	0.000467	20.829804
987.255272	-2.992600	3.644000	-10.904000	25.559299	0.000467	20.811214
988.255730	-3.020700	3.641100	-10.998000	25.513798	0.000465	20.804873
989.256511	-2.998900	3.642500	-10.923000	25.501645	0.000463	20.827756
990.260119	-3.021600	3.641000	-11.000000	25.455397	0.000464	20.819720
991.255802	-3.018300	3.641900	-10.991000	25.501095	0.000463	20.827678
992.258096	-3.006100	3.641500	-10.946000	25.523879	0.000462	20.822109
993.258456	-3.019600	3.639800	-10.990000	25.530443	0.000462	20.809261
994.258903	-2.997600	3.640700	-10.913000	25.471719	0.000460	20.822360
995.259447	-2.984100	3.641100	-10.865000	25.489115	0.000461	20.823708
996.263186	-3.003800	3.639000	-10.930000	25.528850	0.000461	20.819041
997.262863	-3.007200	3.639000	-10.941000	25.523234	0.000459	20.803918
998.261972	-2.998500	3.639100	-10.911000	25.536556	0.000460	20.801650
999.260249	-2.983000	3.640500	-10.859000	25.581007	0.000461	20.795557
1000.263054	-2.984100	3.638600	-10.857000	25.566992	0.000458	20.812301
1001.263631	-3.023100	3.638200	-10.998000	25.537000	0.000457	20.807785
1002.262711	-2.996900	3.637700	-10.901000	25.535411	0.000457	20.814250
1003.261364	-3.009000	3.639000	-10.949000	25.512473	0.000457	20.826776
1004.269978	-2.991700	3.637900	-10.882000	25.539438	0.000460	20.801699
1005.269314	-3.011100	3.636700	-10.950000	25.535982	0.000457	20.796331
1006.265307	-3.025400	3.635700	-10.998000	25.483002	0.000457	20.809983
1007.265139	-3.019600	3.637700	-10.983000	25.456088	0.000456	20.804767
1008.262006	-2.988300	3.637400	-10.869000	25.469460	0.000457	20.817721
1009.262498	-3.016600	3.635500	-10.966000	25.446197	0.000455	20.809533
1010.269176	-2.998300	3.636100	-10.901000	25.461063	0.000455	20.811186
1011.262544	-2.996200	3.635000	-10.890000	25.476271	0.000457	20.832621
1012.265713	-2.980900	3.635600	-10.837000	25.499383	0.000456	20.797035
1013.271850	-2.992500	3.634300	-10.875000	25.498815	0.000457	20.797414
1014.262111	-3.020400	3.635400	-10.979000	25.530644	0.000455	20.813256
1015.269670	-3.023300	3.635100	-10.989000	25.550103	0.000456	20.802927
1016.265870	-3.025700	3.632800	-10.990000	25.534946	0.000455	20.800507
1017.262585	-2.979400	3.634100	-10.826000	25.533110	0.000455	20.802930
1018.265922	-3.006600	3.633000	-10.921000	25.567128	0.000455	20.809119
1019.265902	-3.011800	3.631700	-10.936000	25.568122	0.000451	20.825764
1020.262805	-3.003600	3.633600	-10.912000	25.543750	0.000453	20.806504
1021.265422	-2.989500	3.632900	-10.859000	25.487906	0.000451	20.798787
1022.263709	-3.003600	3.632300	-10.909000	25.482043	0.000452	20.808546
1023.263132	-3.006100	3.631700	-10.917000	25.545435	0.000450	20.804876
1024.267900	-2.996300	3.631000	-10.878000	25.601541	0.000455	20.803850
1025.266122	-3.004400	3.631700	-10.910000	25.573463	0.000453	20.794618
1026.268850	-3.013400	3.631400	-10.941000	25.574232	0.000451	20.811511
1027.265470	-2.968900	3.631800	-10.781000	25.535795	0.000451	20.790928
1028.267210	-3.001100	3.631200	-10.896000	25.535841	0.000451	20.795241
1029.268651	-2.990400	3.630700	-10.855000	25.557112	0.000450	20.786731
1030.266407	-3.001500	3.629100	-10.891000	25.566875	0.000450	20.787528
1031.272002	-2.977500	3.630900	-10.810000	25.585883	0.000450	20.785281
1032.269674	-3.014500	3.628600	-10.938000	25.590675	0.000451	20.802421
1033.271441	-3.011100	3.629900	-10.929000	25.594399	0.000450	20.794308
1034.268121	-3.025500	3.628600	-10.977000	25.596535	0.000450	20.798349
1035.268098	-3.005000	3.629200	-10.905000	25.590076	0.000451	20.768154
1036.270039	-3.012100	3.629000	-10.930000	25.575039	0.000448	20.803787
1037.272602	-2.999200	3.628800	-10.883000	25.574986	0.000446	20.783346
1038.271435	-3.010300	3.628900	-10.922000	25.547124	0.000449	20.786184
1039.267926	-2.996600	3.629000	-10.873000	25.564321	0.000449	20.785437
1040.270164	-3.012600	3.627900	-10.928000	25.603254	0.000446	20.788976
1041.267895	-2.997200	3.628300	-10.873000	25.609512	0.000447	20.790045
1042.274865	-2.986400	3.627500	-10.832000	25.633836	0.000445	20.781284
1043.271173	-3.006600	3.624700	-10.897000	25.674168	0.000446	20.786230
1044.270163	-2.994800	3.627600	-10.863000	25.701070	0.000445	20.753032
1045.281948	-3.002300	3.625200	-10.882000	25.648591	0.000445	20.782352
1046.272060	-2.999700	3.625100	-10.874000	25.617157	0.000445	20.783499
1047.272318	-2.990800	3.624700	-10.840000	25.611690	0.000443	20.781326
1048.274875	-2.965000	3.625900	-10.749000	25.598992	0.000444	20.784695
1049.272110	-2.998300	3.623800	-10.864000	25.639540	0.000444	20.775633
1050.273864	-2.998200	3.623500	-10.863000	25.613177	0.000443	20.780923
1051.274514	-2.993300	3.624500	-10.848000	25.610369	0.000444	20.781422
1052.269147	-3.015200	3.624300	-10.927000	25.663540	0.000443	20.776978
1053.277502	-2.995700	3.623500	-10.854000	25.684259	0.000443	20.791624
1054.271705	-3.023200	3.621700	-10.948000	25.667190	0.000441	20.775428
1055.270098	-3.028500	3.622300	-10.970000	25.656156	0.000440	20.781416
1056.272256	-2.993900	3.622700	-10.845000	25.655085	0.000441	20.779866
1057.271161	-3.020200	3.620900	-10.935000	25.643709	0.000441	20.785035
1058.275456	-3.008000	3.623200	-10.898000	25.668927	0.000441	20.774802
1059.272716	-3.012600	3.621100	-10.908000	25.708479	0.000440	20.786079
1060.273599	-2.995300	3.621200	-10.846000	25.718770	0.000438	20.784561
1061.275856	-2.980400	3.620300	-10.788000	25.725202	0.000439	20.796238
1062.281728	-3.005700	3.620100	-10.879000	25.757351	0.000439	20.786331
1063.277176	-2.997100	3.620900	-10.851000	25.774993	0.000437	20.786033
1064.277235	-2.978500	3.620600	-10.784000	25.740562	0.000437	20.782268
1065.276381	-2.999800	3.620100	-10.859000	25.722151	0.000439	20.761879
1066.274689	-2.970900	3.621100	-10.757000	25.706721	0.000438	20.772459
1067.283282	-2.980600	3.619400	-10.786000	25.707271	0.000437	20.782969
1068.274160	-2.980100	3.619300	-10.785000	25.690427	0.000437	20.777905
1069.282144	-2.985000	3.618400	-10.799000	25.661158	0.000437	20.785966
1070.278386	-3.000400	3.617800	-10.854000	25.635665	0.000436	20.788336
1071.279250	-2.964700	3.620000	-10.731000	25.628266	0.000435	20.777112
1072.278902	-2.974900	3.618800	-10.765000	25.589926	0.000436	20.784599
1073.278859	-2.992800	3.616400	-10.822000	25.582471	0.000435	20.759094
1074.279959	-2.988200	3.617200	-10.808000	25.557899	0.000435	20.766185
1075.287578	-3.001000	3.615900	-10.850000	25.608543	0.000435	20.776269
1076.280931	-2.989100	3.615100	-10.805000	25.619926	0.000432	20.773003
1077.279008	-3.001800	3.615200	-10.850000	25.596919	0.000433	20.775975
1078.286205	-2.992600	3.616800	-10.822000	25.606615	0.000433	20.770540
1079.280715	-3.002400	3.616600	-10.857000	25.643193	0.000432	20.766973
1080.284502	-2.987700	3.616600	-10.805000	25.686325	0.000432	20.763353
1081.280015	-2.993900	3.615900	-10.825000	25.701238	0.000433	20.761262
1082.279111	-2.993800	3.614300	-10.820000	25.729389	0.000431	20.765356
1083.279408	-2.991100	3.614300	-10.810000	25.757790	0.000431	20.768278
1084.279736	-2.992600	3.614100	-10.814000	25.759184	0.000431	20.781059
1085.282000	-2.973900	3.614700	-10.749000	25.728529	0.000429	20.776346
1086.278792	-2.983900	3.614900	-10.786000	25.697746	0.000432	20.749693
1087.280182	-2.982900	3.613000	-10.776000	25.672581	0.000428	20.756187
1088.281182	-2.999300	3.612100	-10.832000	25.671591	0.000428	20.765624
1089.282389	-3.004300	3.612500	-10.852000	25.691718	0.000427	20.767347
1090.283644	-2.972800	3.613400	-10.741000	25.631244	0.000429	20.764456
1091.285580	-2.998200	3.611200	-10.826000	25.625558	0.000428	20.770124
1092.279604	-3.005600	3.611800	-10.855000	25.638428	0.000428	20.775464
1093.285229	-2.998500	3.610200	-10.824000	25.636099	0.000429	20.761745
1094.286531	-2.987000	3.611600	-10.787000	25.632791	0.000428	20.766957
1095.287766	-2.985600	3.611700	-10.782000	25.643582	0.000428	20.762148
1096.287262	-2.996000	3.610200	-10.815000	25.621270	0.000426	20.767714
1097.281661	-2.969400	3.611700	-10.723000	25.635310	0.000427	20.777074
1098.285392	-3.001500	3.608500	-10.830000	25.669156	0.000425	20.775506
1099.282061	-2.971700	3.610100	-10.727000	25.679098	0.000424	20.768422
1100.286401	-2.976400	3.608800	-10.741000	25.663966	0.000424	20.750853
1101.287829	-2.968600	3.609400	-10.714000	25.637356	0.000423	20.768698
1102.287912	-2.973900	3.608900	-10.732000	25.669462	0.000423	20.749260
1103.286440	-2.973400	3.610700	-10.735000	25.675923	0.000424	20.762388
1104.286008	-3.010700	3.607700	-10.861000	25.720622	0.000424	20.787370
1105.289893	-3.021200	3.608900	-10.902000	25.666062	0.000423	20.764338
1106.286180	-2.989900	3.608100	-10.787000	25.659336	0.000421	20.773230
1107.291267	-3.001400	3.605600	-10.821000	25.642345	0.000421	20.772285
1108.292538	-2.983500	3.607900	-10.764000	25.587633	0.000422	20.784192
1109.289249	-3.007600	3.607100	-10.848000	25.618743	0.000423	20.770467
1110.288468	-2.985700	3.605900	-10.766000	25.637454	0.000421	20.790608
1111.285045	-2.985000	3.607000	-10.765000	25.664765	0.000423	20.788166
1112.293480	-3.000100	3.606200	-10.818000	25.676765	0.000422	20.781252
1113.288962	-2.996300	3.605300	-10.802000	25.634724	0.000421	20.771744
1114.287744	-2.998200	3.604800	-10.807000	25.661513	0.000421	20.778262
1115.288177	-3.021300	3.602900	-10.884000	25.683331	0.000418	20.764614
1116.288470	-2.975900	3.604800	-10.727000	25.658808	0.000418	20.788821
1117.284549	-3.015500	3.603700	-10.866000	25.618158	0.000420	20.777391
1118.289025	-3.021400	3.603300	-10.886000	25.566626	0.000417	20.779691
1119.283870	-3.003100	3.603400	-10.820000	25.580269	0.000418	20.778219
1120.284971	-3.004800	3.604300	-10.829000	25.570879	0.000416	20.780169
1121.286360	-2.991800	3.602500	-10.777000	25.618066	0.000418	20.765445
1122.287399	-3.002100	3.602900	-10.815000	25.653674	0.000419	20.766121
1123.285212	-2.982300	3.602300	-10.742000	25.632881	0.000415	20.775583
1124.287376	-3.002700	3.602500	-10.816000	25.623636	0.000414	20.781471
1125.287857	-3.011200	3.601100	-10.843000	25.670726	0.000416	20.773290
1126.287437	-2.997400	3.601400	-10.794000	25.709436	0.000417	20.783247
1127.289802	-3.002700	3.600300	-10.810000	25.735527	0.000413	20.777211
1128.286842	-2.994200	3.600800	-10.780000	25.718832	0.000414	20.766131
1129.291677	-3.007200	3.600900	-10.828000	25.718564	0.000415	20.773449
1130.290611	-3.004400	3.601400	-10.819000	25.733670	0.000413	20.783881
1131.292012	-3.015400	3.600200	-10.856000	25.717870	0.000414	20.781287
1132.290826	-3.015600	3.599900	-10.855000	25.735262	0.000413	20.776471
1133.291409	-2.994400	3.598200	-10.774000	25.719734	0.000413	20.808763
1134.292691	-3.018200	3.597800	-10.858000	25.766544	0.000414	20.784185
1135.292910	-3.014500	3.598000	-10.845000	25.784806	0.000413	20.783088
1136.299151	-2.999600	3.597100	-10.789000	25.779117	0.000411	20.794443
1137.289327	-2.998500	3.598000	-10.787000	25.710197	0.000412	20.778322
1138.293976	-3.014300	3.596500	-10.840000	25.726124	0.000412	20.780569
1139.290946	-2.996300	3.596200	-10.774000	25.742819	0.000413	20.782639
1140.291420	-3.000200	3.597100	-10.791000	25.748159	0.000415	20.767140
1141.289732	-2.988100	3.595700	-10.744000	25.759217	0.000411	20.786782
1142.295062	-3.008800	3.596000	-10.818000	25.759013	0.000411	20.792741
1143.295441	-2.999100	3.597100	-10.786000	25.695834	0.000412	20.785706
1144.298212	-2.993200	3.595600	-10.762000	25.738045	0.000409	20.781163
1145.294744	-3.003800	3.594900	-10.798000	25.715362	0.000411	20.802001
1146.294938	-2.999400	3.595600	-10.784000	25.739211	0.000410	20.793240
1147.299852	-2.991400	3.594000	-10.750000	25.776979	0.000410	20.793718
1148.292907	-2.990400	3.594200	-10.747000	25.800376	0.000410	20.787823
1149.297683	-2.993900	3.594400	-10.760000	25.764949	0.000409	20.782582
1150.295749	-2.997500	3.592900	-10.769000	25.728375	0.000406	20.790890
1151.295292	-2.978100	3.594000	-10.702000	25.708175	0.000409	20.793360
1152.296752	-3.016600	3.592900	-10.838000	25.665889	0.000407	20.787398
1153.299708	-2.981800	3.593800	-10.715000	25.675228	0.000406	20.810055
1154.295652	-3.000000	3.592400	-10.777000	25.690335	0.000405	20.793459
1155.298298	-3.002400	3.592100	-10.784000	25.703032	0.000406	20.797203
1156.299796	-3.004700	3.591200	-10.791000	25.737418	0.000406	20.808508
1157.297089	-2.992900	3.591200	-10.747000	25.764991	0.000407	20.804910
1158.298256	-2.988600	3.591100	-10.731000	25.796970	0.000407	20.792936
1159.298077	-2.970900	3.592400	-10.672000	25.788892	0.000405	20.791460
1160.302264	-2.994400	3.590900	-10.752000	25.797836	0.000407	20.795703
1161.297373	-2.997200	3.590100	-10.759000	25.767527	0.000403	20.790388
1162.298329	-2.981200	3.590800	-10.704000	25.738236	0.000404	20.803639
1163.300508	-2.987300	3.589900	-10.723000	25.774481	0.000405	20.822029
1164.306604	-2.983200	3.589700	-10.708000	25.758809	0.000404	20.819562
1165.311769	-3.001400	3.590200	-10.774000	25.783006	0.000404	20.808781
1166.302922	-2.993200	3.588800	-10.741000	25.787455	0.000404	20.807560
1167.301057	-2.970700	3.589300	-10.662000	25.787501	0.000404	20.807132
1168.306077	-2.986400	3.590100	-10.720000	25.796892	0.000405	20.813720
1169.303300	-3.008500	3.587100	-10.790000	25.779751	0.000401	20.809304
1170.305026	-3.005200	3.586900	-10.778000	25.685737	0.000402	20.812549
1171.304398	-2.999800	3.588000	-10.762000	25.678582	0.000402	20.803940
1172.306031	-3.012500	3.586000	-10.802000	25.706731	0.000402	20.818462
1173.306892	-2.990200	3.586300	-10.723000	25.750238	0.000401	20.801945
1174.311267	-3.017900	3.586200	-10.822000	25.754384	0.000401	20.808954
1175.306651	-3.005300	3.586200	-10.776000	25.803747	0.000400	20.813494
1176.309210	-2.983200	3.585200	-10.695000	25.831970	0.000400	20.815292
1177.309484	-3.001100	3.585100	-10.758000	25.828444	0.000400	20.816017
1178.308127	-3.003200	3.584900	-10.766000	25.797512	0.000398	20.787317
1179.308370	-2.994200	3.585300	-10.734000	25.795452	0.000398	20.799945
1180.308257	-3.008200	3.584200	-10.782000	25.818852	0.000398	20.795476
1181.309496	-3.006800	3.583600	-10.774000	25.799326	0.000398	20.804312
1182.305901	-2.992700	3.584900	-10.728000	25.792017	0.000399	20.820677
1183.306598	-2.998300	3.583500	-10.744000	25.771173	0.000398	20.834353
1184.309509	-2.995500	3.582600	-10.731000	25.725360	0.000397	20.812043
1185.309744	-2.992400	3.583000	-10.721000	25.750773	0.000396	20.816707
1186.308569	-3.007500	3.582200	-10.773000	25.775369	0.000397	20.818179
1187.316260	-3.001300	3.582000	-10.750000	25.782199	0.000396	20.825040
1188.312046	-2.998700	3.582700	-10.743000	25.831885	0.000396	20.820896
1189.309980	-3.012700	3.580500	-10.786000	25.842812	0.000395	20.821916
1190.314584	-3.001000	3.581400	-10.747000	25.842640	0.000397	20.834544
1191.311028	-3.006100	3.581300	-10.765000	25.821448	0.000396	20.801403
1192.312090	-3.002300	3.580400	-10.748000	25.804579	0.000393	20.819071
1193.312848	-2.994300	3.579700	-10.717000	25.747758	0.000395	20.834066
1194.311089	-2.994900	3.579600	-10.720000	25.718318	0.000395	20.822988
1195.315354	-2.989100	3.579600	-10.698000	25.727530	0.000393	20.829870
1196.321225	-2.994800	3.579200	-10.719000	25.703923	0.000391	20.838401
1197.310104	-2.992900	3.580100	-10.714000	25.678776	0.000393	20.846334
1198.313032	-2.991200	3.579000	-10.704000	25.676835	0.000392	20.832531
1199.317111	-2.996300	3.578000	-10.719000	25.719720	0.000392	20.830086
1200.315453	-3.012500	3.578200	-10.779000	25.763019	0.000392	20.840860
1201.312910	-3.007000	3.577900	-10.758000	25.738102	0.000392	20.822471
1202.316984	-3.006600	3.576600	-10.752000	25.714570	0.000393	20.812111
1203.321585	-2.999100	3.577400	-10.728000	25.737327	0.000392	20.834495
1204.319564	-3.006500	3.577300	-10.754000	25.722986	0.000392	20.841427
1205.319343	-2.997800	3.575800	-10.718000	25.704026	0.000390	20.826650
1206.319627	-3.006400	3.576900	-10.753000	25.728668	0.000391	20.840970
1207.319389	-3.030000	3.574700	-10.831000	25.746705	0.000390	20.839647
1208.326151	-2.976700	3.576300	-10.644000	25.764020	0.000391	20.850400
1209.322092	-2.992900	3.575400	-10.700000	25.773404	0.000390	20.836594
1210.321116	-2.983100	3.575700	-10.666000	25.763985	0.000389	20.844201
1211.332356	-2.982400	3.575200	-10.662000	25.739762	0.000387	20.837415
1212.324223	-2.991100	3.575200	-10.693000	25.768899	0.000387	20.851034
1213.326695	-2.980700	3.573600	-10.651000	25.796147	0.000388	20.857067
1214.322456	-2.971200	3.574000	-10.618000	25.805313	0.000388	20.847782
1215.327253	-2.967300	3.574400	-10.605000	25.758828	0.000385	20.845185
1216.323425	-2.979100	3.574000	-10.646000	25.787795	0.000387	20.854367
1217.326554	-3.004700	3.572200	-10.732000	25.802594	0.000385	20.848844
1218.328789	-2.994600	3.572200	-10.697000	25.758022	0.000387	20.847694
1219.325635	-3.000800	3.572900	-10.720000	25.752727	0.000384	20.854230
1220.327164	-2.996300	3.571000	-10.699000	25.769295	0.000385	20.863758
1221.324681	-3.004500	3.571300	-10.729000	25.788099	0.000385	20.857043
1222.329365	-2.984800	3.572100	-10.661000	25.791100	0.000385	20.870963
1223.325009	-2.969100	3.571800	-10.605000	25.805758	0.000386	20.869091
1224.329720	-2.987900	3.570700	-10.668000	25.840159	0.000384	20.863819
1225.325655	-3.011100	3.570400	-10.750000	25.853446	0.000384	20.846347
1226.328163	-3.017700	3.570400	-10.773000	25.842037	0.000385	20.872818
1227.326376	-2.997200	3.570000	-10.699000	25.803131	0.000384	20.856970
1228.326242	-3.022700	3.568600	-10.786000	25.808968	0.000382	20.872315
1229.323680	-3.025200	3.568900	-10.796000	25.772069	0.000383	20.857536
1230.324467	-3.014600	3.569300	-10.758000	25.782429	0.000382	20.873632
1231.324817	-2.998600	3.569700	-10.703000	25.780837	0.000379	20.863024
1232.326436	-2.995100	3.568800	-10.688000	25.816634	0.000381	20.861998
1233.326314	-3.016900	3.566700	-10.759000	25.810146	0.000380	20.874446
1234.324379	-3.002200	3.567400	-10.710000	25.799782	0.000380	20.866882
1235.324434	-2.986900	3.567700	-10.656000	25.827804	0.000381	20.874641
1236.323969	-2.983000	3.566700	-10.638000	25.807405	0.000378	20.882599
1237.323601	-2.978100	3.566900	-10.622000	25.814486	0.000379	20.875013
1238.329662	-3.006200	3.566800	-10.721000	25.801315	0.000378	20.871266
1239.330488	-3.009800	3.565800	-10.731000	25.830830	0.000378	20.897120
1240.329139	-3.004600	3.565200	-10.711000	25.793587	0.000376	20.875356
1241.330048	-2.996500	3.565500	-10.683000	25.828594	0.000376	20.874012
1242.329032	-2.984400	3.566100	-10.643000	25.856936	0.000374	20.880671
1243.324304	-3.012500	3.564100	-10.736000	25.836562	0.000375	20.863999
1244.327477	-3.017800	3.562900	-10.752000	25.838281	0.000375	20.900810
1245.329267	-2.989300	3.564600	-10.654000	25.806776	0.000375	20.881018
1246.328836	-2.998500	3.564700	-10.688000	25.817259	0.000372	20.892496
1247.333447	-3.002700	3.564500	-10.703000	25.857429	0.000373	20.884011
1248.327024	-2.983700	3.563900	-10.633000	25.864759	0.000373	20.886633
1249.328060	-3.005100	3.562200	-10.704000	25.852533	0.000373	20.900903
1250.328836	-3.007600	3.563400	-10.716000	25.875763	0.000374	20.883937
1251.331072	-2.976800	3.563000	-10.606000	25.910514	0.000374	20.884234
1252.332175	-2.989600	3.563000	-10.650000	25.874421	0.000372	20.877374
1253.332759	-3.006400	3.561400	-10.705000	25.895960	0.000371	20.875778
1254.331125	-3.002600	3.561900	-10.693000	25.938491	0.000371	20.881520
1255.330614	-3.029000	3.559900	-10.782000	25.891888	0.000371	20.879747
1256.334330	-2.986600	3.561700	-10.637000	25.862501	0.000374	20.892425
1257.330210	-3.005000	3.560000	-10.697000	25.904882	0.000371	20.887110
1258.339497	-2.987700	3.560800	-10.637000	25.885206	0.000371	20.878251
1259.334125	-2.997500	3.558700	-10.666000	25.878478	0.000370	20.893302
1260.336805	-2.993700	3.560800	-10.659000	25.861511	0.000370	20.895223
1261.333928	-3.013200	3.557900	-10.719000	25.884417	0.000370	20.903060
1262.336360	-2.966700	3.559900	-10.560000	25.855400	0.000370	20.891455
1263.338334	-3.004200	3.558600	-10.689000	25.892314	0.000370	20.910519
1264.337837	-2.997200	3.557900	-10.662000	25.841863	0.000367	20.895400
1265.332489	-3.012100	3.558300	-10.717000	25.844920	0.000365	20.881877
1266.350621	-2.985700	3.558600	-10.624000	25.837445	0.000367	20.892385
1267.337818	-3.020700	3.556100	-10.741000	25.837421	0.000368	20.895205
1268.335863	-3.006700	3.556700	-10.693000	25.869915	0.000367	20.925948
1269.336367	-3.007900	3.556500	-10.697000	25.886607	0.000366	20.900519
1270.340388	-3.003600	3.557500	-10.684000	25.884747	0.000366	20.909081
1271.333764	-3.001600	3.557400	-10.678000	25.824976	0.000368	20.910677
1272.336309	-3.017400	3.556400	-10.729000	25.778294	0.000368	20.896978
1273.340430	-2.987800	3.557000	-10.627000	25.746868	0.000367	20.907135
1274.335905	-3.015800	3.553400	-10.716000	25.795189	0.000367	20.918687
1275.333755	-3.005100	3.555500	-10.682000	25.828308	0.000366	20.915446
1276.340514	-3.007500	3.553500	-10.686000	25.835857	0.000367	20.907857
1277.331864	-2.995900	3.553300	-10.645000	25.853543	0.000366	20.909503
1278.336144	-2.987500	3.554500	-10.618000	25.883106	0.000364	20.918811
1279.333595	-2.979000	3.553800	-10.586000	25.879380	0.000364	20.910327
1280.339933	-2.991400	3.554600	-10.632000	25.893860	0.000364	20.914916
1281.337225	-2.992200	3.553000	-10.629000	25.884519	0.000366	20.891784
1282.337620	-2.991700	3.553300	-10.629000	25.901162	0.000367	20.907553
1283.342514	-2.992700	3.552600	-10.631000	25.914920	0.000363	20.917581
1284.337781	-2.998700	3.552200	-10.651000	25.967608	0.000364	20.920726
1285.342039	-2.968200	3.554400	-10.549000	25.918819	0.000364	20.913912
1286.337569	-2.999500	3.551400	-10.652000	25.856140	0.000361	20.920171
1287.337519	-2.985000	3.552200	-10.602000	25.900930	0.000365	20.891201
1288.344326	-2.996800	3.550800	-10.641000	25.878225	0.000361	20.904900
1289.338770	-2.997900	3.550400	-10.643000	25.839218	0.000362	20.922138
1290.339871	-3.005600	3.549500	-10.667000	25.814871	0.000363	20.919966
1291.339175	-2.987100	3.549300	-10.601000	25.878690	0.000360	20.938555
1292.337576	-2.995700	3.550500	-10.636000	25.907105	0.000362	20.925376
1293.342643	-2.991300	3.549900	-10.617000	25.908789	0.000361	20.904785
1294.339570	-3.011900	3.548300	-10.686000	25.901984	0.000359	20.934455
1295.337813	-2.984000	3.549900	-10.592000	25.904492	0.000359	20.918958
1296.346686	-2.994600	3.547800	-10.623000	25.951859	0.000358	20.938567
1297.339553	-3.002200	3.548300	-10.652000	25.963608	0.000359	20.938517
1298.341868	-3.000900	3.547300	-10.644000	25.985913	0.000356	20.927737
1299.345924	-3.007500	3.547800	-10.669000	26.000938	0.000357	20.932874
1300.340694	-3.011200	3.548000	-10.683000	25.959706	0.000358	20.930804
1301.345160	-3.021000	3.545500	-10.710000	25.907043	0.000358	20.932425
1302.346492	-3.007700	3.545900	-10.663000	25.882795	0.000356	20.927981
1303.343157	-3.012600	3.545800	-10.681000	25.931610	0.000356	20.950465
1304.354224	-2.964800	3.547500	-10.516000	25.918092	0.000357	20.920293
1305.345714	-2.994100	3.546100	-10.616000	25.928451	0.000357	20.917898
1306.347894	-3.009000	3.544800	-10.666000	25.947577	0.000355	20.922413
1307.348321	-2.987900	3.545100	-10.592000	25.923130	0.000356	20.923457
1308.344423	-3.001600	3.545900	-10.642000	25.935102	0.000354	20.926949
1309.348436	-3.003000	3.544500	-10.643000	25.958721	0.000355	20.924126
1310.345848	-3.027600	3.544200	-10.730000	25.987140	0.000354	20.911902
1311.353002	-3.009100	3.543700	-10.663000	26.000947	0.000353	20.920082
1312.350338	-3.015100	3.544100	-10.685000	25.942823	0.000357	20.910051
1313.346801	-2.982700	3.543900	-10.568000	25.943344	0.000352	20.903463
1314.343994	-3.010400	3.543300	-10.665000	25.992026	0.000354	20.920602
1315.347488	-3.014900	3.542300	-10.679000	25.991949	0.000353	20.928110
1316.349004	-2.981800	3.543700	-10.566000	25.920137	0.000352	20.912391
1317.353725	-2.998500	3.542400	-10.621000	25.894668	0.000353	20.912409
1318.347159	-2.992900	3.540100	-10.595000	25.949914	0.000350	20.908641
1319.346709	-2.985200	3.540900	-10.568000	25.960269	0.000353	20.900553
1320.344229	-2.983700	3.541600	-10.566000	25.978700	0.000352	20.911008
1321.344444	-3.005900	3.539500	-10.638000	25.977704	0.000349	20.912378
1322.347541	-3.001200	3.540000	-10.623000	25.955247	0.000352	20.908783
1323.350420	-3.009000	3.539200	-10.648000	25.931174	0.000350	20.895979
1324.350340	-3.019900	3.539900	-10.689000	25.916391	0.000349	20.880181
1325.352587	-3.006400	3.539100	-10.639000	25.882161	0.000349	20.904587
1326.346591	-3.014000	3.538400	-10.663000	25.933333	0.000347	20.911423
1327.350110	-3.018200	3.538400	-10.679000	25.957699	0.000346	20.912195
1328.346280	-2.998500	3.538400	-10.609000	25.901608	0.000347	20.910373
1329.349712	-2.987400	3.538200	-10.569000	25.850235	0.000346	20.910921
1330.350965	-2.990000	3.537000	-10.575000	25.812100	0.000347	20.896323
1331.347730	-2.995100	3.537400	-10.594000	25.867375	0.000348	20.889261
1332.350344	-3.008700	3.536000	-10.638000	25.924708	0.000347	20.903233
1333.346431	-2.996600	3.535400	-10.592000	25.958393	0.000346	20.883971
1334.347814	-3.011500	3.535400	-10.646000	25.944456	0.000347	20.885616
1335.353128	-2.995600	3.534200	-10.587000	25.997513	0.000346	20.903357
1336.350560	-2.996200	3.535500	-10.593000	25.956002	0.000346	20.889155
1337.350950	-3.004900	3.533500	-10.616000	25.922989	0.000347	20.905300
1338.351733	-3.004000	3.534500	-10.616000	25.908679	0.000343	20.873382
1339.350251	-2.974200	3.534400	-10.511000	25.928449	0.000347	20.896561
1340.353571	-2.985300	3.534100	-10.549000	25.898640	0.000345	20.901702
1341.348361	-3.013700	3.533700	-10.648000	25.931753	0.000344	20.873329
1342.348618	-2.999900	3.532800	-10.598000	25.982447	0.000342	20.885377
1343.349556	-3.012700	3.534100	-10.646000	25.999162	0.000344	20.877990
1344.348629	-2.997100	3.532400	-10.587000	26.021714	0.000343	20.898749
1345.350152	-3.024700	3.531400	-10.681000	26.042302	0.000342	20.868702
1346.349363	-3.017300	3.533100	-10.660000	26.039545	0.000344	20.896276
1347.352058	-3.013800	3.530100	-10.638000	25.991707	0.000342	20.893258
1348.355239	-3.002900	3.530900	-10.602000	25.991306	0.000343	20.879579
1349.351058	-2.979200	3.531600	-10.521000	25.993314	0.000342	20.874011
1350.352804	-3.003400	3.530900	-10.603000	25.981666	0.000342	20.895498
1351.355298	-3.012700	3.530300	-10.635000	26.011815	0.000340	20.872684
1352.351688	-2.993000	3.530300	-10.564000	25.974306	0.000341	20.882889
1353.350706	-2.978500	3.530200	-10.514000	25.953787	0.000339	20.883611
1354.351317	-2.987300	3.529800	-10.543000	25.972937	0.000340	20.896210
1355.355073	-2.964300	3.529900	-10.462000	25.976040	0.000340	20.896483
1356.354472	-2.993500	3.528400	-10.560000	25.968686	0.000339	20.878665
1357.355857	-3.002100	3.529200	-10.594000	25.934109	0.000340	20.858154
1358.361079	-2.971100	3.529200	-10.485000	25.918506	0.000338	20.878513
1359.356730	-2.998700	3.528100	-10.578000	25.906062	0.000337	20.881658
1360.358893	-3.014800	3.526000	-10.630000	25.926801	0.000336	20.870726
1361.359448	-2.997700	3.528600	-10.576000	25.901018	0.000335	20.877540
1362.354528	-3.001000	3.526800	-10.583000	25.897193	0.000335	20.895507
1363.359797	-2.984300	3.527300	-10.526000	25.958053	0.000335	20.871776
1364.361572	-2.990800	3.525200	-10.543000	25.970842	0.000335	20.878460
1365.353409	-2.999000	3.527200	-10.577000	26.003082	0.000337	20.883350
1366.355418	-3.000100	3.524800	-10.573000	25.965104	0.000334	20.864162
1367.358450	-3.014600	3.525500	-10.626000	25.969627	0.000334	20.872024
1368.359837	-3.004000	3.525300	-10.590000	25.941904	0.000334	20.863140
1369.363904	-3.015300	3.523500	-10.624000	25.882688	0.000334	20.872876
1370.358133	-3.001700	3.523700	-10.576000	25.884921	0.000334	20.862318
1371.365016	-2.993900	3.522500	-10.545000	25.941013	0.000334	20.869356
1372.361578	-3.008600	3.522400	-10.597000	25.949110	0.000332	20.866111
1373.356297	-3.004100	3.522200	-10.580000	25.951270	0.000334	20.844574
1374.372073	-3.018400	3.522400	-10.631000	25.989600	0.000333	20.867435
1375.361755	-3.021200	3.521300	-10.637000	26.006167	0.000331	20.851364
1376.364658	-3.002200	3.521800	-10.572000	26.009147	0.000332	20.851987
1377.364170	-2.980500	3.522500	-10.498000	26.006241	0.000331	20.866136
1378.364288	-2.986100	3.522000	-10.516000	26.066499	0.000332	20.862669
1379.362570	-2.995700	3.521100	-10.548000	26.068239	0.000331	20.850667
1380.362469	-2.988800	3.520800	-10.521000	26.076258	0.000332	20.869629
1381.360988	-3.027400	3.519900	-10.655000	26.033289	0.000331	20.869604
1382.364184	-3.021200	3.519600	-10.632000	25.962498	0.000330	20.852061
1383.364063	-2.998800	3.520600	-10.557000	25.926033	0.000333	20.840558
1384.362185	-2.952700	3.520900	-10.395000	25.934797	0.000331	20.860741
1385.361332	-2.983800	3.520100	-10.502000	25.999307	0.000329	20.833093
1386.360228	-2.987800	3.519800	-10.516000	26.010362	0.000329	20.859371
1387.364012	-2.987800	3.518300	-10.511000	26.021340	0.000331	20.857599
1388.374724	-2.992600	3.518100	-10.528000	25.985994	0.000329	20.846269
1389.364531	-2.996500	3.518800	-10.543000	26.007132	0.000325	20.870351
1390.363221	-2.979100	3.519300	-10.484000	26.014560	0.000327	20.853158
1391.363468	-3.020800	3.517700	-10.626000	25.997123	0.000325	20.856502
1392.362998	-2.995700	3.516400	-10.533000	26.010735	0.000325	20.856902
1393.360528	-2.981400	3.517600	-10.486000	26.064683	0.000325	20.860369
1394.362553	-2.966000	3.516700	-10.430000	26.042009	0.000325	20.853710
1395.361446	-2.987400	3.516200	-10.503000	25.992604	0.000323	20.833945
1396.364397	-2.980700	3.515400	-10.478000	25.984603	0.000324	20.840604
1397.360946	-2.977800	3.515300	-10.467000	26.005343	0.000323	20.854804
1398.364734	-2.990800	3.515400	-10.513000	26.011182	0.000323	20.839808
1399.364418	-2.994300	3.514300	-10.522000	26.021790	0.000323	20.861370
1400.364170	-2.986700	3.514900	-10.497000	26.040343	0.000323	20.868631
1401.368759	-3.002600	3.513900	-10.550000	26.059917	0.000324	20.868383
1402.369095	-3.026300	3.513200	-10.631000	26.018360	0.000323	20.870251
1403.365356	-3.002700	3.512100	-10.545000	26.018906	0.000322	20.850887
1404.371753	-3.011700	3.511700	-10.575000	26.000973	0.000321	20.845197
1405.370058	-2.994000	3.513200	-10.517000	26.004871	0.000322	20.843424
1406.363236	-3.030100	3.510700	-10.637000	25.953130	0.000322	20.832219
1407.367702	-3.021400	3.510800	-10.606000	25.988625	0.000320	20.839430
1408.376644	-2.990400	3.512400	-10.502000	25.964953	0.000321	20.841726
1409.367985	-3.018700	3.511500	-10.600000	25.971015	0.000321	20.857298
1410.375037	-3.002400	3.510000	-10.538000	25.972902	0.000322	20.842126
1411.371789	-2.993800	3.511600	-10.512000	26.002512	0.000320	20.820192
1412.367951	-2.993000	3.511300	-10.508000	26.052012	0.000319	20.836734
1413.376698	-3.003100	3.511200	-10.544000	26.054316	0.000319	20.847583
1414.372473	-2.981500	3.510400	-10.464000	26.005260	0.000320	20.845237
1415.372081	-2.991500	3.509300	-10.496000	26.032635	0.000319	20.849508
1416.374851	-3.014300	3.508800	-10.575000	26.045004	0.000317	20.841072
1417.368865	-3.006900	3.507500	-10.546000	26.051481	0.000319	20.828140
1418.372123	-3.015400	3.507200	-10.575000	26.027163	0.000316	20.848751
1419.374260	-3.016800	3.507600	-10.581000	25.987968	0.000318	20.855364
1420.375700	-3.021800	3.508300	-10.600000	26.022540	0.000317	20.843158
1421.375326	-3.023900	3.506800	-10.604000	26.032672	0.000319	20.848122
1422.376506	-3.003000	3.506700	-10.530000	26.019458	0.000317	20.807820
1423.376599	-3.004700	3.505700	-10.533000	26.052092	0.000315	20.850090
1424.372257	-2.981700	3.506800	-10.455000	26.035152	0.000317	20.836864
1425.377037	-3.034400	3.505400	-10.636000	26.053582	0.000315	20.844949
1426.371933	-2.997700	3.506200	-10.510000	26.053406	0.000316	20.822962
1427.375789	-2.995000	3.506300	-10.500000	26.020917	0.000314	20.852433
1428.374208	-3.019600	3.503300	-10.578000	25.982064	0.000313	20.825252
1429.375471	-2.998200	3.504400	-10.506000	26.007302	0.000314	20.833065
1430.381854	-2.998500	3.504900	-10.509000	26.006725	0.000313	20.846709
1431.377625	-3.011400	3.503400	-10.548000	26.006577	0.000315	20.820009
1432.378296	-3.023700	3.502700	-10.590000	25.950042	0.000312	20.823901
1433.376837	-2.995200	3.503800	-10.493000	25.938317	0.000313	20.823975
1434.383757	-2.994700	3.503100	-10.490000	25.995223	0.000311	20.826619
1435.378602	-2.985400	3.501900	-10.454000	26.050587	0.000313	20.828664
1436.380493	-2.977700	3.502800	-10.429000	26.050935	0.000312	20.832333
1437.381322	-2.988700	3.502900	-10.468000	26.004979	0.000311	20.833576
1438.382561	-3.024900	3.501000	-10.589000	26.041071	0.000312	20.828587
1439.379317	-2.999900	3.502200	-10.505000	26.052496	0.000310	20.823470
1440.381076	-3.016800	3.500400	-10.559000	26.056839	0.000309	20.842058
1441.377324	-3.012700	3.499900	-10.543000	26.053958	0.000310	20.824465
1442.380180	-3.003600	3.500100	-10.512000	26.057484	0.000308	20.828481
1443.384474	-3.004500	3.500400	-10.517000	26.074072	0.000308	20.847992
1444.377049	-2.998700	3.499500	-10.492000	26.036071	0.000309	20.824037
1445.377317	-3.016800	3.496900	-10.549000	25.991333	0.000307	20.822237
1446.381488	-3.004000	3.499200	-10.511000	26.007055	0.000308	20.820963
1447.381021	-2.996900	3.498400	-10.483000	26.003030	0.000308	20.822135
1448.378846	-2.997100	3.497200	-10.480000	26.020939	0.000308	20.826377
1449.382060	-3.004700	3.496900	-10.505000	26.012219	0.000308	20.820461
1450.378897	-2.998700	3.496900	-10.485000	25.981564	0.000306	20.835656
1451.379828	-2.985800	3.497200	-10.441000	25.957442	0.000307	20.816163
1452.384776	-3.021500	3.496000	-10.562000	26.002601	0.000308	20.803212
1453.381693	-3.018800	3.496000	-10.553000	26.054088	0.000306	20.822699
1454.383156	-3.004400	3.496100	-10.503000	26.093778	0.000307	20.819430
1455.386309	-3.015200	3.495600	-10.539000	26.120842	0.000303	20.824813
1456.383176	-2.999800	3.494600	-10.482000	26.098068	0.000304	20.818051
1457.383872	-2.996800	3.495100	-10.472000	26.059939	0.000304	20.828104
1458.383474	-2.996300	3.493700	-10.467000	26.022133	0.000304	20.800077
1459.385095	-2.981300	3.494800	-10.418000	26.022133	0.000304	20.834689
1460.383280	-2.996900	3.493800	-10.470000	25.991454	0.000303	20.791539
1461.391329	-2.995100	3.493900	-10.463000	26.003351	0.000301	20.832889
1462.388824	-3.017500	3.493900	-10.542000	25.970809	0.000302	20.799720
1463.389973	-2.998500	3.492800	-10.473000	26.006772	0.000301	20.805981
1464.391753	-2.994900	3.493200	-10.461000	26.015866	0.000304	20.822703
1465.384635	-3.000800	3.491700	-10.477000	26.066531	0.000303	20.815761
1466.391023	-3.004100	3.492600	-10.491000	26.085306	0.000300	20.827987
1467.390045	-3.008500	3.490800	-10.501000	26.076287	0.000300	20.825563
1468.389875	-3.015900	3.489400	-10.523000	26.014984	0.000301	20.826084
1469.384507	-2.986000	3.490300	-10.421000	26.046353	0.000301	20.798333
1470.387687	-2.990200	3.491200	-10.438000	25.966744	0.000301	20.805594
1471.388814	-2.999500	3.490200	-10.468000	25.999157	0.000299	20.818244
1472.390617	-2.994100	3.491000	-10.452000	26.034028	0.000300	20.822933
1473.401251	-3.014800	3.491800	-10.526000	26.072574	0.000300	20.799074
1474.391640	-3.015800	3.487800	-10.517000	26.081312	0.000298	20.839147
1475.390879	-2.993300	3.489000	-10.442000	26.089878	0.000298	20.807451
1476.392418	-2.990000	3.489400	-10.432000	26.052597	0.000297	20.792752
1477.395420	-3.007300	3.487700	-10.487000	26.038387	0.000298	20.785113
1478.391929	-2.996500	3.488600	-10.452000	25.992483	0.000298	20.822444
1479.396907	-2.989900	3.488200	-10.427000	26.009294	0.000297	20.813256
1480.392713	-2.987400	3.487000	-10.416000	25.995333	0.000296	20.802074
1481.391246	-3.005000	3.486600	-10.477000	26.028863	0.000296	20.806838
1482.394516	-3.011400	3.485300	-10.495000	26.060229	0.000297	20.814644
1483.390265	-3.017300	3.485300	-10.516000	26.081813	0.000295	20.799822
1484.393194	-2.999300	3.485800	-10.454000	26.018749	0.000294	20.814220
1485.397007	-2.994000	3.486500	-10.438000	26.052925	0.000296	20.784072
1486.394943	-2.996900	3.486300	-10.447000	26.043934	0.000294	20.799695
1487.388593	-2.997600	3.484600	-10.445000	26.012858	0.000295	20.794076
1488.388909	-2.997700	3.484500	-10.445000	26.011189	0.000294	20.801409
1489.394353	-2.992000	3.484900	-10.425000	26.039061	0.000294	20.835575
1490.392063	-2.996000	3.483500	-10.436000	26.062305	0.000293	20.811515
1491.388986	-2.997500	3.485100	-10.445000	26.024058	0.000291	20.790156
1492.391334	-3.019500	3.482700	-10.515000	26.016479	0.000291	20.783490
1493.394018	-3.033200	3.481900	-10.560000	26.025051	0.000291	20.793051
1494.391354	-3.001500	3.484600	-10.458000	25.991118	0.000291	20.785511
1495.391280	-3.023200	3.481200	-10.523000	26.018142	0.000292	20.801756
1496.389001	-2.990500	3.482600	-10.414000	26.087220	0.000290	20.797668
1497.392203	-3.015800	3.480800	-10.497000	26.082822	0.000289	20.823121
1498.393304	-2.993600	3.481900	-10.423000	26.084164	0.000289	20.784166
1499.397512	-2.983600	3.481500	-10.387000	26.101797	0.000288	20.791452
1500.393556	-3.004200	3.480900	-10.456000	26.095835	0.000288	20.786410
1501.395240	-2.980200	3.480200	-10.371000	26.056121	0.000290	20.778749
1502.396535	-3.000400	3.478500	-10.437000	26.004930	0.000289	20.779474
1503.394608	-3.003900	3.478800	-10.449000	26.000881	0.000288	20.771612
1504.396976	-3.000400	3.478900	-10.436000	25.992413	0.000287	20.790131
1505.396002	-2.990800	3.479400	-10.405000	25.955675	0.000286	20.782619
1506.398552	-2.968300	3.480300	-10.329000	25.946757	0.000286	20.794523
1507.394913	-2.985000	3.479000	-10.384000	25.905473	0.000287	20.808998
1508.397831	-3.000000	3.479000	-10.436000	25.950958	0.000284	20.793054
1509.395665	-3.000300	3.477600	-10.433000	26.005430	0.000287	20.796097
1510.395689	-3.029000	3.476500	-10.530000	26.031463	0.000286	20.784320
1511.399585	-3.012100	3.477700	-10.475000	26.029727	0.000286	20.795378
1512.397294	-3.003500	3.475700	-10.438000	26.031214	0.000284	20.800191
1513.400536	-3.008100	3.476400	-10.456000	26.059257	0.000284	20.785219
1514.392140	-3.001700	3.475700	-10.432000	26.086131	0.000284	20.784720
1515.399331	-3.031500	3.475900	-10.536000	26.054615	0.000285	20.772494
1516.393877	-3.014600	3.475200	-10.475000	26.022895	0.000284	20.766702
1517.397538	-2.988400	3.475400	-10.385000	26.028783	0.000285	20.766928
1518.395530	-3.012000	3.474700	-10.465000	25.995177	0.000284	20.782951
1519.400821	-2.996800	3.475000	-10.413000	26.003098	0.000284	20.783797
1520.395689	-2.988400	3.473900	-10.381000	26.016115	0.000283	20.792607
1521.400080	-3.026900	3.474300	-10.515000	26.058464	0.000282	20.781578
1522.399941	-3.016300	3.473000	-10.475000	26.078433	0.000282	20.791684
1523.398612	-3.011600	3.473100	-10.458000	26.086208	0.000282	20.782901
1524.396628	-3.005500	3.472200	-10.435000	26.094030	0.000282	20.801192
1525.402691	-3.007300	3.471400	-10.438000	26.084768	0.000279	20.770548
1526.400614	-2.998500	3.474200	-10.416000	26.053372	0.000280	20.787841
1527.396752	-2.991100	3.471800	-10.382000	26.000192	0.000279	20.779929
1528.405365	-2.981700	3.473100	-10.354000	25.998357	0.000280	20.790413
1529.401386	-3.021700	3.470100	-10.483000	26.007447	0.000279	20.776312
1530.400991	-2.988700	3.471400	-10.374000	26.037379	0.000278	20.799747
1531.405361	-3.005200	3.471300	-10.431000	26.056031	0.000280	20.800944
1532.402209	-2.980100	3.472600	-10.348000	26.064476	0.000279	20.789988
1533.399448	-2.997100	3.468700	-10.395000	25.993486	0.000278	20.782675
1534.401166	-3.008300	3.468800	-10.434000	25.973988	0.000277	20.772094
1535.402837	-2.990600	3.468900	-10.373000	25.952874	0.000278	20.777908
1536.399940	-2.993700	3.469500	-10.385000	25.999649	0.000276	20.795031
1537.401833	-2.986800	3.469600	-10.362000	26.015865	0.000279	20.775287
1538.403328	-2.991700	3.468700	-10.377000	26.080345	0.000277	20.764207
1539.397562	-2.995700	3.467300	-10.385000	26.075475	0.000279	20.779703
1540.403128	-2.988400	3.467500	-10.361000	26.074155	0.000277	20.776480
1541.403620	-2.999100	3.466900	-10.397000	26.046540	0.000275	20.782399
1542.406590	-2.987000	3.466300	-10.353000	26.064344	0.000276	20.784640
1543.401634	-2.992300	3.467000	-10.373000	26.033246	0.000277	20.786586
1544.404932	-2.975100	3.466600	-10.312000	26.050060	0.000277	20.766021
1545.402434	-2.976900	3.465800	-10.317000	26.034015	0.000276	20.798264
1546.402134	-2.977200	3.466500	-10.320000	25.972484	0.000275	20.790024
1547.415464	-3.015600	3.465200	-10.449000	25.984107	0.000274	20.765665
1548.406866	-3.017600	3.464000	-10.452000	25.968607	0.000276	20.786602
1549.403807	-2.992000	3.464900	-10.366000	25.960013	0.000275	20.784132
1550.414633	-3.010700	3.464000	-10.427000	25.977796	0.000273	20.790145
1551.402732	-3.019000	3.463100	-10.454000	26.023596	0.000273	20.790167
1552.405993	-3.005200	3.462700	-10.405000	26.021310	0.000274	20.798302
1553.408578	-2.982700	3.463700	-10.330000	26.008815	0.000273	20.784799
1554.402312	-2.982400	3.464600	-10.332000	26.002032	0.000271	20.780829
1555.405852	-2.986100	3.464200	-10.344000	26.000638	0.000273	20.795076
1556.402780	-2.995900	3.462400	-10.372000	25.997507	0.000271	20.767274
1557.408820	-2.984700	3.462100	-10.332000	26.013751	0.000273	20.793077
1558.405733	-2.968900	3.463400	-10.281000	25.972414	0.000270	20.789480
1559.405397	-2.993800	3.462100	-10.364000	26.017523	0.000272	20.773160
1560.414833	-2.994400	3.461600	-10.364000	26.040870	0.000270	20.766745
1561.405921	-3.013300	3.460100	-10.426000	26.021669	0.000269	20.780170
1562.405653	-3.013500	3.460300	-10.427000	26.025096	0.000270	20.806373
1563.408052	-3.010600	3.459400	-10.414000	26.006611	0.000270	20.803922
1564.406210	-2.978800	3.460900	-10.308000	26.045611	0.000269	20.778621
1565.406307	-3.012700	3.459600	-10.422000	26.083962	0.000269	20.781593
1566.409799	-3.000100	3.459200	-10.377000	26.119700	0.000267	20.794742
1567.416605	-3.015400	3.457600	-10.425000	26.161645	0.000268	20.769085
1568.403038	-2.977500	3.458800	-10.298000	26.179530	0.000267	20.785634
1569.406992	-2.984200	3.459800	-10.324000	26.171379	0.000266	20.777443
1570.406815	-2.987900	3.459500	-10.336000	26.143316	0.000266	20.794764
1571.406641	-2.995000	3.457600	-10.355000	26.112021	0.000266	20.776594
1572.406193	-3.002300	3.457400	-10.380000	26.042080	0.000265	20.801625
1573.403273	-2.995800	3.456200	-10.353000	26.004375	0.000266	20.780812
1574.411314	-2.978500	3.455700	-10.293000	25.998412	0.000266	20.796159
1575.406119	-2.986200	3.456400	-10.320000	26.029137	0.000266	20.797157
1576.403375	-3.004700	3.455200	-10.381000	26.032342	0.000267	20.800377
1577.403986	-3.006000	3.454100	-10.382000	26.036145	0.000265	20.781912
1578.402966	-2.990300	3.456500	-10.335000	26.075037	0.000266	20.798703
1579.413076	-2.983600	3.456200	-10.310000	26.100221	0.000265	20.781807
1580.403484	-3.006800	3.454000	-10.385000	26.097886	0.000264	20.780410
1581.406484	-3.007100	3.452300	-10.380000	26.161294	0.000261	20.778215
1582.407806	-3.015300	3.452600	-10.409000	26.191145	0.000261	20.787822
1583.408206	-2.999400	3.453400	-10.358000	26.209174	0.000264	20.804517
1584.408467	-2.985600	3.453200	-10.308000	26.180089	0.000263	20.784299
1585.410089	-3.009800	3.452500	-10.390000	26.137821	0.000261	20.806312
1586.408850	-3.013100	3.451500	-10.399000	26.083800	0.000259	20.812249
1587.407575	-2.992900	3.452800	-10.333000	26.095622	0.000262	20.788092
1588.407796	-3.011400	3.452200	-10.395000	26.148446	0.000261	20.807979
1589.413716	-2.984700	3.452500	-10.303000	26.133346	0.000262	20.808453
1590.408444	-3.015700	3.450300	-10.404000	26.099392	0.000263	20.782397
1591.410864	-3.000600	3.450100	-10.351000	26.092933	0.000261	20.781123
1592.409943	-3.001800	3.449900	-10.354000	26.077157	0.000261	20.789454
1593.410418	-3.003800	3.448900	-10.358000	26.070301	0.000261	20.788729
1594.408548	-3.006700	3.449700	-10.371000	26.038460	0.000259	20.797989
1595.411199	-2.980000	3.450200	-10.280000	25.980110	0.000259	20.797211
1596.412776	-3.000000	3.449800	-10.349000	26.012350	0.000258	20.820119
1597.418343	-3.002300	3.447400	-10.349000	26.012227	0.000259	20.807193
1598.413919	-2.983600	3.449700	-10.292000	26.026829	0.000260	20.814278
1599.413778	-2.999000	3.447600	-10.338000	26.024346	0.000258	20.797084
1600.411711	-3.004400	3.447600	-10.357000	26.073322	0.000259	20.797928
1601.411897	-2.991500	3.448800	-10.316000	26.108615	0.000260	20.802096
1602.414024	-2.999700	3.447100	-10.339000	26.120385	0.000258	20.795430
1603.412778	-3.009200	3.445900	-10.368000	26.151008	0.000257	20.812450
1604.413434	-2.994800	3.446700	-10.321000	26.121872	0.000258	20.808778
1605.416691	-2.991600	3.445800	-10.308000	26.105729	0.000256	20.817688
1606.409766	-3.012700	3.444900	-10.378000	26.087843	0.000255	20.795924
1607.411884	-2.988600	3.444900	-10.295000	26.065068	0.000257	20.801489
1608.414803	-3.014500	3.444000	-10.381000	26.090971	0.000256	20.806178
1609.418333	-3.020000	3.443600	-10.399000	26.097849	0.000256	20.821150
1610.409612	-3.023800	3.443000	-10.410000	26.120075	0.000257	20.820248
1611.414008	-3.005400	3.445100	-10.353000	26.102766	0.000255	20.813762
1612.427543	-3.016100	3.442700	-10.382000	26.142105	0.000256	20.819625
1613.412721	-3.008800	3.443300	-10.360000	26.149255	0.000257	20.806421
1614.418726	-2.976600	3.442400	-10.246000	26.144561	0.000256	20.812136
1615.412633	-3.023400	3.443300	-10.409000	26.127622	0.000253	20.803651
1616.413445	-3.004000	3.442000	-10.339000	26.126503	0.000252	20.823388
1617.414465	-3.012900	3.441600	-10.368000	26.084203	0.000255	20.823085
1618.411468	-3.005000	3.442200	-10.343000	26.093717	0.000254	20.824585
1619.414390	-3.011200	3.441200	-10.361000	26.122796	0.000254	20.842897
1620.413208	-2.982300	3.442600	-10.266000	26.074786	0.000251	20.815047
1621.416248	-2.987300	3.440800	-10.278000	26.026697	0.000252	20.820783
1622.414180	-3.013500	3.441000	-10.369000	26.036158	0.000251	20.831236
1623.423797	-3.005200	3.439800	-10.337000	26.034446	0.000251	20.821930
1624.416884	-2.981300	3.439500	-10.253000	26.054140	0.000252	20.804260
1625.412237	-3.022000	3.438300	-10.389000	26.041099	0.000252	20.832882
1626.416116	-2.990100	3.439000	-10.282000	26.068267	0.000250	20.830307
1627.415119	-2.985600	3.438700	-10.265000	26.110588	0.000251	20.824466
1628.415847	-2.992000	3.439300	-10.289000	26.133211	0.000250	20.835818
1629.412717	-3.004800	3.438700	-10.332000	26.166119	0.000252	20.830004
1630.416012	-2.994600	3.438600	-10.296000	26.126651	0.000250	20.820218
1631.420894	-2.988600	3.437300	-10.272000	26.110708	0.000250	20.835493
1632.421295	-3.010000	3.436300	-10.341000	26.068682	0.000248	20.830250
1633.420053	-2.997400	3.436200	-10.299000	26.067883	0.000251	20.844146
1634.422371	-3.002900	3.435700	-10.317000	26.058467	0.000248	20.821883
1635.420251	-2.997300	3.435100	-10.295000	26.018255	0.000248	20.818939
1636.419521	-3.030100	3.435200	-10.407000	26.034421	0.000250	20.828069
1637.418817	-2.984600	3.434800	-10.250000	26.088069	0.000248	20.840245
1638.418314	-3.009300	3.434700	-10.335000	26.136772	0.000246	20.826594
1639.421174	-2.991100	3.434400	-10.272000	26.156665	0.000246	20.840893
1640.428830	-3.005200	3.434800	-10.321000	26.161430	0.000246	20.839518
1641.422583	-2.968500	3.434100	-10.193000	26.119085	0.000244	20.835848
1642.421613	-3.001800	3.433900	-10.306000	26.105724	0.000246	20.838070
1643.419939	-3.012600	3.432800	-10.341000	26.090818	0.000246	20.843956
1644.423864	-3.012800	3.432800	-10.340000	26.102840	0.000244	20.821423
1645.430872	-2.991300	3.433000	-10.269000	26.066676	0.000244	20.841036
1646.422927	-2.966000	3.432600	-10.180000	26.103331	0.000245	20.859847
1647.422869	-3.018000	3.432200	-10.357000	26.140237	0.000242	20.845723
1648.422038	-2.989400	3.432400	-10.260000	26.179946	0.000245	20.850062
1649.418917	-3.012700	3.430700	-10.335000	26.160871	0.000244	20.830421
1650.425366	-2.990300	3.432300	-10.262000	26.162262	0.000242	20.844620
1651.421489	-3.002100	3.431400	-10.300000	26.160767	0.000243	20.845489
1652.422767	-3.001700	3.432000	-10.301000	26.188879	0.000241	20.842443
1653.425740	-3.019200	3.430200	-10.356000	26.158553	0.000242	20.844213
1654.422968	-3.012500	3.430700	-10.334000	26.146205	0.000242	20.862624
1655.426435	-3.018600	3.429200	-10.349000	26.167338	0.000241	20.852565
1656.419876	-3.005300	3.429000	-10.304000	26.195153	0.000240	20.856334
1657.420471	-2.983200	3.430300	-10.232000	26.180572	0.000241	20.855906
1658.420277	-2.994400	3.428400	-10.266000	26.201383	0.000239	20.837465
1659.423688	-2.996400	3.429100	-10.274000	26.219434	0.000240	20.866508
1660.423370	-2.982100	3.428300	-10.223000	26.188240	0.000239	20.845120
1661.423199	-2.996000	3.428000	-10.269000	26.177162	0.000240	20.873342
1662.420593	-2.989600	3.427000	-10.245000	26.194819	0.000238	20.856472
1663.421954	-3.018300	3.427300	-10.344000	26.216793	0.000237	20.860535
1664.421218	-2.989900	3.427300	-10.246000	26.240558	0.000239	20.867821
1665.422756	-3.016600	3.426400	-10.335000	26.247611	0.000237	20.867796
1666.421570	-3.012100	3.425900	-10.319000	26.201738	0.000236	20.848726
1667.422378	-3.015200	3.426200	-10.330000	26.158275	0.000236	20.858631
1668.421439	-3.015000	3.425700	-10.327000	26.165155	0.000237	20.857010
1669.421149	-3.005100	3.425800	-10.294000	26.171811	0.000238	20.881240
1670.423089	-3.008800	3.424700	-10.303000	26.233944	0.000236	20.862123
1671.422862	-3.027700	3.424300	-10.366000	26.257709	0.000234	20.865142
1672.423398	-3.007600	3.424800	-10.299000	26.241741	0.000235	20.854311
1673.421390	-2.994200	3.423800	-10.251000	26.264685	0.000235	20.854609
1674.423239	-3.006500	3.424600	-10.296000	26.253759	0.000233	20.839363
1675.426905	-3.011000	3.422300	-10.303000	26.255871	0.000232	20.845278
1676.419700	-3.005200	3.422700	-10.285000	26.260093	0.000234	20.884132
1677.424087	-3.018200	3.421400	-10.325000	26.268336	0.000232	20.851640
1678.421193	-2.982400	3.422700	-10.207000	26.252467	0.000231	20.874098
1679.424098	-2.992200	3.421500	-10.237000	26.268435	0.000232	20.852214
1680.421078	-2.975200	3.423100	-10.183000	26.240372	0.000231	20.865738
1681.424269	-2.990700	3.421200	-10.231000	26.222198	0.000230	20.863121
1682.423820	-2.985000	3.422300	-10.213000	26.206355	0.000230	20.873279
1683.423110	-3.014800	3.421800	-10.315000	26.201461	0.000229	20.864569
1684.424152	-3.009300	3.418900	-10.288000	26.211644	0.000230	20.880016
1685.425712	-2.983800	3.419700	-10.203000	26.192946	0.000227	20.875925
1686.423579	-2.985200	3.420300	-10.209000	26.178367	0.000229	20.862225
1687.425973	-2.996100	3.418600	-10.242000	26.221580	0.000227	20.867242
1688.425148	-2.997500	3.419400	-10.249000	26.214357	0.000228	20.893172
1689.430571	-2.989000	3.420000	-10.222000	26.159569	0.000227	20.874630
1690.425388	-2.984800	3.419800	-10.206000	26.195458	0.000225	20.878924
1691.436576	-2.993300	3.419200	-10.234000	26.208475	0.000228	20.859763
1692.428698	-2.974900	3.418300	-10.168000	26.204725	0.000227	20.872115
1693.426488	-3.023200	3.416600	-10.328000	26.168271	0.000226	20.869623
1694.429675	-3.015500	3.417300	-10.304000	26.126447	0.000226	20.867901
1695.429011	-3.023900	3.417100	-10.332000	26.199164	0.000226	20.870795
1696.425921	-3.030600	3.416900	-10.354000	26.240195	0.000226	20.877887
1697.428052	-2.999200	3.416400	-10.245000	26.274192	0.000227	20.874119
1698.427193	-3.019300	3.415100	-10.310000	26.278216	0.000224	20.894283
1699.429445	-2.986200	3.415400	-10.197000	26.262969	0.000226	20.881333
1700.427670	-3.018600	3.414400	-10.306000	26.232303	0.000224	20.880387
1701.429162	-3.034900	3.413500	-10.359000	26.198626	0.000223	20.893486
1702.431390	-3.026000	3.413300	-10.327000	26.239652	0.000225	20.888720
1703.429964	-2.971600	3.415100	-10.147000	26.223640	0.000223	20.884009
1704.430231	-2.994200	3.414000	-10.221000	26.240552	0.000224	20.882038
1705.427912	-2.987400	3.412900	-10.194000	26.304793	0.000225	20.894914
1706.431376	-2.998900	3.413200	-10.234000	26.273607	0.000222	20.886807
1707.431446	-2.988700	3.413000	-10.200000	26.275119	0.000223	20.887852
1708.435951	-2.986500	3.413400	-10.193000	26.262431	0.000222	20.886007
1709.430358	-2.986700	3.413400	-10.193000	26.238146	0.000223	20.890525
1710.435850	-2.978300	3.412300	-10.162000	26.210282	0.000221	20.884811
1711.434012	-2.990400	3.411300	-10.199000	26.198168	0.000222	20.893499
1712.434680	-2.985100	3.411500	-10.183000	26.236758	0.000221	20.874433
1713.434326	-2.977000	3.412100	-10.157000	26.280739	0.000221	20.887810
1714.434690	-3.019600	3.410400	-10.297000	26.318508	0.000221	20.888783
1715.434834	-3.004100	3.409400	-10.242000	26.279573	0.000221	20.893276
1716.438555	-2.998100	3.409200	-10.221000	26.265416	0.000220	20.911764
1717.440044	-2.983600	3.409700	-10.171000	26.205668	0.000220	20.896294
1718.434137	-2.981600	3.409500	-10.165000	26.183716	0.000219	20.883719
1719.440102	-3.039000	3.408000	-10.356000	26.183021	0.000218	20.894875
1720.437644	-2.989900	3.408800	-10.191000	26.255164	0.000219	20.878231
1721.438930	-2.985000	3.409400	-10.176000	26.287396	0.000219	20.892129
1722.439582	-2.975900	3.408200	-10.141000	26.284815	0.000218	20.898069
1723.438917	-3.008900	3.408100	-10.254000	26.268897	0.000216	20.915261
1724.441909	-3.021400	3.406300	-10.290000	26.222558	0.000218	20.897620
1725.440719	-3.004000	3.408100	-10.237000	26.268425	0.000217	20.905779
1726.444197	-3.018200	3.405800	-10.279000	26.239276	0.000216	20.890238
1727.443345	-3.009300	3.405900	-10.248000	26.258719	0.000216	20.873743
1728.443250	-3.005500	3.405800	-10.236000	26.240049	0.000216	20.896231
1729.447147	-2.993400	3.405900	-10.193000	26.225968	0.000214	20.908158
1730.440866	-2.990100	3.405400	-10.182000	26.217477	0.000216	20.886351
1731.441308	-3.004700	3.404400	-10.228000	26.201163	0.000213	20.906465
1732.443577	-3.014600	3.403700	-10.260000	26.251104	0.000213	20.897383
1733.443961	-2.999000	3.403100	-10.204000	26.297271	0.000214	20.921965
1734.443088	-2.976800	3.404400	-10.133000	26.296602	0.000213	20.907069
1735.446328	-2.990500	3.405700	-10.183000	26.303136	0.000213	20.901782
1736.444127	-2.983900	3.404600	-10.158000	26.287421	0.000212	20.903532
1737.447741	-3.004900	3.403100	-10.225000	26.263111	0.000214	20.901388
1738.443661	-3.005800	3.402300	-10.226000	26.293483	0.000212	20.903935
1739.449703	-2.974500	3.402300	-10.119000	26.335624	0.000214	20.923525
1740.449137	-3.002200	3.401500	-10.211000	26.368158	0.000213	20.909756
1741.446506	-3.006400	3.401800	-10.226000	26.388420	0.000211	20.911154
1742.447710	-3.011100	3.400800	-10.239000	26.312218	0.000211	20.912805
1743.450714	-2.989900	3.401500	-10.169000	26.303281	0.000209	20.923263
1744.444649	-3.027200	3.401200	-10.295000	26.261042	0.000211	20.918274
1745.448545	-3.009400	3.399600	-10.230000	26.282749	0.000209	20.903105
1746.449941	-3.008800	3.399500	-10.228000	26.279869	0.000207	20.918701
1747.444840	-3.010600	3.398500	-10.230000	26.324027	0.000210	20.913293
1748.449795	-3.006400	3.401000	-10.224000	26.331452	0.000208	20.900368
1749.449399	-2.991900	3.399600	-10.170000	26.321797	0.000209	20.891139
1750.451038	-2.996100	3.399300	-10.184000	26.252418	0.000210	20.909133
1751.453168	-2.988900	3.399800	-10.161000	26.248569	0.000208	20.909533
1752.450242	-2.996200	3.398000	-10.180000	26.295606	0.000208	20.913654
1753.451426	-3.001900	3.398500	-10.201000	26.284729	0.000211	20.930223
1754.454117	-2.955100	3.398500	-10.042000	26.317361	0.000208	20.910388
1755.451113	-2.967400	3.398800	-10.085000	26.321662	0.000207	20.904753
1756.454659	-3.001500	3.396800	-10.195000	26.356874	0.000206	20.922122
1757.456588	-3.007000	3.397100	-10.214000	26.350272	0.000207	20.910272
1758.456536	-3.011100	3.396800	-10.227000	26.368696	0.000205	20.913615
1759.458933	-3.001900	3.395800	-10.193000	26.359661	0.000206	20.925396
1760.454288	-2.990900	3.394000	-10.151000	26.365001	0.000206	20.915592
1761.452307	-2.997200	3.395900	-10.177000	26.337838	0.000204	20.927172
1762.454254	-3.005800	3.394700	-10.203000	26.337964	0.000204	20.923032
1763.457125	-3.012900	3.394800	-10.228000	26.340150	0.000203	20.932340
1764.451989	-2.971000	3.395100	-10.086000	26.352225	0.000205	20.918872
1765.459521	-2.994700	3.394600	-10.165000	26.342339	0.000202	20.936436
1766.453528	-3.009800	3.394200	-10.215000	26.335364	0.000204	20.918048
1767.455825	-2.982000	3.393900	-10.120000	26.330029	0.000202	20.938288
1768.460156	-2.982700	3.392200	-10.116000	26.299935	0.000202	20.933650
1769.452677	-3.007900	3.393900	-10.208000	26.259608	0.000202	20.919203
1770.457860	-3.005800	3.393600	-10.200000	26.295642	0.000200	20.923647
1771.458961	-2.998600	3.393300	-10.174000	26.307962	0.000200	20.911372
1772.459014	-3.001600	3.391600	-10.179000	26.312186	0.000199	20.945486
1773.458838	-2.994000	3.391000	-10.151000	26.337962	0.000199	20.915444
1774.459047	-3.010400	3.391700	-10.210000	26.402947	0.000201	20.912952
1775.458109	-2.993000	3.392100	-10.151000	26.390410	0.000201	20.913628
1776.457366	-2.990700	3.392100	-10.144000	26.357585	0.000199	20.906717
1777.462697	-3.008400	3.390300	-10.198000	26.382818	0.000200	20.914532
1778.458074	-3.011000	3.389100	-10.203000	26.365831	0.000199	20.918796
1779.458985	-3.000500	3.388800	-10.167000	26.363478	0.000197	20.886088
1780.460351	-2.977200	3.390800	-10.094000	26.336912	0.000196	20.906803
1781.464480	-2.969200	3.389800	-10.064000	26.348830	0.000196	20.913565
1782.462184	-2.981900	3.389400	-10.106000	26.340168	0.000199	20.899645
1783.458705	-2.977000	3.388600	-10.086000	26.325968	0.000198	20.900072
1784.460013	-2.998400	3.387800	-10.157000	26.344843	0.000197	20.888696
1785.460042	-3.003400	3.387600	-10.174000	26.401906	0.000197	20.905743
1786.457093	-3.004400	3.388800	-10.181000	26.425417	0.000197	20.915621
1787.459445	-3.000300	3.387900	-10.164000	26.423558	0.000195	20.897159
1788.455773	-3.018400	3.387200	-10.224000	26.398212	0.000196	20.899185
1789.458414	-3.009500	3.387000	-10.192000	26.406629	0.000193	20.893421
1790.459412	-3.002200	3.386700	-10.167000	26.400475	0.000196	20.918527
1791.455441	-3.044700	3.384100	-10.302000	26.382227	0.000194	20.879802
1792.457862	-3.009600	3.384700	-10.185000	26.343620	0.000195	20.894106
1793.459136	-2.991900	3.385100	-10.127000	26.391394	0.000194	20.890437
1794.461112	-2.990300	3.386600	-10.127000	26.374018	0.000193	20.904740
1795.469609	-3.019000	3.384200	-10.215000	26.374986	0.000192	20.857827
1796.463218	-2.984800	3.384000	-10.100000	26.355843	0.000193	20.902122
1797.464006	-3.015200	3.383700	-10.201000	26.354308	0.000193	20.878295
1798.461902	-3.010100	3.383200	-10.183000	26.299853	0.000194	20.868614
1799.464890	-2.994700	3.383300	-10.131000	26.317736	0.000192	20.881369
1800.463146	-3.004100	3.383800	-10.165000	26.320119	0.000192	20.890402
1801.462259	-2.982800	3.383200	-10.090000	26.326974	0.000194	20.862680
1802.463570	-2.965100	3.383200	-10.030000	26.376589	0.000195	20.889308
1803.466674	-2.993500	3.381800	-10.123000	26.409168	0.000192	20.862785
1804.462482	-2.998800	3.382500	-10.142000	26.356706	0.000192	20.864111
1805.462737	-3.022000	3.380600	-10.215000	26.360286	0.000194	20.859648
1806.462136	-3.029500	3.380800	-10.241000	26.412551	0.000191	20.878985
1807.465776	-3.021400	3.380900	-10.214000	26.405154	0.000189	20.869181
1808.463530	-3.003800	3.381800	-10.157000	26.387226	0.000190	20.889568
1809.463932	-3.012300	3.379200	-10.178000	26.374640	0.000190	20.899202
1810.465076	-3.013900	3.379800	-10.186000	26.338213	0.000191	20.887250
1811.468176	-3.013200	3.379600	-10.182000	26.343033	0.000189	20.873602
1812.469298	-3.000700	3.379800	-10.140000	26.376702	0.000190	20.867138
1813.465577	-3.019900	3.378900	-10.203000	26.359049	0.000188	20.862199
1814.469359	-3.027800	3.378300	-10.228000	26.313332	0.000188	20.853711
1815.465714	-3.020400	3.377400	-10.200000	26.317380	0.000188	20.853513
1816.465290	-2.976500	3.379300	-10.057000	26.385071	0.000188	20.848997
1817.468596	-2.974100	3.378400	-10.047000	26.405184	0.000187	20.867789
1818.468352	-3.013100	3.375600	-10.170000	26.467307	0.000186	20.854839
1819.467531	-3.002000	3.376200	-10.134000	26.438133	0.000187	20.856336
1820.464584	-2.973600	3.377500	-10.043000	26.389119	0.000185	20.844058
1821.464257	-2.984100	3.376700	-10.075000	26.419211	0.000186	20.863869
1822.473285	-2.984500	3.375500	-10.073000	26.437760	0.000188	20.864969
1823.466858	-2.980400	3.376100	-10.061000	26.499385	0.000187	20.864321
1824.470677	-2.994100	3.375800	-10.107000	26.507703	0.000187	20.845657
1825.472526	-2.986500	3.375200	-10.079000	26.463755	0.000186	20.860277
1826.467039	-3.005700	3.374600	-10.142000	26.426244	0.000188	20.859558
1827.470979	-3.025100	3.374600	-10.208000	26.451444	0.000182	20.868291
1828.467930	-2.991200	3.374300	-10.091000	26.425621	0.000185	20.858458
1829.466410	-3.008000	3.375400	-10.152000	26.469296	0.000184	20.849251
1830.468451	-2.995800	3.372700	-10.102000	26.484761	0.000183	20.865744
1831.473640	-3.011000	3.373000	-10.154000	26.455837	0.000183	20.854690
1832.470067	-3.011800	3.371400	-10.153000	26.499533	0.000182	20.845979
1833.468572	-3.013800	3.371400	-10.160000	26.494889	0.000184	20.861226
1834.469341	-3.013700	3.372300	-10.163000	26.518549	0.000183	20.856085
1835.473456	-3.001700	3.372000	-10.120000	26.530586	0.000184	20.858700
1836.471351	-2.990500	3.371900	-10.082000	26.588256	0.000182	20.878737
1837.467870	-3.017000	3.370500	-10.168000	26.598655	0.000182	20.859794
1838.470970	-3.024100	3.370200	-10.191000	26.579414	0.000183	20.862738
1839.472486	-2.993400	3.371300	-10.090000	26.593836	0.000182	20.835511
1840.467706	-2.992300	3.371200	-10.087000	26.565359	0.000182	20.859516
1841.470917	-2.999800	3.370100	-10.109000	26.586983	0.000180	20.854226
1842.469040	-2.991400	3.370300	-10.081000	26.625506	0.000181	20.837476
1843.469078	-3.008500	3.370000	-10.138000	26.591247	0.000180	20.849503
1844.473269	-2.998200	3.369000	-10.100000	26.585383	0.000179	20.845980
1845.473834	-3.008200	3.368100	-10.131000	26.604923	0.000179	20.863724
1846.470674	-2.999700	3.369500	-10.107000	26.546581	0.000177	20.848227
1847.470453	-3.007500	3.367300	-10.126000	26.471754	0.000178	20.856938
1848.470212	-3.008600	3.367000	-10.129000	26.478229	0.000177	20.835472
1849.475218	-3.008900	3.368600	-10.135000	26.495134	0.000178	20.849144
1850.471925	-2.995000	3.367800	-10.085000	26.475245	0.000178	20.847645
1851.475332	-3.001300	3.367600	-10.105000	26.459452	0.000178	20.869228
1852.471334	-3.011500	3.365800	-10.135000	26.419030	0.000178	20.847093
1853.474697	-2.994900	3.366100	-10.080000	26.421959	0.000176	20.849089
1854.476271	-3.007800	3.364400	-10.117000	26.409567	0.000176	20.848488
1855.479940	-3.011200	3.365200	-10.132000	26.443605	0.000174	20.855197
1856.473998	-2.980400	3.365600	-10.029000	26.423668	0.000172	20.835159
1857.472637	-2.996000	3.364500	-10.079000	26.442088	0.000174	20.856517
1858.475757	-3.013300	3.363200	-10.133000	26.456934	0.000175	20.839672
1859.481755	-3.001200	3.365100	-10.098000	26.487199	0.000175	20.836901
1860.475914	-3.019300	3.364700	-10.159000	26.492160	0.000175	20.839991
1861.475849	-3.000800	3.364400	-10.096000	26.573713	0.000175	20.845628
1862.472219	-2.985000	3.363700	-10.040000	26.549580	0.000172	20.845551
1863.475269	-3.009600	3.363700	-10.122000	26.556606	0.000172	20.829855
1864.476130	-2.972300	3.363600	-9.996800	26.513702	0.000171	20.832722
1865.478398	-3.017900	3.363300	-10.149000	26.492022	0.000174	20.844594
1866.473780	-3.000100	3.361300	-10.083000	26.488770	0.000171	20.849385
1867.481838	-3.001100	3.361100	-10.086000	26.466050	0.000172	20.844566
1868.481632	-2.981400	3.362400	-10.024000	26.449462	0.000171	20.853498
1869.475613	-3.006600	3.361900	-10.107000	26.441560	0.000169	20.839866
1870.476201	-3.009900	3.360500	-10.114000	26.422489	0.000168	20.829234
1871.478006	-3.002200	3.361600	-10.090000	26.429316	0.000169	20.848896
1872.477482	-2.984000	3.361800	-10.031000	26.444832	0.000170	20.839361
1873.474665	-2.974000	3.361000	-9.993900	26.486940	0.000168	20.852761
1874.480870	-3.007200	3.360600	-10.105000	26.495129	0.000169	20.845346
1875.479848	-3.004900	3.359900	-10.095000	26.515931	0.000170	20.846341
1876.477392	-2.991800	3.359800	-10.050000	26.519057	0.000166	20.847112
1877.477365	-3.008100	3.358200	-10.101000	26.511362	0.000167	20.854076
1878.478858	-3.002500	3.358900	-10.083000	26.460113	0.000164	20.831488
1879.478603	-3.022500	3.356600	-10.144000	26.470541	0.000166	20.833434
1880.482666	-2.986400	3.357900	-10.028000	26.477888	0.000166	20.839397
1881.483043	-3.014600	3.356700	-10.118000	26.492186	0.000166	20.851396
1882.479241	-2.972800	3.357400	-9.980700	26.490570	0.000165	20.836497
1883.480332	-2.990700	3.358300	-10.043000	26.523961	0.000166	20.831179
1884.484400	-2.979600	3.358200	-10.006000	26.529547	0.000165	20.847699
1885.488997	-3.003600	3.357100	-10.083000	26.567505	0.000164	20.846974
1886.484974	-2.987000	3.356600	-10.025000	26.598436	0.000164	20.833497
1887.487696	-2.994300	3.354900	-10.044000	26.619187	0.000167	20.847244
1888.484634	-2.952600	3.356500	-9.909100	26.655477	0.000163	20.845320
1889.489862	-2.978800	3.355000	-9.993300	26.636013	0.000163	20.835711
1890.492446	-3.016700	3.354600	-10.119000	26.571542	0.000164	20.838230
1891.483160	-2.995700	3.353100	-10.044000	26.594630	0.000162	20.839628
1892.491689	-3.022100	3.353700	-10.134000	26.586361	0.000161	20.838903
1893.496670	-2.979100	3.355000	-9.993700	26.542220	0.000159	20.834360
1894.488545	-2.998400	3.351500	-10.048000	26.532240	0.000159	20.834285
1895.488055	-2.996300	3.352600	-10.045000	26.543437	0.000158	20.850282
1896.492265	-2.995400	3.352900	-10.043000	26.602522	0.000160	20.843768
1897.487774	-2.978600	3.352900	-9.985500	26.566748	0.000159	20.850006
1898.482895	-3.000300	3.353100	-10.059000	26.622878	0.000158	20.831041
1899.484131	-3.007400	3.352200	-10.081000	26.623078	0.000159	20.841673
1900.488680	-3.018200	3.351300	-10.114000	26.635986	0.000157	20.831890
1901.487204	-3.001300	3.350600	-10.056000	26.665256	0.000156	20.834762
1902.485769	-3.001900	3.350900	-10.058000	26.687475	0.000156	20.830073
1903.490957	-3.016800	3.348800	-10.101000	26.713936	0.000156	20.814476
1904.487981	-2.998400	3.350400	-10.045000	26.712524	0.000155	20.817324
1905.489006	-2.970400	3.351200	-9.952500	26.662728	0.000155	20.843600
1906.487410	-3.011900	3.349500	-10.086000	26.698304	0.000156	20.812985
1907.489157	-3.012900	3.348600	-10.088000	26.713199	0.000158	20.820847
1908.490037	-3.010800	3.349300	-10.084000	26.640396	0.000154	20.817831
1909.490222	-3.015200	3.348800	-10.097000	26.632802	0.000153	20.830586
1910.487623	-3.008400	3.348300	-10.071000	26.623742	0.000154	20.858935
1911.486346	-3.010000	3.347500	-10.075000	26.619053	0.000153	20.823403
1912.494188	-3.003800	3.347200	-10.054000	26.579882	0.000153	20.832864
1913.489073	-3.012500	3.347300	-10.083000	26.588644	0.000152	20.820335
1914.491664	-2.994700	3.347900	-10.025000	26.622163	0.000153	20.828426
1915.495584	-3.022100	3.345700	-10.111000	26.626830	0.000153	20.831695
1916.496357	-3.026800	3.345200	-10.125000	26.578626	0.000152	20.827334
1917.492385	-3.004600	3.347000	-10.056000	26.579419	0.000151	20.821967
1918.491437	-3.021600	3.345600	-10.108000	26.578053	0.000153	20.836241
1919.493847	-3.013100	3.344800	-10.078000	26.621576	0.000151	20.808396
1920.490922	-3.029200	3.344200	-10.128000	26.588759	0.000152	20.805278
1921.492171	-2.996600	3.344600	-10.021000	26.594669	0.000151	20.819754
1922.496352	-3.010300	3.344400	-10.067000	26.627886	0.000150	20.813791
1923.491522	-2.995200	3.344700	-10.017000	26.620142	0.000150	20.829239
1924.500170	-2.975400	3.344300	-9.949700	26.589708	0.000148	20.808603
1925.494345	-3.021900	3.342400	-10.100000	26.575410	0.000149	20.810825
1926.496208	-3.001000	3.343800	-10.033000	26.580127	0.000149	20.822205
1927.494091	-2.984500	3.343900	-9.978000	26.624714	0.000149	20.812973
1928.496720	-2.985000	3.341300	-9.972700	26.627349	0.000147	20.819415
1929.498041	-2.985000	3.342900	-9.977800	26.660267	0.000147	20.811255
1930.493225	-2.983300	3.341800	-9.969000	26.690131	0.000146	20.818045
1931.492560	-2.994100	3.342000	-10.006000	26.717637	0.000148	20.809188
1932.496642	-3.002500	3.341300	-10.031000	26.679983	0.000146	20.795515
1933.500968	-3.003300	3.341600	-10.035000	26.615341	0.000145	20.804973
1934.496785	-2.992500	3.339600	-9.993000	26.598611	0.000145	20.806172
1935.498116	-2.995800	3.339000	-10.002000	26.623143	0.000144	20.822773
1936.502047	-2.998200	3.341200	-10.017000	26.655139	0.000143	20.817480
1937.499719	-3.019600	3.339400	-10.083000	26.712510	0.000141	20.805930
1938.497000	-2.991200	3.340000	-9.990300	26.708740	0.000144	20.809252
1939.498342	-3.001200	3.338900	-10.020000	26.729168	0.000143	20.807030
1940.502434	-2.993400	3.339500	-9.995900	26.737191	0.000143	20.803717
1941.495897	-2.999300	3.338900	-10.014000	26.715274	0.000143	20.806339
1942.497373	-3.023100	3.337200	-10.087000	26.693557	0.000144	20.781187
1943.501889	-2.987800	3.337900	-9.972100	26.704578	0.000142	20.780886
1944.499068	-2.997000	3.337400	-10.002000	26.678967	0.000140	20.803503
1945.504729	-3.000300	3.337300	-10.012000	26.696643	0.000140	20.804677
1946.499775	-2.978200	3.335800	-9.933900	26.713526	0.000141	20.807900
1947.500437	-2.994600	3.335800	-9.987800	26.754285	0.000139	20.809998
1948.503656	-2.984500	3.335800	-9.953400	26.777048	0.000141	20.790685
1949.506377	-2.992500	3.335200	-9.979300	26.790903	0.000139	20.794657
1950.499717	-2.975700	3.336600	-9.928200	26.726518	0.000140	20.789668
1951.502935	-3.002500	3.335100	-10.012000	26.749630	0.000137	20.792516
1952.502388	-2.999500	3.334100	-9.999000	26.749263	0.000139	20.797837
1953.500276	-2.961000	3.336100	-9.877500	26.678075	0.000137	20.789330
1954.503674	-2.998300	3.333900	-9.994600	26.694188	0.000136	20.776605
1955.504470	-2.997100	3.333100	-9.988200	26.751827	0.000138	20.764853
1956.504646	-2.987700	3.333600	-9.957500	26.781320	0.000136	20.795927
1957.506784	-3.014300	3.332100	-10.043000	26.755313	0.000137	20.789221
1958.502218	-2.982900	3.331900	-9.936700	26.751491	0.000136	20.762618
1959.502222	-2.997700	3.332000	-9.987800	26.768500	0.000135	20.784934
1960.509194	-2.999800	3.331600	-9.993600	26.712306	0.000134	20.775854
1961.507636	-2.991900	3.330600	-9.964400	26.735767	0.000134	20.784742
1962.502249	-3.007400	3.330600	-10.015000	26.744111	0.000132	20.791709
1963.504167	-3.000200	3.330900	-9.992000	26.736143	0.000135	20.781327
1964.503690	-2.999300	3.329500	-9.985000	26.705645	0.000136	20.776743
1965.506858	-2.956700	3.331300	-9.849000	26.709245	0.000133	20.790320
1966.505352	-2.989200	3.330400	-9.954300	26.740129	0.000134	20.769212
1967.505795	-2.980500	3.330300	-9.925100	26.732712	0.000134	20.746108
1968.503594	-2.990500	3.328300	-9.951700	26.767685	0.000131	20.768943
1969.504999	-2.996100	3.328800	-9.972000	26.743066	0.000133	20.755570
1970.503676	-2.986700	3.328200	-9.938700	26.716514	0.000131	20.763962
1971.504389	-3.009600	3.327600	-10.014000	26.704005	0.000130	20.791216
1972.506181	-2.982400	3.327700	-9.923700	26.678937	0.000128	20.762695
1973.509934	-2.986900	3.328000	-9.939300	26.661366	0.000130	20.771109
1974.504911	-2.976600	3.327900	-9.904400	26.694908	0.000130	20.771165
1975.508062	-2.991500	3.326800	-9.951100	26.731325	0.000131	20.776009
1976.520348	-3.019600	3.326200	-10.043000	26.717007	0.000130	20.767303
1977.510492	-2.977700	3.328100	-9.909500	26.740196	0.000131	20.760271
1978.509170	-3.011500	3.325500	-10.014000	26.792098	0.000130	20.755554
1979.509043	-3.007400	3.325100	-9.999100	26.810144	0.000132	20.767536
1980.508695	-3.000100	3.326700	-9.979800	26.791133	0.000129	20.746523
1981.511937	-2.996600	3.326100	-9.966400	26.707784	0.000128	20.758031
1982.510773	-3.014000	3.325500	-10.021000	26.700192	0.000128	20.735698
1983.514463	-2.985100	3.325100	-9.924900	26.708287	0.000127	20.733405
1984.510040	-2.999000	3.323400	-9.965900	26.733810	0.000124	20.741522
1985.512841	-2.979400	3.324600	-9.903500	26.769677	0.000126	20.744866
1986.517278	-3.027500	3.321800	-10.055000	26.771865	0.000127	20.759395
1987.516320	-3.003900	3.323300	-9.982000	26.825106	0.000127	20.755552
1988.513402	-3.011100	3.321200	-9.999300	26.826474	0.000125	20.752660
1989.509752	-2.979200	3.322600	-9.897900	26.750998	0.000128	20.748845
1990.513127	-2.985500	3.321800	-9.916400	26.823426	0.000123	20.761924
1991.515045	-2.974400	3.323200	-9.883600	26.823007	0.000126	20.752493
1992.515607	-2.996200	3.320900	-9.949600	26.808736	0.000125	20.752369
1993.512357	-2.998700	3.321400	-9.958900	26.835891	0.000126	20.740791
1994.518958	-3.004900	3.320100	-9.974800	26.887544	0.000126	20.759538
1995.515704	-3.014700	3.320000	-10.007000	26.939265	0.000122	20.756544
1996.512897	-2.978300	3.320100	-9.887500	26.927107	0.000122	20.752379
1997.519944	-3.016900	3.319700	-10.015000	26.924602	0.000122	20.762662
1998.514012	-3.022700	3.319300	-10.032000	26.955652	0.000122	20.745520
1999.520489	-3.003700	3.318300	-9.966400	26.938430	0.000120	20.747643
2000.522404	-3.021100	3.318300	-10.024000	26.919396	0.000118	20.745099
2001.514993	-3.018000	3.318200	-10.013000	26.840552	0.000118	20.734571
2002.520950	-3.025200	3.317800	-10.036000	26.841248	0.000119	20.742384
2003.519143	-2.988800	3.318300	-9.916900	26.890938	0.000119	20.756312
2004.514511	-3.005100	3.317300	-9.968000	26.836887	0.000118	20.731835
2005.516877	-2.993200	3.316400	-9.925800	26.822345	0.000118	20.736654
2006.523453	-2.968000	3.317200	-9.844600	26.805646	0.000118	20.714647
2007.515143	-2.997200	3.315900	-9.937900	26.726617	0.000117	20.741402
2008.519326	-2.952000	3.316400	-9.789100	26.695638	0.000116	20.742025
2009.524079	-2.998500	3.314600	-9.938000	26.736651	0.000117	20.725885
2010.517827	-3.005000	3.315300	-9.962000	26.791782	0.000116	20.725839
2011.519328	-3.002800	3.315000	-9.952500	26.880589	0.000116	20.744958
2012.522601	-2.986500	3.314200	-9.897000	26.932709	0.000116	20.739045
2013.514961	-3.012500	3.312800	-9.979500	26.953585	0.000116	20.740123
2014.520028	-2.984000	3.313100	-9.885100	27.008164	0.000114	20.733368
2015.522033	-2.995400	3.312700	-9.922300	27.046133	0.000116	20.738835
2016.516661	-3.000300	3.313000	-9.939500	27.038272	0.000113	20.730929
2017.515969	-3.026500	3.313200	-10.026000	26.998519	0.000114	20.743109
2018.521460	-2.991100	3.313200	-9.909100	26.960182	0.000114	20.744860
2019.516621	-2.991800	3.312000	-9.908200	26.891218	0.000114	20.744265
2020.519496	-3.005900	3.312600	-9.955500	26.860123	0.000112	20.749035
2021.520143	-2.997000	3.312300	-9.926600	26.890528	0.000111	20.757322
2022.515889	-3.019300	3.309700	-9.991800	26.926393	0.000112	20.740280
2023.522863	-3.034000	3.311000	-10.044000	26.954417	0.000110	20.740485
2024.518174	-3.012000	3.309200	-9.965100	26.936974	0.000111	20.744282
2025.520450	-3.003800	3.311000	-9.943800	26.920125	0.000112	20.720226
2026.524214	-2.996100	3.309300	-9.914400	26.876275	0.000112	20.740145
2027.519689	-3.009400	3.309200	-9.957200	26.903033	0.000111	20.740973
2028.522589	-3.017600	3.309600	-9.986400	26.862532	0.000110	20.747664
2029.521569	-3.019900	3.307800	-9.988600	26.888668	0.000109	20.738856
2030.520690	-3.024900	3.308600	-10.007000	26.948307	0.000110	20.731022
2031.523591	-3.020500	3.307800	-9.989900	27.023948	0.000110	20.743552
2032.528903	-2.982200	3.308200	-9.864600	27.010996	0.000109	20.757554
2033.521549	-2.991300	3.307500	-9.893000	26.993748	0.000109	20.735466
2034.524870	-2.995300	3.307100	-9.905300	27.007699	0.000110	20.738116
2035.522995	-3.003700	3.308000	-9.933700	26.986183	0.000108	20.749196
2036.521708	-2.995100	3.306900	-9.903100	26.948585	0.000108	20.727507
2037.525879	-3.004500	3.305600	-9.930600	26.936948	0.000107	20.739514
2038.531260	-2.979200	3.305700	-9.846700	26.916080	0.000107	20.734177
2039.527923	-3.005100	3.305300	-9.931500	26.942686	0.000107	20.737224
2040.532008	-3.001000	3.305800	-9.920100	27.002861	0.000107	20.730405
2041.523249	-3.011000	3.303700	-9.946500	27.049964	0.000107	20.733204
2042.522739	-2.993400	3.304800	-9.892300	27.012815	0.000106	20.738519
2043.526744	-2.987000	3.302700	-9.864700	26.986439	0.000104	20.733806
2044.524696	-2.999400	3.303900	-9.909100	27.021231	0.000104	20.730387
2045.529525	-3.000100	3.304500	-9.912300	26.972118	0.000103	20.743587
2046.531738	-2.960800	3.304100	-9.781900	26.962642	0.000104	20.739747
2047.525148	-3.008300	3.301500	-9.930800	26.967487	0.000104	20.744619
2048.530253	-3.002600	3.302700	-9.916300	26.997142	0.000102	20.745992
2049.529051	-3.025900	3.302300	-9.991500	26.967518	0.000101	20.745125
2050.526096	-2.988600	3.302800	-9.869500	27.004391	0.000102	20.741427
2051.530420	-3.002600	3.300800	-9.910400	27.009032	0.000102	20.725705
2052.532294	-2.995100	3.301100	-9.886100	26.968461	0.000101	20.752238
2053.524847	-2.983200	3.301700	-9.847500	27.001467	9.984882E-5	20.734219
2054.528605	-2.992700	3.301400	-9.878600	26.998863	9.925478E-5	20.764318
2055.530402	-2.987100	3.300100	-9.857000	27.011991	0.000101	20.753338
2056.530188	-2.999000	3.300100	-9.896500	27.059115	0.000100	20.750943
2057.543685	-3.013900	3.299700	-9.943900	27.059783	9.965081E-5	20.749718
2058.534785	-2.994800	3.299300	-9.878900	26.989608	9.984882E-5	20.735096
2059.532608	-3.008200	3.297400	-9.917800	27.027898	9.961780E-5	20.749895
2060.534511	-2.993900	3.298000	-9.873000	27.045023	0.000102	20.731080
2061.533209	-2.980200	3.298400	-9.829300	27.001202	0.000100	20.741066
2062.532037	-3.002500	3.298000	-9.901300	26.965787	9.872674E-5	20.749548
2063.531621	-3.004200	3.297000	-9.904000	27.017279	9.813270E-5	20.737319
2064.534171	-2.997600	3.297700	-9.884300	27.035794	0.000101	20.747878
2065.535996	-2.986700	3.297300	-9.847600	27.044752	9.816570E-5	20.737446
2066.535407	-3.013600	3.296600	-9.933900	27.023461	9.875974E-5	20.737846
2067.534537	-3.012300	3.295400	-9.924900	27.067953	9.509647E-5	20.761728
2068.539650	-2.997600	3.295600	-9.877900	27.065075	9.780267E-5	20.755988
2069.535799	-2.996800	3.296700	-9.878600	27.091649	9.291831E-5	20.740040
2070.535410	-2.998700	3.293700	-9.875700	27.135916	9.305032E-5	20.753741
2071.537399	-2.992300	3.293600	-9.854900	27.126762	9.572352E-5	20.747379
2072.532546	-2.984300	3.294700	-9.831300	27.144131	9.285231E-5	20.762952
2073.537180	-2.996300	3.294600	-9.870600	27.187998	9.384238E-5	20.763451
2074.536277	-2.994700	3.292800	-9.860100	27.133165	9.281931E-5	20.747181
2075.537450	-2.995200	3.293600	-9.863500	27.113392	9.268730E-5	20.747209
2076.542418	-2.992300	3.293400	-9.854300	27.180216	9.209325E-5	20.757520
2077.544146	-3.004000	3.292000	-9.888200	27.173289	9.324834E-5	20.746759
2078.539005	-3.011400	3.292200	-9.912700	27.210633	9.153221E-5	20.744491
2079.536496	-2.996100	3.291500	-9.860900	27.169152	8.971708E-5	20.760616
2080.543403	-3.024700	3.290500	-9.951800	27.128482	9.159822E-5	20.752902
2081.537507	-3.007900	3.291200	-9.899400	27.116896	8.846299E-5	20.745043
2082.538481	-2.990800	3.290800	-9.841000	27.151438	9.011311E-5	20.752283
2083.541710	-3.002300	3.290900	-9.879900	27.142878	8.882602E-5	20.768330
2084.543848	-3.002400	3.290100	-9.877700	27.090449	8.882602E-5	20.763964
2085.541672	-2.995900	3.290600	-9.857000	27.096110	8.994810E-5	20.756380
2086.545683	-3.012600	3.289500	-9.909700	27.148961	8.866100E-5	20.762120
2087.542098	-3.007900	3.288100	-9.889500	27.201138	8.750592E-5	20.752010
2088.541344	-3.013500	3.287200	-9.903700	27.245798	9.100417E-5	20.777017
2089.542408	-2.996600	3.287200	-9.849400	27.316655	9.050914E-5	20.745874
2090.544354	-2.990300	3.287300	-9.829400	27.305441	8.767093E-5	20.774898
2091.540367	-2.993200	3.286100	-9.835200	27.273662	8.687887E-5	20.765216
2092.540006	-2.998400	3.286500	-9.853600	27.236373	8.909004E-5	20.763744
2093.552598	-3.002200	3.287600	-9.868800	27.219477	8.608682E-5	20.773776
2094.545180	-2.992000	3.285800	-9.830300	27.196103	8.852899E-5	20.767810
2095.545881	-2.998800	3.285300	-9.850800	27.175512	8.922204E-5	20.758479
2096.548562	-3.012000	3.285100	-9.893700	27.236096	8.437069E-5	20.760146
2097.545445	-2.993300	3.284600	-9.830900	27.214414	8.585580E-5	20.771055
2098.545576	-3.016200	3.285900	-9.910300	27.256861	8.387565E-5	20.776292
2099.548564	-3.003200	3.284300	-9.862000	27.276561	8.608682E-5	20.768606
2100.545003	-3.008300	3.284300	-9.879300	27.325534	8.361163E-5	20.766186
2101.546708	-3.006600	3.282600	-9.868600	27.338063	8.423868E-5	20.771204
2102.547074	-3.009500	3.283400	-9.880400	27.320447	8.367764E-5	20.791890
2103.543825	-2.990400	3.282100	-9.813100	27.336400	8.159849E-5	20.775694
2104.546649	-3.003700	3.281600	-9.855900	27.339699	8.374364E-5	20.762417
2105.549032	-2.994400	3.283000	-9.830100	27.321218	8.334762E-5	20.782707
2106.547024	-2.968400	3.282400	-9.742600	27.332530	8.215953E-5	20.768482
2107.548641	-3.022000	3.280900	-9.914100	27.348929	8.159849E-5	20.769806
2108.551873	-3.009900	3.280600	-9.872700	27.332777	8.298459E-5	20.763514
2109.547892	-2.999000	3.279100	-9.833200	27.337916	7.925532E-5	20.773426
2110.551704	-3.016400	3.280100	-9.892600	27.356196	7.925532E-5	20.779487
2111.554052	-3.002200	3.280100	-9.846100	27.354015	7.981636E-5	20.778716
2112.548405	-2.992900	3.277800	-9.809500	27.367463	8.024539E-5	20.792243
2113.549570	-3.004900	3.278200	-9.850000	27.358905	7.836425E-5	20.775574
2114.553432	-2.993900	3.279000	-9.815800	27.376319	7.592207E-5	20.774600
2115.554107	-2.993000	3.279500	-9.814700	27.320999	7.697815E-5	20.788178
2116.554266	-3.010200	3.277200	-9.864200	27.284310	7.711016E-5	20.803428
2117.558362	-3.000100	3.279400	-9.837700	27.240324	7.645011E-5	20.803754
2118.554268	-3.003600	3.276800	-9.840900	27.215934	7.519602E-5	20.790127
2119.560202	-3.006700	3.275800	-9.847800	27.191572	7.697815E-5	20.776529
2120.560122	-3.006400	3.276000	-9.848200	27.201475	7.770420E-5	20.778429
2121.555364	-3.002500	3.276900	-9.837800	27.257593	7.542704E-5	20.783666
2122.551910	-2.986800	3.275100	-9.781200	27.248668	7.608708E-5	20.800293
2123.556735	-2.998600	3.275700	-9.821400	27.210660	7.701115E-5	20.799047
2124.552171	-3.006900	3.273900	-9.842000	27.232345	7.678014E-5	20.785771
2125.557409	-3.008000	3.273800	-9.846600	27.280300	7.410694E-5	20.790385
2126.561502	-2.966500	3.275300	-9.714000	27.314741	7.450297E-5	20.771451
2127.555910	-2.990600	3.273900	-9.790600	27.312880	7.575706E-5	20.781907
2128.557917	-3.011400	3.272400	-9.852600	27.337394	7.437096E-5	20.795661
2129.559137	-3.013800	3.272700	-9.862200	27.266615	7.288585E-5	20.794164
2130.554090	-3.006400	3.272600	-9.837500	27.267836	7.239081E-5	20.787805
2131.557457	-2.987700	3.272500	-9.775300	27.307034	7.298486E-5	20.792147
2132.559631	-3.009600	3.270300	-9.841800	27.316686	7.288585E-5	20.814659
2133.553244	-2.990000	3.270400	-9.777700	27.320538	7.262183E-5	20.790558
2134.555513	-2.989200	3.271200	-9.776400	27.356681	7.047667E-5	20.799415
2135.556483	-3.012900	3.268400	-9.845900	27.421601	7.318287E-5	20.810197
2136.555686	-2.984300	3.270500	-9.759500	27.452556	7.163176E-5	20.810044
2137.554339	-3.007200	3.269200	-9.830700	27.476272	7.410694E-5	20.792653
2138.554413	-3.002300	3.269600	-9.813800	27.491648	7.153275E-5	20.792476
2139.558743	-2.995300	3.267700	-9.786900	27.487607	7.041067E-5	20.803583
2140.566211	-3.008600	3.268100	-9.831200	27.482944	7.173077E-5	20.798891
2141.557588	-3.016500	3.267200	-9.854500	27.455781	7.354590E-5	20.798591
2142.562526	-3.015900	3.265400	-9.846900	27.412720	7.215980E-5	20.806478
2143.554915	-3.005900	3.267400	-9.820100	27.397711	7.103771E-5	20.813190
2144.556287	-3.017900	3.267200	-9.859600	27.448838	7.080670E-5	20.796347
2145.559089	-2.996400	3.267300	-9.789000	27.483239	6.902457E-5	20.807249
2146.559293	-2.998800	3.266400	-9.794300	27.500603	7.014665E-5	20.786312
2147.558375	-3.003800	3.266000	-9.809500	27.483461	6.843052E-5	20.801308
2148.564908	-3.022000	3.264200	-9.863500	27.498317	6.902457E-5	20.805823
2149.559710	-2.994400	3.265800	-9.778300	27.532442	6.991563E-5	20.824984
2150.564821	-2.981500	3.265200	-9.734400	27.553033	6.922258E-5	20.813933
2151.565980	-2.994100	3.264300	-9.773000	27.528798	6.836452E-5	20.807568
2152.557642	-2.991700	3.265900	-9.769900	27.498837	6.720943E-5	20.818675
2153.558274	-3.000200	3.263000	-9.788700	27.435951	6.869454E-5	20.802823
2154.563650	-2.998100	3.262100	-9.779100	27.363793	6.681341E-5	20.807518
2155.557789	-3.000900	3.262200	-9.789000	27.387606	6.701142E-5	20.811085
2156.562809	-3.001600	3.263900	-9.796200	27.413402	6.730844E-5	20.820440
2157.564548	-3.003800	3.262000	-9.796900	27.403554	6.612035E-5	20.828550
2158.562852	-3.026000	3.260500	-9.865700	27.473553	6.641738E-5	20.840178
2159.563679	-3.023800	3.258600	-9.852200	27.474844	6.720943E-5	20.825355
2160.562838	-2.993400	3.261100	-9.760600	27.472632	6.608735E-5	20.818388
2161.562964	-2.988200	3.260900	-9.743400	27.456706	6.447023E-5	20.798573
2162.565767	-2.996800	3.260300	-9.769200	27.463994	6.592234E-5	20.804483
2163.563073	-2.995600	3.259900	-9.764100	27.517151	6.519629E-5	20.835203
2164.559479	-2.999100	3.259700	-9.773800	27.553012	6.585634E-5	20.812490
2165.561773	-3.007900	3.259500	-9.803200	27.556484	6.311713E-5	20.838267
2166.564400	-2.974900	3.258500	-9.693100	27.562283	6.549331E-5	20.817550
2167.563803	-3.013300	3.256700	-9.811700	27.626916	6.397520E-5	20.837064
2168.561562	-3.000000	3.257200	-9.770500	27.641647	6.569132E-5	20.838136
2169.561433	-3.009700	3.256600	-9.800000	27.576561	6.384319E-5	20.833813
2170.561508	-3.002400	3.256000	-9.775100	27.567112	6.255609E-5	20.830469
2171.561249	-3.012900	3.257000	-9.812900	27.543795	6.001491E-5	20.811277
2172.561436	-3.000500	3.256300	-9.769400	27.612375	6.057595E-5	20.841399
2173.565449	-3.023400	3.255100	-9.840300	27.630802	5.981689E-5	20.829595
2174.567916	-3.009600	3.256800	-9.800000	27.620158	6.123600E-5	20.813669
2175.564792	-3.011700	3.254500	-9.800400	27.564278	5.994890E-5	20.838048
2176.563924	-2.999000	3.255000	-9.760200	27.506829	6.027893E-5	20.821500
2177.562741	-2.977900	3.253400	-9.687500	27.540884	5.895883E-5	20.851494
2178.577911	-3.023000	3.253800	-9.835300	27.591631	5.984990E-5	20.838070
2179.566936	-3.020800	3.251800	-9.821800	27.644359	5.958588E-5	20.831856
2180.567665	-2.995600	3.253200	-9.744200	27.708594	6.166503E-5	20.832957
2181.566608	-3.006000	3.252800	-9.777700	27.685600	5.922285E-5	20.871457
2182.568060	-2.994600	3.251700	-9.736100	27.595819	5.744072E-5	20.846551
2183.567499	-3.020000	3.251400	-9.817400	27.563901	5.727571E-5	20.860428
2184.562996	-2.976200	3.252100	-9.678400	27.594856	5.876082E-5	20.854590
2185.569637	-2.992700	3.250400	-9.726100	27.644556	5.925585E-5	20.850072
2186.572669	-2.987200	3.250900	-9.711000	27.667396	5.935486E-5	20.867838
2187.564142	-3.018400	3.249500	-9.807000	27.666151	5.849680E-5	20.849991
2188.569915	-2.995700	3.249100	-9.732500	27.669850	5.895883E-5	20.853713
2189.569936	-3.016400	3.247000	-9.793400	27.705682	5.948687E-5	20.841881
2190.568988	-3.012700	3.247400	-9.782600	27.644820	5.849680E-5	20.845596
2191.568332	-3.005800	3.248200	-9.762100	27.628876	5.862881E-5	20.852312
2192.568999	-3.021300	3.246000	-9.806300	27.574382	5.806777E-5	20.834465
2193.568520	-3.003100	3.246700	-9.749100	27.563789	5.664866E-5	20.842773
2194.569086	-3.006400	3.246100	-9.757800	27.536829	5.777074E-5	20.844570
2195.572430	-2.999000	3.245900	-9.733500	27.500390	5.390946E-5	20.860539
2196.567288	-2.994300	3.248100	-9.724900	27.513189	5.400847E-5	20.854449
2197.571620	-3.013200	3.245800	-9.779200	27.512643	5.549358E-5	20.859590
2198.569039	-3.005600	3.245000	-9.752700	27.479752	5.430549E-5	20.859690
2199.571688	-3.017600	3.244600	-9.789300	27.511771	5.526256E-5	20.866773
2200.571759	-3.000200	3.244600	-9.733800	27.600765	5.341442E-5	20.855794
2201.571632	-3.022300	3.243500	-9.801800	27.680323	5.417348E-5	20.860458
2202.574749	-3.007000	3.243600	-9.752600	27.628166	5.255636E-5	20.849227
2203.574605	-3.001600	3.243200	-9.733700	27.645971	5.427249E-5	20.893218
2204.570848	-2.996300	3.242300	-9.714300	27.682605	5.453651E-5	20.866547
2205.573436	-2.972900	3.243900	-9.642600	27.764239	5.437149E-5	20.866667
2206.573688	-3.004900	3.242800	-9.743800	27.784348	5.447050E-5	20.848498
2207.570793	-3.005300	3.240700	-9.738800	27.812986	5.255636E-5	20.892015
2208.573483	-2.994400	3.239800	-9.700600	27.801179	5.097225E-5	20.877290
2209.579176	-2.994300	3.241100	-9.704700	27.790913	5.004818E-5	20.873596
2210.578588	-2.998000	3.241800	-9.718000	27.770847	5.288639E-5	20.879954
2211.579822	-3.000900	3.239800	-9.721200	27.784858	5.077423E-5	20.856124
2212.579315	-2.995300	3.239100	-9.701600	27.727049	5.024619E-5	20.889458
2213.584618	-2.993400	3.239000	-9.694200	27.790681	5.206132E-5	20.880475
2214.578928	-2.996800	3.238600	-9.704000	27.789092	5.186331E-5	20.901633
2215.579446	-2.989600	3.236800	-9.676300	27.784922	5.123626E-5	20.887480
2216.581356	-3.008000	3.237400	-9.737400	27.770513	5.196232E-5	20.896687
2217.574771	-3.023700	3.237400	-9.787300	27.771434	5.117026E-5	20.892873
2218.583370	-3.021800	3.236200	-9.778400	27.747947	4.988317E-5	20.878246
2219.579597	-3.005900	3.236500	-9.727800	27.758481	4.998217E-5	20.891691
2220.581142	-3.029400	3.235000	-9.798500	27.707865	5.090624E-5	20.893386
2221.582028	-2.999500	3.235200	-9.703100	27.688522	5.067522E-5	20.883405
2222.582485	-3.010800	3.235900	-9.742400	27.687397	5.064222E-5	20.873265
2223.579474	-3.008800	3.234200	-9.730300	27.666295	4.958614E-5	20.884272
2224.583745	-3.008400	3.234000	-9.728600	27.720356	5.146728E-5	20.881774
2225.580927	-3.005200	3.234400	-9.719800	27.722708	4.889309E-5	20.895046
2226.577412	-3.008600	3.234900	-9.731300	27.715514	4.889309E-5	20.890178
2227.578919	-2.984200	3.232100	-9.644400	27.739544	4.948714E-5	20.881644
2228.583421	-2.985200	3.234600	-9.654500	27.745965	4.866208E-5	20.897113
2229.579041	-3.009100	3.231600	-9.723600	27.721239	4.823304E-5	20.890723
2230.581521	-3.004900	3.230400	-9.704800	27.759506	4.843106E-5	20.904101
2231.582440	-2.976400	3.230800	-9.615800	27.790029	4.767200E-5	20.887404
2232.584034	-2.984400	3.231300	-9.642500	27.751591	4.704496E-5	20.911782
2233.582782	-3.000100	3.230300	-9.690300	27.743750	4.727597E-5	20.896781
2234.587335	-2.995700	3.230700	-9.677000	27.676719	4.519682E-5	20.927474
2235.578482	-3.013400	3.229300	-9.730300	27.614990	4.773801E-5	20.908036
2236.584019	-2.997600	3.229300	-9.679300	27.696136	4.489980E-5	20.897704
2237.581981	-2.967800	3.232300	-9.592600	27.787793	4.542784E-5	20.881836
2238.597180	-3.004000	3.228500	-9.697900	27.821688	4.489980E-5	20.904091
2239.583882	-3.005200	3.227900	-9.698800	27.853109	4.417375E-5	20.917695
2240.583179	-2.996200	3.227000	-9.668000	27.826153	4.618689E-5	20.899102
2241.584630	-2.998100	3.226000	-9.671400	27.804428	4.727597E-5	20.924177
2242.584803	-2.991500	3.227700	-9.654500	27.871110	4.239162E-5	20.898829
2243.583221	-2.987300	3.226000	-9.636400	27.857198	4.334869E-5	20.903794
2244.585327	-2.993700	3.225000	-9.653900	27.862131	4.242462E-5	20.904491
2245.585115	-2.985500	3.224700	-9.626200	27.883584	4.407474E-5	20.914227
2246.583335	-3.000300	3.224100	-9.671700	27.845746	4.169856E-5	20.903648
2247.588353	-2.980700	3.225600	-9.613400	27.870122	4.229261E-5	20.899257
2248.585356	-2.997400	3.224900	-9.665500	27.865734	4.225961E-5	20.934192
2249.582793	-3.011700	3.223400	-9.706900	27.900845	4.229261E-5	20.913109
2250.588113	-2.996300	3.222900	-9.655900	27.892246	4.242462E-5	20.914885
2251.586057	-2.993700	3.223100	-9.647000	27.888104	4.163256E-5	20.914510
2252.584852	-2.984000	3.222300	-9.613700	27.918603	3.981743E-5	20.928609
2253.584879	-3.002400	3.222800	-9.674200	27.859299	3.945440E-5	20.925820
2254.587443	-3.000100	3.221000	-9.662000	27.876112	3.859634E-5	20.913819
2255.582221	-2.983500	3.221800	-9.611900	27.841101	4.113752E-5	20.914619
2256.586315	-2.982300	3.220500	-9.603100	27.868552	3.942140E-5	20.906212
2257.596598	-3.006000	3.218800	-9.675200	27.814918	3.849733E-5	20.918613
2258.588676	-2.972700	3.221000	-9.574300	27.819608	3.856333E-5	20.930918
2259.588531	-2.992500	3.219900	-9.634500	27.802003	3.869534E-5	20.926478
2260.588619	-2.994500	3.218100	-9.636200	27.893429	3.981743E-5	20.926980
2261.589869	-3.008500	3.217100	-9.677700	27.921674	3.889336E-5	20.921270
2262.585830	-3.003600	3.217700	-9.663900	27.901867	3.721024E-5	20.918403
2263.585709	-3.013100	3.217600	-9.694000	27.843375	3.737525E-5	20.928759
2264.586570	-2.996500	3.217100	-9.638700	27.858922	3.820031E-5	20.922596
2265.585709	-2.979500	3.216100	-9.582000	27.922749	3.674820E-5	20.942264
2266.589964	-2.991900	3.215700	-9.620500	27.927091	3.559312E-5	20.926721
2267.587904	-2.998100	3.213700	-9.633700	27.892753	3.579113E-5	20.943841
2268.587886	-3.003300	3.213500	-9.650100	27.904331	3.707823E-5	20.946958
2269.590010	-3.002300	3.215600	-9.652500	27.906194	3.820031E-5	20.929396
2270.591112	-2.982600	3.214700	-9.588000	27.941529	3.724324E-5	20.905694
2271.587087	-3.011700	3.214000	-9.678700	27.953109	3.641818E-5	20.917348
2272.590865	-2.998900	3.212200	-9.631800	27.901292	3.892636E-5	20.923515
2273.593318	-3.006300	3.212200	-9.655800	27.876823	3.476806E-5	20.934921
2274.588159	-3.023700	3.212600	-9.713100	27.913147	3.585714E-5	20.908421
2275.587465	-2.986600	3.211600	-9.591000	27.909726	3.523009E-5	20.928684
2276.589478	-2.977600	3.211100	-9.560900	27.888182	3.615416E-5	20.911269
2277.590011	-2.996900	3.208900	-9.615400	27.910946	3.278791E-5	20.931334
2278.586010	-2.978700	3.209800	-9.560500	27.864851	3.222687E-5	20.910073
2279.588188	-2.956700	3.210800	-9.492300	27.800609	3.384399E-5	20.922230
2280.587934	-3.006800	3.209800	-9.650500	27.768619	3.338195E-5	20.918961
2281.592210	-3.007300	3.207900	-9.645900	27.754709	3.414101E-5	20.913498
2282.588910	-3.004700	3.207300	-9.636200	27.777005	3.212786E-5	20.912702
2283.591690	-2.994400	3.209100	-9.608400	27.833272	3.556011E-5	20.914326
2284.593585	-3.021500	3.205800	-9.684700	27.820723	3.476806E-5	20.906913
2285.594454	-3.004800	3.206100	-9.632500	27.830919	3.183084E-5	20.932819
2286.588446	-3.007200	3.205700	-9.639700	27.889760	3.265590E-5	20.909064
2287.588914	-2.999400	3.205300	-9.613000	27.874639	3.473505E-5	20.890528
2288.591585	-2.992500	3.204500	-9.588700	27.907493	3.268890E-5	20.895145
2289.593454	-2.998800	3.204400	-9.608800	27.888452	3.146781E-5	20.918178
2290.595190	-2.974100	3.204900	-9.530800	27.899069	3.153382E-5	20.915114
2291.588697	-2.999200	3.202900	-9.605000	27.865272	3.364597E-5	20.909549
2292.592474	-3.013200	3.203300	-9.651600	27.858926	3.334895E-5	20.899369
2293.592394	-3.011000	3.203500	-9.644300	27.866341	3.110479E-5	20.905883
2294.591814	-3.005400	3.203400	-9.626900	27.823644	3.011471E-5	20.895629
2295.588445	-3.015200	3.201000	-9.650700	27.819780	3.123680E-5	20.876569
2296.597332	-3.011000	3.200700	-9.635700	27.847278	2.938866E-5	20.888121
2297.592548	-2.999700	3.200700	-9.600400	27.898805	3.047774E-5	20.903470
2298.592717	-3.018600	3.199800	-9.658200	27.907211	2.872861E-5	20.891069
2299.594442	-3.001400	3.199700	-9.602600	27.925383	2.938866E-5	20.906513
2300.590497	-2.987600	3.199700	-9.558400	27.918521	2.952067E-5	20.889650
2301.593678	-2.989200	3.198400	-9.559700	27.907636	2.971869E-5	20.910461
2302.595634	-2.975700	3.199000	-9.518200	27.957775	2.862961E-5	20.906399
2303.597406	-2.991200	3.199400	-9.568700	27.931521	2.820057E-5	20.893725
2304.591811	-2.995500	3.195800	-9.572300	27.954432	2.711149E-5	20.903982
2305.597694	-2.979500	3.196900	-9.523900	28.004365	2.730951E-5	20.879803
2306.593391	-3.024300	3.196400	-9.665100	28.034663	2.843159E-5	20.902238
2307.593693	-3.016800	3.194600	-9.635700	28.087127	2.849760E-5	20.890566
2308.598529	-2.995300	3.194100	-9.566300	28.150118	2.579140E-5	20.876692
2309.597181	-2.981500	3.194100	-9.522400	28.178680	2.760653E-5	20.876997
2310.599496	-3.011600	3.193600	-9.616200	28.124719	2.707849E-5	20.879572
2311.601272	-2.969000	3.195400	-9.486000	28.055680	2.902563E-5	20.881670
2312.602799	-2.998100	3.193300	-9.573400	28.038871	2.684747E-5	20.891775
2313.600536	-2.982300	3.191800	-9.518100	28.059575	2.754053E-5	20.894599
2314.602062	-2.987000	3.190700	-9.529300	28.041180	2.727651E-5	20.869446
2315.596585	-2.984200	3.192600	-9.526400	28.040983	2.499934E-5	20.886790
2316.596313	-3.007000	3.190300	-9.591900	28.109436	2.595641E-5	20.873670
2317.599904	-2.991300	3.189900	-9.540800	28.140600	2.496634E-5	20.856205
2318.598892	-2.998600	3.189200	-9.562100	28.134280	2.754053E-5	20.884455
2319.601769	-2.984000	3.189700	-9.516700	28.072180	2.836559E-5	20.883107
2320.601485	-3.015900	3.188100	-9.614000	28.054928	2.589040E-5	20.867163
2321.601399	-3.006700	3.186900	-9.581300	28.050889	2.790355E-5	20.874003
2322.600286	-2.996700	3.186100	-9.547000	28.030311	2.757353E-5	20.870833
2323.599864	-2.986900	3.187600	-9.520100	28.076071	2.374525E-5	20.861421
2324.600184	-3.000900	3.185300	-9.557700	28.086740	2.615442E-5	20.870737
2325.606536	-2.978600	3.186400	-9.490300	28.110487	2.658346E-5	20.878521
2326.607346	-2.979800	3.185700	-9.491900	28.164898	2.760653E-5	20.875450
2327.605919	-2.998900	3.185700	-9.553300	28.188819	2.565939E-5	20.882463
2328.603234	-2.994300	3.184400	-9.534100	28.230482	2.810157E-5	20.863243
2329.604077	-3.001900	3.183200	-9.554900	28.247113	2.506534E-5	20.875719
2330.604111	-3.003300	3.182300	-9.556800	28.233287	2.519735E-5	20.862274
2331.606765	-3.015500	3.182000	-9.593900	28.095137	2.701249E-5	20.847898
2332.607510	-3.025400	3.178800	-9.616300	28.113876	2.562638E-5	20.871027
2333.603277	-3.010400	3.179700	-9.570700	28.190798	2.648445E-5	20.871653
2334.609625	-3.013900	3.178800	-9.579700	28.260718	2.539537E-5	20.870925
2335.612101	-3.005900	3.178100	-9.550900	28.233308	2.387726E-5	20.864191
2336.605168	-2.997800	3.178200	-9.526500	28.209732	2.648445E-5	20.866060
2337.610017	-2.988300	3.178000	-9.495700	28.142083	2.344822E-5	20.867181
2338.604620	-2.999500	3.176900	-9.528500	28.084269	2.394326E-5	20.883422
2339.601818	-3.019900	3.176300	-9.591700	28.065951	2.529636E-5	20.854553
2340.607191	-2.967000	3.177100	-9.425900	28.105144	2.506534E-5	20.865083
2341.607103	-2.992000	3.175000	-9.498900	28.117391	2.490033E-5	20.875040
2342.602032	-2.998200	3.174600	-9.516900	28.162778	2.285418E-5	20.856248
2343.606561	-2.981500	3.174200	-9.462900	28.175597	2.183111E-5	20.861566
2344.608591	-2.968100	3.174600	-9.421500	28.178771	2.437229E-5	20.881355
2345.605188	-2.990700	3.173200	-9.488800	28.147018	2.097304E-5	20.861244
2346.605293	-3.013800	3.172700	-9.561600	28.169404	2.255716E-5	20.868607
2347.608780	-2.996900	3.172500	-9.506100	28.152722	2.146808E-5	20.852289
2348.608723	-2.982300	3.171200	-9.456000	28.178528	2.080803E-5	20.872103
2349.607737	-2.992300	3.171300	-9.488400	28.237476	2.100605E-5	20.847052
2350.609786	-2.998000	3.170400	-9.504500	28.273443	2.183111E-5	20.868565
2351.607737	-3.015100	3.169300	-9.554800	28.267195	2.120406E-5	20.831455
2352.606688	-3.036300	3.168000	-9.618000	28.299373	2.229314E-5	20.869541
2353.603860	-3.009400	3.167900	-9.532900	28.234756	2.090704E-5	20.855692
2354.610109	-3.025700	3.166400	-9.579000	28.246680	1.985096E-5	20.847310
2355.606153	-3.018700	3.167000	-9.560400	28.214782	2.027999E-5	20.863558
2356.612282	-2.998500	3.166200	-9.493300	28.162328	2.110505E-5	20.861010
2357.609145	-3.010700	3.165500	-9.529500	28.187515	2.011498E-5	20.851754
2358.609509	-3.016300	3.164500	-9.543600	28.216121	1.961994E-5	20.858742
2359.609956	-3.030100	3.162300	-9.581200	28.275190	1.942193E-5	20.846617
2360.610110	-3.004500	3.163900	-9.504900	28.312667	2.001597E-5	20.862539
2361.606637	-2.996400	3.163000	-9.476900	28.322191	2.130307E-5	20.841783
2362.608722	-2.998600	3.162800	-9.482900	28.374514	1.899290E-5	20.842785
2363.612271	-2.978800	3.161500	-9.416200	28.398448	1.932292E-5	20.848867
2364.607154	-2.999300	3.161100	-9.480000	28.373470	2.117106E-5	20.864966
2365.613156	-3.007200	3.160500	-9.503700	28.385713	1.919091E-5	20.840311
2366.611872	-2.983100	3.160200	-9.426500	28.433971	1.889389E-5	20.860929
2367.612597	-2.978700	3.160100	-9.412100	28.432456	1.912491E-5	20.858930
2368.614447	-3.006800	3.158400	-9.495700	28.443237	1.618769E-5	20.850346
2369.617637	-2.992500	3.157500	-9.447400	28.391027	1.879488E-5	20.844713
2370.610106	-2.992900	3.156800	-9.446900	28.281576	1.942193E-5	20.836451
2371.612721	-3.006700	3.154800	-9.484900	28.252652	1.523062E-5	20.854744
2372.615993	-3.008200	3.156200	-9.493600	28.195469	1.777181E-5	20.847908
2373.619554	-3.007500	3.155600	-9.488500	28.163270	1.664973E-5	20.833511
2374.614466	-3.018500	3.153400	-9.517600	28.157151	1.664973E-5	20.841574
2375.619985	-3.000900	3.152500	-9.458500	28.204249	1.641871E-5	20.853902
2376.616594	-3.008400	3.152600	-9.483900	28.201648	1.556064E-5	20.840378
2377.615798	-3.014100	3.151400	-9.497200	28.189505	1.476859E-5	20.826257
2378.616308	-3.017400	3.151000	-9.507400	28.260050	1.391052E-5	20.860770
2379.616912	-3.022700	3.149000	-9.517400	28.333493	1.688074E-5	20.818076
2380.616830	-3.030300	3.148500	-9.539400	28.361895	1.523062E-5	20.827708
2381.616304	-3.003200	3.149000	-9.456400	28.428240	1.453757E-5	20.816279
2382.615295	-2.997600	3.148800	-9.437900	28.383883	1.222740E-5	20.825192
2383.618149	-3.007300	3.147100	-9.463200	28.366164	1.232641E-5	20.846705
2384.619959	-2.974000	3.147300	-9.359000	28.373502	1.532963E-5	20.844610
2385.619236	-2.991500	3.146800	-9.412900	28.271166	1.509861E-5	20.859160
2386.623008	-2.999800	3.145700	-9.435200	28.293873	1.480159E-5	20.845987
2387.620723	-3.010100	3.143700	-9.462000	28.294888	1.318447E-5	20.829941
2388.622766	-3.006900	3.143300	-9.449900	28.324630	1.348149E-5	20.846610
2389.624219	-2.987700	3.141400	-9.385100	28.319278	1.328348E-5	20.824152
2390.618495	-3.003400	3.141000	-9.432400	28.335043	1.199638E-5	20.837180
2391.618315	-2.997700	3.139500	-9.410000	28.316235	1.173236E-5	20.830096
2392.622983	-3.002600	3.139200	-9.425000	28.266513	1.311847E-5	20.826975
2393.623607	-3.010600	3.138700	-9.448700	28.303119	1.275544E-5	20.813098
2394.620941	-2.994200	3.137500	-9.393200	28.297963	1.301946E-5	20.815019
2395.624283	-2.998500	3.136900	-9.404600	28.355021	1.176537E-5	20.828847
2396.624095	-2.981700	3.137000	-9.353000	28.407884	1.450457E-5	20.835135
2397.627078	-3.006200	3.135400	-9.424800	28.443698	1.235941E-5	20.824732
2398.623095	-2.988600	3.135700	-9.369500	28.503696	1.018125E-5	20.827305
2399.629785	-2.991800	3.133700	-9.374100	28.511102	1.232641E-5	20.823858
2400.620385	-3.014500	3.133600	-9.445000	28.533207	1.206239E-5	20.820989
2401.626351	-3.008200	3.132500	-9.422700	28.591144	1.150135E-5	20.823388
2402.626206	-3.020500	3.131800	-9.458800	28.551003	1.136934E-5	20.829902
2403.624992	-3.005900	3.130200	-9.408300	28.551228	9.620208E-6	20.823964
2404.628183	-2.994300	3.130300	-9.371600	28.493390	1.169936E-5	20.812659
2405.622845	-3.026400	3.128300	-9.467200	28.483952	1.024725E-5	20.820699
2406.627640	-3.019100	3.127900	-9.442100	28.509799	1.150135E-5	20.820175
2407.623459	-2.997600	3.128100	-9.376200	28.472775	9.884227E-6	20.812762
2408.626600	-2.999700	3.125900	-9.375800	28.433349	1.024725E-5	20.812415
2409.622761	-2.965900	3.126700	-9.271800	28.343906	8.531128E-6	20.813862
2410.626133	-2.985700	3.125800	-9.332000	28.326781	7.178028E-6	20.821749
2411.626021	-2.999900	3.122900	-9.367500	28.299074	7.904082E-6	20.804758
2412.627454	-2.998200	3.123700	-9.363700	28.316896	8.432121E-6	20.792830
2413.634035	-3.005900	3.121000	-9.379500	28.405301	1.067629E-5	20.824474
2414.626983	-2.964200	3.121000	-9.249900	28.435465	9.323186E-6	20.816442
2415.626654	-2.975100	3.120500	-9.283300	28.419160	8.729143E-6	20.824205
2416.627669	-3.013800	3.119000	-9.398900	28.390261	7.871079E-6	20.828770
2417.629363	-3.024600	3.117300	-9.427400	28.429748	6.947011E-6	20.803573
2418.624456	-3.000100	3.117300	-9.351200	28.454405	7.211031E-6	20.815600
2419.631557	-3.003200	3.116900	-9.359100	28.452996	9.257181E-6	20.802802
2420.625735	-3.019500	3.115600	-9.406200	28.473468	7.277036E-6	20.801606
2421.631771	-3.005600	3.113800	-9.357700	28.493268	6.781999E-6	20.815381
2422.632421	-2.997900	3.113300	-9.332400	28.500977	7.541055E-6	20.816980
2423.631967	-3.014800	3.111600	-9.380000	28.456844	5.824929E-6	20.806676
2424.632267	-2.987400	3.111700	-9.294700	28.487277	8.234106E-6	20.818357
2425.635360	-3.003400	3.109900	-9.339900	28.497684	7.772072E-6	20.817932
2426.636551	-3.013300	3.109300	-9.367800	28.466043	4.933863E-6	20.804561
2427.635875	-2.993400	3.109700	-9.307100	28.509663	5.461902E-6	20.807710
2428.636129	-2.975000	3.108700	-9.247100	28.485552	7.178028E-6	20.814249
2429.633880	-3.006400	3.106400	-9.338200	28.527210	6.121951E-6	20.810682
2430.638097	-2.972300	3.106900	-9.233100	28.513953	6.781999E-6	20.809186
2431.632514	-3.006400	3.105200	-9.334800	28.502309	5.923936E-6	20.800778
2432.634452	-2.981600	3.105700	-9.258600	28.532094	5.956939E-6	20.790945
2433.630569	-3.019200	3.101900	-9.364800	28.505731	6.220958E-6	20.807070
2434.638806	-2.994100	3.103400	-9.291500	28.474832	6.154953E-6	20.804876
2435.634305	-2.998700	3.099500	-9.293000	28.581810	5.263888E-6	20.798341
2436.637929	-2.992800	3.099500	-9.275500	28.643634	6.319965E-6	20.810821
2437.633824	-3.009000	3.099700	-9.326200	28.704980	5.098875E-6	20.801012
2438.641809	-2.988500	3.098300	-9.259000	28.627874	6.848004E-6	20.799215
2439.639801	-2.997500	3.097000	-9.282600	28.541570	7.772072E-6	20.812816
2440.635376	-2.998400	3.096600	-9.283700	28.509431	5.461902E-6	20.798942
2441.638092	-3.012100	3.094000	-9.318800	28.487253	7.376043E-6	20.787513
2442.637684	-2.983900	3.093900	-9.231500	28.482422	6.253960E-6	20.791657
2443.638407	-3.008500	3.092300	-9.302500	28.458310	6.484977E-6	20.800092
2444.637819	-2.988200	3.092400	-9.239800	28.416526	8.399118E-6	20.797371
2445.644228	-2.982300	3.090900	-9.216500	28.487748	6.715994E-6	20.798443
2446.639564	-2.969000	3.089800	-9.173200	28.604887	6.980014E-6	20.804038
2447.651316	-2.992000	3.088500	-9.239700	28.565905	7.574058E-6	20.779003
2448.643603	-3.011800	3.087400	-9.298100	28.621135	6.517980E-6	20.791480
2449.642959	-2.993700	3.086900	-9.239900	28.614471	5.725922E-6	20.804682
2450.643982	-2.972700	3.086800	-9.175200	28.555122	5.527907E-6	20.787584
2451.642678	-2.984200	3.083900	-9.201400	28.468841	4.636841E-6	20.802636
2452.646031	-2.999600	3.083500	-9.248400	28.470225	5.329892E-6	20.786013
2453.641148	-2.982500	3.082300	-9.191900	28.540404	5.659917E-6	20.796943
2454.643689	-3.001000	3.081000	-9.245200	28.607209	6.848004E-6	20.804006
2455.640717	-2.995000	3.081200	-9.226800	28.611221	3.646768E-6	20.778649
2456.644965	-2.979500	3.079100	-9.172500	28.641723	5.098875E-6	20.784714
2457.645588	-2.995400	3.078000	-9.218900	28.573782	4.042798E-6	20.789307
2458.644856	-2.986000	3.077800	-9.189500	28.541092	4.009795E-6	20.782937
2459.651069	-2.978800	3.077300	-9.165400	28.545284	2.557688E-6	20.803280
2460.644665	-3.018900	3.074900	-9.282700	28.621926	3.778778E-6	20.788482
2461.641624	-2.994400	3.074600	-9.205300	28.674575	3.778778E-6	20.796939
2462.649062	-3.023400	3.072400	-9.287200	28.706266	5.626914E-6	20.772435
2463.648911	-3.003600	3.070200	-9.220600	28.677529	3.547761E-6	20.773837
2464.645676	-3.013400	3.068700	-9.246200	28.626760	2.359674E-6	20.791455
2465.652246	-3.008600	3.068600	-9.231100	28.553513	1.897640E-6	20.786911
2466.656085	-3.010500	3.067100	-9.232400	28.505714	1.732628E-6	20.797569
2467.649543	-3.026500	3.065300	-9.276800	28.533689	3.811781E-6	20.797293
2468.654944	-3.019600	3.064400	-9.252600	28.618212	5.131878E-6	20.782372
2469.654112	-2.994800	3.063900	-9.175000	28.623886	4.306817E-6	20.784767
2470.650130	-3.006600	3.062900	-9.208000	28.675225	4.900861E-6	20.778628
2471.650901	-2.991100	3.064100	-9.164400	28.709312	4.405824E-6	20.775977
2472.651442	-2.998400	3.060600	-9.176500	28.623907	3.514759E-6	20.773883
2473.648378	-2.982900	3.060400	-9.128200	28.623461	4.735849E-6	20.777226
2474.651480	-2.990500	3.058400	-9.145000	28.640659	5.956939E-6	20.779374
2475.652666	-2.984900	3.055900	-9.120900	28.677325	3.844783E-6	20.774580
2476.649809	-2.992600	3.054900	-9.140600	28.677870	3.217737E-6	20.778921
2477.654505	-2.998300	3.053200	-9.154100	28.699120	6.121951E-6	20.780885
2478.652896	-2.984100	3.054400	-9.113900	28.738314	3.514759E-6	20.784802
2479.651088	-3.008200	3.051900	-9.179900	28.715375	3.019722E-6	20.773075
2480.657405	-3.005100	3.051500	-9.169400	28.708335	4.933863E-6	20.780683
2481.654696	-2.978100	3.050000	-9.082400	28.744426	3.547761E-6	20.777208
2482.649522	-3.021500	3.047800	-9.207100	28.745860	4.933863E-6	20.754469
2483.657737	-3.018000	3.046100	-9.192000	28.747918	3.151732E-6	20.768397
2484.656380	-2.999600	3.047600	-9.140400	28.716228	2.986720E-6	20.783892
2485.652475	-2.993800	3.044900	-9.114900	28.707579	4.867858E-6	20.764275
2486.649426	-2.997400	3.044100	-9.123200	28.693945	3.547761E-6	20.769034
2487.655013	-2.993600	3.042600	-9.106900	28.688717	2.392676E-6	20.759501
2488.652792	-3.005800	3.042600	-9.144800	28.687256	2.953717E-6	20.776996
2489.653573	-3.011800	3.039600	-9.153000	28.687077	5.956939E-6	20.776815
2490.656855	-2.993700	3.039600	-9.099100	28.783896	3.910788E-6	20.774766
2491.651566	-2.987100	3.038000	-9.073400	28.759148	3.250739E-6	20.770700
2492.653605	-2.998900	3.035100	-9.101100	28.702878	2.491683E-6	20.775661
2493.661870	-2.991500	3.035900	-9.080900	28.703370	3.135231E-7	20.760035
2494.651253	-2.984800	3.033500	-9.052900	28.696137	5.775425E-7	20.789260
2495.651636	-3.005700	3.031200	-9.109300	28.649676	2.392676E-6	20.783715
2496.668854	-2.966000	3.030600	-8.988000	28.669595	1.270594E-6	20.771061
2497.653923	-3.004100	3.029600	-9.100600	28.724153	1.435606E-6	20.770537
2498.653764	-3.004000	3.027500	-9.092800	28.788315	1.699625E-6	20.784433
2499.656900	-2.999300	3.027200	-9.078700	28.734256	1.864637E-6	20.776921
2500.656468	-2.989100	3.026000	-9.042800	28.751227	1.138584E-6	20.783110
2501.658757	-2.999200	3.025200	-9.072200	28.758484	2.458681E-6	20.755806
2502.657416	-3.006900	3.024000	-9.091500	28.681606	2.161659E-6	20.780314
2503.656938	-3.009100	3.020200	-9.087100	28.673677	1.138584E-6	20.772802
2504.656141	-3.021000	3.020700	-9.124500	28.766957	1.237591E-6	20.775721
2505.657036	-3.011800	3.019700	-9.093800	28.826262	1.435606E-6	20.784727
2506.655440	-3.009500	3.017400	-9.080500	28.841078	1.105581E-6	20.789220
2507.659931	-3.014600	3.016000	-9.091100	28.798691	6.765498E-7	20.791092
2508.656795	-2.984200	3.015400	-8.998000	28.874889	3.465255E-7	20.765435
2509.660082	-3.012400	3.013500	-9.076800	28.907390	5.775425E-7	20.782055
2510.658914	-2.990100	3.012800	-9.007700	28.882522	7.425547E-7	20.760321
2511.659480	-3.026400	3.010000	-9.108700	28.867408	7.095522E-7	20.750311
2512.665605	-2.993700	3.010400	-9.011200	28.906968	2.128657E-6	20.775940
2513.657240	-3.014900	3.007500	-9.066200	28.927153	1.798632E-6	20.760240
2514.664937	-2.995200	3.006900	-9.005000	28.918063	7.425547E-7	20.765307
2515.664730	-3.002100	3.006400	-9.025300	28.861012	2.095654E-6	20.773739
2516.661077	-2.991700	3.004500	-8.987700	28.859420	1.006574E-6	20.773085
2517.660512	-3.010300	3.003700	-9.041100	28.897274	1.765630E-6	20.779925
2518.666267	-3.017700	3.001700	-9.057400	28.940296	8.415620E-7	20.791973
2519.667296	-3.006800	3.001100	-9.022600	28.843905	9.405693E-7	20.764567
2520.664391	-2.994500	2.999100	-8.979800	28.816609	5.445401E-7	20.765993
2521.667466	-3.011900	2.996800	-9.024000	28.893322	-8.250608E-8	20.761719
2522.660433	-2.991400	2.997700	-8.966500	28.870730	-4.455328E-7	20.775944
2523.663560	-3.010400	2.993100	-9.008900	28.795245	-4.785352E-7	20.772448
2524.664334	-2.976100	2.993500	-8.907200	28.787190	-1.105581E-6	20.776662
2525.662745	-3.005500	2.990700	-8.988200	28.765513	1.204589E-6	20.766680
2526.662689	-2.986300	2.990100	-8.928000	28.776557	3.465255E-7	20.786814
2527.672617	-3.008100	2.988900	-8.990000	28.744794	-1.237591E-6	20.746283
2528.666721	-2.996000	2.987400	-8.949700	28.794419	1.485109E-7	20.788212
2529.666663	-3.007900	2.984700	-8.977100	28.828699	-2.145158E-7	20.767267
2530.671455	-3.018000	2.983700	-9.003300	28.875620	-1.930642E-6	20.771860
2531.669329	-2.998800	2.981900	-8.941300	28.867668	-9.405693E-7	20.782816
2532.666718	-2.978100	2.981800	-8.879400	28.923651	-2.128657E-6	20.772833
2533.666717	-2.973100	2.980000	-8.858200	28.927687	-1.072579E-6	20.774528
2534.667094	-2.994700	2.977500	-8.915600	28.918299	-5.775425E-7	20.767441
2535.666947	-2.966800	2.978700	-8.836300	28.956891	-2.623693E-6	20.771234
2536.671875	-2.996100	2.976600	-8.916600	29.000733	-3.349747E-6	20.781266
2537.665529	-3.002100	2.972800	-8.923900	29.009474	-3.184735E-6	20.780590
2538.671205	-2.983300	2.972600	-8.867000	28.961696	-1.138584E-6	20.766117
2539.674178	-2.987000	2.970200	-8.872200	28.960010	-3.118730E-6	20.765367
2540.668948	-2.990800	2.970100	-8.882200	28.972046	-1.765630E-6	20.760424
2541.671783	-3.005900	2.967800	-8.919400	28.932787	-3.118730E-6	20.770657
2542.670063	-2.989600	2.965900	-8.866200	28.982203	-2.062652E-6	20.752639
2543.668696	-3.026500	2.964700	-8.971100	28.945498	-2.755703E-6	20.754539
2544.667372	-3.006000	2.963800	-8.908100	28.955033	-1.501611E-6	20.769836
2545.672038	-2.987300	2.962800	-8.849900	28.985501	-2.953718E-6	20.777773
2546.668366	-2.998900	2.960300	-8.877200	29.060773	-2.887713E-6	20.772058
2547.671455	-3.024900	2.957800	-8.945500	29.053219	-1.567615E-6	20.771085
2548.669495	-3.008800	2.958200	-8.899500	29.025903	-4.900861E-6	20.760632
2549.672280	-2.985700	2.955600	-8.822900	28.984166	-1.402603E-6	20.770739
2550.676249	-3.000300	2.954000	-8.862200	28.985901	-3.382749E-6	20.770590
2551.676097	-3.022700	2.951000	-8.919500	28.968021	-4.834856E-6	20.779128
2552.673970	-3.034300	2.949700	-8.949600	29.002450	-4.240812E-6	20.770668
2553.671270	-3.000300	2.949200	-8.847700	29.027764	-2.458681E-6	20.783845
2554.676558	-2.979700	2.948500	-8.784600	28.982811	-3.217737E-6	20.770321
2555.678313	-2.992900	2.945900	-8.816300	28.981571	-2.854710E-6	20.763856
2556.674016	-2.994700	2.944100	-8.815800	29.016617	-3.514759E-6	20.759337
2557.674478	-2.992800	2.944600	-8.811500	29.089636	-4.504832E-6	20.779804
2558.675076	-2.998100	2.942500	-8.821300	29.167773	-3.910788E-6	20.784571
2559.672521	-3.010100	2.940800	-8.850800	29.093204	-4.570837E-6	20.779132
2560.673601	-3.012500	2.937200	-8.847200	29.090753	-1.897640E-6	20.762437
2561.698530	-3.009800	2.935900	-8.836200	29.109575	4.950364E-8	20.784249
2562.675081	-3.006900	2.934000	-8.821600	29.101281	-3.613766E-6	20.773046
2563.678764	-3.036200	2.932900	-8.904500	29.030939	-3.283742E-6	20.771871
2564.673603	-2.998200	2.930900	-8.785800	28.990548	-2.887713E-6	20.756779
2565.674086	-3.016600	2.929600	-8.836400	28.966370	-3.811781E-6	20.764189
2566.675603	-2.998300	2.927400	-8.776500	28.958496	-3.052725E-6	20.780438
2567.677898	-3.016800	2.925800	-8.825600	28.981357	-5.461902E-6	20.802995
2568.673062	-2.989500	2.925600	-8.745500	29.049893	-4.273815E-6	20.778640
2569.677860	-3.019700	2.923700	-8.828000	29.073004	-1.666623E-6	20.773952
2570.674455	-3.002200	2.921300	-8.768500	29.077812	-1.204589E-6	20.781641
2571.678846	-2.997300	2.920400	-8.752800	29.118060	-1.138584E-6	20.781892
2572.678480	-3.002900	2.917400	-8.759700	29.180147	-9.735717E-7	20.788980
2573.675370	-3.009900	2.915100	-8.773200	29.271086	-1.666623E-6	20.780576
2574.679949	-3.021300	2.913400	-8.801000	29.295576	-5.065873E-6	20.774436
2575.682041	-2.985100	2.913400	-8.695500	29.248678	-2.920715E-6	20.783598
2576.680254	-2.974700	2.911400	-8.659400	29.131295	-1.138584E-6	20.774840
2577.677136	-3.040000	2.907500	-8.838000	29.053528	-2.425679E-6	20.790837
2578.680483	-2.976900	2.907800	-8.655000	29.068910	1.650122E-8	20.792111
2579.679425	-3.003500	2.906600	-8.729200	29.034539	-2.326671E-6	20.793990
2580.682297	-2.992000	2.903700	-8.686900	29.035853	-1.303596E-6	20.792943
2581.682867	-3.016800	2.903300	-8.758200	29.064215	-2.425679E-6	20.791174
2582.681304	-3.008600	2.900100	-8.723800	29.007673	-8.250608E-8	20.778301
2583.681925	-2.994400	2.898300	-8.677700	29.081998	-2.590691E-6	20.791549
2584.679524	-2.994900	2.896500	-8.673800	29.094806	-1.831635E-6	20.783591
2585.682879	-3.014300	2.894300	-8.724000	29.066055	-1.567615E-6	20.782123
2586.684813	-3.014500	2.892600	-8.719100	29.048296	-1.963645E-6	20.785091
2587.687137	-3.036200	2.890800	-8.776000	29.092660	-1.270594E-6	20.766256
2588.681477	-3.018500	2.889400	-8.720700	29.159901	-2.755703E-6	20.787069
2589.686154	-3.011200	2.887300	-8.693100	29.144029	-3.316744E-6	20.772024
2590.685513	-3.041700	2.884000	-8.769900	29.108122	-9.405693E-7	20.797009
2591.681311	-2.985400	2.883700	-8.607800	29.161565	-2.161659E-6	20.799178
2592.682764	-3.004800	2.881500	-8.657800	29.230265	-2.359674E-6	20.793492
2593.685777	-3.001000	2.880100	-8.642200	29.312008	-3.382749E-6	20.789575
2594.689864	-2.989600	2.878500	-8.604800	29.292750	-3.250739E-6	20.791504
2595.684008	-2.990000	2.876500	-8.599800	29.334099	-1.732628E-6	20.785286
2596.686003	-2.990600	2.874300	-8.594900	29.372733	-1.963645E-6	20.787240
2597.685922	-2.998500	2.872300	-8.611800	29.374615	-2.491683E-6	20.787714
2598.685054	-2.992200	2.871500	-8.591400	29.384571	-2.392676E-6	20.776886
2599.684831	-3.021100	2.868000	-8.663600	29.435651	-2.227664E-6	20.807508
2600.686427	-3.000200	2.866400	-8.598900	29.429217	-2.392676E-6	20.793910
2601.686234	-3.046500	2.863400	-8.722300	29.371202	-3.135231E-7	20.800870
2602.683994	-3.009900	2.861200	-8.611400	29.328120	-1.402603E-6	20.793485
2603.687216	-3.014600	2.860600	-8.622900	29.383536	-2.920715E-6	20.811404
2604.682037	-3.010200	2.858400	-8.604000	29.445934	-1.798632E-6	20.791794
2605.686054	-3.004700	2.856600	-8.582800	29.477006	-4.207810E-6	20.787552
2606.686165	-2.990900	2.854300	-8.536400	29.531914	1.765630E-6	20.784579
2607.686740	-2.995900	2.852600	-8.545900	29.511646	-2.491683E-6	20.792598
2608.683756	-2.974000	2.851700	-8.480000	29.431056	-5.445401E-7	20.793394
2609.685431	-3.011500	2.847500	-8.574500	29.403301	-2.128657E-6	20.780591
2610.688671	-2.996800	2.846300	-8.528300	29.449129	-8.415620E-7	20.802601
2611.687953	-2.964200	2.844300	-8.430600	29.452867	-1.336598E-6	20.793567
2612.689271	-3.012800	2.841300	-8.560100	29.416600	-1.600618E-6	20.809642
2613.693501	-3.013200	2.839800	-8.555900	29.352395	-2.920715E-6	20.785234
2614.687676	-2.994400	2.838900	-8.500300	29.365494	-1.336598E-6	20.803652
2615.689110	-2.985000	2.835600	-8.463000	29.447051	-1.155085E-7	20.788178
2616.687876	-2.973900	2.834100	-8.427700	29.404393	-8.250608E-8	20.795443
2617.687953	-3.015700	2.830600	-8.535000	29.479484	-8.250608E-8	20.789102
2618.685840	-2.980900	2.828600	-8.430500	29.498672	-9.405693E-7	20.797063
2619.685378	-2.987300	2.826000	-8.440700	29.496292	1.666623E-6	20.791345
2620.690176	-2.991100	2.824400	-8.447500	29.461433	8.745644E-7	20.799830
2621.689687	-3.006400	2.822400	-8.484300	29.407707	2.557688E-6	20.781713
2622.685744	-3.022700	2.817700	-8.516200	29.394310	1.155085E-7	20.799030
2623.688268	-3.027300	2.815800	-8.523300	29.426942	5.115377E-7	20.801574
2624.686438	-3.001100	2.814100	-8.444700	29.409438	6.435474E-7	20.812855
2625.689888	-2.980000	2.811900	-8.378000	29.442764	1.996647E-6	20.799504
2626.687752	-2.972200	2.809500	-8.349600	29.450908	1.815134E-7	20.796334
2627.692978	-2.994900	2.807100	-8.406000	29.366649	-2.145158E-7	20.809083
2628.687111	-2.988100	2.805400	-8.382200	29.353006	-7.095522E-7	20.809083
2629.690512	-3.014100	2.801300	-8.442500	29.366673	1.485109E-7	20.803418
2630.691976	-2.998400	2.798000	-8.388800	29.322468	1.815134E-7	20.808651
2631.687951	-3.012000	2.796200	-8.421500	29.309249	-1.072579E-6	20.798648
2632.691634	-3.011000	2.793600	-8.410700	29.303178	-3.052725E-6	20.802013
2633.690000	-3.003600	2.791400	-8.383100	29.351833	-1.864637E-6	20.837298
2634.694786	-3.007000	2.788600	-8.384600	29.319718	-5.115377E-7	20.803510
2635.692183	-3.024300	2.783900	-8.417900	29.349579	-2.656696E-6	20.798991
2636.692886	-3.019400	2.782100	-8.399400	29.380404	-1.567615E-6	20.797816
2637.699942	-3.012000	2.778900	-8.368600	29.374959	-8.415620E-7	20.793276
2638.695178	-2.981700	2.776600	-8.278700	29.330409	-1.039577E-6	20.822344
2639.690810	-2.998200	2.773900	-8.316100	29.293196	3.135231E-7	20.802384
2640.696649	-3.010400	2.770500	-8.339300	29.316594	-2.128657E-6	20.806998
2641.695368	-2.982000	2.767900	-8.253300	29.392288	-1.336598E-6	20.811690
2642.689932	-3.007400	2.762800	-8.308500	29.494740	-1.633620E-6	20.818229
2643.693849	-3.007400	2.762200	-8.306400	29.537299	-1.864637E-6	20.800438
2644.693223	-2.991600	2.758300	-8.250900	29.547966	-3.778778E-6	20.808821
2645.693629	-2.986900	2.755200	-8.228500	29.570122	-1.831635E-6	20.819301
2646.696550	-2.991100	2.753700	-8.236000	29.587557	-2.986720E-6	20.815066
2647.696087	-3.011700	2.748900	-8.278300	29.600825	-3.844783E-6	20.811372
2648.695259	-2.993800	2.746100	-8.220300	29.577999	-2.788705E-6	20.820130
2649.693934	-2.961700	2.743500	-8.124500	29.533912	-8.415620E-7	20.833059
2650.691531	-3.008900	2.739200	-8.241100	29.561933	-2.821708E-6	20.836176
2651.691543	-2.995100	2.734400	-8.189100	29.560624	-1.996647E-6	20.820632
2652.700885	-3.023800	2.730700	-8.255600	29.599021	-1.765630E-6	20.814295
2653.695010	-2.975000	2.730400	-8.120900	29.735364	-5.445401E-7	20.814245
2654.696261	-2.977900	2.724400	-8.111800	29.720086	2.805207E-7	20.819705
2655.697567	-2.976100	2.721800	-8.098600	29.628653	-2.260666E-6	20.827571
2656.692587	-3.013500	2.717700	-8.188700	29.678801	-1.303596E-6	20.810799
2657.694124	-3.012800	2.714000	-8.176200	29.617438	-4.455328E-7	20.833809
2658.698077	-3.023000	2.710400	-8.192800	29.631450	-1.204589E-6	20.830865
2659.690814	-3.014100	2.706000	-8.155100	29.667616	-7.755571E-7	20.826074
2660.692699	-3.014200	2.702800	-8.145300	29.677468	3.795279E-7	20.839325
2661.695519	-3.010000	2.698400	-8.121100	29.724150	-1.600618E-6	20.835656
2662.695458	-3.017200	2.693500	-8.126100	29.743927	8.745644E-7	20.826672
2663.697329	-2.989400	2.691000	-8.043600	29.783995	1.468608E-6	20.822026
2664.697578	-3.028100	2.686100	-8.132500	29.877945	-4.455328E-7	20.816237
2665.694321	-2.990300	2.683000	-8.021100	29.828423	-1.270594E-6	20.840270
2666.712057	-2.995500	2.678800	-8.023800	29.747587	-1.171586E-6	20.835104
2667.707515	-2.967900	2.674900	-7.937500	29.673277	6.435474E-7	20.835574
2668.699221	-2.988900	2.669500	-7.978200	29.689934	-1.402603E-6	20.840514
2669.697189	-2.981400	2.665200	-7.944600	29.757288	-3.135231E-7	20.845358
2670.696694	-2.998300	2.660500	-7.975600	29.833371	-5.775425E-7	20.853319
2671.695147	-2.969500	2.657100	-7.888400	29.888061	-1.534613E-6	20.825016
2672.698779	-2.988500	2.650100	-7.919100	29.885514	8.250607E-8	20.838568
2673.701773	-2.976800	2.647300	-7.879100	29.969034	-2.805207E-7	20.842184
2674.694932	-3.022800	2.641300	-7.983800	29.893206	1.815134E-7	20.836367
2675.699986	-3.012900	2.636600	-7.943300	29.866579	7.095522E-7	20.828483
2676.703427	-3.006100	2.632400	-7.912600	29.892290	-3.184735E-6	20.836392
2677.697996	-3.032800	2.627500	-7.967800	29.900827	-2.475182E-7	20.835992
2678.698524	-2.984100	2.622600	-7.825000	29.945493	-1.468608E-6	20.827928
2679.706343	-3.001300	2.616600	-7.851700	29.986276	1.485109E-7	20.845347
2680.696079	-3.003400	2.612000	-7.844100	29.987339	-1.204589E-6	20.844523
2681.696784	-3.014700	2.604600	-7.851700	29.840214	-1.270594E-6	20.843624
2682.698441	-3.012300	2.600800	-7.833600	29.789402	-9.735717E-7	20.846444
2683.695431	-2.985000	2.594900	-7.745200	29.737669	8.415620E-7	20.855923
2684.699000	-3.019700	2.589300	-7.818700	29.823804	-1.468608E-6	20.839406
2685.697842	-3.003400	2.583900	-7.759400	29.770907	2.805207E-7	20.869046
2686.703702	-2.987900	2.577300	-7.700000	29.720587	-1.336598E-6	20.848185
2687.701020	-3.001600	2.571500	-7.717200	29.676502	-6.435474E-7	20.838826
2688.701717	-3.028300	2.565500	-7.767000	29.785208	9.405693E-7	20.844586
2689.702918	-3.017200	2.559900	-7.722900	29.912670	-9.735717E-7	20.872114
2690.702268	-3.012700	2.554900	-7.696500	29.926874	7.755571E-7	20.862730
2691.699254	-3.000600	2.546900	-7.641800	30.002447	-9.075668E-7	20.861181
2692.699718	-2.963100	2.543200	-7.534400	30.060276	-3.795279E-7	20.836526
2693.706175	-2.991000	2.535900	-7.584000	30.000738	-1.485109E-7	20.850449
2694.704745	-3.012900	2.529200	-7.619500	30.028997	-9.075668E-7	20.859033
2695.705137	-3.028500	2.522400	-7.638200	30.092413	-7.425547E-7	20.856609
2696.705651	-3.046800	2.514800	-7.661600	30.046933	-1.815134E-7	20.866215
2697.706366	-2.994900	2.511800	-7.522000	30.041688	1.930642E-6	20.865193
2698.708688	-3.015500	2.503500	-7.548000	30.066033	3.795279E-7	20.871254
2699.702538	-2.986400	2.496900	-7.456000	30.034681	4.455328E-7	20.851015
