LabVIEW Measurement	
Writer_Version	2
Reader_Version	2
Separator	Tab
Decimal_Separator	.
Multi_Headings	No
X_Columns	One
Time_Pref	Absolute
Operator	admin
Description	Clolumns are: time, Current, Voltage, Power, Battery Temp, and Chamber Temp
Date	2024/06/17
Time	15:57:50.5498118400573730469
***End_of_Header***	
	
Channels	6						
Samples	1	1	1	1	1	1	
Date	2024/06/18	2024/06/18	2024/06/18	2024/06/18	2024/06/18	2024/06/18	
Time	09:59:17.1976962089538574219	09:59:17.206295013427734375	09:59:17.2141861915588378906	09:59:17.1772961616516113281	09:59:17.1772961616516113281	09:59:17.1772961616516113281	
X_Dimension	Time	Time	Time	Time	Time	Time	
X0	0.0000000000000000E+0	0.0000000000000000E+0	0.0000000000000000E+0	0.0000000000000000E+0	0.0000000000000000E+0	0.0000000000000000E+0	
Delta_X	1.000000	1.000000	1.000000	1.000000	1.000000	1.000000	
***End_of_Header***							
X_Value	Untitled	Untitled 1	Untitled 2	Untitled 3	Untitled 4	Untitled 5	Comment
0.000000	-0.005181	3.942900	-0.020371	20.796030	0.000116	20.830643
0.997797	-2.993400	3.846800	-11.514000	20.825775	0.000118	20.808706
1.997950	-2.978100	3.842700	-11.443000	20.833140	0.000117	20.817967
3.003413	-3.012300	3.838300	-11.560000	20.826123	0.000116	20.812847
3.999154	-3.009900	3.833800	-11.538000	20.821899	0.000114	20.803882
4.999022	-3.025900	3.829500	-11.587000	20.824346	0.000115	20.802535
5.995635	-3.029000	3.826800	-11.591000	20.827140	0.000117	20.801536
6.995814	-3.015700	3.824200	-11.531000	20.847105	0.000114	20.806803
7.998004	-2.997000	3.821900	-11.453000	20.835839	0.000115	20.804071
8.998285	-2.985800	3.820500	-11.406000	20.827981	0.000113	20.810438
9.998196	-3.002100	3.818500	-11.462000	20.835415	0.000112	20.813131
11.005108	-3.013600	3.816700	-11.501000	20.833272	0.000113	20.811462
11.998270	-3.015500	3.813300	-11.498000	20.833911	0.000113	20.800721
13.000469	-2.997600	3.812000	-11.427000	20.851378	0.000112	20.817240
14.003207	-2.996300	3.808800	-11.411000	20.843615	0.000111	20.810899
15.001211	-2.983000	3.809300	-11.362000	20.858439	0.000112	20.790163
15.998735	-2.987800	3.807800	-11.376000	20.849507	0.000113	20.798299
17.000107	-3.007900	3.804800	-11.443000	20.836250	0.000112	20.791206
17.999570	-2.997200	3.802800	-11.397000	20.845852	0.000111	20.806973
19.004977	-3.004500	3.802200	-11.423000	20.854817	0.000111	20.786540
20.004160	-2.996000	3.800400	-11.385000	20.857630	0.000109	20.802155
21.000285	-3.004100	3.799300	-11.412000	20.860272	0.000112	20.775400
22.004809	-3.010300	3.795300	-11.424000	20.859653	0.000110	20.788057
23.005081	-2.997600	3.795900	-11.377000	20.866859	0.000109	20.794790
24.004547	-2.977300	3.795200	-11.299000	20.860993	0.000109	20.783233
25.002041	-2.990600	3.792500	-11.341000	20.874136	0.000109	20.774091
26.001896	-3.014500	3.791600	-11.428000	20.872720	0.000110	20.776943
27.003527	-2.993800	3.790500	-11.348000	20.886166	0.000110	20.791338
28.006791	-3.002100	3.788800	-11.374000	20.855392	0.000108	20.772890
29.004486	-2.985400	3.788600	-11.309000	20.875880	0.000110	20.799544
30.008433	-2.997700	3.785900	-11.348000	20.886463	0.000109	20.783575
31.008062	-3.000100	3.785700	-11.356000	20.886513	0.000110	20.774142
32.007551	-3.004900	3.784400	-11.371000	20.891444	0.000109	20.776702
33.008090	-3.015600	3.784600	-11.412000	20.893789	0.000109	20.775729
34.008232	-3.012800	3.783000	-11.396000	20.887651	0.000106	20.778599
35.005834	-2.996500	3.783200	-11.335000	20.894560	0.000108	20.781242
36.004417	-3.011700	3.780500	-11.385000	20.883232	0.000107	20.784137
37.007184	-2.988900	3.780100	-11.297000	20.897702	0.000110	20.784858
38.007497	-3.002300	3.778700	-11.344000	20.905857	0.000108	20.759822
39.005990	-2.990300	3.779000	-11.300000	20.907873	0.000106	20.756623
40.007170	-2.985600	3.778900	-11.282000	20.905332	0.000107	20.772574
41.012021	-2.990500	3.777600	-11.295000	20.914359	0.000106	20.767851
42.009559	-2.996700	3.777200	-11.317000	20.912810	0.000108	20.773889
43.011038	-2.979200	3.775300	-11.247000	20.917475	0.000107	20.778080
44.007452	-3.014200	3.773400	-11.373000	20.915250	0.000107	20.767320
45.008297	-2.990000	3.773500	-11.282000	20.905092	0.000105	20.774230
46.009035	-3.005600	3.772600	-11.337000	20.907639	0.000107	20.758286
47.008328	-3.006600	3.773300	-11.343000	20.927577	0.000107	20.779174
48.008296	-2.996000	3.772600	-11.302000	20.925731	0.000106	20.776380
49.010274	-3.002200	3.771800	-11.323000	20.932564	0.000107	20.773731
50.008465	-2.997400	3.770600	-11.301000	20.941699	0.000106	20.759632
51.009811	-2.982200	3.770200	-11.243000	20.942274	0.000105	20.757363
52.010045	-2.997100	3.767100	-11.289000	20.917817	0.000105	20.763248
53.012064	-3.020300	3.768200	-11.379000	20.971560	0.000107	20.752039
54.011565	-3.005600	3.767600	-11.322000	20.957141	0.000107	20.769862
55.012259	-3.002400	3.767600	-11.312000	20.955144	0.000105	20.747474
56.015092	-2.998000	3.767300	-11.294000	20.927198	0.000104	20.757457
57.016150	-3.001800	3.765700	-11.303000	20.958785	0.000105	20.767712
58.016316	-2.981200	3.766900	-11.228000	20.970814	0.000107	20.764570
59.017878	-2.979800	3.765200	-11.219000	20.957268	0.000106	20.753392
60.013920	-3.007300	3.763700	-11.317000	20.961509	0.000105	20.756686
61.019280	-3.004200	3.763800	-11.306000	20.971320	0.000105	20.754170
62.021894	-3.001900	3.762000	-11.292000	20.987091	0.000106	20.750503
63.018513	-3.005600	3.762300	-11.307000	20.986440	0.000105	20.753171
64.018214	-3.012400	3.762300	-11.332000	20.994114	0.000103	20.754208
65.022697	-3.019400	3.761200	-11.356000	20.985953	0.000104	20.755055
66.022852	-3.020700	3.761400	-11.361000	20.982515	0.000103	20.757306
67.023205	-3.014100	3.760000	-11.332000	20.993595	0.000105	20.747999
68.023209	-3.000300	3.760200	-11.281000	20.992559	0.000103	20.768300
69.021974	-2.992900	3.760800	-11.254000	20.993090	0.000105	20.740381
70.023525	-2.995900	3.759800	-11.264000	20.999651	0.000105	20.730822
71.020185	-2.998900	3.759300	-11.273000	21.000631	0.000106	20.741760
72.019829	-2.987800	3.758600	-11.229000	21.022495	0.000104	20.738023
73.021827	-3.003100	3.757100	-11.282000	21.011073	0.000104	20.760739
74.023531	-3.000100	3.757100	-11.271000	21.010656	0.000105	20.768857
75.024405	-2.988000	3.759200	-11.230000	21.018943	0.000104	20.730677
76.023845	-2.995000	3.756500	-11.250000	21.024044	0.000105	20.745263
77.023312	-3.029700	3.756400	-11.379000	21.005492	0.000105	20.764641
78.026287	-3.018600	3.756700	-11.339000	21.026434	0.000104	20.755240
79.021714	-3.018800	3.753900	-11.331000	21.036559	0.000104	20.754462
80.024076	-2.985800	3.755700	-11.212000	21.025163	0.000105	20.743063
81.022119	-2.979900	3.755100	-11.188000	21.038570	0.000104	20.765956
82.020737	-3.010800	3.753900	-11.301000	21.023747	0.000103	20.746863
83.027982	-3.009200	3.753600	-11.294000	21.032692	0.000104	20.761499
84.025688	-2.984000	3.753900	-11.201000	21.039183	0.000105	20.754716
85.023986	-3.025800	3.752000	-11.352000	21.033299	0.000104	20.738398
86.029065	-2.994200	3.752700	-11.236000	21.048544	0.000104	20.757915
87.029081	-3.012100	3.751400	-11.299000	21.055586	0.000106	20.749784
88.028087	-2.997800	3.752000	-11.247000	21.048228	0.000106	20.758547
89.029165	-2.991500	3.751900	-11.223000	21.064668	0.000104	20.772620
90.024697	-3.003000	3.751100	-11.262000	21.078694	0.000104	20.724533
91.026738	-3.006400	3.750200	-11.274000	21.064599	0.000105	20.733669
92.028304	-3.018500	3.749700	-11.318000	21.064871	0.000104	20.755753
93.026263	-3.000900	3.750000	-11.252000	21.074478	0.000106	20.743077
94.032939	-2.974600	3.751000	-11.157000	21.066419	0.000104	20.744499
95.030416	-2.994000	3.749600	-11.225000	21.071710	0.000103	20.754058
96.024920	-2.981800	3.749700	-11.179000	21.081936	0.000104	20.749589
97.028913	-2.997800	3.747100	-11.232000	21.084136	0.000104	20.750840
98.029014	-2.991700	3.747600	-11.211000	21.080735	0.000105	20.754551
99.029626	-2.991900	3.747500	-11.211000	21.086771	0.000104	20.745416
100.030818	-3.025100	3.748200	-11.337000	21.077809	0.000103	20.745934
101.029937	-3.014700	3.746900	-11.295000	21.087814	0.000103	20.716111
102.032566	-3.028200	3.746000	-11.343000	21.080685	0.000103	20.736956
103.031582	-3.007000	3.746100	-11.264000	21.089963	0.000104	20.753824
104.028161	-3.001900	3.746700	-11.246000	21.095550	0.000102	20.743291
105.030788	-3.021100	3.745300	-11.314000	21.117273	0.000102	20.733251
106.028031	-3.015200	3.744800	-11.291000	21.107673	0.000102	20.761582
107.030074	-3.001600	3.744900	-11.239000	21.115529	0.000101	20.745257
108.027668	-2.979600	3.745000	-11.158000	21.102010	0.000101	20.719879
109.032413	-3.010700	3.744200	-11.272000	21.124807	0.000103	20.739839
110.034459	-3.003900	3.744200	-11.246000	21.113108	0.000102	20.730033
111.027946	-2.995200	3.744600	-11.214000	21.128498	0.000102	20.760602
112.028603	-2.976500	3.744900	-11.145000	21.108557	9.943022E-5	20.738758
113.029200	-2.991000	3.744100	-11.198000	21.130065	0.000102	20.744151
114.029302	-3.002500	3.743200	-11.237000	21.119510	0.000103	20.745447
115.030259	-2.998800	3.743000	-11.223000	21.145632	0.000104	20.728427
116.034678	-2.995000	3.741600	-11.205000	21.138945	0.000102	20.732644
117.030322	-2.968600	3.742400	-11.108000	21.140443	0.000102	20.739358
118.031681	-3.000000	3.742100	-11.224000	21.135722	0.000103	20.730368
119.031587	-3.002100	3.740100	-11.228000	21.141663	0.000101	20.728250
120.032148	-3.009300	3.740600	-11.256000	21.131936	0.000100	20.727055
121.034498	-2.972700	3.741600	-11.121000	21.145455	0.000102	20.746269
122.031863	-3.004800	3.741500	-11.241000	21.146207	0.000101	20.730899
123.033450	-2.994900	3.740500	-11.201000	21.137991	0.000101	20.736905
124.033578	-3.019100	3.739000	-11.287000	21.142143	0.000102	20.720670
125.034884	-2.997700	3.739000	-11.208000	21.158398	0.000102	20.722705
126.038918	-3.021800	3.738100	-11.294000	21.147054	0.000102	20.723211
127.037637	-3.012900	3.740500	-11.268000	21.165957	0.000103	20.730741
128.036597	-3.000000	3.738200	-11.214000	21.179109	0.000102	20.729198
129.040052	-2.994500	3.738300	-11.193000	21.166829	0.000101	20.729242
130.038549	-2.998300	3.737500	-11.205000	21.188513	9.929824E-5	20.718216
131.038595	-3.022700	3.737900	-11.297000	21.158455	0.000102	20.724659
132.041429	-2.989200	3.737500	-11.172000	21.179710	0.000103	20.703719
133.037516	-2.986800	3.737100	-11.161000	21.175165	0.000102	20.727150
134.043505	-2.997800	3.735700	-11.198000	21.203232	0.000102	20.708284
135.036725	-3.002300	3.736400	-11.217000	21.196843	0.000102	20.728446
136.039816	-3.028500	3.734500	-11.309000	21.184740	0.000101	20.704484
137.044953	-2.990700	3.737300	-11.175000	21.188835	0.000102	20.731816
138.044553	-2.999900	3.736200	-11.207000	21.197171	0.000100	20.721188
139.047327	-3.001600	3.736100	-11.214000	21.198612	0.000102	20.727845
140.041202	-2.997700	3.735000	-11.196000	21.197013	0.000101	20.719607
141.045281	-3.000200	3.735200	-11.205000	21.209514	0.000101	20.705084
142.051131	-2.971400	3.734700	-11.097000	21.214721	0.000102	20.714562
143.045610	-3.009900	3.734600	-11.240000	21.217268	0.000102	20.712842
144.042128	-2.986700	3.734600	-11.153000	21.196369	0.000101	20.691459
145.046086	-3.015300	3.732400	-11.254000	21.212547	0.000101	20.701480
146.043820	-2.983000	3.734200	-11.138000	21.216346	0.000102	20.702909
147.045717	-3.015500	3.732100	-11.253000	21.206935	0.000102	20.713411
148.043413	-3.016000	3.732100	-11.255000	21.230957	0.000101	20.702827
149.046627	-3.003300	3.732100	-11.208000	21.220403	0.000103	20.696062
150.045574	-2.996700	3.732300	-11.184000	21.230634	0.000102	20.689701
151.044555	-2.983100	3.732500	-11.132000	21.220927	0.000103	20.711761
152.047441	-2.996900	3.731800	-11.183000	21.237788	0.000102	20.706816
153.044355	-3.006300	3.731800	-11.218000	21.232372	0.000101	20.718469
154.043501	-3.021100	3.729800	-11.267000	21.238363	0.000102	20.723988
155.043596	-3.011800	3.729200	-11.230000	21.259837	0.000102	20.714650
156.044576	-2.996900	3.731600	-11.183000	21.259464	0.000102	20.698629
157.047104	-2.998200	3.730900	-11.184000	21.253581	0.000101	20.709339
158.045408	-2.986300	3.730900	-11.141000	21.268274	0.000101	20.700329
159.045787	-2.987100	3.730100	-11.141000	21.253246	0.000100	20.697149
160.046777	-3.017000	3.728000	-11.246000	21.243621	0.000103	20.688468
161.046426	-2.989200	3.728800	-11.145000	21.253195	0.000100	20.717489
162.050418	-2.994600	3.729300	-11.166000	21.252999	9.962818E-5	20.692635
163.048735	-3.012300	3.727800	-11.228000	21.266814	0.000101	20.701714
164.048468	-3.005100	3.727300	-11.200000	21.261878	0.000102	20.704363
165.049942	-2.982800	3.729100	-11.122000	21.264476	9.926524E-5	20.686571
166.047993	-2.988600	3.728400	-11.142000	21.298101	0.000102	20.683227
167.047850	-2.998100	3.728000	-11.176000	21.268684	0.000101	20.705482
168.048691	-3.016400	3.726600	-11.240000	21.282404	9.946321E-5	20.703086
169.048338	-3.001300	3.727200	-11.186000	21.261417	9.969417E-5	20.690150
170.048346	-3.012200	3.724800	-11.218000	21.271894	9.946321E-5	20.689726
171.048557	-3.004300	3.726200	-11.194000	21.275914	9.949621E-5	20.696118
172.047934	-3.011800	3.725900	-11.221000	21.291207	9.880331E-5	20.700038
173.051822	-3.005600	3.725300	-11.196000	21.291725	9.735154E-5	20.701505
174.050237	-3.023300	3.724300	-11.258000	21.304395	9.751651E-5	20.690472
175.047822	-2.994600	3.724700	-11.153000	21.286979	9.863834E-5	20.689644
176.054862	-2.996900	3.724700	-11.162000	21.295510	9.943022E-5	20.687747
177.047517	-3.007700	3.724500	-11.202000	21.301772	9.741753E-5	20.710609
178.051657	-3.003800	3.723400	-11.183000	21.303516	9.949621E-5	20.673944
179.049833	-3.022300	3.722800	-11.250000	21.296363	9.929824E-5	20.692868
180.051069	-3.009000	3.722500	-11.200000	21.317311	9.771448E-5	20.673047
181.051598	-3.006600	3.723500	-11.194000	21.297829	9.576778E-5	20.694335
182.051113	-2.996500	3.723900	-11.158000	21.296868	9.761549E-5	20.684838
183.054229	-3.004500	3.722400	-11.182000	21.306575	9.665864E-5	20.676530
184.047546	-3.018300	3.721600	-11.231000	21.320818	9.698859E-5	20.693153
185.052769	-2.981900	3.723500	-11.102000	21.317330	9.880331E-5	20.690137
186.050155	-2.977400	3.721100	-11.079000	21.312388	9.679062E-5	20.669544
187.052553	-2.999000	3.721200	-11.159000	21.323952	9.665864E-5	20.676846
188.051017	-2.972900	3.721500	-11.063000	21.347554	9.745052E-5	20.686710
189.053151	-2.992000	3.722000	-11.135000	21.322360	9.566879E-5	20.666717
190.053109	-2.995600	3.720900	-11.145000	21.327794	9.797844E-5	20.673577
191.056167	-2.997100	3.720100	-11.149000	21.336774	9.890230E-5	20.679717
192.052476	-2.991800	3.720500	-11.130000	21.325298	9.787945E-5	20.673925
193.052532	-2.988100	3.720300	-11.115000	21.351693	9.642768E-5	20.677573
194.053850	-2.988500	3.719300	-11.115000	21.346253	9.728555E-5	20.670707
195.054469	-2.982800	3.720100	-11.095000	21.338442	9.698859E-5	20.680912
196.052732	-2.999700	3.719000	-11.155000	21.338467	9.794544E-5	20.658175
197.050494	-3.018100	3.719000	-11.223000	21.353829	9.613072E-5	20.665484
198.053463	-2.998000	3.717700	-11.145000	21.353406	9.886930E-5	20.672648
199.053547	-3.006000	3.717400	-11.174000	21.371516	9.570179E-5	20.662791
200.053916	-2.974700	3.718600	-11.059000	21.354903	9.606473E-5	20.661343
201.057584	-3.008100	3.717900	-11.182000	21.376129	9.586676E-5	20.676416
202.053837	-2.997100	3.717200	-11.140000	21.364925	9.523986E-5	20.681803
203.053452	-2.994300	3.716800	-11.129000	21.374675	9.467895E-5	20.674014
204.058918	-2.985200	3.717500	-11.096000	21.394409	9.596575E-5	20.655823
205.053535	-3.011900	3.716600	-11.194000	21.387401	9.490991E-5	20.663512
206.054761	-3.017800	3.714700	-11.209000	21.375952	9.484392E-5	20.679559
207.054319	-3.007900	3.715700	-11.175000	21.396526	9.692260E-5	20.680703
208.053986	-2.986800	3.715700	-11.097000	21.389543	9.665864E-5	20.674191
209.056191	-2.989400	3.715800	-11.107000	21.393960	9.553682E-5	20.704217
210.052617	-3.007300	3.714300	-11.169000	21.408569	9.646067E-5	20.671889
211.053174	-2.970500	3.715300	-11.035000	21.414578	9.662565E-5	20.672212
212.055739	-2.985600	3.715900	-11.093000	21.410888	9.517387E-5	20.651922
213.052963	-3.004300	3.713700	-11.156000	21.397770	9.392006E-5	20.658238
214.055467	-3.005100	3.713000	-11.156000	21.397069	9.454697E-5	20.681721
215.055127	-2.989500	3.714200	-11.103000	21.411710	9.596575E-5	20.675031
216.055637	-3.008600	3.713100	-11.171000	21.430312	9.487692E-5	20.677997
217.055380	-3.000000	3.712600	-11.137000	21.423601	9.388707E-5	20.677447
218.054513	-2.989600	3.712700	-11.099000	21.411583	9.451397E-5	20.654988
219.056778	-2.999100	3.713200	-11.135000	21.426046	9.240230E-5	20.658554
220.055137	-3.015900	3.712200	-11.195000	21.428669	9.322717E-5	20.670188
221.055685	-2.998700	3.713300	-11.134000	21.420107	9.260027E-5	20.657827
222.055924	-2.991100	3.712300	-11.102000	21.434122	9.213834E-5	20.674222
223.058668	-3.011600	3.711500	-11.177000	21.439966	9.441499E-5	20.670587
224.063801	-3.017700	3.710300	-11.196000	21.442222	9.217133E-5	20.626845
225.064979	-2.989500	3.712900	-11.098000	21.456672	9.359011E-5	20.663119
226.059044	-3.028500	3.710200	-11.236000	21.460855	9.164341E-5	20.663037
227.056851	-3.034100	3.711400	-11.260000	21.440819	9.184138E-5	20.681872
228.061988	-2.994600	3.710900	-11.111000	21.447460	9.118149E-5	20.638252
229.064260	-2.996200	3.709500	-11.114000	21.444313	9.319418E-5	20.654545
230.059761	-2.994000	3.708900	-11.104000	21.471773	9.203935E-5	20.663056
231.062309	-2.986700	3.709200	-11.077000	21.474218	9.075255E-5	20.670245
232.066193	-2.975500	3.710300	-11.040000	21.466510	9.230331E-5	20.663954
233.059919	-2.991700	3.709300	-11.097000	21.491448	9.276524E-5	20.669467
234.063971	-2.995100	3.708700	-11.106000	21.485983	9.075255E-5	20.643133
235.067150	-2.999500	3.708900	-11.123000	21.483936	9.134646E-5	20.672382
236.064036	-3.003000	3.708500	-11.135000	21.478995	9.104951E-5	20.663170
237.059950	-3.001400	3.708000	-11.127000	21.502714	9.174240E-5	20.641381
238.063965	-3.003200	3.706700	-11.130000	21.479418	9.289722E-5	20.665490
239.062736	-3.001200	3.707400	-11.126000	21.510719	9.065357E-5	20.663144
240.065893	-2.997800	3.707400	-11.113000	21.486078	9.312819E-5	20.645124
241.060699	-2.995700	3.707200	-11.105000	21.501469	9.091753E-5	20.670011
242.064845	-3.013800	3.706300	-11.169000	21.489066	9.038961E-5	20.662816
243.064993	-2.994500	3.707600	-11.101000	21.494032	8.982869E-5	20.651188
244.066365	-2.997700	3.707400	-11.113000	21.511963	9.250128E-5	20.654906
245.069269	-2.995300	3.706600	-11.101000	21.519899	8.877286E-5	20.669486
246.063612	-3.005900	3.705900	-11.139000	21.501640	9.015864E-5	20.649316
247.064182	-2.974600	3.705900	-11.022000	21.518124	8.963072E-5	20.661545
248.066340	-2.990900	3.704700	-11.079000	21.531941	8.877286E-5	20.663517
249.066125	-2.969100	3.704900	-10.999000	21.532889	8.814595E-5	20.674424
250.067986	-2.986300	3.704900	-11.064000	21.535062	8.923479E-5	20.652889
251.072902	-3.012500	3.704500	-11.158000	21.541096	8.893783E-5	20.668885
252.066208	-3.002700	3.703400	-11.119000	21.536383	9.045560E-5	20.666065
253.066142	-3.015200	3.702200	-11.162000	21.561850	8.936677E-5	20.659781
254.069304	-2.994400	3.703600	-11.089000	21.545721	8.900382E-5	20.663555
255.070482	-2.993800	3.703400	-11.086000	21.551628	8.943276E-5	20.670890
256.070890	-3.016600	3.702100	-11.167000	21.554673	8.600128E-5	20.678679
257.071620	-2.988800	3.703700	-11.068000	21.548115	8.831093E-5	20.680178
258.070140	-3.001100	3.701400	-11.106000	21.566722	8.880585E-5	20.671295
259.075585	-3.018600	3.700800	-11.170000	21.575573	8.857489E-5	20.653597
260.072822	-3.005400	3.702400	-11.126000	21.569148	8.972971E-5	20.680836
261.067826	-3.022800	3.701700	-11.188000	21.571511	8.821194E-5	20.659964
262.071170	-3.005500	3.703200	-11.129000	21.564750	8.755204E-5	20.683548
263.069601	-3.011300	3.700900	-11.144000	21.558224	8.768402E-5	20.642399
264.075611	-3.008700	3.700900	-11.134000	21.603636	8.900382E-5	20.643272
265.075243	-3.004600	3.701100	-11.119000	21.590622	8.751905E-5	20.667235
266.074772	-3.002300	3.701400	-11.111000	21.598873	8.715611E-5	20.657473
267.076293	-3.014300	3.699900	-11.152000	21.611066	8.834392E-5	20.657821
268.071292	-3.004300	3.699800	-11.114000	21.596308	8.613326E-5	20.664390
269.073541	-2.991000	3.700600	-11.068000	21.597925	8.596829E-5	20.656050
270.075346	-3.003200	3.700100	-11.111000	21.613087	8.633123E-5	20.672173
271.076321	-3.005400	3.699600	-11.118000	21.602164	8.458250E-5	20.664561
272.076663	-2.995800	3.699000	-11.081000	21.611988	8.527540E-5	20.664434
273.077752	-2.978400	3.700100	-11.019000	21.607825	8.781600E-5	20.652680
274.076708	-2.986500	3.699200	-11.047000	21.630593	8.520941E-5	20.672148
275.079852	-2.997300	3.698500	-11.084000	21.638623	8.547336E-5	20.672123
276.079310	-3.016300	3.699000	-11.156000	21.624958	8.524240E-5	20.673147
277.080859	-3.014400	3.699300	-11.150000	21.632956	8.593529E-5	20.665503
278.080306	-2.983500	3.698600	-11.034000	21.627270	8.553935E-5	20.678781
279.075396	-3.009300	3.697100	-11.124000	21.657543	8.669418E-5	20.691059
280.078481	-2.997800	3.696500	-11.081000	21.632653	8.616626E-5	20.660931
281.075701	-2.976300	3.698800	-11.008000	21.656842	8.567133E-5	20.674709
282.076382	-2.999200	3.697700	-11.089000	21.645970	8.577032E-5	20.664302
283.081542	-2.996400	3.696800	-11.076000	21.645319	8.586930E-5	20.666970
284.078908	-2.997400	3.697300	-11.081000	21.641131	8.385661E-5	20.661355
285.077166	-3.000300	3.696200	-11.089000	21.665143	8.468149E-5	20.662152
286.083290	-3.028500	3.695800	-11.191000	21.658036	8.408758E-5	20.687759
287.077283	-2.998300	3.695300	-11.079000	21.659609	8.487946E-5	20.677004
288.080241	-3.005900	3.694600	-11.104000	21.675769	8.362565E-5	20.679425
289.087549	-2.987300	3.695400	-11.039000	21.673128	8.342768E-5	20.675360
290.078670	-2.997500	3.695300	-11.075000	21.663519	8.283377E-5	20.673330
291.083322	-2.990100	3.694600	-11.047000	21.663728	8.408758E-5	20.686342
292.081838	-2.996500	3.695400	-11.072000	21.686318	8.243783E-5	20.663903
293.085526	-3.014900	3.694900	-11.138000	21.691056	8.223986E-5	20.676707
294.084408	-2.983100	3.694600	-11.020000	21.696546	8.415357E-5	20.690263
295.082753	-3.013100	3.693800	-11.128000	21.696072	8.382362E-5	20.667975
296.083996	-2.992000	3.694700	-11.053000	21.694524	8.263580E-5	20.664055
297.080378	-2.965300	3.695200	-10.956000	21.706963	8.042514E-5	20.689308
298.086194	-2.999600	3.693500	-11.077000	21.700987	8.164595E-5	20.690914
299.080772	-2.984000	3.692900	-11.018000	21.724417	8.355966E-5	20.681645
300.082046	-3.002700	3.693300	-11.088000	21.736293	8.187692E-5	20.677409
301.085787	-2.989700	3.692500	-11.039000	21.721978	8.065611E-5	20.690585
302.082778	-3.007700	3.691600	-11.102000	21.726047	8.121702E-5	20.679008
303.084745	-3.005700	3.692100	-11.096000	21.733602	8.204189E-5	20.685148
304.091385	-2.992800	3.691500	-11.047000	21.739312	8.253682E-5	20.682802
305.086106	-3.016500	3.692200	-11.137000	21.746943	8.233885E-5	20.678110
306.085605	-2.979600	3.692000	-10.999000	21.765893	8.098606E-5	20.676688
307.083036	-2.996300	3.690900	-11.058000	21.751883	8.227286E-5	20.664087
308.081678	-3.002000	3.690000	-11.076000	21.750006	7.963326E-5	20.681177
309.086251	-3.025300	3.690200	-11.162000	21.776410	8.042514E-5	20.687689
310.082440	-3.000500	3.689200	-11.069000	21.738371	8.082108E-5	20.672376
311.082946	-2.997400	3.690400	-11.060000	21.768066	8.012819E-5	20.664637
312.084016	-3.016200	3.690500	-11.130000	21.758932	8.088707E-5	20.681101
313.085636	-2.998500	3.689700	-11.062000	21.779101	8.131600E-5	20.683744
314.088262	-3.000400	3.689100	-11.068000	21.782272	7.828047E-5	20.689763
315.090772	-2.987800	3.690700	-11.025000	21.801879	7.884139E-5	20.685679
316.085769	-3.014600	3.688700	-11.119000	21.788690	7.765357E-5	20.698558
317.084310	-3.006800	3.689800	-11.094000	21.785999	7.966626E-5	20.685432
318.084508	-2.992300	3.688400	-11.036000	21.804703	7.936930E-5	20.705576
319.085555	-3.007200	3.688000	-11.090000	21.794110	7.940230E-5	20.694973
320.086579	-3.000400	3.687800	-11.063000	21.797477	7.986423E-5	20.712095
321.084876	-3.018700	3.687300	-11.130000	21.810792	7.880839E-5	20.691755
322.085404	-2.998600	3.688500	-11.059000	21.824657	7.791753E-5	20.708004
323.082456	-3.011500	3.687900	-11.106000	21.827057	7.778555E-5	20.696181
324.085096	-3.007700	3.687900	-11.091000	21.826406	7.950128E-5	20.701694
325.085553	-3.014300	3.685600	-11.109000	21.833500	7.897337E-5	20.669910
326.083059	-2.994000	3.687300	-11.039000	21.843720	7.870941E-5	20.707644
327.083781	-2.996100	3.686100	-11.042000	21.841976	7.583885E-5	20.692621
328.085537	-3.008700	3.687300	-11.093000	21.855146	7.821448E-5	20.696794
329.087584	-2.985200	3.687500	-11.006000	21.853851	7.814849E-5	20.700240
330.087251	-2.996600	3.686000	-11.044000	21.858089	7.874240E-5	20.710173
331.085597	-2.991000	3.686700	-11.025000	21.854577	7.768656E-5	20.683422
332.087202	-3.009900	3.686200	-11.094000	21.864083	7.854443E-5	20.713328
333.087550	-2.982300	3.685300	-10.989000	21.845489	7.712565E-5	20.700405
334.085169	-2.984700	3.685200	-10.998000	21.838951	7.705966E-5	20.700974
335.084521	-3.016000	3.683600	-11.108000	21.857325	7.527793E-5	20.698027
336.089453	-3.005000	3.685300	-11.073000	21.868821	7.768656E-5	20.707164
337.087518	-2.969700	3.685000	-10.943000	21.874486	7.653174E-5	20.712835
338.091101	-3.000100	3.683600	-11.050000	21.859902	7.649875E-5	20.710091
339.087832	-2.984800	3.683400	-10.993000	21.878055	7.554189E-5	20.700759
340.086593	-2.977400	3.685100	-10.970000	21.881074	7.659773E-5	20.708523
341.091022	-2.977600	3.683200	-10.965000	21.910197	7.484900E-5	20.717286
342.088995	-2.993700	3.683900	-11.027000	21.900673	7.600382E-5	20.719606
343.088593	-2.984000	3.683500	-10.991000	21.918850	7.359519E-5	20.702239
344.086722	-2.968000	3.682900	-10.930000	21.892355	7.587184E-5	20.687096
345.086716	-2.987600	3.682600	-11.001000	21.926208	7.442007E-5	20.721933
346.086648	-2.998300	3.682400	-11.040000	21.906850	7.389215E-5	20.721048
347.086181	-3.032400	3.680500	-11.160000	21.924238	7.250636E-5	20.709054
348.086263	-3.002600	3.682400	-11.056000	21.912181	7.253936E-5	20.724488
349.087862	-3.022600	3.680600	-11.124000	21.919160	7.184646E-5	20.722939
350.087038	-3.000100	3.682200	-11.046000	21.926619	7.319925E-5	20.692945
351.086437	-3.018400	3.681500	-11.111000	21.938663	7.310027E-5	20.707373
352.087944	-2.999600	3.681600	-11.043000	21.932278	7.333123E-5	20.715681
353.086750	-2.989400	3.681000	-11.003000	21.924200	7.187946E-5	20.701904
354.085752	-2.996000	3.680600	-11.026000	21.956543	7.098859E-5	20.698243
355.085462	-2.987300	3.680000	-10.993000	21.957787	7.178047E-5	20.717034
356.086128	-3.001700	3.679600	-11.044000	21.945592	7.343022E-5	20.722370
357.088405	-3.006700	3.679600	-11.063000	21.965417	7.323225E-5	20.710446
358.086087	-3.007200	3.679200	-11.063000	21.970052	7.211042E-5	20.738795
359.086431	-2.986100	3.679300	-10.986000	21.971676	7.220941E-5	20.736627
360.087153	-2.989800	3.679700	-11.001000	21.970974	7.277032E-5	20.739719
361.087040	-3.004400	3.678900	-11.052000	21.964097	7.121956E-5	20.737101
362.089212	-2.988300	3.677900	-10.990000	21.974196	7.141753E-5	20.726347
363.092453	-3.017000	3.678600	-11.097000	21.985715	7.062565E-5	20.737405
364.089577	-3.020200	3.678100	-11.108000	22.003828	7.019672E-5	20.747002
365.093079	-3.025600	3.675700	-11.121000	21.983113	7.059265E-5	20.733377
366.090324	-2.983500	3.677200	-10.970000	21.992163	6.917387E-5	20.718728
367.090369	-3.010600	3.677000	-11.070000	21.996256	6.864595E-5	20.723773
368.092776	-2.990900	3.678000	-11.000000	22.018315	6.775509E-5	20.714562
369.091253	-3.007100	3.676600	-11.055000	21.987774	7.032870E-5	20.729982
370.091231	-2.998300	3.675500	-11.019000	22.028306	6.914088E-5	20.736418
371.089590	-2.990500	3.677300	-10.996000	22.010882	6.749113E-5	20.724191
372.092443	-2.996900	3.675300	-11.014000	22.026841	6.785408E-5	20.724045
373.092158	-2.997400	3.675100	-11.015000	22.013800	6.709519E-5	20.731853
374.090191	-3.016800	3.675500	-11.087000	22.020677	6.768910E-5	20.720720
375.091025	-3.011000	3.674400	-11.063000	22.008785	6.811804E-5	20.739636
376.094166	-3.013100	3.673900	-11.069000	22.028653	6.663326E-5	20.735817
377.090044	-2.998200	3.675800	-11.020000	22.048224	6.465357E-5	20.737866
378.095031	-2.979700	3.674900	-10.949000	22.050264	6.557743E-5	20.747021
379.090220	-2.986400	3.674600	-10.973000	22.042439	6.610535E-5	20.753412
380.089519	-2.984700	3.674900	-10.968000	22.057046	6.590738E-5	20.754759
381.091136	-3.002900	3.673100	-11.028000	22.054956	6.653428E-5	20.732277
382.092171	-2.983000	3.673900	-10.957000	22.054331	6.663326E-5	20.755360
383.094462	-2.995900	3.672200	-11.000000	22.049512	6.679824E-5	20.739630
384.095820	-2.983100	3.672400	-10.954000	22.062408	6.663326E-5	20.733573
385.095062	-2.989700	3.673900	-10.983000	22.066892	6.600636E-5	20.742804
386.097015	-2.994500	3.671700	-10.994000	22.078707	6.412565E-5	20.742304
387.092209	-3.013600	3.670500	-11.060000	22.060084	6.600636E-5	20.744049
388.095242	-3.015800	3.670900	-11.070000	22.080324	6.435661E-5	20.739181
389.092606	-2.997300	3.671900	-11.005000	22.088224	6.607235E-5	20.739029
390.095467	-2.997400	3.671500	-11.004000	22.087598	6.382870E-5	20.730816
391.095122	-2.991400	3.670800	-10.980000	22.081789	6.409265E-5	20.744915
392.095865	-2.977500	3.672200	-10.933000	22.112473	6.396068E-5	20.753823
393.101478	-3.029400	3.669400	-11.115000	22.077122	6.491753E-5	20.741191
394.092446	-2.995700	3.669800	-10.993000	22.092795	6.409265E-5	20.761625
395.097109	-3.007800	3.669400	-11.035000	22.122040	6.419164E-5	20.758660
396.095558	-3.008300	3.668700	-11.036000	22.109921	6.399367E-5	20.738940
397.098056	-2.991900	3.668800	-10.975000	22.113956	6.330078E-5	20.749619
398.094090	-3.008300	3.669900	-11.040000	22.115371	6.264088E-5	20.734439
399.097062	-3.016800	3.668100	-11.065000	22.147027	6.333377E-5	20.755701
400.093328	-2.991300	3.669600	-10.976000	22.133368	6.372971E-5	20.759570
401.094612	-2.996600	3.668500	-10.992000	22.123965	6.089215E-5	20.754898
402.099137	-3.007400	3.668300	-11.031000	22.126478	6.247590E-5	20.741292
403.094844	-3.006500	3.667400	-11.025000	22.152274	6.402667E-5	20.746255
404.099689	-3.016200	3.666700	-11.059000	22.150676	6.336677E-5	20.748449
405.102061	-2.992000	3.667500	-10.972000	22.157344	6.158504E-5	20.739951
406.101077	-2.993800	3.667200	-10.976000	22.151263	6.056220E-5	20.771797
407.100032	-2.996000	3.666900	-10.985000	22.159636	6.323479E-5	20.772593
408.102800	-2.989700	3.667200	-10.963000	22.161051	6.175002E-5	20.744137
409.105361	-3.013700	3.666700	-11.049000	22.166311	6.217895E-5	20.741342
410.103406	-2.995300	3.666700	-10.982000	22.181731	6.076017E-5	20.761049
411.102561	-3.004800	3.665700	-11.014000	22.177967	6.148606E-5	20.740684
412.101184	-3.007700	3.666500	-11.027000	22.189478	6.033123E-5	20.754581
413.103332	-3.021100	3.664600	-11.070000	22.197346	5.996829E-5	20.770045
414.102883	-3.021500	3.664100	-11.070000	22.191057	6.023225E-5	20.759480
415.104179	-3.017400	3.666000	-11.060000	22.188664	6.006727E-5	20.763723
416.100781	-3.016200	3.665900	-11.056000	22.196392	5.858250E-5	20.751546
417.104056	-2.998400	3.664600	-10.987000	22.191524	5.993529E-5	20.759474
418.104307	-3.003300	3.663000	-11.001000	22.209412	6.066118E-5	20.765531
419.105501	-2.983600	3.664900	-10.934000	22.215518	5.848352E-5	20.746987
420.109513	-2.963800	3.664200	-10.859000	22.206716	5.940738E-5	20.764728
421.106150	-2.995800	3.662000	-10.969000	22.203123	5.812057E-5	20.760182
422.106417	-2.993600	3.663900	-10.968000	22.205864	5.722971E-5	20.769564
423.107506	-2.987600	3.663000	-10.942000	22.216630	5.808758E-5	20.762799
424.106998	-3.021800	3.662300	-11.065000	22.228936	5.881347E-5	20.749042
425.104767	-3.007700	3.662300	-11.014000	22.236683	5.782362E-5	20.741626
426.111814	-2.996100	3.661400	-10.969000	22.244633	5.755966E-5	20.759543
427.106802	-3.014000	3.661600	-11.035000	22.241810	5.805458E-5	20.754821
428.110103	-2.998600	3.662200	-10.981000	22.245447	5.689976E-5	20.755617
429.108062	-2.982800	3.662000	-10.922000	22.241652	5.656981E-5	20.771258
430.108726	-3.023000	3.660700	-11.065000	22.253586	5.620687E-5	20.770405
431.113533	-2.998000	3.662800	-10.979000	22.253333	5.488707E-5	20.775368
432.109699	-2.992500	3.660600	-10.953000	22.244260	5.703174E-5	20.773869
433.111696	-2.989600	3.660000	-10.941000	22.285427	5.670179E-5	20.775735
434.108249	-2.999100	3.659800	-10.975000	22.254470	5.511804E-5	20.775557
435.111362	-2.998200	3.659500	-10.971000	22.270716	5.462311E-5	20.768116
436.112676	-2.988700	3.660200	-10.937000	22.284120	5.383123E-5	20.791496
437.111559	-3.005600	3.659000	-10.997000	22.281071	5.515103E-5	20.780381
438.109217	-3.006900	3.658700	-11.000000	22.279922	5.399621E-5	20.767851
439.110181	-3.007600	3.658100	-11.001000	22.284625	5.406220E-5	20.797217
440.112720	-2.991600	3.658200	-10.943000	22.270255	5.353428E-5	20.782354
441.113371	-3.024000	3.657200	-11.058000	22.310645	5.270941E-5	20.782019
442.113274	-3.005200	3.657700	-10.991000	22.297708	5.204951E-5	20.796092
443.110868	-3.014400	3.656400	-11.021000	22.307121	5.261042E-5	20.776120
444.113909	-3.000000	3.657500	-10.971000	22.292732	5.313834E-5	20.775463
445.112901	-2.983400	3.657600	-10.911000	22.310480	5.244545E-5	20.793234
446.112743	-2.996900	3.656100	-10.956000	22.300682	5.198352E-5	20.791009
447.118129	-3.010300	3.656900	-11.008000	22.299406	5.053174E-5	20.780723
448.113122	-2.998300	3.655800	-10.961000	22.319364	5.198352E-5	20.788379
449.114689	-2.984000	3.656900	-10.911000	22.322230	5.043276E-5	20.782240
450.113954	-3.006800	3.655400	-10.991000	22.312577	5.125763E-5	20.775419
451.115120	-2.993800	3.656100	-10.944000	22.327085	5.030078E-5	20.783309
452.111702	-2.980800	3.654800	-10.893000	22.323386	5.099367E-5	20.782923
453.118403	-3.027500	3.655600	-11.066000	22.325154	5.013580E-5	20.787064
454.116932	-3.021300	3.653100	-11.037000	22.340230	4.710027E-5	20.789833
455.122123	-3.003800	3.654600	-10.976000	22.332477	4.878301E-5	20.783966
456.112690	-3.008100	3.653900	-10.990000	22.343211	4.875001E-5	20.777170
457.117727	-3.009100	3.653500	-10.993000	22.351904	4.769418E-5	20.782557
458.114904	-2.990300	3.653400	-10.923000	22.375226	4.881600E-5	20.800221
459.116900	-2.995400	3.653700	-10.943000	22.363060	4.799113E-5	20.776658
460.120323	-3.006300	3.652400	-10.979000	22.364134	4.604443E-5	20.787216
461.112623	-2.983000	3.653300	-10.896000	22.352593	4.647336E-5	20.795100
462.116037	-2.986500	3.652500	-10.907000	22.364424	4.607742E-5	20.792723
463.118550	-2.992500	3.653300	-10.931000	22.348521	4.660534E-5	20.786755
464.117479	-3.003000	3.652500	-10.968000	22.366931	4.482362E-5	20.814673
465.118109	-3.007400	3.652200	-10.983000	22.378768	4.617641E-5	20.798078
466.117923	-2.991800	3.652800	-10.927000	22.374052	4.607742E-5	20.783872
467.115591	-3.008900	3.650700	-10.984000	22.378061	4.650636E-5	20.819655
468.119580	-2.997500	3.649800	-10.938000	22.379974	4.525255E-5	20.812562
469.115889	-2.981100	3.650800	-10.882000	22.389716	4.314088E-5	20.801928
470.115388	-2.997000	3.651200	-10.942000	22.405758	4.386676E-5	20.783379
471.116940	-3.011100	3.650500	-10.991000	22.393542	4.594545E-5	20.795328
472.118233	-3.015300	3.648700	-11.000000	22.405524	4.479062E-5	20.808276
473.122333	-2.998700	3.649200	-10.942000	22.385391	4.436169E-5	20.808503
474.122557	-2.984800	3.649300	-10.891000	22.414899	4.370179E-5	20.814819
475.119671	-3.003500	3.649200	-10.960000	22.414912	4.373478E-5	20.792072
476.118869	-3.004700	3.649300	-10.964000	22.417507	4.323986E-5	20.804628
477.119137	-3.012900	3.647900	-10.989000	22.409129	4.330585E-5	20.812360
478.119593	-2.998100	3.648600	-10.938000	22.424382	4.244798E-5	20.804400
479.119955	-2.994200	3.647400	-10.920000	22.432002	4.264595E-5	20.795910
480.119377	-2.999100	3.646000	-10.934000	22.438902	4.152412E-5	20.800449
481.120184	-2.994300	3.646800	-10.918000	22.444704	4.135915E-5	20.797250
482.119325	-2.975400	3.646600	-10.849000	22.436674	4.182108E-5	20.799640
483.119633	-3.005300	3.645500	-10.955000	22.453649	4.162311E-5	20.805260
484.124069	-3.002000	3.647000	-10.947000	22.439565	4.155712E-5	20.798268
485.122201	-2.983000	3.647700	-10.880000	22.427873	3.987438E-5	20.779448
486.123930	-2.980900	3.645900	-10.867000	22.449729	4.010534E-5	20.810344
487.127910	-3.006000	3.646100	-10.960000	22.456547	3.914849E-5	20.806740
488.121756	-3.015000	3.645200	-10.989000	22.470757	4.020433E-5	20.793470
489.127275	-3.002600	3.644700	-10.943000	22.473087	3.967641E-5	20.773044
490.128533	-2.986900	3.644600	-10.886000	22.467481	3.842260E-5	20.792560
491.128247	-2.998000	3.644300	-10.925000	22.478427	3.994037E-5	20.780763
492.124988	-2.995000	3.644100	-10.914000	22.476357	3.848859E-5	20.795759
493.127864	-2.976500	3.644900	-10.848000	22.465038	3.888453E-5	20.802916
494.128966	-3.001200	3.642400	-10.930000	22.482329	3.749874E-5	20.778980
495.132576	-3.021900	3.642100	-11.005000	22.511834	3.786169E-5	20.799047
496.130029	-3.005200	3.643400	-10.948000	22.502063	3.710280E-5	20.782148
497.127101	-2.989000	3.642700	-10.887000	22.477771	3.746575E-5	20.784373
498.129187	-2.990300	3.642000	-10.891000	22.493042	3.786169E-5	20.786390
499.130641	-2.996000	3.642000	-10.911000	22.504733	3.634392E-5	20.801417
500.130177	-3.017600	3.641400	-10.988000	22.500093	3.736676E-5	20.765476
501.131115	-2.969300	3.641400	-10.812000	22.508691	3.677285E-5	20.789260
502.130929	-2.991100	3.641800	-10.892000	22.499468	3.558504E-5	20.800886
503.131829	-2.992100	3.639200	-10.888000	22.510686	3.611296E-5	20.764231
504.131096	-2.994000	3.641300	-10.901000	22.511803	3.730077E-5	20.790006
505.132067	-2.976900	3.640200	-10.835000	22.532464	3.647590E-5	20.795999
506.128068	-3.000700	3.639900	-10.921000	22.527407	3.594798E-5	20.796151
507.130661	-3.017000	3.639200	-10.978000	22.523992	3.291245E-5	20.771868
508.131761	-3.007300	3.638000	-10.940000	22.527035	3.449620E-5	20.771122
509.132138	-3.001900	3.638100	-10.921000	22.539773	3.492514E-5	20.777716
510.135035	-2.975400	3.637600	-10.822000	22.514372	3.258250E-5	20.794476
511.136102	-2.975000	3.638800	-10.825000	22.536554	3.380331E-5	20.790613
512.135399	-2.985200	3.638500	-10.861000	22.541541	3.225255E-5	20.768106
513.136050	-3.000900	3.638500	-10.917000	22.546421	3.377032E-5	20.788640
514.137141	-3.005300	3.637600	-10.932000	22.554046	3.466118E-5	20.782053
515.133058	-3.007600	3.636700	-10.937000	22.553497	3.271448E-5	20.768226
516.140192	-2.988600	3.636100	-10.866000	22.551110	3.271448E-5	20.772949
517.136884	-3.002100	3.636300	-10.916000	22.568918	3.165864E-5	20.795051
518.137647	-2.989800	3.636400	-10.871000	22.569517	3.043783E-5	20.762460
519.135753	-2.992100	3.635500	-10.876000	22.557164	3.198859E-5	20.788021
520.136240	-3.008600	3.635000	-10.935000	22.562366	3.192260E-5	20.769048
521.137971	-3.007300	3.636300	-10.935000	22.568848	3.165864E-5	20.772696
522.136352	-3.012800	3.635500	-10.952000	22.582476	3.089976E-5	20.779707
523.136445	-3.001200	3.633500	-10.904000	22.562523	2.905204E-5	20.772525
524.137762	-2.995900	3.634800	-10.889000	22.592740	3.103174E-5	20.771495
525.139514	-3.019800	3.633600	-10.972000	22.576997	3.099874E-5	20.762365
526.140460	-3.010700	3.633900	-10.940000	22.583322	2.934900E-5	20.766330
527.141970	-2.987400	3.633800	-10.855000	22.592967	3.014087E-5	20.779309
528.140861	-2.997400	3.634200	-10.891000	22.593037	2.872209E-5	20.772266
529.138888	-2.999600	3.633800	-10.899000	22.608760	2.763326E-5	20.744865
530.139941	-3.005400	3.633000	-10.917000	22.617749	2.730331E-5	20.772835
531.143938	-2.980300	3.632800	-10.826000	22.601387	2.796321E-5	20.754551
532.142302	-2.986200	3.632900	-10.848000	22.590518	2.664341E-5	20.770692
533.139292	-2.999100	3.631000	-10.889000	22.608602	2.885407E-5	20.782641
534.144036	-3.039200	3.630700	-11.034000	22.612270	2.694036E-5	20.765451
535.144410	-3.001500	3.631400	-10.898000	22.611519	2.585153E-5	20.771811
536.144963	-2.999700	3.630800	-10.891000	22.617269	2.812818E-5	20.744853
537.146101	-3.006700	3.630300	-10.914000	22.626017	2.664341E-5	20.752193
538.143244	-3.017500	3.629200	-10.950000	22.631521	2.595052E-5	20.767190
539.145585	-2.997000	3.629800	-10.877000	22.634930	2.515864E-5	20.769181
540.142055	-2.988800	3.630600	-10.851000	22.625607	2.618148E-5	20.750360
541.139637	-3.014900	3.628700	-10.939000	22.638868	2.637945E-5	20.746573
542.144765	-3.032500	3.627900	-11.000000	22.638288	2.509265E-5	20.755949
543.140642	-2.999200	3.628300	-10.880000	22.643842	2.558757E-5	20.755823
544.141013	-3.018300	3.626300	-10.945000	22.636893	2.251904E-5	20.757397
545.141495	-2.967900	3.629200	-10.770000	22.654080	2.354189E-5	20.745214
546.141510	-3.006900	3.626300	-10.903000	22.659117	2.367387E-5	20.739353
547.143508	-3.005000	3.626500	-10.897000	22.633699	2.294798E-5	20.744714
548.143539	-3.034400	3.625600	-11.001000	22.660834	2.275001E-5	20.769523
549.143820	-2.984000	3.627600	-10.824000	22.663144	2.202412E-5	20.776579
550.147691	-3.004600	3.627200	-10.897000	22.666609	2.202412E-5	20.762505
551.144221	-3.005900	3.625300	-10.896000	22.658612	2.251904E-5	20.769194
552.144205	-2.995100	3.624800	-10.856000	22.643660	2.344290E-5	20.750898
553.146725	-2.990900	3.624800	-10.841000	22.663321	2.228808E-5	20.744512
554.146494	-3.004100	3.625300	-10.889000	22.674183	2.182615E-5	20.762505
555.145318	-2.986600	3.624200	-10.823000	22.684396	2.017640E-5	20.759932
556.146355	-2.995500	3.625400	-10.858000	22.677794	2.156219E-5	20.749052
557.145827	-3.005600	3.623500	-10.890000	22.682149	2.060534E-5	20.767639
558.152573	-2.998100	3.624800	-10.867000	22.693137	2.034138E-5	20.735497
559.146594	-3.004000	3.624500	-10.886000	22.694134	2.090229E-5	20.775852
560.149126	-2.993800	3.623300	-10.847000	22.693289	2.044036E-5	20.756986
561.147140	-2.997100	3.623200	-10.858000	22.688833	2.185915E-5	20.759635
562.150469	-3.006600	3.622600	-10.890000	22.715095	1.974747E-5	20.762708
563.152674	-2.994000	3.621000	-10.840000	22.684471	1.905458E-5	20.744835
564.150369	-3.012600	3.621800	-10.910000	22.689230	1.714087E-5	20.748653
565.150473	-2.968400	3.622000	-10.750000	22.696185	1.842767E-5	20.757517
566.150274	-2.980400	3.621200	-10.791000	22.686863	1.743782E-5	20.738696
567.150009	-2.990300	3.621000	-10.827000	22.718661	1.908757E-5	20.731665
568.152000	-3.022200	3.619100	-10.937000	22.706031	1.631600E-5	20.749835
569.152362	-2.996400	3.619400	-10.844000	22.716067	1.793275E-5	20.722902
570.153086	-3.009500	3.619800	-10.892000	22.711390	1.766879E-5	20.751884
571.156491	-3.031600	3.618400	-10.968000	22.730122	1.822970E-5	20.751682
572.153131	-2.994900	3.618900	-10.837000	22.709919	1.697589E-5	20.746617
573.151983	-2.999700	3.618000	-10.852000	22.714527	1.377539E-5	20.740327
574.155184	-3.016200	3.618800	-10.915000	22.742410	1.700889E-5	20.738385
575.155034	-3.013100	3.617400	-10.898000	22.748084	1.460026E-5	20.741224
576.159992	-3.009600	3.617100	-10.884000	22.745099	1.535914E-5	20.740605
577.156001	-3.033600	3.616200	-10.970000	22.735259	1.516117E-5	20.761095
578.158451	-2.977100	3.617900	-10.770000	22.716426	1.232361E-5	20.718520
579.159358	-2.982700	3.616600	-10.786000	22.735657	1.473224E-5	20.734466
580.155983	-2.979400	3.617400	-10.777000	22.772710	1.205965E-5	20.744082
581.160172	-2.986600	3.616800	-10.801000	22.750135	1.225762E-5	20.732373
582.160222	-2.978300	3.616500	-10.770000	22.749662	1.394036E-5	20.743753
583.154608	-2.998900	3.615900	-10.842000	22.737999	1.139975E-5	20.745821
584.161512	-2.990800	3.615100	-10.811000	22.754143	1.073985E-5	20.743974
585.159492	-2.987400	3.615300	-10.799000	22.754439	1.222462E-5	20.743323
586.157101	-2.992600	3.614900	-10.817000	22.745667	1.116879E-5	20.730742
587.161212	-2.994800	3.614200	-10.823000	22.757128	9.782999E-6	20.739852
588.158570	-2.980700	3.614300	-10.772000	22.755658	1.120178E-5	20.736483
589.163949	-2.971200	3.615100	-10.740000	22.760467	1.097082E-5	20.729446
590.158905	-3.004300	3.613600	-10.854000	22.768608	9.024115E-6	20.722902
591.159042	-3.011800	3.612700	-10.880000	22.777482	9.815994E-6	20.727998
592.160190	-2.998000	3.612300	-10.829000	22.786046	8.727161E-6	20.738000
593.158911	-3.036100	3.611700	-10.964000	22.784449	9.980969E-6	20.737823
594.161397	-2.998200	3.613200	-10.832000	22.771549	1.007995E-5	20.730590
595.164530	-3.012300	3.610700	-10.875000	22.772243	8.232237E-6	20.747408
596.163111	-3.022000	3.611400	-10.912000	22.789978	8.133252E-6	20.728662
597.161835	-3.025100	3.610200	-10.920000	22.790855	8.694166E-6	20.729541
598.157918	-3.018900	3.610600	-10.899000	22.789410	9.090105E-6	20.740896
599.157652	-2.992200	3.611200	-10.804000	22.792029	6.978429E-6	20.739252
600.159692	-3.009000	3.610100	-10.862000	22.800454	7.374369E-6	20.729673
601.157654	-2.992300	3.609700	-10.800000	22.805231	7.605333E-6	20.732563
602.158154	-2.998400	3.610000	-10.824000	22.820156	7.704318E-6	20.736135
603.161583	-2.999300	3.608700	-10.823000	22.811410	6.879445E-6	20.722156
604.159910	-3.010200	3.607800	-10.859000	22.792508	5.559647E-6	20.722662
605.165281	-3.000800	3.609800	-10.831000	22.802694	5.724622E-6	20.707734
606.161199	-2.999100	3.607300	-10.818000	22.828953	5.229698E-6	20.733568
607.162982	-3.005400	3.607200	-10.839000	22.819493	4.734774E-6	20.731677
608.167410	-3.014700	3.607700	-10.874000	22.819171	5.823607E-6	20.731355
609.164405	-3.011900	3.607500	-10.864000	22.803779	3.282996E-6	20.704554
610.165621	-2.999400	3.605400	-10.813000	22.826725	5.592642E-6	20.715688
611.170492	-3.014400	3.607000	-10.871000	22.841404	4.041880E-6	20.707633
612.166321	-2.998700	3.605700	-10.812000	22.847305	3.546956E-6	20.717812
613.162719	-2.991000	3.605200	-10.782000	22.819979	4.338834E-6	20.723154
614.162244	-2.999300	3.606800	-10.817000	22.848680	3.480966E-6	20.723932
615.162349	-3.000800	3.606300	-10.821000	22.849235	3.052032E-6	20.724962
616.164817	-3.006400	3.603700	-10.833000	22.830770	2.755077E-6	20.727327
617.162740	-2.993800	3.603800	-10.788000	22.842205	2.194163E-6	20.712229
618.163447	-3.008300	3.603700	-10.840000	22.844155	1.171320E-6	20.709441
619.163867	-2.992500	3.604400	-10.785000	22.827501	1.963199E-6	20.708403
620.161264	-3.015700	3.603800	-10.867000	22.843840	1.567260E-6	20.742317
621.165581	-3.014700	3.603900	-10.864000	22.868956	-8.248735E-8	20.735710
622.161977	-3.019000	3.601900	-10.873000	22.859540	4.454317E-7	20.713474
623.165594	-3.016700	3.602200	-10.866000	22.862677	1.831219E-6	20.710452
624.164300	-2.987500	3.603200	-10.764000	22.891453	-1.204315E-6	20.718892
625.168922	-2.991400	3.601800	-10.773000	22.873960	1.814722E-7	20.719386
626.166898	-3.024300	3.602000	-10.892000	22.876333	-1.765229E-6	20.683353
627.171360	-3.000200	3.601400	-10.803000	22.867416	-2.095179E-6	20.708087
628.169568	-2.990000	3.601900	-10.768000	22.887218	-2.161168E-6	20.708011
629.166929	-3.024000	3.599800	-10.885000	22.872647	-1.732234E-6	20.691041
630.170312	-3.003300	3.599400	-10.809000	22.886726	2.474620E-7	20.702776
631.172236	-2.981800	3.600700	-10.736000	22.876907	-2.095179E-6	20.706216
632.173441	-3.015400	3.598100	-10.849000	22.863358	-1.204315E-6	20.700702
633.175705	-2.981400	3.599700	-10.731000	22.885723	-2.128174E-6	20.705564
634.170947	-2.976500	3.600200	-10.715000	22.895251	-2.656093E-6	20.673856
635.171212	-3.002400	3.597800	-10.801000	22.892475	-3.052032E-6	20.718020
636.173861	-3.017700	3.598500	-10.859000	22.882643	-3.052032E-6	20.703427
637.173191	-3.013500	3.598300	-10.842000	22.882340	-3.810915E-6	20.717824
638.178440	-3.005500	3.598400	-10.814000	22.884707	-3.876905E-6	20.708340
639.171353	-3.002500	3.597000	-10.799000	22.886903	-4.140865E-6	20.692047
640.174943	-2.996900	3.596400	-10.777000	22.890538	-3.579951E-6	20.712759
641.175688	-2.992500	3.596900	-10.764000	22.913526	-4.932743E-6	20.713980
642.176064	-3.001700	3.596200	-10.794000	22.884461	-5.427667E-6	20.708568
643.177670	-3.021100	3.595500	-10.862000	22.898905	-6.351526E-6	20.714504
644.172100	-3.007500	3.595500	-10.812000	22.921181	-6.483506E-6	20.704104
645.176069	-2.996500	3.595700	-10.773000	22.915003	-6.978430E-6	20.696966
646.177488	-2.986600	3.595500	-10.738000	22.910743	-6.153556E-6	20.700759
647.176850	-3.012900	3.595600	-10.832000	22.904465	-8.496197E-6	20.702055
648.172954	-3.030000	3.593700	-10.886000	22.928879	-8.133253E-6	20.703282
649.177357	-3.020200	3.592800	-10.850000	22.920859	-9.783000E-6	20.722749
650.176345	-2.988200	3.595300	-10.742000	22.925838	-8.925131E-6	20.685060
651.176673	-3.009900	3.594100	-10.816000	22.935726	-8.166248E-6	20.703503
652.175865	-3.009500	3.592600	-10.811000	22.927661	-8.397212E-6	20.686887
653.173516	-3.014300	3.592900	-10.829000	22.924525	-1.004696E-5	20.699393
654.178540	-3.017700	3.590700	-10.834000	22.936382	-9.090106E-6	20.693254
655.176024	-3.019400	3.592400	-10.846000	22.931006	-9.156096E-6	20.700670
656.178841	-2.988900	3.590600	-10.732000	22.924449	-1.133376E-5	20.679401
657.175724	-3.006200	3.591800	-10.796000	22.956688	-9.189091E-6	20.675190
658.177821	-3.011400	3.592000	-10.816000	22.939007	-1.232361E-5	20.691616
659.178705	-2.992900	3.590900	-10.746000	22.937884	-1.209265E-5	20.685275
660.181629	-3.020300	3.589300	-10.839000	22.947406	-1.186168E-5	20.694341
661.176528	-2.996000	3.590600	-10.756000	22.922001	-1.054188E-5	20.692122
662.179055	-2.987000	3.590600	-10.725000	22.955930	-1.225762E-5	20.703831
663.178072	-2.978700	3.590400	-10.693000	22.920682	-1.433630E-5	20.682265
664.181561	-2.996900	3.589700	-10.757000	22.955337	-1.314848E-5	20.666249
665.178778	-3.000400	3.589500	-10.769000	22.954119	-1.265356E-5	20.683997
666.177997	-3.006700	3.588000	-10.787000	22.944761	-1.252158E-5	20.676517
667.177993	-3.011600	3.588200	-10.805000	22.965181	-1.463326E-5	20.695555
668.177114	-3.020800	3.587000	-10.834000	22.968544	-1.229062E-5	20.687544
669.180019	-2.997900	3.587700	-10.755000	22.954782	-1.430331E-5	20.677548
670.180250	-2.975500	3.587200	-10.672000	22.969276	-1.427031E-5	20.691597
671.177398	-3.003400	3.586600	-10.771000	22.953810	-1.456727E-5	20.673255
672.180511	-2.995700	3.587500	-10.746000	22.980867	-1.473224E-5	20.671440
673.181477	-3.015700	3.586600	-10.815000	22.968960	-1.789976E-5	20.675158
674.180465	-3.013400	3.586000	-10.805000	22.980470	-1.598605E-5	20.695226
675.180558	-3.004600	3.586800	-10.775000	22.971282	-1.694290E-5	20.680330
676.178306	-3.008300	3.585000	-10.784000	22.967326	-1.674493E-5	20.689643
677.177762	-2.992700	3.584500	-10.726000	22.970689	-1.819671E-5	20.687323
678.182447	-2.974600	3.585200	-10.663000	22.999538	-1.770179E-5	20.683036
679.179261	-2.981200	3.585300	-10.687000	22.989903	-1.813072E-5	20.682865
680.180665	-2.998300	3.583100	-10.742000	22.988609	-1.895559E-5	20.678249
681.180382	-2.979500	3.584200	-10.678000	22.986041	-1.928554E-5	20.645327
682.182773	-2.986200	3.583500	-10.700000	22.973049	-1.879062E-5	20.666451
683.183710	-3.020200	3.582600	-10.820000	23.006851	-1.803173E-5	20.679457
684.183757	-3.009100	3.582800	-10.780000	23.002636	-1.839468E-5	20.692305
685.187109	-3.001900	3.582000	-10.752000	22.985309	-1.865864E-5	20.688220
686.187609	-3.015200	3.583600	-10.804000	23.009646	-1.869163E-5	20.689371
687.185615	-3.027800	3.581500	-10.843000	23.015255	-2.212311E-5	20.661797
688.182930	-2.986600	3.581000	-10.694000	23.016082	-1.987945E-5	20.661677
689.184308	-2.995000	3.581300	-10.725000	23.004529	-2.176016E-5	20.682820
690.180864	-2.995200	3.581300	-10.725000	23.005576	-2.199113E-5	20.690035
691.187543	-2.984700	3.582000	-10.690000	23.016416	-2.103427E-5	20.658693
692.182150	-2.986600	3.580200	-10.691000	23.002850	-2.179316E-5	20.683510
693.183935	-3.012400	3.578300	-10.779000	23.013085	-2.093529E-5	20.674797
694.184983	-2.985000	3.579200	-10.682000	23.008277	-2.123224E-5	20.666660
695.182915	-3.006400	3.579200	-10.760000	23.015508	-2.261803E-5	20.678647
696.184426	-2.993800	3.580100	-10.717000	23.001254	-2.228808E-5	20.664364
697.182578	-2.999900	3.577000	-10.729000	23.014435	-2.337692E-5	20.679944
698.185804	-3.010000	3.577600	-10.767000	23.018599	-2.176016E-5	20.657561
699.183152	-2.999600	3.577500	-10.729000	23.026020	-2.350890E-5	20.677326
700.184613	-2.995900	3.578200	-10.719000	23.030235	-2.393783E-5	20.681075
701.187123	-3.002200	3.576900	-10.738000	23.016984	-2.387184E-5	20.674911
702.185380	-3.000600	3.576800	-10.732000	23.024581	-2.347590E-5	20.685368
703.187085	-2.999000	3.576100	-10.724000	23.041024	-2.390483E-5	20.663909
704.184687	-2.992000	3.575600	-10.697000	23.042595	-2.413580E-5	20.656948
705.183413	-2.992800	3.576700	-10.703000	23.030317	-2.453174E-5	20.662664
706.184655	-2.991100	3.575200	-10.693000	23.016946	-2.486169E-5	20.660647
707.190079	-3.036600	3.574300	-10.852000	23.024714	-2.717133E-5	20.670327
708.188574	-2.995600	3.575400	-10.710000	23.047655	-2.644545E-5	20.676719
709.189473	-3.005300	3.573700	-10.738000	23.031320	-2.618149E-5	20.682163
710.187185	-3.025800	3.572600	-10.808000	23.058867	-2.449874E-5	20.666141
711.188379	-3.019700	3.573900	-10.791000	23.042582	-2.575255E-5	20.685387
712.192943	-2.988700	3.573700	-10.680000	23.045718	-2.479570E-5	20.688056
713.194537	-3.000100	3.572100	-10.716000	23.069108	-2.416879E-5	20.671187
714.192596	-3.003000	3.572100	-10.726000	23.054015	-2.760027E-5	20.667918
715.192504	-2.989500	3.572500	-10.678000	23.048532	-2.763326E-5	20.665269
716.189121	-3.006200	3.572000	-10.736000	23.077001	-2.677539E-5	20.686209
717.191308	-3.000900	3.571300	-10.716000	23.063480	-2.634646E-5	20.676453
718.192646	-3.001500	3.572400	-10.721000	23.043460	-2.835915E-5	20.690060
719.193732	-3.002400	3.571600	-10.723000	23.047163	-2.859012E-5	20.668164
720.196168	-3.014200	3.570000	-10.759000	23.081613	-2.631347E-5	20.671389
721.190289	-3.004000	3.570800	-10.725000	23.071625	-2.793022E-5	20.643834
722.193805	-3.032900	3.569800	-10.826000	23.060394	-2.852413E-5	20.647754
723.197536	-2.979800	3.570000	-10.637000	23.072622	-2.769925E-5	20.661431
724.196290	-3.014400	3.568900	-10.757000	23.096352	-2.710534E-5	20.661026
725.195162	-2.989900	3.570700	-10.675000	23.087765	-2.928301E-5	20.661431
726.192515	-3.013700	3.568100	-10.752000	23.069758	-2.994291E-5	20.654766
727.195362	-3.000700	3.568000	-10.706000	23.096680	-2.888707E-5	20.664200
728.199909	-3.001700	3.569000	-10.712000	23.097424	-2.859012E-5	20.663523
729.200032	-3.007800	3.567200	-10.728000	23.087462	-3.139469E-5	20.668714
730.199016	-2.999200	3.566000	-10.694000	23.095405	-3.030585E-5	20.665294
731.199214	-3.008300	3.566500	-10.728000	23.103008	-2.892007E-5	20.666274
732.196456	-3.016600	3.566000	-10.756000	23.097620	-3.040484E-5	20.659926
733.198182	-2.973700	3.566700	-10.605000	23.083152	-3.274748E-5	20.651592
734.200489	-3.018000	3.566700	-10.763000	23.090604	-3.172464E-5	20.650524
735.199081	-2.993400	3.566600	-10.675000	23.091575	-3.291245E-5	20.656714
736.198429	-3.011800	3.564200	-10.733000	23.092421	-3.139469E-5	20.656613
737.202357	-2.998200	3.564900	-10.687000	23.102162	-3.271449E-5	20.649778
738.204973	-2.987800	3.564800	-10.650000	23.089456	-3.274748E-5	20.652218
739.201187	-2.991600	3.564000	-10.661000	23.115134	-3.175763E-5	20.641912
740.202557	-2.984600	3.565500	-10.640000	23.111576	-3.400129E-5	20.662057
741.200501	-2.971100	3.564400	-10.589000	23.109336	-3.314342E-5	20.666925
742.203222	-3.002800	3.563300	-10.699000	23.111052	-3.152667E-5	20.686190
743.204921	-2.992100	3.563300	-10.660000	23.104926	-3.386931E-5	20.665351
744.205595	-3.000100	3.563500	-10.690000	23.120573	-3.446322E-5	20.656372
745.205792	-2.999400	3.561700	-10.682000	23.115481	-3.489215E-5	20.647476
746.204914	-2.968000	3.562700	-10.573000	23.136308	-3.644291E-5	20.660286
747.206460	-3.006800	3.562100	-10.710000	23.132194	-3.396829E-5	20.661380
748.207607	-2.976100	3.563200	-10.603000	23.122428	-3.499114E-5	20.663448
749.208781	-2.986000	3.560400	-10.630000	23.126863	-3.406728E-5	20.663625
750.203246	-2.992200	3.561100	-10.655000	23.149367	-3.667388E-5	20.661045
751.205329	-2.975900	3.561000	-10.596000	23.124964	-3.538708E-5	20.659825
752.205625	-2.983300	3.561500	-10.624000	23.121248	-3.584900E-5	20.641874
753.206129	-3.034500	3.559600	-10.801000	23.151405	-3.631093E-5	20.653129
754.206798	-2.992100	3.560400	-10.652000	23.142383	-3.637692E-5	20.649303
755.203918	-3.006100	3.560500	-10.702000	23.138068	-3.631093E-5	20.663473
756.206984	-3.006800	3.558300	-10.699000	23.143304	-3.739977E-5	20.676308
757.206199	-3.004300	3.559000	-10.691000	23.146787	-3.634393E-5	20.672211
758.206645	-3.029600	3.558400	-10.779000	23.155922	-3.667388E-5	20.666666
759.210501	-2.984300	3.557400	-10.616000	23.153777	-3.852160E-5	20.661671
760.208847	-2.995200	3.558300	-10.656000	23.152434	-3.802667E-5	20.656056
761.205480	-3.029400	3.555500	-10.770000	23.172029	-3.631093E-5	20.691818
762.207425	-3.005200	3.557700	-10.691000	23.151481	-3.726779E-5	20.670750
763.203882	-2.993400	3.557800	-10.648000	23.169562	-3.723479E-5	20.669429
764.210138	-2.994300	3.556700	-10.649000	23.161140	-3.871957E-5	20.659565
765.207464	-3.009400	3.556600	-10.702000	23.175953	-4.017134E-5	20.672989
766.204120	-2.988500	3.555100	-10.623000	23.170925	-3.825764E-5	20.665104
767.209828	-2.979100	3.556100	-10.593000	23.135582	-3.908251E-5	20.675682
768.208391	-2.990600	3.555400	-10.631000	23.171468	-3.829063E-5	20.677977
769.207912	-2.995500	3.555700	-10.650000	23.170294	-3.868657E-5	20.658781
770.211322	-2.977000	3.555400	-10.583000	23.167777	-3.772972E-5	20.679969
771.210152	-2.992700	3.553900	-10.635000	23.166458	-3.944545E-5	20.664421
772.210667	-2.977300	3.553000	-10.578000	23.177713	-3.881855E-5	20.676650
773.212169	-2.987700	3.553300	-10.616000	23.173051	-3.974241E-5	20.653957
774.208220	-3.001900	3.552700	-10.664000	23.169462	-4.023733E-5	20.663163
775.213525	-2.997900	3.553200	-10.650000	23.189637	-4.234901E-5	20.663467
776.210151	-2.993400	3.551800	-10.631000	23.165853	-4.046830E-5	20.672824
777.209715	-2.998600	3.551100	-10.647000	23.198627	-4.102921E-5	20.672002
778.207880	-2.997700	3.551500	-10.646000	23.187114	-4.109520E-5	20.670422
779.208072	-3.003800	3.550700	-10.664000	23.178969	-4.060028E-5	20.642342
780.211750	-3.021000	3.550800	-10.726000	23.187732	-4.020434E-5	20.651125
781.208749	-3.014200	3.548700	-10.695000	23.198413	-4.244799E-5	20.663726
782.207264	-2.988300	3.551000	-10.611000	23.188300	-4.251398E-5	20.691053
783.212275	-3.010400	3.549700	-10.685000	23.195101	-4.192008E-5	20.671313
784.206605	-3.005900	3.548900	-10.667000	23.193681	-4.314089E-5	20.687436
785.206840	-2.992700	3.548100	-10.618000	23.185410	-4.310789E-5	20.670137
786.208691	-3.016100	3.549800	-10.706000	23.198419	-4.422972E-5	20.684597
787.207904	-3.012800	3.548100	-10.689000	23.207182	-4.393277E-5	20.676782
788.208753	-3.017500	3.546700	-10.701000	23.210866	-4.320688E-5	20.682846
789.208344	-2.997200	3.547800	-10.632000	23.209125	-4.330586E-5	20.673988
790.208501	-2.997300	3.547400	-10.632000	23.218613	-4.281094E-5	20.660735
791.214719	-2.982100	3.547100	-10.577000	23.229344	-4.172211E-5	20.692355
792.209779	-2.989800	3.547600	-10.606000	23.230643	-4.333886E-5	20.666154
793.210254	-2.983600	3.546800	-10.582000	23.236637	-4.419673E-5	20.684016
794.210274	-2.985200	3.546600	-10.585000	23.209043	-4.475764E-5	20.684338
795.210133	-2.990100	3.545500	-10.600000	23.211491	-4.399876E-5	20.688688
796.210913	-3.004900	3.546000	-10.653000	23.235469	-4.518657E-5	20.679052
797.211133	-2.983500	3.545500	-10.577000	23.232511	-4.713328E-5	20.675139
798.210550	-3.001600	3.544600	-10.639000	23.238409	-4.680333E-5	20.683421
799.210946	-2.993200	3.544900	-10.610000	23.238605	-4.436170E-5	20.686463
800.211249	-2.993600	3.544400	-10.610000	23.229325	-4.426272E-5	20.689965
801.209994	-3.006300	3.544100	-10.653000	23.243096	-4.706729E-5	20.684800
802.215312	-3.009400	3.544700	-10.667000	23.228353	-4.528556E-5	20.686146
803.210459	-2.980000	3.543500	-10.559000	23.239734	-4.644038E-5	20.688543
804.213307	-3.013800	3.543700	-10.679000	23.238144	-4.657236E-5	20.679362
805.214098	-2.990900	3.542900	-10.595000	23.246730	-4.485663E-5	20.688916
806.213776	-2.999500	3.542900	-10.626000	23.258760	-4.611043E-5	20.682479
807.216886	-2.992500	3.543700	-10.604000	23.251171	-4.627541E-5	20.701902
808.212805	-2.995800	3.542000	-10.610000	23.268601	-4.614343E-5	20.682384
809.214425	-3.022200	3.540900	-10.700000	23.246686	-4.805714E-5	20.669903
810.211537	-3.009700	3.542400	-10.660000	23.257467	-4.571449E-5	20.681183
811.218045	-2.990500	3.542200	-10.592000	23.270595	-4.838708E-5	20.704773
812.218967	-2.992800	3.540400	-10.595000	23.267030	-4.871703E-5	20.709262
813.214012	-3.012000	3.539000	-10.658000	23.269346	-4.868404E-5	20.682182
814.217998	-2.980300	3.540100	-10.549000	23.262798	-4.894800E-5	20.692216
815.215712	-2.997900	3.539400	-10.609000	23.253537	-4.706729E-5	20.702376
816.216776	-2.991800	3.539300	-10.588000	23.251770	-4.947592E-5	20.693019
817.219056	-3.010400	3.537400	-10.648000	23.277843	-4.809013E-5	20.694966
818.216818	-3.004900	3.539200	-10.635000	23.267636	-4.977287E-5	20.692323
819.216310	-3.011900	3.537100	-10.653000	23.261202	-4.967389E-5	20.692039
820.219661	-3.048100	3.536700	-10.779000	23.256048	-4.950891E-5	20.690667
821.220329	-3.013900	3.536800	-10.658000	23.291191	-4.937693E-5	20.684161
822.221027	-2.990800	3.537400	-10.577000	23.294099	-5.053176E-5	20.706518
823.216359	-3.018000	3.536100	-10.671000	23.310456	-4.868404E-5	20.696832
824.220368	-3.008700	3.535700	-10.636000	23.299228	-5.072973E-5	20.702174
825.223190	-3.013800	3.536200	-10.656000	23.304205	-5.053176E-5	20.689143
826.221308	-2.985100	3.535600	-10.553000	23.294995	-5.092770E-5	20.684180
827.220352	-2.979000	3.535300	-10.531000	23.313623	-5.092770E-5	20.690047
828.222415	-3.012200	3.535600	-10.649000	23.306854	-5.122465E-5	20.692273
829.223093	-2.999100	3.536700	-10.606000	23.311150	-5.211551E-5	20.698950
830.222755	-3.004300	3.535200	-10.620000	23.291185	-5.076272E-5	20.705493
831.221087	-2.998500	3.534600	-10.598000	23.297979	-5.363328E-5	20.702819
832.221197	-3.008200	3.533700	-10.629000	23.305101	-5.115866E-5	20.696680
833.222638	-3.011600	3.533200	-10.640000	23.292547	-5.310536E-5	20.708756
834.223461	-3.032700	3.531600	-10.709000	23.314979	-5.214851E-5	20.714642
835.222118	-3.015300	3.532600	-10.651000	23.306217	-5.267643E-5	20.701592
836.225598	-2.984400	3.533600	-10.545000	23.323747	-5.135663E-5	20.692134
837.222098	-3.019600	3.530800	-10.661000	23.322000	-5.389724E-5	20.688486
838.223014	-3.017200	3.531600	-10.654000	23.331557	-5.231348E-5	20.698065
839.223398	-3.007400	3.531400	-10.619000	23.301549	-5.201653E-5	20.704975
840.220753	-2.991100	3.532000	-10.564000	23.323665	-5.396323E-5	20.686836
841.223876	-2.992100	3.531400	-10.566000	23.332175	-5.307237E-5	20.711013
842.221710	-3.015400	3.531300	-10.647000	23.328012	-5.158760E-5	20.696882
843.221731	-3.002100	3.530100	-10.596000	23.330901	-5.412821E-5	20.717323
844.225362	-3.006400	3.529700	-10.611000	23.334086	-5.389724E-5	20.708661
845.223552	-3.007600	3.528600	-10.611000	23.338590	-5.412821E-5	20.697053
846.221484	-3.001400	3.529200	-10.592000	23.348676	-5.412821E-5	20.705266
847.224648	-3.004100	3.529000	-10.600000	23.358359	-5.343531E-5	20.712600
848.225619	-2.985500	3.528200	-10.532000	23.346532	-5.478811E-5	20.714023
849.227377	-3.015100	3.527800	-10.636000	23.357381	-5.251145E-5	20.706404
850.223868	-3.019000	3.528600	-10.652000	23.342192	-5.435917E-5	20.714415
851.224749	-2.998700	3.528800	-10.581000	23.346418	-5.360029E-5	20.697313
852.229512	-2.991800	3.527600	-10.552000	23.355035	-5.449115E-5	20.707846
853.223881	-2.988000	3.527100	-10.538000	23.367606	-5.171957E-5	20.709066
854.224986	-2.998400	3.528000	-10.577000	23.366856	-5.393024E-5	20.691243
855.227197	-3.001500	3.526900	-10.584000	23.380417	-5.274242E-5	20.706733
856.229568	-3.009400	3.526100	-10.611000	23.371530	-5.313836E-5	20.724854
857.228540	-2.988700	3.527100	-10.541000	23.381641	-5.534902E-5	20.722185
858.229258	-2.992700	3.526100	-10.552000	23.382310	-5.459014E-5	20.710053
859.230796	-2.992300	3.526300	-10.551000	23.379049	-5.521704E-5	20.717690
860.227406	-3.024400	3.524000	-10.657000	23.357256	-5.521704E-5	20.712443
861.229639	-3.026600	3.525300	-10.668000	23.393165	-5.482110E-5	20.700544
862.226867	-3.005900	3.524700	-10.594000	23.385268	-5.363328E-5	20.713966
863.227132	-2.999000	3.524100	-10.568000	23.391986	-5.528303E-5	20.705052
864.226400	-2.997400	3.523700	-10.561000	23.396849	-5.376526E-5	20.751180
865.232584	-3.011900	3.522600	-10.609000	23.383376	-5.416120E-5	20.704483
866.230317	-3.014600	3.521500	-10.614000	23.381805	-5.538201E-5	20.717608
867.230829	-3.015200	3.521700	-10.618000	23.394080	-5.653684E-5	20.720902
868.230931	-3.018500	3.522100	-10.631000	23.399258	-5.475511E-5	20.732731
869.229857	-2.996900	3.521900	-10.553000	23.400230	-5.462313E-5	20.713315
870.231959	-2.984400	3.522000	-10.510000	23.392339	-5.713075E-5	20.729115
871.231782	-2.985200	3.521400	-10.511000	23.399328	-5.683379E-5	20.731853
872.232118	-3.018100	3.519800	-10.623000	23.391954	-5.703176E-5	20.713556
873.234120	-3.018500	3.521000	-10.627000	23.405358	-5.749369E-5	20.725568
874.230804	-3.001500	3.520900	-10.567000	23.400123	-5.521704E-5	20.735020
875.231268	-3.002000	3.519900	-10.566000	23.407471	-5.894547E-5	20.732902
876.235307	-2.999900	3.519500	-10.556000	23.398931	-5.772466E-5	20.724816
877.232928	-2.997800	3.518800	-10.547000	23.404904	-5.894547E-5	20.735071
878.236618	-2.995600	3.518200	-10.538000	23.411905	-5.805461E-5	20.720750
879.234530	-3.008900	3.518400	-10.585000	23.426438	-5.838455E-5	20.722040
880.234797	-2.970500	3.519200	-10.453000	23.427289	-5.798862E-5	20.735697
881.235862	-3.009300	3.518100	-10.586000	23.416056	-6.023227E-5	20.728230
882.231063	-3.002800	3.518700	-10.565000	23.421360	-6.033126E-5	20.738763
883.234274	-3.009800	3.517300	-10.585000	23.424274	-6.043024E-5	20.699482
884.232419	-3.022000	3.516500	-10.625000	23.440573	-6.006730E-5	20.718664
885.232821	-3.017800	3.516100	-10.610000	23.435464	-5.878049E-5	20.734881
886.236701	-3.018300	3.516000	-10.611000	23.425365	-5.884648E-5	20.739459
887.231879	-3.008300	3.516700	-10.578000	23.420181	-5.963836E-5	20.722407
888.234589	-3.018900	3.516200	-10.613000	23.437457	-5.963836E-5	20.737353
889.235461	-3.010200	3.517300	-10.586000	23.440365	-5.878049E-5	20.747381
890.235877	-3.013500	3.515700	-10.594000	23.445095	-5.927542E-5	20.746907
891.232948	-3.013500	3.515000	-10.592000	23.449453	-5.940740E-5	20.725670
892.238291	-3.027200	3.513800	-10.636000	23.432398	-6.076019E-5	20.724696
893.233905	-3.038500	3.514400	-10.677000	23.442604	-5.792263E-5	20.726390
894.238616	-2.982200	3.514800	-10.481000	23.443222	-5.960537E-5	20.712785
895.239308	-2.972700	3.513600	-10.444000	23.467619	-6.079319E-5	20.740559
896.237691	-2.984300	3.513400	-10.484000	23.442005	-6.217897E-5	20.731480
897.242448	-3.003000	3.514900	-10.554000	23.433736	-5.980334E-5	20.754961
898.239774	-3.003600	3.511900	-10.547000	23.452784	-6.115613E-5	20.740388
899.239238	-2.976400	3.513000	-10.455000	23.455395	-6.069420E-5	20.729729
900.236089	-2.996900	3.511900	-10.523000	23.463613	-6.115613E-5	20.750295
901.240769	-3.000500	3.512700	-10.539000	23.459501	-6.095816E-5	20.719145
902.245474	-2.978200	3.512200	-10.459000	23.478826	-6.175004E-5	20.762226
903.241381	-2.994700	3.510900	-10.513000	23.471132	-6.069420E-5	20.737916
904.239780	-2.990100	3.511400	-10.499000	23.473945	-6.079319E-5	20.746900
905.241400	-2.987400	3.510400	-10.486000	23.474960	-6.283887E-5	20.730848
906.239138	-2.995600	3.509800	-10.513000	23.463929	-6.224496E-5	20.762940
907.241984	-2.996000	3.510300	-10.516000	23.493389	-6.003430E-5	20.745054
908.241202	-2.972900	3.510400	-10.435000	23.481261	-6.158507E-5	20.739061
909.237653	-2.992600	3.509200	-10.500000	23.473844	-6.102415E-5	20.739212
910.242436	-3.006500	3.509600	-10.551000	23.489056	-6.250892E-5	20.768213
911.243870	-2.961300	3.510400	-10.394000	23.510292	-6.333380E-5	20.743031
912.244405	-2.983200	3.509400	-10.467000	23.500466	-6.254192E-5	20.757838
913.248930	-2.997000	3.508000	-10.513000	23.484156	-6.240994E-5	20.777999
914.243832	-2.991900	3.506800	-10.491000	23.509630	-6.343278E-5	20.762282
915.243474	-2.999200	3.507800	-10.519000	23.495691	-6.343278E-5	20.751629
916.243330	-2.977300	3.507500	-10.442000	23.525813	-6.155207E-5	20.732510
917.241270	-2.984100	3.507700	-10.467000	23.518554	-6.224496E-5	20.761271
918.243085	-2.972800	3.507300	-10.425000	23.515198	-6.323481E-5	20.745104
919.243784	-3.000000	3.506700	-10.519000	23.525756	-6.330080E-5	20.771335
920.242290	-2.981100	3.506200	-10.452000	23.542665	-6.392771E-5	20.747981
921.246131	-2.977000	3.506000	-10.437000	23.527017	-6.356476E-5	20.782557
922.246061	-2.993400	3.505300	-10.492000	23.545843	-6.412568E-5	20.765392
923.248643	-2.977400	3.504600	-10.433000	23.527969	-6.326781E-5	20.771183
924.246418	-2.984600	3.504800	-10.460000	23.545773	-6.452162E-5	20.787608
925.243580	-2.985500	3.504800	-10.462000	23.521953	-6.330080E-5	20.768945
926.246210	-3.005800	3.504100	-10.531000	23.539410	-6.442263E-5	20.778858
927.245450	-2.985000	3.504700	-10.462000	23.545881	-6.547847E-5	20.770646
928.248606	-2.982000	3.503800	-10.447000	23.550819	-6.359776E-5	20.790769
929.249796	-2.994700	3.502800	-10.489000	23.558658	-6.366375E-5	20.773497
930.244772	-2.995100	3.502600	-10.490000	23.553083	-6.541248E-5	20.771701
931.249247	-2.994100	3.502100	-10.485000	23.551222	-6.508253E-5	20.771733
932.249092	-3.023500	3.501600	-10.586000	23.551279	-6.570943E-5	20.777006
933.247363	-3.011900	3.500400	-10.542000	23.570470	-6.501654E-5	20.782019
934.247987	-3.021100	3.501100	-10.576000	23.582244	-6.544547E-5	20.809944
935.245603	-2.994800	3.501300	-10.485000	23.547419	-6.488456E-5	20.783094
936.243878	-2.996100	3.500900	-10.488000	23.545729	-6.491756E-5	20.790883
937.245766	-2.997500	3.501800	-10.496000	23.573907	-6.445563E-5	20.803957
938.244327	-3.002300	3.501100	-10.510000	23.553247	-6.666629E-5	20.767598
939.249003	-3.009100	3.499400	-10.529000	23.560966	-6.511552E-5	20.775811
940.245878	-3.017000	3.498800	-10.556000	23.568156	-6.623735E-5	20.786811
941.245443	-2.978000	3.501900	-10.426000	23.575553	-6.676527E-5	20.764355
942.247320	-2.998400	3.499300	-10.491000	23.577615	-6.627035E-5	20.779225
943.245765	-2.992800	3.498700	-10.470000	23.594101	-6.768913E-5	20.788638
944.246810	-3.013400	3.498200	-10.540000	23.580138	-6.485157E-5	20.789340
945.246733	-2.976500	3.498300	-10.411000	23.608807	-6.755715E-5	20.798166
946.249118	-3.000500	3.497900	-10.495000	23.572192	-6.389471E-5	20.788961
947.252434	-3.022400	3.498300	-10.572000	23.608435	-6.594040E-5	20.811543
948.245045	-2.999000	3.496600	-10.485000	23.585808	-6.574243E-5	20.804032
949.247123	-2.971100	3.496800	-10.388000	23.603832	-6.739218E-5	20.799342
950.248177	-2.991500	3.497100	-10.461000	23.591181	-6.765614E-5	20.799462
951.248926	-2.996400	3.496700	-10.476000	23.595192	-6.498355E-5	20.798741
952.248932	-2.992200	3.496300	-10.461000	23.607836	-6.732619E-5	20.794821
953.250064	-2.994100	3.496900	-10.469000	23.597582	-6.613837E-5	20.790706
954.246431	-3.002900	3.494900	-10.494000	23.622795	-6.686426E-5	20.803653
955.251416	-3.013600	3.496200	-10.535000	23.593489	-6.778812E-5	20.803198
956.250624	-3.030000	3.494600	-10.587000	23.619181	-6.514852E-5	20.810936
957.248499	-2.985300	3.494800	-10.432000	23.624453	-6.818406E-5	20.802471
958.249873	-2.993800	3.495100	-10.462000	23.602545	-6.620436E-5	20.800423
959.252096	-2.991100	3.495200	-10.454000	23.604532	-6.719421E-5	20.813320
960.256624	-2.985400	3.494200	-10.430000	23.608221	-6.838203E-5	20.812751
961.248878	-3.014900	3.493700	-10.532000	23.635080	-7.013076E-5	20.817865
962.249682	-2.989200	3.493600	-10.443000	23.633654	-6.854700E-5	20.798893
963.251037	-3.009100	3.491800	-10.507000	23.625286	-6.712822E-5	20.816582
964.249501	-2.997200	3.492700	-10.468000	23.612415	-6.805208E-5	20.815533
965.250222	-3.008900	3.491500	-10.505000	23.615051	-6.818406E-5	20.820072
966.252866	-3.009700	3.492000	-10.508000	23.614704	-6.719421E-5	20.803603
967.250139	-3.004200	3.492100	-10.490000	23.652270	-6.890994E-5	20.810443
968.251732	-3.003500	3.490200	-10.482000	23.646330	-7.105462E-5	20.804014
969.250296	-3.023700	3.489900	-10.552000	23.655796	-6.970182E-5	20.808762
970.251602	-3.002000	3.491500	-10.481000	23.654944	-6.993279E-5	20.814072
971.254779	-3.016400	3.490600	-10.528000	23.636247	-7.079066E-5	20.806707
972.250392	-2.978900	3.490900	-10.398000	23.655462	-6.801908E-5	20.816487
973.251305	-3.010600	3.489200	-10.504000	23.636915	-7.108761E-5	20.817335
974.250635	-3.001900	3.489800	-10.475000	23.625759	-6.897593E-5	20.801884
975.250311	-2.986200	3.488500	-10.415000	23.641393	-7.022974E-5	20.817556
976.252509	-3.010800	3.488300	-10.502000	23.621572	-6.897593E-5	20.814281
977.251211	-3.016900	3.487700	-10.521000	23.643329	-7.161553E-5	20.807169
978.250764	-3.006800	3.488200	-10.487000	23.627815	-7.016375E-5	20.828600
979.250968	-3.025300	3.487500	-10.549000	23.643297	-6.894294E-5	20.810457
980.251327	-3.002600	3.486900	-10.469000	23.659397	-7.131858E-5	20.799096
981.254345	-2.997900	3.486900	-10.452000	23.658874	-7.178051E-5	20.818960
982.251695	-2.993600	3.486900	-10.437000	23.642370	-7.095563E-5	20.819959
983.249781	-2.976600	3.487600	-10.380000	23.660683	-7.181350E-5	20.825516
984.251633	-2.972100	3.487500	-10.364000	23.667008	-7.230842E-5	20.814313
985.250902	-2.982700	3.486700	-10.399000	23.659271	-7.085665E-5	20.836901
986.257305	-2.993400	3.485700	-10.433000	23.662701	-7.161553E-5	20.822323
987.258840	-3.019100	3.484600	-10.519000	23.664940	-6.801908E-5	20.819826
988.255800	-3.018900	3.485200	-10.521000	23.668339	-7.009776E-5	20.814225
989.252780	-3.007300	3.485400	-10.481000	23.669638	-7.211046E-5	20.808415
990.252678	-3.010200	3.484400	-10.487000	23.679741	-7.138457E-5	20.819491
991.258311	-3.004900	3.484400	-10.469000	23.677723	-7.082365E-5	20.809408
992.255905	-3.019000	3.484100	-10.518000	23.673813	-7.115360E-5	20.833462
993.254806	-2.983800	3.485500	-10.398000	23.683341	-7.197848E-5	20.839222
994.254773	-3.001500	3.485000	-10.459000	23.671518	-7.187949E-5	20.816463
995.257140	-3.000000	3.483400	-10.449000	23.702562	-7.273736E-5	20.825301
996.263361	-3.020200	3.482300	-10.517000	23.696035	-7.481604E-5	20.810697
997.253844	-2.983600	3.484200	-10.395000	23.693147	-7.270436E-5	20.842414
998.254759	-2.997800	3.482700	-10.440000	23.688563	-7.022974E-5	20.820275
999.260971	-2.988800	3.483000	-10.409000	23.707853	-7.220944E-5	20.819700
1000.255700	-3.001100	3.482200	-10.450000	23.710615	-7.247340E-5	20.827210
1001.258897	-3.000500	3.480900	-10.443000	23.712159	-7.267137E-5	20.822121
1002.261541	-2.997300	3.482400	-10.437000	23.711207	-7.141756E-5	20.825434
1003.255312	-3.000100	3.481300	-10.444000	23.713200	-7.253939E-5	20.817475
1004.255507	-2.991900	3.480100	-10.411000	23.696925	-7.306731E-5	20.843356
1005.257440	-3.001800	3.480800	-10.448000	23.721889	-7.359523E-5	20.836617
1006.255500	-3.000200	3.479000	-10.437000	23.725477	-7.300132E-5	20.816982
1007.263523	-2.986300	3.479000	-10.388000	23.720546	-7.131858E-5	20.832900
1008.257853	-2.990800	3.479900	-10.407000	23.708572	-7.280335E-5	20.827059
1009.254395	-3.018200	3.478900	-10.499000	23.719726	-7.349624E-5	20.825914
1010.257954	-2.971900	3.480900	-10.344000	23.726549	-7.385919E-5	20.809996
1011.257993	-2.993000	3.479600	-10.413000	23.710072	-7.296832E-5	20.829986
1012.259588	-2.980900	3.477700	-10.366000	23.710949	-7.270436E-5	20.813795
1013.261196	-3.013100	3.477700	-10.478000	23.719335	-7.214345E-5	20.814617
1014.257641	-2.996800	3.478600	-10.424000	23.722173	-7.194548E-5	20.808927
1015.258378	-3.022900	3.478500	-10.514000	23.723743	-7.458508E-5	20.818562
1016.258529	-3.009700	3.476700	-10.463000	23.722898	-7.174751E-5	20.788317
1017.255822	-2.992000	3.477400	-10.404000	23.709631	-7.343025E-5	20.820060
1018.262111	-3.012500	3.476600	-10.472000	23.727627	-7.267137E-5	20.800171
1019.257958	-3.014300	3.476200	-10.478000	23.718118	-7.161553E-5	20.798698
1020.258206	-2.993200	3.475900	-10.403000	23.739400	-7.313330E-5	20.802966
1021.256448	-3.018000	3.476500	-10.491000	23.736707	-7.154954E-5	20.800740
1022.256965	-2.997800	3.474400	-10.414000	23.744552	-7.237441E-5	20.801018
1023.261897	-2.998200	3.474400	-10.416000	23.741991	-7.260538E-5	20.796555
1024.255731	-3.011300	3.476100	-10.466000	23.740169	-7.164853E-5	20.808478
1025.260428	-2.981500	3.474000	-10.356000	23.743183	-7.319929E-5	20.812449
1026.258965	-3.001200	3.475300	-10.428000	23.746538	-7.247340E-5	20.788311
1027.259329	-2.992900	3.474500	-10.398000	23.743001	-7.402416E-5	20.802308
1028.259911	-2.982400	3.472600	-10.356000	23.732003	-7.590487E-5	20.823050
1029.257619	-3.000500	3.474000	-10.423000	23.739419	-7.303431E-5	20.819106
1030.259825	-3.006400	3.472500	-10.439000	23.748575	-7.491503E-5	20.786560
1031.258469	-3.021600	3.472000	-10.491000	23.768286	-7.161553E-5	20.796366
1032.262932	-3.025300	3.471300	-10.501000	23.766823	-7.260538E-5	20.803908
1033.260000	-3.014300	3.471800	-10.464000	23.766621	-7.498102E-5	20.814611
1034.261016	-2.983100	3.471400	-10.354000	23.748915	-7.428812E-5	20.815351
1035.263484	-2.996600	3.471700	-10.402000	23.780550	-7.362822E-5	20.817197
1036.260965	-2.990900	3.472600	-10.385000	23.773040	-7.323228E-5	20.791175
1037.263857	-3.026700	3.471000	-10.505000	23.776294	-7.527797E-5	20.816248
1038.264693	-2.996400	3.472300	-10.403000	23.761609	-7.488203E-5	20.794412
1039.262449	-3.007300	3.470500	-10.435000	23.758569	-7.267137E-5	20.804167
1040.263886	-2.985400	3.471700	-10.363000	23.799441	-7.606985E-5	20.784455
1041.263719	-3.023900	3.469800	-10.492000	23.762252	-7.580589E-5	20.781307
1042.262661	-3.000300	3.470800	-10.413000	23.752497	-7.481604E-5	20.775320
1043.269705	-2.981300	3.470200	-10.345000	23.797196	-7.540995E-5	20.766557
1044.261784	-3.020700	3.469100	-10.478000	23.775121	-7.356223E-5	20.774770
1045.264606	-3.005300	3.470000	-10.427000	23.780405	-7.620183E-5	20.781016
1046.266234	-2.989300	3.470100	-10.372000	23.795481	-7.554193E-5	20.769105
1047.265924	-2.979700	3.469800	-10.338000	23.748014	-7.527797E-5	20.800696
1048.265240	-2.981800	3.468400	-10.341000	23.780998	-7.742264E-5	20.801050
1049.265564	-2.995600	3.469500	-10.391000	23.779157	-7.524498E-5	20.779290
1050.267339	-3.000700	3.468100	-10.406000	23.786452	-7.676274E-5	20.789924
1051.266336	-2.992900	3.468100	-10.379000	23.778866	-7.666376E-5	20.774731
1052.267893	-3.006900	3.467300	-10.425000	23.776590	-7.504701E-5	20.786674
1053.265956	-3.005400	3.467100	-10.418000	23.782870	-7.633381E-5	20.781591
1054.268639	-3.013700	3.466200	-10.445000	23.780430	-7.587188E-5	20.757807
1055.270368	-2.986000	3.467000	-10.352000	23.764231	-7.669675E-5	20.768592
1056.270833	-2.997000	3.466000	-10.387000	23.787328	-7.484904E-5	20.765672
1057.266977	-2.999000	3.465700	-10.393000	23.796938	-7.570691E-5	20.777677
1058.267910	-2.986100	3.466600	-10.351000	23.788079	-7.603685E-5	20.798667
1059.273984	-3.017300	3.465600	-10.456000	23.791515	-7.458508E-5	20.767973
1060.270590	-3.011400	3.465900	-10.436000	23.805305	-7.666376E-5	20.777058
1061.272078	-3.013000	3.465100	-10.439000	23.800450	-7.798356E-5	20.780250
1062.268035	-2.983600	3.465700	-10.339000	23.792707	-7.742264E-5	20.771539
1063.273617	-3.018900	3.463800	-10.456000	23.810576	-7.778559E-5	20.787085
1064.273133	-2.989600	3.464400	-10.356000	23.806799	-7.719168E-5	20.780927
1065.278236	-2.974800	3.465000	-10.306000	23.812890	-7.808254E-5	20.752420
1066.273190	-3.016700	3.463100	-10.446000	23.796414	-7.613584E-5	20.779049
1067.272865	-3.018000	3.463100	-10.451000	23.801446	-7.583888E-5	20.785043
1068.273353	-3.003500	3.463100	-10.401000	23.798312	-7.847848E-5	20.762934
1069.274769	-3.009300	3.462900	-10.419000	23.799327	-7.828051E-5	20.759210
1070.270409	-3.004700	3.463900	-10.408000	23.795241	-7.745564E-5	20.766968
1071.271592	-3.008400	3.464400	-10.421000	23.786660	-7.719168E-5	20.759786
1072.275625	-3.005900	3.461900	-10.405000	23.794422	-7.725767E-5	20.761404
1073.274653	-3.009100	3.460300	-10.412000	23.812688	-7.861046E-5	20.775452
1074.275630	-2.982400	3.461500	-10.323000	23.804605	-7.877544E-5	20.777779
1075.276549	-2.993300	3.460700	-10.358000	23.834466	-7.630081E-5	20.778797
1076.275944	-2.992300	3.461700	-10.358000	23.799523	-7.663076E-5	20.746604
1077.277071	-2.998500	3.459800	-10.373000	23.822745	-7.590487E-5	20.760879
1078.276384	-3.015500	3.461100	-10.436000	23.815097	-7.679574E-5	20.739460
1079.276375	-2.992500	3.459700	-10.353000	23.826648	-7.877544E-5	20.758155
1080.276846	-3.023900	3.459500	-10.460000	23.816711	-7.894041E-5	20.754355
1081.273149	-3.013000	3.459600	-10.422000	23.829731	-7.788457E-5	20.765040
1082.276521	-3.005100	3.458900	-10.394000	23.812909	-7.894041E-5	20.758603
1083.277208	-3.001900	3.458800	-10.382000	23.822461	-7.861046E-5	20.759173
1084.278198	-3.004200	3.458100	-10.387000	23.822165	-7.653178E-5	20.756979
1085.278549	-3.011900	3.457200	-10.412000	23.813451	-7.801655E-5	20.747767
1086.278594	-3.007000	3.457500	-10.396000	23.822335	-7.755462E-5	20.759520
1087.285147	-3.001500	3.457100	-10.375000	23.835078	-7.676274E-5	20.735312
1088.280777	-2.989600	3.456700	-10.333000	23.830948	-7.884143E-5	20.748241
1089.276836	-2.994400	3.458000	-10.353000	23.828502	-7.828051E-5	20.760962
1090.279205	-3.002500	3.456800	-10.378000	23.861156	-7.930336E-5	20.733959
1091.275930	-3.027500	3.455600	-10.461000	23.845696	-7.900640E-5	20.755917
1092.278035	-2.983700	3.456800	-10.313000	23.827720	-7.940234E-5	20.746427
1093.279948	-3.015800	3.456100	-10.422000	23.832279	-7.927036E-5	20.762853
1094.276817	-3.014700	3.455300	-10.416000	23.843054	-7.923737E-5	20.746155
1095.283871	-2.979600	3.455500	-10.295000	23.840639	-7.910539E-5	20.755114
1096.279430	-2.990300	3.455300	-10.331000	23.834707	-8.078813E-5	20.745372
1097.280493	-3.002900	3.455100	-10.375000	23.851982	-8.108508E-5	20.755108
1098.280290	-3.026700	3.453200	-10.450000	23.865690	-7.940234E-5	20.747041
1099.281955	-2.992200	3.454600	-10.336000	23.846428	-7.861046E-5	20.749538
1100.278939	-2.996000	3.454700	-10.349000	23.823024	-8.082112E-5	20.743140
1101.285264	-2.973500	3.454400	-10.271000	23.837109	-8.210793E-5	20.737823
1102.277749	-3.015600	3.453400	-10.413000	23.838105	-8.078813E-5	20.746883
1103.280516	-2.998300	3.454000	-10.355000	23.844474	-8.072214E-5	20.745682
1104.280890	-3.001600	3.452900	-10.363000	23.837248	-8.092011E-5	20.733695
1105.282521	-2.999000	3.453000	-10.355000	23.844392	-8.194295E-5	20.738013
1106.286585	-2.999100	3.453000	-10.355000	23.830407	-8.270184E-5	20.739638
1107.281990	-2.974500	3.452000	-10.266000	23.869731	-7.989726E-5	20.743033
1108.282502	-3.007000	3.451300	-10.377000	23.857878	-8.158001E-5	20.730199
1109.280110	-2.984800	3.452100	-10.303000	23.873729	-8.095310E-5	20.731394
1110.283036	-3.009900	3.451400	-10.387000	23.869467	-7.903940E-5	20.745613
1111.282873	-2.991200	3.451200	-10.323000	23.866390	-8.082112E-5	20.750588
1112.283409	-2.989900	3.450900	-10.316000	23.848194	-7.979828E-5	20.737084
1113.281445	-2.989400	3.451100	-10.316000	23.861731	-8.207493E-5	20.714146
1114.283039	-2.981900	3.451500	-10.291000	23.861132	-8.059016E-5	20.731565
1115.284924	-2.994500	3.449900	-10.330000	23.838982	-8.233889E-5	20.715992
1116.285289	-3.011200	3.449300	-10.386000	23.850004	-8.158001E-5	20.725622
1117.285775	-2.993600	3.450000	-10.327000	23.885670	-8.237189E-5	20.717289
1118.280727	-3.017300	3.449500	-10.408000	23.843907	-8.296580E-5	20.732785
1119.285907	-3.021700	3.447900	-10.417000	23.850357	-8.237189E-5	20.725501
1120.285930	-3.001100	3.449000	-10.350000	23.850407	-8.184397E-5	20.731242
1121.283757	-3.017500	3.447600	-10.402000	23.864013	-8.144803E-5	20.728764
1122.288828	-3.020300	3.448300	-10.414000	23.875488	-8.256986E-5	20.733632
1123.287050	-2.990900	3.448200	-10.312000	23.862897	-8.131605E-5	20.731438
1124.287477	-3.011000	3.448100	-10.381000	23.877405	-8.214092E-5	20.704258
1125.283622	-3.002800	3.448700	-10.355000	23.858490	-7.910539E-5	20.725122
1126.285909	-3.006700	3.446000	-10.360000	23.867771	-8.068914E-5	20.727316
1127.286452	-2.987200	3.448600	-10.300000	23.863169	-8.045818E-5	20.717485
1128.287580	-2.978800	3.447300	-10.267000	23.862746	-8.118407E-5	20.737925
1129.285899	-3.019400	3.446500	-10.406000	23.865211	-8.349371E-5	20.730913
1130.287413	-3.004300	3.446400	-10.354000	23.879000	-8.260285E-5	20.710125
1131.283057	-2.979200	3.447700	-10.271000	23.870312	-7.940234E-5	20.704732
1132.286045	-3.006400	3.446200	-10.359000	23.872979	-8.045818E-5	20.716416
1133.288278	-3.020400	3.445800	-10.405000	23.874517	-8.243788E-5	20.734081
1134.287890	-3.010900	3.445600	-10.373000	23.876705	-8.293280E-5	20.717308
1135.286668	-3.024200	3.444600	-10.416000	23.865609	-8.431859E-5	20.716138
1136.285666	-3.012300	3.444900	-10.376000	23.884372	-8.167899E-5	20.713141
1137.288640	-3.029300	3.444100	-10.432000	23.870262	-8.200894E-5	20.711320
1138.290175	-3.012500	3.444700	-10.377000	23.885166	-8.204194E-5	20.702557
1139.290455	-3.001000	3.443000	-10.332000	23.890267	-8.197595E-5	20.716682
1140.291875	-2.985500	3.443300	-10.279000	23.895424	-8.197595E-5	20.717112
1141.288269	-3.001100	3.443600	-10.333000	23.888130	-8.332874E-5	20.717858
1142.291117	-2.995100	3.443400	-10.312000	23.901199	-8.230590E-5	20.708677
1143.297272	-3.006800	3.442900	-10.351000	23.893306	-8.019422E-5	20.696968
1144.289604	-2.979700	3.443900	-10.261000	23.892335	-8.068914E-5	20.691727
1145.288389	-2.990400	3.441700	-10.292000	23.897139	-8.250387E-5	20.717409
1146.290542	-3.000700	3.441200	-10.325000	23.908708	-8.177798E-5	20.678272
1147.289182	-2.989600	3.441900	-10.289000	23.892089	-8.214092E-5	20.708077
1148.292007	-3.003400	3.440500	-10.332000	23.905821	-8.276783E-5	20.723744
1149.294889	-2.998400	3.441400	-10.318000	23.913910	-8.425260E-5	20.701508
1150.290568	-2.995100	3.440600	-10.304000	23.895096	-8.329574E-5	20.704454
1151.295190	-2.978800	3.440200	-10.246000	23.904156	-8.247087E-5	20.703582
1152.292358	-2.984300	3.440800	-10.268000	23.890141	-8.161300E-5	20.692846
1153.293790	-3.024300	3.439000	-10.400000	23.903230	-8.299879E-5	20.698385
1154.291209	-3.003500	3.439300	-10.330000	23.913582	-8.474752E-5	20.691695
1155.291290	-2.983100	3.439600	-10.260000	23.930081	-8.610032E-5	20.709190
1156.291520	-2.986600	3.438600	-10.269000	23.923285	-8.590235E-5	20.692890
1157.291172	-2.988100	3.438600	-10.274000	23.916469	-8.388965E-5	20.713559
1158.292150	-3.003200	3.438300	-10.324000	23.899718	-8.425260E-5	20.709089
1159.294816	-2.974800	3.439300	-10.231000	23.914698	-8.491250E-5	20.718895
1160.292862	-3.018200	3.437300	-10.374000	23.916167	-8.421960E-5	20.689546
1161.294714	-2.983400	3.437400	-10.254000	23.909597	-8.487950E-5	20.680112
1162.294402	-3.002400	3.437000	-10.319000	23.917806	-8.583636E-5	20.686448
1163.293116	-2.983900	3.438600	-10.259000	23.913803	-8.478052E-5	20.709936
1164.299532	-2.975800	3.437200	-10.228000	23.941499	-8.619930E-5	20.699776
1165.296555	-3.021900	3.436200	-10.383000	23.938536	-8.685920E-5	20.692062
1166.297040	-3.005200	3.434600	-10.321000	23.921368	-8.692519E-5	20.690968
1167.298152	-2.987400	3.436800	-10.266000	23.908248	-8.801402E-5	20.696305
1168.298263	-3.013900	3.434800	-10.351000	23.915297	-8.616631E-5	20.693889
1169.301949	-2.993300	3.436000	-10.284000	23.940433	-8.712316E-5	20.693017
1170.300559	-2.980000	3.435600	-10.238000	23.928234	-8.398864E-5	20.696431
1171.299574	-3.002300	3.435900	-10.314000	23.932017	-8.606732E-5	20.699276
1172.300028	-3.004800	3.434000	-10.317000	23.920296	-8.520945E-5	20.690842
1173.300199	-3.000200	3.433800	-10.301000	23.930050	-8.517646E-5	20.684975
1174.301383	-3.004100	3.433400	-10.314000	23.927465	-8.821199E-5	20.704669
1175.299964	-3.010300	3.433900	-10.335000	23.939904	-8.722214E-5	20.686796
1176.300402	-3.002400	3.432700	-10.305000	23.956453	-8.758509E-5	20.704341
1177.301612	-3.018700	3.434700	-10.367000	23.931992	-8.560539E-5	20.692138
1178.299223	-2.997500	3.432300	-10.287000	23.946359	-8.629829E-5	20.703228
1179.301513	-2.998000	3.432500	-10.290000	23.927137	-8.771707E-5	20.677312
1180.302278	-3.017700	3.432500	-10.357000	23.927314	-8.745311E-5	20.688869
1181.301886	-2.990600	3.432900	-10.265000	23.949417	-8.765108E-5	20.684481
1182.302737	-3.006200	3.431300	-10.314000	23.952670	-8.705717E-5	20.665931
1183.303303	-3.018000	3.432200	-10.358000	23.945704	-8.676022E-5	20.671273
1184.305353	-3.015400	3.429900	-10.341000	23.930819	-8.735412E-5	20.683849
1185.307643	-3.015100	3.431000	-10.344000	23.924540	-8.890489E-5	20.690830
1186.302821	-3.003900	3.430800	-10.305000	23.943554	-8.798103E-5	20.677179
1187.305210	-2.982100	3.430700	-10.229000	23.936613	-8.887189E-5	20.676857
1188.303984	-2.991100	3.430400	-10.260000	23.936468	-8.672722E-5	20.682876
1189.306112	-2.994100	3.431100	-10.272000	23.956100	-8.906986E-5	20.681225
1190.302370	-3.008800	3.429700	-10.319000	23.949947	-8.728813E-5	20.672684
1191.308686	-2.993700	3.429500	-10.265000	23.934148	-8.709016E-5	20.673436
1192.304273	-3.008000	3.428000	-10.310000	23.948403	-8.771707E-5	20.666393
1193.310822	-3.034200	3.427600	-10.399000	23.948755	-8.877291E-5	20.672437
1194.308216	-3.002200	3.428500	-10.292000	23.949449	-8.771707E-5	20.689255
1195.308879	-2.995200	3.428500	-10.268000	23.935812	-8.837697E-5	20.679847
1196.311432	-3.006700	3.428200	-10.307000	23.962417	-8.840996E-5	20.680448
1197.307911	-2.999000	3.427800	-10.279000	23.956340	-8.989474E-5	20.682889
1198.307312	-3.015400	3.426600	-10.332000	23.962216	-8.847595E-5	20.674081
1199.306471	-2.988500	3.427500	-10.243000	23.961295	-8.840996E-5	20.687858
1200.310082	-3.018500	3.426900	-10.342000	23.973507	-8.794803E-5	20.698209
1201.309064	-3.009100	3.426100	-10.308000	23.970449	-8.798103E-5	20.671906
1202.311936	-3.007900	3.426500	-10.306000	23.973059	-8.725514E-5	20.649865
1203.311754	-3.030100	3.425900	-10.379000	23.968255	-8.715615E-5	20.668758
1204.312164	-2.997800	3.426500	-10.271000	23.975102	-8.860793E-5	20.685108
1205.312573	-3.021600	3.424700	-10.347000	23.978954	-8.847595E-5	20.667632
1206.311147	-3.006800	3.425700	-10.299000	23.971565	-8.831098E-5	20.648841
1207.312573	-3.007900	3.424000	-10.298000	23.970840	-8.959778E-5	20.686999
1208.311606	-2.982000	3.424800	-10.212000	23.986399	-9.114854E-5	20.674625
1209.310712	-3.021900	3.423500	-10.344000	23.976905	-8.946580E-5	20.665578
1210.311733	-2.986300	3.425000	-10.227000	23.980145	-8.897088E-5	20.686373
1211.314857	-2.992300	3.424700	-10.247000	23.985044	-8.913585E-5	20.691760
1212.322191	-3.023300	3.423600	-10.350000	23.960684	-8.969677E-5	20.653103
1213.315152	-2.990800	3.423700	-10.239000	23.977202	-8.847595E-5	20.674411
1214.317837	-3.006400	3.423700	-10.292000	23.964435	-8.979575E-5	20.663504
1215.319541	-3.002700	3.423000	-10.277000	24.003654	-8.900387E-5	20.683869
1216.314093	-3.005900	3.422700	-10.287000	23.971377	-8.953179E-5	20.688485
1217.317842	-3.006200	3.422700	-10.287000	23.991828	-8.989474E-5	20.656359
1218.319443	-2.997700	3.422100	-10.256000	23.958358	-9.022469E-5	20.661677
1219.316314	-3.020900	3.422000	-10.336000	23.969902	-8.972976E-5	20.668038
1220.318892	-3.010100	3.420900	-10.297000	23.978513	-8.946580E-5	20.677623
1221.319423	-3.026600	3.419900	-10.350000	23.973609	-9.098357E-5	20.677920
1222.318950	-2.992900	3.419900	-10.234000	23.988985	-9.002672E-5	20.662044
1223.318987	-3.003200	3.421100	-10.273000	23.967039	-8.897088E-5	20.672280
1224.321261	-3.000500	3.420600	-10.263000	23.992143	-8.854194E-5	20.676118
1225.319171	-3.012500	3.420500	-10.303000	23.992339	-8.857494E-5	20.690066
1226.316926	-2.976400	3.421900	-10.183000	23.985725	-8.834397E-5	20.653559
1227.323385	-2.992400	3.420600	-10.234000	23.991072	-9.091758E-5	20.681208
1228.316296	-3.015600	3.419800	-10.311000	23.982876	-8.880590E-5	20.691483
1229.318979	-2.981800	3.421000	-10.200000	23.992780	-8.854194E-5	20.679128
1230.324152	-2.964400	3.420900	-10.140000	24.014132	-8.923484E-5	20.661659
1231.321085	-3.011300	3.418000	-10.291000	24.003611	-8.814600E-5	20.663435
1232.321949	-3.012100	3.419600	-10.299000	24.011176	-8.804702E-5	20.654425
1233.324958	-2.978400	3.418500	-10.181000	23.982630	-8.999372E-5	20.679381
1234.321651	-2.992100	3.418400	-10.227000	24.003611	-8.943281E-5	20.672445
1235.321024	-2.997000	3.418400	-10.245000	24.008711	-8.982875E-5	20.676138
1236.327108	-3.007300	3.416800	-10.274000	24.006467	-8.692519E-5	20.671042
1237.317790	-3.005000	3.417800	-10.269000	24.020771	-8.900387E-5	20.664049
1238.322683	-2.963500	3.417300	-10.126000	24.023116	-8.643027E-5	20.665452
1239.322284	-2.968100	3.417500	-10.143000	23.979838	-8.639727E-5	20.682745
1240.324197	-2.990800	3.416800	-10.218000	24.018312	-8.930083E-5	20.684819
1241.322832	-2.989600	3.416800	-10.214000	24.003006	-8.761808E-5	20.685116
1242.323389	-2.997400	3.415900	-10.238000	23.999665	-8.877291E-5	20.675601
1243.324409	-2.986700	3.416600	-10.203000	24.025379	-8.854194E-5	20.699494
1244.324600	-3.009700	3.414900	-10.277000	24.007381	-8.827798E-5	20.673381
1245.324583	-3.001600	3.415900	-10.253000	24.009997	-9.029068E-5	20.660356
1246.321332	-3.000300	3.414900	-10.244000	24.012235	-8.880590E-5	20.657859
1247.325919	-2.986700	3.415000	-10.198000	24.021748	-8.814600E-5	20.695377
1248.324424	-2.997600	3.414800	-10.235000	24.055165	-8.824499E-5	20.674835
1249.325604	-2.992000	3.414800	-10.216000	24.035282	-8.926783E-5	20.680975
1250.326417	-2.988900	3.413900	-10.202000	24.033416	-8.715615E-5	20.687164
1251.324676	-2.980900	3.414700	-10.177000	24.027421	-8.798103E-5	20.672142
1252.325003	-2.988900	3.412700	-10.200000	24.046610	-8.778306E-5	20.676213
1253.323729	-2.994700	3.413300	-10.221000	24.036978	-8.758509E-5	20.674614
1254.324799	-3.008100	3.412500	-10.264000	24.047499	-8.893788E-5	20.681373
1255.324272	-2.974300	3.412800	-10.150000	24.041113	-8.629829E-5	20.693461
1256.325994	-2.973000	3.412600	-10.145000	24.048287	-8.817900E-5	20.666988
1257.324008	-3.019400	3.411500	-10.299000	24.049535	-8.685920E-5	20.674879
1258.326632	-2.971000	3.412100	-10.135000	24.040905	-8.989474E-5	20.684717
1259.327712	-2.991200	3.411700	-10.204000	24.053153	-8.844296E-5	20.685621
1260.327201	-2.997300	3.411100	-10.224000	24.060869	-8.751910E-5	20.683875
1261.327038	-3.004200	3.411400	-10.247000	24.051142	-8.979575E-5	20.692139
1262.324461	-2.997900	3.411100	-10.225000	24.061669	-8.692519E-5	20.694162
1263.325830	-3.000200	3.410500	-10.231000	24.051475	-8.956479E-5	20.700061
1264.326874	-3.015000	3.409400	-10.278000	24.053669	-8.982875E-5	20.692303
1265.328571	-3.010500	3.409500	-10.264000	24.075316	-8.788204E-5	20.695995
1266.325618	-2.977200	3.409400	-10.150000	24.065123	-8.986174E-5	20.701420
1267.327580	-2.988700	3.409600	-10.189000	24.078341	-8.854194E-5	20.715152
1268.329953	-3.005700	3.409100	-10.246000	24.081103	-8.817900E-5	20.703696
1269.328524	-2.993200	3.410800	-10.207000	24.095714	-8.877291E-5	20.690848
1270.325793	-3.012300	3.408000	-10.264000	24.070285	-8.916885E-5	20.691423
1271.328593	-2.969300	3.408700	-10.120000	24.088106	-8.900387E-5	20.702658
1272.330561	-2.969200	3.408700	-10.120000	24.072706	-8.808001E-5	20.688635
1273.330416	-2.987300	3.408500	-10.181000	24.079324	-8.722214E-5	20.706180
1274.331384	-2.995100	3.407200	-10.203000	24.077238	-8.758509E-5	20.704087
1275.330608	-2.966900	3.407800	-10.110000	24.076424	-8.854194E-5	20.717497
1276.331793	-2.990400	3.407200	-10.187000	24.080875	-8.864093E-5	20.719590
1277.333597	-2.996000	3.407200	-10.207000	24.081827	-8.771707E-5	20.686403
1278.333653	-3.021300	3.406100	-10.290000	24.071419	-8.930083E-5	20.671222
1279.334029	-3.006000	3.406800	-10.241000	24.098972	-8.989474E-5	20.701703
1280.335247	-3.006100	3.406100	-10.238000	24.093192	-8.827798E-5	20.703018
1281.335957	-3.018300	3.405200	-10.277000	24.085483	-8.906986E-5	20.707615
1282.331947	-2.994000	3.405000	-10.194000	24.087626	-8.761808E-5	20.691745
1283.334264	-3.014900	3.404900	-10.264000	24.103650	-8.989474E-5	20.713507
1284.334012	-3.004700	3.405000	-10.231000	24.100391	-8.725514E-5	20.713558
1285.331501	-3.000900	3.404400	-10.216000	24.085735	-8.699118E-5	20.697910
1286.336773	-2.986600	3.404500	-10.167000	24.089958	-8.850895E-5	20.699301
1287.335869	-2.990400	3.405100	-10.182000	24.106562	-8.811301E-5	20.705996
1288.336765	-3.004800	3.403500	-10.225000	24.100435	-8.953179E-5	20.714077
1289.337187	-3.010600	3.403400	-10.245000	24.097876	-8.870692E-5	20.708190
1290.338132	-2.993700	3.404200	-10.191000	24.101582	-8.949880E-5	20.721866
1291.336378	-2.977300	3.404200	-10.134000	24.108598	-8.778306E-5	20.705193
1292.342552	-2.981300	3.403200	-10.145000	24.092669	-8.804702E-5	20.704391
1293.334322	-2.980300	3.404200	-10.145000	24.116036	-8.864093E-5	20.683728
1294.339180	-2.995000	3.401900	-10.188000	24.113515	-8.831098E-5	20.712022
1295.338237	-3.000100	3.401500	-10.203000	24.106902	-8.827798E-5	20.705864
1296.339250	-3.028200	3.400300	-10.296000	24.096470	-8.804702E-5	20.716739
1297.340097	-2.996900	3.401900	-10.194000	24.103543	-8.695819E-5	20.705813
1298.340014	-2.974600	3.401300	-10.116000	24.113313	-8.890489E-5	20.703759
1299.340911	-3.008900	3.401000	-10.233000	24.128397	-8.854194E-5	20.704662
1300.340484	-3.006200	3.400200	-10.221000	24.102017	-8.732113E-5	20.710922
1301.337790	-2.979500	3.400900	-10.131000	24.122491	-8.804702E-5	20.728138
1302.336149	-2.990300	3.401300	-10.170000	24.128410	-8.883890E-5	20.727436
1303.342626	-2.982200	3.400400	-10.140000	24.136447	-8.732113E-5	20.718427
1304.337104	-2.987500	3.399300	-10.154000	24.143312	-8.781605E-5	20.730528
1305.342326	-3.001900	3.399500	-10.203000	24.127906	-8.755209E-5	20.703222
1306.342713	-3.001200	3.399600	-10.202000	24.143015	-8.936682E-5	20.722170
1307.341164	-3.023800	3.398400	-10.275000	24.136788	-8.649626E-5	20.702172
1308.342209	-3.025300	3.397600	-10.278000	24.158679	-8.702417E-5	20.717492
1309.343363	-3.001900	3.397000	-10.197000	24.133750	-8.897088E-5	20.731369
1310.339228	-2.985400	3.399100	-10.147000	24.151809	-8.969677E-5	20.722455
1311.343058	-2.985600	3.398300	-10.145000	24.143249	-8.996073E-5	20.713395
1312.344605	-3.002200	3.397800	-10.200000	24.144390	-8.867392E-5	20.711694
1313.341180	-2.976000	3.398800	-10.114000	24.150359	-8.979575E-5	20.713888
1314.339552	-3.026000	3.395800	-10.275000	24.133189	-8.801402E-5	20.719901
1315.341579	-2.991900	3.396500	-10.161000	24.163515	-8.953179E-5	20.704322
1316.342281	-2.990700	3.397300	-10.159000	24.137438	-8.791504E-5	20.729378
1317.346999	-3.006400	3.396200	-10.209000	24.168488	-8.916885E-5	20.715475
1318.344641	-3.004000	3.395500	-10.199000	24.165425	-8.814600E-5	20.720938
1319.344126	-2.990100	3.395400	-10.151000	24.165280	-8.781605E-5	20.719370
1320.351042	-3.024200	3.395300	-10.268000	24.166641	-8.824499E-5	20.726426
1321.342643	-2.977900	3.395700	-10.112000	24.169307	-8.709016E-5	20.713452
1322.344709	-3.009400	3.394600	-10.215000	24.184485	-8.890489E-5	20.722987
1323.347214	-2.999900	3.394800	-10.183000	24.180628	-8.831098E-5	20.734291
1324.344857	-3.021200	3.393400	-10.251000	24.178384	-8.742011E-5	20.738205
1325.346128	-3.005600	3.393700	-10.199000	24.197293	-8.992773E-5	20.723031
1326.345365	-3.018200	3.392600	-10.239000	24.183761	-8.854194E-5	20.715147
1327.346012	-3.014500	3.392800	-10.227000	24.183086	-8.900387E-5	20.724428
1328.347263	-2.980200	3.393700	-10.113000	24.193436	-8.791504E-5	20.725326
1329.352151	-3.001500	3.391600	-10.179000	24.191766	-8.755209E-5	20.710374
1330.345144	-2.982000	3.394800	-10.121000	24.202241	-8.709016E-5	20.739375
1331.347854	-2.982100	3.394100	-10.120000	24.191072	-8.728813E-5	20.715368
1332.352523	-3.005200	3.392800	-10.195000	24.213612	-8.794803E-5	20.744616
1333.348083	-3.006900	3.393200	-10.203000	24.206376	-8.748610E-5	20.745419
1334.348169	-3.004800	3.390900	-10.188000	24.201271	-8.656225E-5	20.724650
1335.352217	-3.001000	3.390900	-10.175000	24.204681	-8.794803E-5	20.720483
1336.350143	-3.021100	3.389300	-10.238000	24.196171	-8.811301E-5	20.729967
1337.347166	-2.990900	3.390700	-10.141000	24.205727	-8.771707E-5	20.727697
1338.353043	-2.990700	3.390300	-10.138000	24.201296	-8.798103E-5	20.721830
1339.349737	-3.015100	3.389600	-10.218000	24.203508	-8.804702E-5	20.735430
1340.349613	-3.005900	3.388500	-10.184000	24.203754	-8.850895E-5	20.731409
1341.355645	-2.995100	3.389200	-10.150000	24.207214	-8.732113E-5	20.734405
1342.353409	-2.990600	3.389400	-10.135000	24.200798	-8.771707E-5	20.728917
1343.355391	-2.985000	3.389300	-10.117000	24.213505	-8.867392E-5	20.747354
1344.355782	-3.003700	3.388500	-10.177000	24.204252	-8.827798E-5	20.752298
1345.352844	-2.993000	3.388400	-10.140000	24.215723	-8.738712E-5	20.737725
1346.350927	-2.993000	3.388500	-10.140000	24.218484	-8.652925E-5	20.716785
1347.353486	-3.002300	3.387600	-10.170000	24.236548	-8.738712E-5	20.727318
1348.351933	-3.027200	3.388400	-10.257000	24.231121	-8.567138E-5	20.739419
1349.355005	-2.991900	3.388000	-10.136000	24.226016	-8.887189E-5	20.752791
1350.358067	-3.030100	3.386500	-10.260000	24.246544	-8.814600E-5	20.728336
1351.352779	-3.006800	3.386900	-10.182000	24.215043	-8.771707E-5	20.741784
1352.357053	-3.000700	3.386500	-10.162000	24.250874	-8.900387E-5	20.734102
1353.357882	-3.004200	3.386200	-10.172000	24.242536	-8.685920E-5	20.748498
1354.358701	-3.007800	3.386300	-10.185000	24.242731	-8.656225E-5	20.754384
1355.358617	-3.009400	3.385900	-10.189000	24.242983	-8.742011E-5	20.742309
1356.360965	-3.006900	3.385700	-10.180000	24.241862	-8.814600E-5	20.749718
1357.355373	-2.993200	3.386300	-10.134000	24.244597	-8.758509E-5	20.758627
1358.359394	-3.007900	3.385400	-10.182000	24.232597	-8.765108E-5	20.752754
1359.363001	-2.995900	3.385500	-10.142000	24.248524	-8.834397E-5	20.759721
1360.354457	-2.983200	3.385700	-10.099000	24.238124	-8.969677E-5	20.761617
1361.359052	-2.977300	3.385000	-10.077000	24.256106	-8.916885E-5	20.727022
1362.361983	-2.994900	3.383900	-10.134000	24.247623	-8.827798E-5	20.741746
1363.357168	-2.991100	3.383900	-10.120000	24.251203	-8.976276E-5	20.722103
1364.359577	-2.999300	3.383600	-10.147000	24.254940	-8.814600E-5	20.743396
1365.358462	-2.996500	3.383700	-10.138000	24.264388	-8.590235E-5	20.763780
1366.359095	-3.005000	3.383800	-10.168000	24.254833	-8.712316E-5	20.752773
1367.362152	-2.986800	3.383600	-10.105000	24.247737	-8.804702E-5	20.738542
1368.362854	-2.998500	3.382100	-10.141000	24.243583	-8.745311E-5	20.743384
1369.360706	-2.991500	3.382300	-10.117000	24.273912	-8.817900E-5	20.745357
1370.359986	-3.026000	3.381300	-10.232000	24.273685	-8.751910E-5	20.736594
1371.362591	-2.984000	3.382700	-10.093000	24.268655	-8.718915E-5	20.749568
1372.362424	-3.006400	3.381900	-10.166000	24.271618	-8.791504E-5	20.759178
1373.363581	-3.038700	3.380300	-10.270000	24.289681	-8.606732E-5	20.774452
1374.360837	-3.030400	3.380600	-10.243000	24.272185	-8.771707E-5	20.755954
1375.362291	-2.989200	3.381100	-10.106000	24.275166	-8.692519E-5	20.755151
1376.365580	-2.971300	3.380800	-10.044000	24.308084	-8.580336E-5	20.743600
1377.361405	-2.999700	3.380100	-10.138000	24.276584	-8.791504E-5	20.769850
1378.363249	-3.018200	3.378900	-10.197000	24.296331	-8.718915E-5	20.745086
1379.367047	-3.000900	3.380100	-10.142000	24.288427	-8.633128E-5	20.764659
1380.364813	-3.008300	3.380400	-10.168000	24.296185	-8.428559E-5	20.762485
1381.366321	-2.983100	3.380200	-10.083000	24.277082	-8.497849E-5	20.778410
1382.366673	-2.996700	3.379100	-10.125000	24.302078	-8.623230E-5	20.753697
1383.364093	-2.994300	3.380700	-10.122000	24.316530	-8.847595E-5	20.766771
1384.366796	-3.002600	3.378600	-10.144000	24.319290	-8.765108E-5	20.753419
1385.367855	-3.008700	3.377500	-10.160000	24.313920	-8.557240E-5	20.745187
1386.365450	-2.971900	3.377800	-10.037000	24.306005	-8.689220E-5	20.774706
1387.367718	-2.995300	3.378300	-10.118000	24.309938	-8.643027E-5	20.747356
1388.364751	-3.004600	3.377400	-10.146000	24.301448	-8.669423E-5	20.768713
1389.366352	-2.989500	3.376700	-10.094000	24.333842	-8.880590E-5	20.782716
1390.366928	-2.984200	3.377500	-10.078000	24.317268	-8.606732E-5	20.763718
1391.369835	-3.002400	3.376600	-10.136000	24.308161	-8.685920E-5	20.783981
1392.365680	-2.979300	3.377100	-10.061000	24.336742	-8.643027E-5	20.766184
1393.368933	-3.010300	3.376300	-10.163000	24.301115	-8.619930E-5	20.766481
1394.368720	-2.996300	3.376200	-10.116000	24.328757	-8.643027E-5	20.784727
1395.367211	-2.993800	3.376300	-10.107000	24.332110	-8.570438E-5	20.776711
1396.370866	-3.008200	3.375700	-10.154000	24.325121	-8.689220E-5	20.759742
1397.368005	-2.984400	3.376600	-10.077000	24.328927	-8.804702E-5	20.789639
1398.368951	-2.990500	3.375500	-10.093000	24.300989	-8.771707E-5	20.775364
1399.377355	-3.015500	3.374400	-10.175000	24.330446	-8.775006E-5	20.762239
1400.370571	-2.978800	3.374900	-10.052000	24.342206	-8.666123E-5	20.774985
1401.370624	-2.998200	3.372800	-10.111000	24.347028	-8.758509E-5	20.789305
1402.376541	-2.988200	3.375100	-10.084000	24.344815	-8.804702E-5	20.797043
1403.369306	-3.008000	3.374700	-10.150000	24.368694	-8.834397E-5	20.769314
1404.372126	-3.017600	3.373500	-10.179000	24.354867	-8.709016E-5	20.764927
1405.378131	-2.994500	3.372400	-10.097000	24.330132	-8.610032E-5	20.779468
1406.371176	-3.004000	3.372200	-10.128000	24.335085	-8.718915E-5	20.792972
1407.374468	-2.977100	3.372900	-10.040000	24.357697	-8.705717E-5	20.792422
1408.378563	-3.011700	3.372000	-10.154000	24.361951	-8.771707E-5	20.769662
1409.375302	-3.006500	3.372000	-10.136000	24.360754	-8.755209E-5	20.784583
1410.375363	-3.000200	3.371500	-10.114000	24.364762	-8.527544E-5	20.775327
1411.379159	-2.998000	3.372200	-10.109000	24.352372	-8.326275E-5	20.775700
1412.376158	-3.008200	3.370400	-10.138000	24.356947	-8.781605E-5	20.786454
1413.377193	-3.002900	3.370700	-10.122000	24.371821	-8.709016E-5	20.772925
1414.381449	-3.013400	3.369100	-10.151000	24.377486	-8.487950E-5	20.816541
1415.374159	-2.990400	3.370200	-10.077000	24.387418	-8.718915E-5	20.800900
1416.376967	-2.995800	3.370400	-10.096000	24.387519	-8.590235E-5	20.769707
1417.380297	-3.005600	3.369800	-10.126000	24.378035	-8.652925E-5	20.821358
1418.377879	-3.002100	3.369100	-10.113000	24.403230	-8.478052E-5	20.781675
1419.378811	-2.983500	3.370300	-10.054000	24.372312	-8.514346E-5	20.798549
1420.381565	-2.995400	3.369700	-10.093000	24.374127	-8.474752E-5	20.797050
1421.378145	-2.984500	3.369700	-10.055000	24.381715	-8.504448E-5	20.796601
1422.380552	-3.007900	3.368100	-10.129000	24.385269	-8.639727E-5	20.785468
1423.377328	-2.996900	3.368200	-10.093000	24.382629	-8.336173E-5	20.806053
1424.377289	-2.993500	3.367700	-10.080000	24.396733	-8.458255E-5	20.777054
1425.380442	-3.021500	3.367200	-10.174000	24.403123	-8.431859E-5	20.795793
1426.379155	-3.011700	3.367200	-10.140000	24.410087	-8.501148E-5	20.806572
1427.379889	-3.029200	3.365100	-10.193000	24.415563	-8.421960E-5	20.815859
1428.381094	-3.015200	3.366900	-10.151000	24.390910	-8.454955E-5	20.791601
1429.385828	-2.997300	3.367300	-10.091000	24.393575	-8.428559E-5	20.807551
1430.381125	-3.001600	3.367100	-10.106000	24.418021	-8.395564E-5	20.798884
1431.383704	-2.990400	3.366400	-10.066000	24.425356	-8.385666E-5	20.809088
1432.384675	-2.986700	3.365600	-10.050000	24.440228	-8.487950E-5	20.789869
1433.381776	-2.980300	3.365500	-10.029000	24.410553	-8.435158E-5	20.790919
1434.385077	-2.994500	3.365300	-10.077000	24.428664	-8.487950E-5	20.791070
1435.382881	-3.034700	3.364600	-10.209000	24.412173	-8.332874E-5	20.802501
1436.382993	-2.976900	3.365500	-10.018000	24.436277	-8.454955E-5	20.812932
1437.385967	-3.005200	3.364000	-10.109000	24.436995	-8.339473E-5	20.793264
1438.390195	-3.020600	3.362900	-10.157000	24.436422	-8.425260E-5	20.824457
1439.387576	-2.984900	3.364100	-10.040000	24.452863	-8.471453E-5	20.809183
1440.386368	-2.995400	3.364300	-10.077000	24.452390	-8.392265E-5	20.797804
1441.390042	-2.996600	3.365100	-10.083000	24.442119	-8.448356E-5	20.799353
1442.383040	-2.999400	3.362300	-10.084000	24.468389	-8.398864E-5	20.811958
1443.388062	-3.015200	3.362900	-10.138000	24.458087	-8.326275E-5	20.828649
1444.388598	-2.991700	3.362400	-10.059000	24.460154	-8.365869E-5	20.811756
1445.385041	-2.997400	3.363300	-10.080000	24.451772	-8.365869E-5	20.818047
1446.386965	-3.001100	3.362500	-10.090000	24.459977	-8.286681E-5	20.815373
1447.390861	-2.998600	3.362400	-10.081000	24.455749	-8.431859E-5	20.815398
1448.387803	-3.012800	3.360700	-10.124000	24.469662	-8.395564E-5	20.829356
1449.387699	-3.002800	3.360700	-10.091000	24.457444	-8.372468E-5	20.818047
1450.388818	-3.010200	3.361000	-10.116000	24.464854	-8.435158E-5	20.818369
1451.384341	-3.004100	3.360800	-10.095000	24.474111	-8.398864E-5	20.795888
1452.391982	-3.030300	3.360500	-10.182000	24.455730	-8.346072E-5	20.816327
1453.388947	-2.992900	3.360800	-10.058000	24.475428	-8.385666E-5	20.819494
1454.392282	-3.003200	3.359800	-10.089000	24.489631	-8.435158E-5	20.802450
1455.389904	-2.992100	3.358300	-10.048000	24.477867	-8.230590E-5	20.841855
1456.390380	-2.985800	3.360000	-10.031000	24.496941	-8.428559E-5	20.831594
1457.391503	-2.998000	3.359400	-10.071000	24.483456	-8.458255E-5	20.810479
1458.389175	-3.018300	3.358900	-10.137000	24.475327	-8.322975E-5	20.831721
1459.392421	-3.007200	3.358700	-10.100000	24.480747	-8.580336E-5	20.806813
1460.389733	-3.004600	3.357200	-10.086000	24.498680	-8.415361E-5	20.800149
1461.395920	-2.992200	3.356800	-10.042000	24.504251	-8.346072E-5	20.815221
1462.391668	-2.986700	3.357600	-10.027000	24.516110	-8.286681E-5	20.842291
1463.394392	-2.992500	3.358300	-10.049000	24.490842	-8.379067E-5	20.816466
1464.398001	-2.989400	3.357900	-10.037000	24.515291	-8.174498E-5	20.834358
1465.395453	-3.004700	3.356800	-10.085000	24.493319	-8.405463E-5	20.837917
1466.394905	-2.970400	3.357000	-9.970600	24.495990	-8.517646E-5	20.805511
1467.399098	-3.022100	3.355400	-10.139000	24.516652	-8.478052E-5	20.828137
1468.397059	-2.994000	3.356900	-10.050000	24.512670	-8.560539E-5	20.795693
1469.399097	-3.007300	3.355500	-10.090000	24.529935	-8.379067E-5	20.805903
1470.398582	-2.998900	3.355700	-10.063000	24.537118	-8.577037E-5	20.812636
1471.394964	-2.997400	3.356300	-10.059000	24.540181	-8.388965E-5	20.819976
1472.401652	-2.993700	3.355200	-10.044000	24.523168	-8.445057E-5	20.794372
1473.401084	-3.000800	3.355400	-10.068000	24.548365	-8.501148E-5	20.813489
1474.400263	-2.979700	3.354600	-9.995000	24.539658	-8.362569E-5	20.818977
1475.401330	-2.993300	3.353200	-10.036000	24.541775	-8.247087E-5	20.815885
1476.403358	-3.012600	3.353700	-10.103000	24.557716	-8.313077E-5	20.808647
1477.400371	-2.984400	3.352600	-10.005000	24.562196	-8.570438E-5	20.802710
1478.402723	-3.014300	3.354400	-10.110000	24.543835	-8.230590E-5	20.801832
1479.402077	-3.002400	3.353800	-10.068000	24.564628	-8.359270E-5	20.823168
1480.396378	-3.026800	3.351400	-10.143000	24.563236	-8.220691E-5	20.822719
1481.404103	-2.996000	3.352700	-10.043000	24.566166	-8.233889E-5	20.814280
1482.398664	-2.983000	3.352200	-9.998200	24.579228	-8.408762E-5	20.806049
1483.399180	-3.011100	3.352500	-10.093000	24.557017	-8.534143E-5	20.802255
1484.402171	-2.995100	3.351500	-10.037000	24.550376	-8.144803E-5	20.797963
1485.400972	-2.981500	3.352900	-9.995400	24.553356	-8.438458E-5	20.790996
1486.402235	-2.976400	3.351300	-9.973900	24.578900	-8.204194E-5	20.791970
1487.407077	-3.028800	3.348900	-10.142000	24.569550	-8.306478E-5	20.813408
1488.403619	-3.021400	3.349500	-10.120000	24.577149	-8.309778E-5	20.803963
1489.401960	-2.995600	3.351600	-10.040000	24.593890	-8.200894E-5	20.789467
1490.409112	-2.995800	3.348700	-10.031000	24.593367	-8.200894E-5	20.790364
1491.405054	-3.002000	3.350100	-10.056000	24.570413	-8.161300E-5	20.806214
1492.402281	-2.995800	3.349900	-10.034000	24.567370	-8.154701E-5	20.796522
1493.406844	-3.011200	3.348400	-10.082000	24.585700	-8.161300E-5	20.793576
1494.405069	-3.011500	3.347800	-10.081000	24.588459	-8.359270E-5	20.793501
1495.403544	-3.017600	3.348600	-10.103000	24.606612	-8.105209E-5	20.790378
1496.405741	-3.032400	3.348600	-10.153000	24.599574	-8.223991E-5	20.809394
1497.406248	-3.001700	3.347700	-10.047000	24.601912	-8.158001E-5	20.800834
1498.404175	-2.990400	3.348900	-10.013000	24.609176	-8.177798E-5	20.797692
1499.411226	-2.978500	3.348200	-9.972100	24.603279	-8.049117E-5	20.790827
1500.407599	-2.992400	3.347600	-10.016000	24.583904	-8.313077E-5	20.792723
1501.407970	-3.013900	3.346900	-10.086000	24.596814	-8.174498E-5	20.784814
1502.411373	-2.966400	3.347000	-9.927700	24.590394	-8.276783E-5	20.796864
1503.408973	-2.986100	3.346700	-9.991600	24.598377	-8.243788E-5	20.776425
1504.408057	-2.997400	3.345800	-10.028000	24.597080	-8.035919E-5	20.783184
1505.412246	-2.996800	3.345600	-10.026000	24.620763	-8.167899E-5	20.780395
1506.405989	-3.020300	3.345700	-10.103000	24.630334	-8.329574E-5	20.765342
1507.406157	-3.007100	3.345800	-10.060000	24.606014	-8.177798E-5	20.783139
1508.411360	-3.007100	3.344700	-10.057000	24.630214	-8.138204E-5	20.778498
1509.409110	-3.005900	3.344800	-10.053000	24.629559	-8.141503E-5	20.768358
1510.409909	-3.017300	3.343600	-10.088000	24.640755	-8.131605E-5	20.781015
1511.407949	-3.007000	3.344200	-10.054000	24.648581	-8.303179E-5	20.776539
1512.410006	-3.002400	3.344600	-10.040000	24.655252	-8.405463E-5	20.769958
1513.409878	-3.026700	3.341600	-10.113000	24.652764	-8.200894E-5	20.772202
1514.413329	-3.005600	3.344300	-10.050000	24.642595	-8.121706E-5	20.785706
1515.409773	-2.994500	3.342400	-10.008000	24.647150	-8.273483E-5	20.771310
1516.406826	-3.022200	3.342400	-10.100000	24.637347	-8.171199E-5	20.783285
1517.411508	-3.000200	3.341700	-10.025000	24.658239	-8.362569E-5	20.795240
1518.409713	-3.032000	3.341000	-10.128000	24.660954	-8.293280E-5	20.789904
1519.410424	-3.005800	3.342400	-10.045000	24.643143	-8.379067E-5	20.785308
1520.414633	-3.009700	3.341100	-10.055000	24.663859	-8.207493E-5	20.788551
1521.410429	-2.998900	3.341900	-10.021000	24.670001	-8.306478E-5	20.778119
1522.410442	-2.993300	3.340000	-9.997500	24.668905	-8.237189E-5	20.778442
1523.414342	-2.990800	3.341200	-9.991500	24.668659	-8.078813E-5	20.775824
1524.412232	-2.985300	3.341000	-9.972900	24.670555	-8.247087E-5	20.758760
1525.409095	-3.006400	3.340400	-10.042000	24.679955	-8.138204E-5	20.756813
1526.409680	-3.003800	3.339500	-10.030000	24.685550	-8.388965E-5	20.779023
1527.413881	-3.020600	3.338900	-10.085000	24.695151	-8.197595E-5	20.776330
1528.413280	-3.022900	3.337600	-10.087000	24.688656	-8.029320E-5	20.757009
1529.416909	-2.982700	3.338600	-9.956900	24.673214	-8.121706E-5	20.772334
1530.412899	-3.015700	3.337300	-10.063000	24.669560	-8.197595E-5	20.765822
1531.413146	-3.003300	3.337900	-10.024000	24.671973	-8.187696E-5	20.762080
1532.416569	-3.011000	3.337800	-10.049000	24.682167	-8.303179E-5	20.761403
1533.415272	-2.986500	3.337300	-9.966500	24.692065	-8.273483E-5	20.769913
1534.411027	-3.004700	3.337000	-10.026000	24.688284	-8.299879E-5	20.764697
1535.413874	-2.994500	3.336700	-9.990100	24.707260	-8.230590E-5	20.767618
1536.420679	-2.989600	3.336200	-9.973300	24.685027	-8.217392E-5	20.763799
1537.415271	-2.977300	3.336000	-9.930000	24.723722	-8.177798E-5	20.751895
1538.414531	-2.982300	3.337300	-9.952000	24.709427	-8.055716E-5	20.765051
1539.416470	-3.000300	3.336200	-10.007000	24.716736	-8.243788E-5	20.762902
1540.415646	-3.006700	3.334200	-10.024000	24.704904	-8.247087E-5	20.765727
1541.412133	-2.997100	3.335100	-9.995000	24.714183	-8.313077E-5	20.770298
1542.417879	-3.004800	3.333100	-10.015000	24.706170	-8.121706E-5	20.757041
1543.416187	-2.998400	3.334900	-9.998300	24.729720	-8.204194E-5	20.746059
1544.417438	-2.979600	3.334000	-9.933100	24.696991	-8.141503E-5	20.762528
1545.420881	-3.005700	3.334100	-10.020000	24.715469	-8.336173E-5	20.755466
1546.418629	-3.000200	3.334000	-10.002000	24.732183	-8.237189E-5	20.755643
1547.417563	-3.008400	3.332800	-10.026000	24.725341	-8.247087E-5	20.775331
1548.422209	-3.012300	3.333500	-10.041000	24.728655	-8.243788E-5	20.766802
1549.417759	-2.982100	3.333000	-9.938400	24.735345	-8.065615E-5	20.773516
1550.419592	-2.982300	3.332200	-9.936300	24.716439	-8.237189E-5	20.773036
1551.420328	-3.014500	3.331000	-10.040000	24.720541	-8.352671E-5	20.757237
1552.415307	-3.008000	3.332000	-10.021000	24.725568	-8.326275E-5	20.768920
1553.417381	-2.968300	3.332100	-9.889800	24.723633	-8.326275E-5	20.767453
1554.420729	-3.010000	3.331500	-10.027000	24.739592	-8.118407E-5	20.750276
1555.417012	-3.002000	3.329600	-9.994900	24.727162	-8.108508E-5	20.753924
1556.416165	-2.987000	3.330500	-9.948000	24.733550	-8.332874E-5	20.745635
1557.417720	-2.990000	3.331500	-9.960500	24.742382	-8.286681E-5	20.749757
1558.416167	-3.008100	3.330800	-10.018000	24.731987	-8.144803E-5	20.745490
1559.417129	-2.982000	3.330000	-9.928900	24.766076	-8.253686E-5	20.753146
1560.421746	-3.000200	3.329500	-9.987800	24.742206	-8.052417E-5	20.766176
1561.418781	-2.982800	3.328900	-9.928100	24.738105	-8.233889E-5	20.761586
1562.419153	-3.015200	3.329100	-10.037000	24.792641	-8.293280E-5	20.747563
1563.421829	-2.981500	3.329400	-9.925800	24.755978	-8.194295E-5	20.755340
1564.419506	-2.980200	3.329800	-9.922500	24.758869	-8.253686E-5	20.745913
1565.419521	-3.024000	3.327500	-10.062000	24.765358	-8.220691E-5	20.752425
1566.421170	-2.994900	3.327600	-9.964900	24.779538	-8.293280E-5	20.759544
1567.419167	-3.002000	3.326800	-9.985700	24.757684	-8.174498E-5	20.767010
1568.419088	-2.997600	3.326600	-9.971300	24.773270	-8.174498E-5	20.763685
1569.423440	-2.992900	3.326100	-9.954000	24.783122	-8.388965E-5	20.761244
1570.420581	-2.982100	3.327000	-9.920500	24.756191	-8.445057E-5	20.745122
1571.422336	-2.989900	3.326100	-9.943500	24.766566	-8.144803E-5	20.775450
1572.427582	-2.989000	3.326200	-9.940700	24.802619	-8.266884E-5	20.747620
1573.425209	-3.002000	3.325000	-9.980800	24.797750	-8.190996E-5	20.737042
1574.423840	-3.003300	3.324900	-9.984800	24.771216	-8.355970E-5	20.754511
1575.432351	-3.008900	3.324600	-10.003000	24.780715	-8.158001E-5	20.753139
1576.426229	-3.000800	3.324300	-9.975100	24.795664	-8.158001E-5	20.752494
1577.424672	-3.009800	3.324400	-10.005000	24.804887	-8.303179E-5	20.752740
1578.429646	-2.989600	3.325600	-9.941200	24.804937	-8.062315E-5	20.751368
1579.425648	-2.986800	3.324900	-9.930400	24.811275	-8.217392E-5	20.756306
1580.423398	-3.014900	3.321800	-10.014000	24.799986	-8.243788E-5	20.725061
1581.431302	-2.997600	3.323300	-9.960700	24.794688	-8.313077E-5	20.733495
1582.423814	-3.009100	3.322300	-9.996300	24.797624	-8.032620E-5	20.742132
1583.422967	-2.991300	3.322400	-9.936600	24.800017	-8.144803E-5	20.739318
1584.430089	-2.986700	3.322900	-9.923300	24.818468	-8.266884E-5	20.727489
1585.426156	-2.998300	3.322100	-9.959500	24.791658	-8.256986E-5	20.728083
1586.427167	-3.008600	3.322000	-9.994100	24.815300	-8.260285E-5	20.735215
1587.425651	-2.972400	3.322300	-9.874600	24.819161	-8.369168E-5	20.732452
1588.423720	-2.958500	3.322100	-9.827300	24.812830	-8.227290E-5	20.725623
1589.427350	-3.003300	3.320300	-9.970200	24.827363	-8.108508E-5	20.734520
1590.431458	-2.988600	3.320700	-9.922800	24.806928	-8.072214E-5	20.750521
1591.426736	-3.015900	3.318800	-10.009000	24.839943	-8.012823E-5	20.744300
1592.427326	-2.982100	3.320900	-9.901700	24.838179	-8.375767E-5	20.740159
1593.432027	-2.993300	3.319600	-9.934700	24.861947	-8.286681E-5	20.726079
1594.425848	-2.997600	3.319400	-9.949200	24.831962	-8.167899E-5	20.717323
1595.429956	-3.014300	3.319500	-10.005000	24.833273	-8.190996E-5	20.721957
1596.433357	-3.024700	3.316900	-10.032000	24.842350	-8.233889E-5	20.720636
1597.427620	-2.999600	3.318700	-9.954400	24.838747	-8.240488E-5	20.725555
1598.429648	-3.000300	3.319900	-9.960100	24.841430	-8.072214E-5	20.721135
1599.433019	-3.006500	3.317700	-9.973500	24.863163	-7.996325E-5	20.722084
1600.431180	-3.000400	3.317300	-9.952800	24.870414	-8.293280E-5	20.717033
1601.432691	-2.997600	3.317400	-9.943600	24.872946	-8.359270E-5	20.725265
1602.434913	-3.001500	3.315600	-9.950600	24.844650	-8.299879E-5	20.738592
1603.433631	-3.026100	3.316500	-10.035000	24.880133	-8.336173E-5	20.741488
1604.433939	-3.010900	3.316300	-9.984300	24.868940	-8.121706E-5	20.741160
1605.432266	-2.997600	3.315900	-9.938300	24.858647	-8.336173E-5	20.736993
1606.430624	-2.984800	3.316300	-9.897500	24.853746	-8.497849E-5	20.725436
1607.434929	-3.008400	3.315000	-9.971800	24.881539	-8.355970E-5	20.726302
1608.438079	-3.009100	3.315100	-9.973200	24.843769	-8.227290E-5	20.730121
1609.431900	-3.010700	3.315200	-9.979900	24.881835	-8.260285E-5	20.713323
1610.436072	-3.030500	3.313300	-10.040000	24.846472	-8.207493E-5	20.720505
1611.440860	-3.011000	3.313700	-9.976600	24.861117	-8.266884E-5	20.698693
1612.435641	-3.004100	3.312900	-9.951200	24.864620	-8.250387E-5	20.711218
1613.437001	-3.013300	3.313500	-9.983600	24.875436	-8.118407E-5	20.709270
1614.439114	-3.000000	3.312800	-9.937400	24.880758	-8.151402E-5	20.718406
1615.439233	-2.977900	3.314100	-9.867900	24.882692	-8.299879E-5	20.701854
1616.436922	-2.986700	3.313100	-9.894200	24.888154	-8.184397E-5	20.688843
1617.441132	-3.001300	3.311400	-9.936800	24.898673	-8.283382E-5	20.708411
1618.435509	-2.995300	3.311900	-9.919100	24.889049	-7.973229E-5	20.695905
1619.437628	-2.973700	3.312600	-9.849900	24.910333	-8.171199E-5	20.711579
1620.444638	-3.014400	3.312000	-9.981800	24.883620	-8.204194E-5	20.708949
1621.440796	-2.979300	3.310900	-9.862700	24.882555	-8.253686E-5	20.710726
1622.442721	-3.019200	3.310700	-9.994900	24.889540	-8.220691E-5	20.718686
1623.444258	-2.976900	3.310700	-9.854400	24.906888	-8.095310E-5	20.700060
1624.441508	-3.011200	3.308900	-9.963300	24.895821	-8.289981E-5	20.728309
1625.440609	-3.007900	3.307700	-9.948200	24.902983	-8.309778E-5	20.707995
1626.445507	-2.970400	3.310500	-9.831600	24.890297	-7.884143E-5	20.700952
1627.439944	-3.003500	3.308700	-9.937300	24.900464	-8.171199E-5	20.721589
1628.443536	-3.002500	3.308600	-9.933200	24.911531	-8.270184E-5	20.705669
1629.445794	-3.017800	3.308000	-9.982100	24.932714	-8.158001E-5	20.720767
1630.443590	-3.006900	3.307600	-9.944700	24.907752	-8.316376E-5	20.730801
1631.444993	-2.997000	3.307600	-9.912300	24.927802	-8.332874E-5	20.699714
1632.445780	-3.009200	3.306900	-9.950200	24.903167	-8.286681E-5	20.703438
1633.445503	-3.009900	3.307000	-9.952700	24.906172	-8.062315E-5	20.678950
1634.445549	-3.008400	3.306700	-9.946800	24.920143	-8.421960E-5	20.678274
1635.450063	-3.020800	3.305800	-9.983800	24.926013	-8.181097E-5	20.687012
1636.442707	-3.015000	3.305800	-9.965600	24.914871	-8.425260E-5	20.697640
1637.446166	-3.014700	3.304600	-9.962000	24.923891	-8.177798E-5	20.704798
1638.445282	-2.995600	3.306100	-9.902000	24.931053	-8.372468E-5	20.691122
1639.447088	-3.013300	3.303600	-9.953800	24.944696	-8.309778E-5	20.674469
1640.446657	-3.014200	3.304200	-9.959100	24.955240	-8.346072E-5	20.688372
1641.449409	-3.033800	3.303600	-10.020000	24.938832	-8.299879E-5	20.693240
1642.446877	-3.001700	3.304500	-9.918500	24.925750	-8.355970E-5	20.703818
1643.446470	-3.020300	3.303100	-9.975900	24.949893	-8.303179E-5	20.709559
1644.449317	-3.033900	3.302400	-10.018000	24.936439	-8.375767E-5	20.681829
1645.445310	-3.014300	3.303000	-9.955000	24.943872	-8.190996E-5	20.683125
1646.448590	-2.993200	3.302900	-9.884800	24.953616	-8.131605E-5	20.692432
1647.445925	-3.008800	3.302300	-9.935200	24.965205	-8.250387E-5	20.686994
1648.448130	-3.026800	3.301700	-9.992600	24.949616	-8.342772E-5	20.676562
1649.446634	-2.995400	3.302300	-9.891100	24.945333	-8.362569E-5	20.691231
1650.450257	-3.009900	3.301400	-9.935700	24.954334	-8.237189E-5	20.690782
1651.448236	-2.978300	3.302000	-9.833400	24.969451	-8.223991E-5	20.680350
1652.447374	-2.996800	3.300300	-9.889700	24.962485	-8.184397E-5	20.666718
1653.449080	-3.008300	3.299900	-9.925700	24.970767	-8.174498E-5	20.673135
1654.449036	-2.997700	3.300100	-9.891200	24.958555	-8.190996E-5	20.668938
1655.447884	-2.988200	3.299300	-9.858600	24.947815	-8.098610E-5	20.677125
1656.451994	-2.993700	3.298500	-9.873900	24.988391	-8.256986E-5	20.680868
1657.446127	-3.015000	3.299300	-9.946500	24.957414	-8.062315E-5	20.680596
1658.445677	-3.005300	3.298000	-9.910100	24.980310	-8.138204E-5	20.679395
1659.450639	-2.976300	3.298600	-9.816600	24.979592	-8.174498E-5	20.681994
1660.450584	-3.007600	3.299200	-9.921900	24.981380	-7.818153E-5	20.681418
1661.450793	-3.006700	3.298000	-9.915100	24.977230	-8.101909E-5	20.670139
1662.449874	-3.003300	3.297500	-9.902400	24.981305	-8.151402E-5	20.663797
1663.452941	-2.996000	3.296800	-9.875900	24.972335	-8.049117E-5	20.677081
1664.450249	-3.032600	3.295900	-9.993700	24.976461	-7.993026E-5	20.687861
1665.455750	-3.016400	3.294900	-9.937800	24.993637	-8.065615E-5	20.676651
1666.452940	-3.010700	3.296100	-9.922000	24.968883	-8.125006E-5	20.663657
1667.450413	-3.005700	3.297400	-9.910200	24.997101	-8.220691E-5	20.658789
1668.457737	-2.998000	3.294600	-9.875300	24.991130	-7.930336E-5	20.676031
1669.452731	-2.981500	3.296100	-9.826700	24.995929	-8.062315E-5	20.680375
1670.452290	-2.984600	3.294300	-9.831100	24.972984	-8.148102E-5	20.681525
1671.458040	-2.986900	3.295600	-9.842600	24.995583	-8.002924E-5	20.670069
1672.453232	-2.998100	3.293800	-9.874700	24.985090	-8.068914E-5	20.675184
1673.451538	-2.991000	3.293300	-9.849200	25.001397	-7.933635E-5	20.654566
1674.456562	-2.987800	3.292500	-9.836600	24.997000	-8.012823E-5	20.667223
1675.454530	-2.977100	3.294100	-9.806300	24.992050	-8.154701E-5	20.669367
1676.452556	-2.991800	3.292500	-9.849900	25.003784	-7.936935E-5	20.668817
1677.460008	-2.987500	3.292600	-9.835600	25.009874	-7.897341E-5	20.674457
1678.458025	-2.990300	3.291600	-9.841300	25.033921	-7.900640E-5	20.661135
1679.454616	-2.977700	3.291200	-9.799500	25.016890	-8.016122E-5	20.661109
1680.459096	-2.969300	3.292900	-9.776700	25.040785	-7.923737E-5	20.677036
1681.457701	-2.985000	3.291400	-9.822800	25.028347	-7.923737E-5	20.656488
1682.457059	-2.998200	3.289600	-9.862000	25.038216	-8.032620E-5	20.658334
1683.461057	-2.985600	3.292200	-9.827000	25.010025	-8.128305E-5	20.659908
1684.459918	-2.986400	3.289900	-9.824100	25.044363	-8.101909E-5	20.659762
1685.457158	-2.993700	3.289100	-9.846100	25.032529	-8.144803E-5	20.671118
1686.464131	-3.006200	3.289800	-9.887700	25.038172	-8.029320E-5	20.653547
1687.458943	-3.009100	3.287600	-9.891900	25.055277	-7.894041E-5	20.646535
1688.462453	-3.010300	3.287900	-9.896400	25.069800	-8.016122E-5	20.670125
1689.464977	-3.018000	3.287100	-9.919700	25.061544	-8.088711E-5	20.663733
1690.461443	-3.010300	3.287100	-9.894400	25.055454	-7.966630E-5	20.651454
1691.462703	-3.010800	3.286600	-9.892800	25.056594	-8.026021E-5	20.654496
1692.465129	-2.988400	3.287600	-9.823800	25.059157	-8.065615E-5	20.658017
1693.461217	-2.991700	3.286200	-9.830000	25.074071	-8.200894E-5	20.674887
1694.460955	-3.020600	3.285300	-9.922500	25.073819	-7.927036E-5	20.663253
1695.466161	-2.998500	3.286200	-9.852800	25.075292	-7.989726E-5	20.650980
1696.460674	-3.001800	3.285100	-9.860000	25.078643	-7.989726E-5	20.658612
1697.463558	-3.006900	3.283100	-9.870900	25.112003	-8.042518E-5	20.684516
1698.464091	-2.986400	3.284200	-9.807200	25.087838	-7.917138E-5	20.652195
1699.466302	-3.000300	3.284900	-9.853600	25.087271	-8.210793E-5	20.667748
1700.465029	-2.974500	3.284200	-9.768300	25.082170	-7.897341E-5	20.662627
1701.463019	-2.969800	3.284100	-9.752000	25.077447	-8.022721E-5	20.656462
1702.468923	-3.005000	3.283100	-9.864900	25.082517	-8.296580E-5	20.670088
1703.465007	-3.004300	3.282800	-9.861500	25.088380	-8.144803E-5	20.652264
1704.466975	-2.990400	3.282200	-9.814100	25.092486	-8.164600E-5	20.635521
1705.468405	-2.984700	3.282500	-9.796600	25.078235	-8.237189E-5	20.654408
1706.469094	-2.989600	3.282100	-9.810400	25.103917	-8.154701E-5	20.672131
1707.466506	-3.001000	3.283200	-9.851200	25.091139	-8.164600E-5	20.687280
1708.471444	-3.011000	3.282100	-9.881300	25.099062	-8.217392E-5	20.666308
1709.469226	-3.003800	3.280600	-9.852500	25.107041	-8.108508E-5	20.668629
1710.467897	-3.001300	3.281700	-9.848600	25.117131	-8.240488E-5	20.658841
1711.468848	-3.013300	3.279400	-9.880600	25.115859	-8.227290E-5	20.655193
1712.472059	-3.004000	3.280200	-9.852800	25.118246	-8.108508E-5	20.656641
1713.471972	-3.000800	3.279300	-9.839800	25.112994	-8.128305E-5	20.676501
1714.467313	-2.981700	3.279300	-9.776600	25.140143	-8.263585E-5	20.664874
1715.474375	-3.002000	3.279800	-9.845100	25.134299	-8.197595E-5	20.672284
1716.470746	-2.989300	3.279000	-9.801200	25.136087	-8.283382E-5	20.670760
1717.471466	-3.008300	3.278600	-9.862600	25.126163	-8.151402E-5	20.682135
1718.475516	-3.001600	3.276400	-9.833700	25.141012	-7.999625E-5	20.680447
1719.473474	-2.983900	3.277000	-9.776700	25.134475	-7.966630E-5	20.669142
1720.472298	-2.988200	3.277200	-9.791800	25.120646	-8.072214E-5	20.668535
1721.475246	-3.003800	3.277000	-9.843000	25.136289	-8.227290E-5	20.642984
1722.475601	-3.013200	3.275400	-9.868900	25.137499	-8.105209E-5	20.655106
1723.475509	-2.984600	3.274900	-9.773500	25.142599	-8.049117E-5	20.669237
1724.474634	-2.983800	3.274800	-9.769800	25.145559	-7.841249E-5	20.656559
1725.476205	-2.995000	3.275800	-9.809900	25.142146	-7.950132E-5	20.652659
1726.483283	-3.004800	3.273700	-9.836300	25.147253	-8.029320E-5	20.659208
1727.478751	-3.003900	3.273900	-9.832200	25.164980	-7.920437E-5	20.663255
1728.480136	-3.010500	3.273300	-9.852200	25.134947	-8.006224E-5	20.681945
1729.479915	-3.011100	3.273900	-9.857300	25.158770	-8.012823E-5	20.652752
1730.480184	-3.000700	3.272500	-9.819400	25.162795	-7.920437E-5	20.669596
1731.481443	-2.982000	3.273100	-9.759800	25.176271	-7.946833E-5	20.677910
1732.482788	-2.988700	3.273100	-9.781100	25.160388	-7.841249E-5	20.668129
1733.479973	-3.002300	3.272200	-9.823200	25.158991	-7.847848E-5	20.676210
1734.477453	-3.001200	3.271700	-9.818600	25.163273	-7.996325E-5	20.681931
1735.484505	-3.003800	3.272200	-9.828700	25.163820	-7.880843E-5	20.665884
1736.479828	-3.009400	3.271100	-9.843500	25.169916	-8.029320E-5	20.674375
1737.481355	-3.006600	3.272000	-9.836400	25.190049	-7.880843E-5	20.643849
1738.481941	-3.021100	3.270500	-9.879200	25.184393	-7.735665E-5	20.664726
1739.481077	-3.001700	3.269000	-9.811600	25.175520	-7.927036E-5	20.678579
1740.476802	-2.990400	3.268700	-9.773500	25.186956	-7.903940E-5	20.669196
1741.480238	-2.982300	3.268100	-9.745500	25.197005	-7.791757E-5	20.682606
1742.481988	-2.998600	3.268300	-9.800200	25.219826	-7.864346E-5	20.679912
1743.481724	-2.988300	3.268600	-9.767000	25.195771	-7.738965E-5	20.661450
1744.485368	-2.982500	3.267600	-9.744400	25.188888	-7.804955E-5	20.666394
1745.484440	-2.991200	3.267800	-9.772800	25.203062	-7.844549E-5	20.660235
1746.484029	-3.024400	3.266800	-9.879000	25.224416	-7.778559E-5	20.669346
1747.485703	-2.997400	3.265100	-9.785700	25.212961	-7.854447E-5	20.669700
1748.482131	-3.007000	3.266200	-9.820800	25.209384	-7.669675E-5	20.671324
1749.485016	-2.982900	3.266100	-9.741300	25.197281	-7.729066E-5	20.663440
1750.489142	-2.999600	3.266100	-9.796300	25.214912	-7.613584E-5	20.655062
1751.486965	-3.000100	3.265600	-9.796100	25.220032	-7.656477E-5	20.674428
1752.486565	-2.987000	3.265600	-9.753200	25.214175	-7.844549E-5	20.696999
1753.487811	-2.991900	3.265000	-9.767800	25.218129	-7.738965E-5	20.692434
1754.487606	-3.002200	3.263600	-9.796800	25.225490	-7.910539E-5	20.666631
1755.487542	-3.014300	3.262400	-9.832800	25.221478	-7.828051E-5	20.664500
1756.489314	-2.991200	3.261700	-9.755700	25.237812	-7.712569E-5	20.693230
1757.484945	-2.994800	3.261400	-9.766500	25.209507	-7.755462E-5	20.684725
1758.490262	-2.971600	3.262900	-9.694100	25.234965	-7.580589E-5	20.667135
1759.485265	-2.994200	3.261200	-9.763600	25.227566	-7.732366E-5	20.685312
1760.486764	-3.010200	3.261300	-9.815100	25.249422	-7.597086E-5	20.688290
1761.490588	-3.009600	3.261300	-9.814300	25.233415	-7.603685E-5	20.688340
1762.484820	-3.008700	3.260100	-9.807700	25.248906	-7.517899E-5	20.697255
1763.484446	-3.021100	3.260300	-9.848600	25.240064	-7.870945E-5	20.691223
1764.487862	-2.996300	3.259400	-9.765200	25.258760	-7.669675E-5	20.693398
1765.486519	-2.997600	3.259200	-9.768700	25.242236	-7.610284E-5	20.679178
1766.485274	-2.998100	3.258300	-9.767500	25.255516	-7.656477E-5	20.685399
1767.485664	-3.004400	3.259300	-9.791500	25.252191	-7.804955E-5	20.701502
1768.486224	-3.001400	3.258700	-9.779900	25.263802	-7.659777E-5	20.687080
1769.486591	-2.985000	3.257300	-9.722000	25.280734	-7.715868E-5	20.693649
1770.489008	-2.994500	3.257300	-9.753600	25.267813	-7.659777E-5	20.690159
1771.488446	-2.985300	3.255800	-9.717100	25.256906	-7.745564E-5	20.684898
1772.487845	-3.007400	3.256400	-9.792400	25.259992	-7.709269E-5	20.704593
1773.491997	-2.970700	3.258000	-9.677800	25.261635	-7.610284E-5	20.705294
1774.488013	-3.008100	3.256800	-9.796200	25.264997	-7.689472E-5	20.713886
1775.487141	-3.001300	3.254200	-9.766000	25.269644	-7.804955E-5	20.707646
1776.491490	-3.006600	3.254600	-9.783900	25.275015	-7.748863E-5	20.723945
1777.487828	-3.004600	3.254100	-9.776000	25.293162	-7.709269E-5	20.687635
1778.487672	-2.983500	3.253800	-9.706600	25.303854	-7.481604E-5	20.701216
1779.493392	-2.987400	3.252700	-9.716200	25.279032	-7.616883E-5	20.700001
1780.486965	-3.000700	3.253700	-9.762400	25.279693	-7.709269E-5	20.693553
1781.487254	-2.996500	3.253100	-9.745800	25.276041	-7.729066E-5	20.731140
1782.491587	-3.000700	3.251200	-9.754700	25.295806	-7.738965E-5	20.709258
1783.487679	-3.007200	3.250500	-9.773700	25.277621	-7.785158E-5	20.714233
1784.488107	-3.025700	3.250300	-9.833600	25.293772	-7.672975E-5	20.729028
1785.491637	-2.996900	3.250400	-9.740500	25.292476	-7.768660E-5	20.717294
1786.488335	-2.974800	3.251300	-9.670700	25.286166	-7.828051E-5	20.710958
1787.488196	-3.021600	3.248500	-9.814900	25.306045	-7.900640E-5	20.729496
1788.491392	-3.015100	3.248000	-9.791500	25.303885	-7.811554E-5	20.700773
1789.488006	-3.004300	3.250600	-9.765100	25.324940	-7.768660E-5	20.731399
1790.487990	-3.002800	3.249400	-9.755800	25.314457	-7.663076E-5	20.728458
1791.490261	-2.989900	3.249000	-9.713700	25.316043	-7.689472E-5	20.736216
1792.489553	-3.001300	3.248000	-9.747000	25.320816	-7.844549E-5	20.708290
1793.490163	-3.029000	3.247000	-9.833700	25.308437	-7.851148E-5	20.718147
1794.493494	-3.013600	3.246300	-9.782100	25.319425	-7.943533E-5	20.720644
1795.492332	-3.012800	3.246100	-9.779400	25.318701	-7.824752E-5	20.716598
1796.491816	-3.028700	3.245600	-9.829000	25.332100	-7.702670E-5	20.720568
1797.494761	-2.991400	3.246300	-9.710200	25.323694	-7.841249E-5	20.707386
1798.494312	-3.027300	3.245300	-9.823500	25.342067	-7.834650E-5	20.724886
1799.495968	-2.980900	3.245300	-9.672900	25.332521	-7.907239E-5	20.718621
1800.494432	-2.994900	3.245200	-9.718000	25.345574	-7.590487E-5	20.727460
1801.490860	-2.987900	3.244700	-9.694300	25.331652	-7.517899E-5	20.711584
1802.491903	-2.999300	3.244300	-9.729500	25.309980	-7.762061E-5	20.729654
1803.494255	-3.000500	3.243200	-9.730100	25.324122	-7.702670E-5	20.732473
1804.494666	-2.981200	3.243500	-9.668600	25.358116	-7.801655E-5	20.713974
1805.498203	-2.988800	3.243200	-9.692700	25.348181	-7.613584E-5	20.730551
1806.495743	-2.971200	3.242700	-9.633800	25.358192	-7.504701E-5	20.700773
1807.496882	-3.020000	3.242400	-9.790900	25.354213	-7.564092E-5	20.723806
1808.495884	-3.008000	3.241200	-9.747900	25.354906	-7.590487E-5	20.735882
1809.498655	-2.991900	3.241200	-9.696100	25.375016	-7.597086E-5	20.718615
1810.497425	-2.988700	3.239900	-9.681300	25.362115	-7.521198E-5	20.716567
1811.498200	-2.974400	3.240800	-9.638500	25.348546	-7.663076E-5	20.750834
1812.495528	-2.986000	3.238700	-9.670300	25.372806	-7.428812E-5	20.710231
1813.495192	-3.008100	3.240000	-9.745200	25.359313	-7.382619E-5	20.733668
1814.497531	-2.993800	3.239600	-9.697800	25.371194	-7.501401E-5	20.720941
1815.497191	-3.012900	3.239000	-9.757200	25.369531	-7.501401E-5	20.729230
1816.498066	-3.000100	3.237900	-9.712400	25.362096	-7.705970E-5	20.708486
1817.499825	-2.977900	3.238600	-9.643100	25.378805	-7.438711E-5	20.711988
1818.497178	-3.016600	3.236500	-9.762000	25.366924	-7.432112E-5	20.742260
1819.500378	-2.973300	3.237400	-9.625100	25.371382	-7.385919E-5	20.719708
1820.498432	-3.015700	3.236600	-9.759800	25.370557	-7.577289E-5	20.739744
1821.499828	-2.999900	3.236500	-9.708400	25.374555	-7.646579E-5	20.730007
1822.502306	-2.970600	3.236200	-9.612200	25.377917	-7.597086E-5	20.755195
1823.505145	-2.985700	3.235600	-9.659400	25.375455	-7.679574E-5	20.720479
1824.500476	-3.005000	3.234300	-9.717800	25.395918	-7.616883E-5	20.718266
1825.503185	-2.967800	3.233400	-9.595400	25.407691	-7.702670E-5	20.739573
1826.501339	-2.994200	3.234500	-9.683800	25.402623	-7.666376E-5	20.721206
1827.504366	-2.995400	3.232500	-9.682100	25.408818	-7.422213E-5	20.725530
1828.504351	-2.995900	3.232700	-9.684900	25.404071	-7.547594E-5	20.750637
1829.506666	-2.995900	3.232800	-9.684300	25.395666	-7.755462E-5	20.749783
1830.503463	-2.995800	3.230800	-9.677500	25.410103	-7.705970E-5	20.735830
1831.503741	-2.993400	3.232300	-9.674200	25.405280	-7.511300E-5	20.739522
1832.506194	-3.001900	3.231300	-9.699200	25.422109	-7.903940E-5	20.747887
1833.502235	-3.005000	3.230500	-9.706200	25.413956	-7.682873E-5	20.744915
1834.503870	-3.009600	3.228800	-9.716200	25.421561	-7.580589E-5	20.738327
1835.504136	-2.990900	3.229800	-9.657500	25.413629	-7.630081E-5	20.745535
1836.503937	-3.006000	3.229300	-9.707100	25.402000	-7.603685E-5	20.748083
1837.506539	-2.996800	3.228500	-9.674100	25.417482	-7.656477E-5	20.735179
1838.509837	-3.006900	3.227500	-9.703900	25.410172	-7.613584E-5	20.734951
1839.503469	-3.024400	3.226300	-9.756000	25.421681	-7.742264E-5	20.747931
1840.506538	-3.016200	3.227000	-9.732700	25.423866	-7.643279E-5	20.747754
1841.509439	-3.016400	3.227100	-9.733600	25.421134	-7.593787E-5	20.732207
1842.505720	-2.991400	3.226300	-9.650600	25.420334	-7.653178E-5	20.745630
1843.510068	-3.041700	3.223900	-9.804800	25.431541	-7.722467E-5	20.750245
1844.508690	-3.013700	3.224900	-9.718300	25.446701	-7.573990E-5	20.738442
1845.509183	-2.995300	3.225200	-9.659600	25.426221	-7.837950E-5	20.749171
1846.506797	-2.997000	3.224100	-9.661600	25.452387	-7.636680E-5	20.739883
1847.510288	-2.951300	3.225800	-9.518300	25.441451	-7.722467E-5	20.736488
1848.509804	-3.013200	3.222600	-9.709400	25.439040	-7.531097E-5	20.735489
1849.508222	-3.017700	3.221500	-9.720900	25.457002	-7.583888E-5	20.745466
1850.513277	-3.000300	3.223600	-9.670000	25.462347	-7.847848E-5	20.732815
1851.510354	-2.998200	3.222700	-9.661200	25.435829	-7.435411E-5	20.748387
1852.511220	-2.992400	3.221400	-9.638700	25.454716	-7.494802E-5	20.748387
1853.510612	-3.001900	3.219800	-9.663900	25.455088	-7.679574E-5	20.750657
1854.510380	-2.999300	3.219100	-9.653900	25.434507	-7.517899E-5	20.768397
1855.511761	-2.983400	3.220100	-9.605600	25.462586	-7.633381E-5	20.745384
1856.510957	-2.994900	3.219300	-9.640800	25.466855	-7.791757E-5	20.749197
1857.511365	-2.970400	3.219800	-9.563300	25.468202	-7.682873E-5	20.771413
1858.513725	-2.992300	3.218700	-9.630500	25.460396	-7.666376E-5	20.763100
1859.513951	-3.006600	3.218500	-9.675400	25.470934	-7.475005E-5	20.755665
1860.513329	-2.977200	3.217500	-9.578100	25.484174	-7.524498E-5	20.756158
1861.512403	-3.009200	3.216900	-9.679600	25.479434	-7.451909E-5	20.758035
1862.513365	-2.999300	3.214700	-9.639900	25.459180	-7.527797E-5	20.757612
1863.512594	-3.013600	3.215700	-9.689900	25.483702	-7.587188E-5	20.745726
1864.514378	-3.000200	3.215900	-9.647100	25.466780	-7.600386E-5	20.766191
1865.514172	-2.997900	3.215400	-9.638100	25.477218	-7.544295E-5	20.761026
1866.510819	-2.983600	3.215100	-9.592500	25.502715	-7.653178E-5	20.756284
1867.516204	-3.028300	3.213700	-9.731500	25.483923	-7.534396E-5	20.763492
1868.512456	-2.993800	3.213100	-9.618200	25.477016	-7.616883E-5	20.766040
1869.516290	-3.016800	3.211900	-9.687700	25.488468	-7.498102E-5	20.753832
1870.516165	-3.019900	3.210600	-9.694800	25.486926	-7.504701E-5	20.779784
1871.515847	-3.015100	3.211900	-9.683000	25.478005	-7.438711E-5	20.758972
1872.516326	-3.017600	3.211000	-9.688800	25.481134	-7.570691E-5	20.764485
1873.517926	-3.005000	3.210100	-9.645000	25.488563	-7.316629E-5	20.765781
1874.516120	-3.007000	3.209400	-9.649700	25.489407	-7.478305E-5	20.755722
1875.521529	-3.009600	3.209300	-9.657800	25.492712	-7.481604E-5	20.779905
1876.518526	-2.983000	3.209300	-9.572700	25.511051	-7.428812E-5	20.758017
1877.515554	-2.995300	3.209200	-9.611700	25.505561	-7.531097E-5	20.772419
1878.522098	-2.994300	3.209000	-9.608200	25.511919	-7.432112E-5	20.776908
1879.519071	-2.988700	3.208000	-9.586100	25.519870	-7.392518E-5	20.773513
1880.516780	-3.013400	3.206800	-9.661500	25.515319	-7.339726E-5	20.768943
1881.521199	-3.001200	3.206900	-9.623900	25.514797	-7.405716E-5	20.782169
1882.519145	-2.978100	3.206800	-9.548900	25.518404	-7.580589E-5	20.774411
1883.521616	-3.010200	3.205900	-9.648300	25.532046	-7.455208E-5	20.756342
1884.523325	-2.991800	3.204400	-9.586400	25.552348	-7.415614E-5	20.766774
1885.523726	-2.994700	3.204400	-9.594900	25.555326	-7.310030E-5	20.766920
1886.522429	-3.009100	3.202000	-9.634200	25.546134	-7.230842E-5	20.766224
1887.525847	-3.010400	3.203200	-9.641800	25.539871	-7.458508E-5	20.778900
1888.521205	-2.993500	3.202700	-9.585700	25.533808	-7.514599E-5	20.783243
1889.521763	-2.996900	3.203000	-9.598000	25.534747	-7.484904E-5	20.769961
1890.525525	-2.998700	3.200600	-9.596600	25.540293	-7.504701E-5	20.791652
1891.521691	-2.991000	3.202000	-9.576000	25.550661	-7.376020E-5	20.803486
1892.522075	-3.012800	3.200800	-9.642500	25.568199	-7.442010E-5	20.777478
1893.524512	-2.977800	3.199500	-9.526300	25.552442	-7.418914E-5	20.773981
1894.523232	-3.014900	3.199000	-9.643600	25.551353	-7.418914E-5	20.789957
1895.523932	-3.023300	3.199200	-9.670500	25.563106	-7.385919E-5	20.756715
1896.527169	-3.014100	3.198500	-9.639900	25.576105	-7.356223E-5	20.774986
1897.523998	-3.012500	3.198600	-9.634400	25.556887	-7.352924E-5	20.773703
1898.523542	-3.013300	3.197200	-9.633000	25.557812	-7.300132E-5	20.804979
1899.524873	-2.982700	3.197800	-9.536700	25.580430	-7.402416E-5	20.761786
1900.526946	-3.013800	3.195600	-9.629700	25.582293	-7.356223E-5	20.784520
1901.525964	-2.999500	3.196400	-9.586200	25.587934	-7.531097E-5	20.794926
1902.526064	-2.995500	3.197300	-9.576900	25.575010	-7.468406E-5	20.783844
1903.523406	-2.967000	3.195600	-9.480400	25.597225	-7.300132E-5	20.795723
1904.524576	-2.979900	3.195000	-9.519000	25.577837	-7.339726E-5	20.791898
1905.528522	-2.991700	3.192500	-9.550100	25.588702	-7.303431E-5	20.799965
1906.524498	-2.996800	3.192000	-9.564800	25.598069	-7.455208E-5	20.788035
1907.525422	-2.994600	3.192900	-9.560600	25.612157	-7.517899E-5	20.788434
1908.526514	-2.985100	3.192100	-9.527500	25.596356	-7.580589E-5	20.782048
1909.528577	-3.004400	3.190200	-9.583700	25.603357	-7.399117E-5	20.806148
1910.530841	-3.017000	3.190500	-9.625800	25.612528	-7.488203E-5	20.802557
1911.531745	-2.997400	3.190100	-9.561100	25.595683	-7.583888E-5	20.787062
1912.529609	-3.010100	3.189200	-9.599000	25.599309	-7.498102E-5	20.779324
1913.529000	-2.985800	3.189200	-9.522000	25.622763	-7.399117E-5	20.811889
1914.531713	-3.009300	3.188600	-9.593700	25.613227	-7.547594E-5	20.787612
1915.530165	-3.019900	3.187800	-9.626100	25.622342	-7.376020E-5	20.795818
1916.531118	-3.011900	3.185500	-9.593000	25.620579	-7.356223E-5	20.793099
1917.531029	-3.037300	3.186500	-9.677300	25.613844	-7.405716E-5	20.802930
1918.532478	-2.997100	3.186300	-9.549200	25.635636	-7.666376E-5	20.798265
1919.531468	-3.014400	3.185800	-9.602600	25.630865	-7.451909E-5	20.810068
1920.533844	-2.986600	3.185400	-9.512400	25.645953	-7.343025E-5	20.805307
1921.533095	-3.003300	3.183800	-9.560700	25.664591	-7.448609E-5	20.815017
1922.529839	-3.013200	3.182800	-9.589500	25.654356	-7.280335E-5	20.806160
1923.532956	-3.013400	3.183600	-9.591800	25.650774	-7.362822E-5	20.803037
1924.534291	-2.991100	3.183200	-9.520000	25.645015	-7.250639E-5	20.802468
1925.534553	-2.988600	3.183000	-9.512200	25.674284	-7.547594E-5	20.818589
1926.533509	-3.021400	3.180900	-9.610300	25.665686	-7.498102E-5	20.805686
1927.534465	-3.012600	3.179200	-9.576300	25.675732	-7.514599E-5	20.815301
1928.533067	-3.012300	3.178500	-9.573400	25.670910	-7.580589E-5	20.817097
1929.536493	-3.020800	3.179100	-9.602400	25.673541	-7.570691E-5	20.818317
1930.536545	-3.003900	3.180100	-9.552000	25.686665	-7.580589E-5	20.829602
1931.536242	-2.990000	3.177900	-9.500400	25.678570	-7.633381E-5	20.810566
1932.537947	-2.999900	3.177700	-9.532600	25.678941	-7.494802E-5	20.812836
1933.537472	-3.000900	3.176500	-9.531600	25.688012	-7.362822E-5	20.808195
1934.535839	-2.996400	3.176600	-9.517700	25.702394	-7.521198E-5	20.822167
1935.536034	-3.008500	3.176900	-9.556200	25.686023	-7.369421E-5	20.800508
1936.539571	-2.999600	3.176300	-9.526600	25.677305	-7.451909E-5	20.828735
1937.537898	-3.001900	3.175100	-9.530600	25.691417	-7.445310E-5	20.826788
1938.541915	-3.009500	3.173500	-9.549800	25.682768	-7.385919E-5	20.831852
1939.536374	-3.018400	3.172100	-9.573600	25.698196	-7.455208E-5	20.813209
1940.538252	-2.987800	3.172700	-9.477700	25.690618	-7.316629E-5	20.833097
1941.538496	-2.988800	3.172600	-9.480200	25.694199	-7.405716E-5	20.809194
1942.540057	-2.993300	3.172700	-9.495500	25.708632	-7.290233E-5	20.812311
1943.542202	-2.996400	3.170600	-9.499900	25.698366	-7.428812E-5	20.826656
1944.540417	-3.010300	3.169700	-9.540200	25.725721	-7.250639E-5	20.820941
1945.542389	-3.022000	3.169500	-9.577500	25.709526	-7.323228E-5	20.825062
1946.540378	-2.996900	3.169700	-9.498800	25.738944	-7.461807E-5	20.849395
1947.544076	-3.010300	3.168400	-9.537500	25.734986	-7.409015E-5	20.822660
1948.539378	-2.993700	3.168200	-9.483700	25.722517	-7.267137E-5	20.824835
1949.543544	-3.002000	3.166900	-9.506400	25.749751	-7.260538E-5	20.816155
1950.543552	-3.009700	3.167900	-9.533900	25.723958	-7.263837E-5	20.843352
1951.545013	-2.998700	3.165900	-9.493100	25.740078	-7.211046E-5	20.809757
1952.544603	-2.997700	3.166000	-9.490200	25.736849	-7.148355E-5	20.805092
1953.543559	-3.010200	3.165300	-9.527000	25.734061	-7.326528E-5	20.813197
1954.545944	-3.024000	3.164300	-9.568000	25.755725	-7.013076E-5	20.809827
1955.545402	-2.996600	3.162500	-9.475800	25.768426	-7.092264E-5	20.812627
1956.548158	-3.004000	3.163300	-9.501800	25.738882	-7.121959E-5	20.815668
1957.546856	-3.022300	3.162200	-9.556000	25.757834	-7.277035E-5	20.821902
1958.546633	-2.996700	3.163200	-9.478000	25.754951	-7.385919E-5	20.811420
1959.547803	-2.967100	3.161800	-9.380600	25.755895	-7.088964E-5	20.817110
1960.547313	-3.005700	3.160200	-9.497000	25.768817	-7.220944E-5	20.790735
1961.547272	-3.017500	3.159000	-9.531200	25.783123	-7.260538E-5	20.797518
1962.547732	-2.969400	3.159600	-9.381100	25.752610	-7.201147E-5	20.816655
1963.548487	-3.008300	3.157300	-9.497000	25.778522	-7.069167E-5	20.795742
1964.545347	-2.995800	3.157500	-9.458800	25.781676	-7.009776E-5	20.789427
1965.548251	-2.979100	3.157800	-9.406800	25.775564	-7.303431E-5	20.795616
1966.544785	-2.979500	3.156800	-9.404500	25.784457	-7.306731E-5	20.800282
1967.547796	-2.977400	3.156300	-9.396400	25.791261	-7.145056E-5	20.804271
1968.549820	-2.999300	3.155200	-9.461800	25.789493	-7.191249E-5	20.803443
1969.546155	-2.976900	3.153700	-9.387100	25.796303	-7.349624E-5	20.803645
1970.545801	-2.980600	3.153900	-9.399300	25.783356	-7.250639E-5	20.782580
1971.550440	-2.980700	3.153100	-9.397000	25.809167	-7.141756E-5	20.803291
1972.547069	-2.989400	3.151200	-9.419500	25.792344	-7.168152E-5	20.793031
1973.549113	-2.985000	3.151500	-9.406600	25.787756	-7.115360E-5	20.777516
1974.549880	-3.002000	3.150600	-9.456900	25.817337	-7.072467E-5	20.794902
1975.547030	-2.988800	3.150800	-9.416700	25.815795	-7.194548E-5	20.785293
1976.547421	-2.991000	3.148900	-9.417500	25.793830	-7.062568E-5	20.778402
1977.551220	-2.999600	3.149100	-9.445000	25.833008	-6.986680E-5	20.774609
1978.550091	-2.968600	3.148000	-9.344100	25.835569	-7.141756E-5	20.796622
1979.547149	-2.962800	3.149700	-9.331100	25.820830	-7.055969E-5	20.774230
1980.548686	-3.015600	3.145800	-9.485600	25.828231	-7.042771E-5	20.809640
1981.547910	-3.015800	3.145400	-9.484600	25.850793	-7.187949E-5	20.782044
1982.549198	-3.007000	3.145400	-9.457900	25.822020	-7.161553E-5	20.753613
1983.548854	-3.002100	3.145100	-9.441100	25.851586	-7.125259E-5	20.783314
1984.546470	-3.001900	3.144300	-9.438200	25.842291	-7.158254E-5	20.784883
1985.547035	-2.983300	3.143500	-9.377600	25.860719	-6.989979E-5	20.758349
1986.550707	-3.011700	3.142200	-9.462300	25.852575	-7.029573E-5	20.800903
1987.546070	-3.001100	3.142800	-9.431200	25.852556	-6.956984E-5	20.791400
1988.546461	-3.001000	3.142800	-9.430500	25.883400	-7.244040E-5	20.777815
1989.548576	-2.992300	3.142100	-9.401500	25.837968	-7.343025E-5	20.782436
1990.546645	-2.980800	3.140600	-9.359600	25.843972	-7.260538E-5	20.772346
1991.545521	-3.011300	3.138700	-9.450300	25.850335	-7.105462E-5	20.786798
1992.548113	-2.968900	3.140100	-9.321500	25.840026	-6.986680E-5	20.778339
1993.545964	-2.981700	3.137100	-9.353100	25.836722	-7.145056E-5	20.765063
1994.544653	-3.000900	3.136700	-9.412000	25.846042	-7.138457E-5	20.755459
1995.548049	-2.977900	3.136400	-9.338800	25.866187	-6.980081E-5	20.785654
1996.545802	-2.990900	3.136000	-9.378200	25.861984	-7.052670E-5	20.759620
1997.546144	-3.013600	3.135300	-9.447900	25.870706	-7.151655E-5	20.768382
1998.549676	-2.984500	3.133200	-9.350000	25.866949	-7.214345E-5	20.766030
1999.547200	-3.000100	3.134700	-9.403800	25.847597	-7.049370E-5	20.774091
2000.548205	-3.012300	3.132100	-9.433800	25.852915	-7.187949E-5	20.753828
2001.549387	-2.997000	3.131300	-9.382800	25.880587	-7.145056E-5	20.769773
2002.549233	-3.026600	3.130300	-9.473000	25.879196	-7.085665E-5	20.756048
2003.549177	-2.989800	3.130200	-9.357300	25.901550	-7.059269E-5	20.754796
2004.552186	-2.999600	3.128900	-9.384500	25.877900	-7.194548E-5	20.760910
2005.551524	-3.013300	3.128200	-9.425800	25.896710	-7.003177E-5	20.742347
2006.550810	-2.997000	3.127900	-9.374000	25.882173	-7.062568E-5	20.750503
2007.550331	-3.013900	3.126900	-9.423700	25.882022	-7.128558E-5	20.752248
2008.551321	-2.946500	3.127900	-9.215200	25.878567	-6.914091E-5	20.757787
2009.551733	-3.009000	3.125300	-9.402500	25.905647	-7.085665E-5	20.766499
2010.552246	-2.970800	3.126100	-9.286700	25.888032	-7.039472E-5	20.763502
2011.551980	-2.986600	3.123900	-9.329100	25.912972	-6.900893E-5	20.782867
2012.551880	-3.023500	3.121400	-9.435800	25.888353	-7.207746E-5	20.756238
2013.551851	-3.003000	3.122900	-9.377100	25.911123	-6.910791E-5	20.751611
2014.554410	-2.995200	3.124100	-9.356500	25.905409	-7.207746E-5	20.742551
2015.551589	-3.013200	3.121000	-9.403100	25.900418	-7.425513E-5	20.734692
2016.554391	-3.024900	3.120600	-9.438400	25.891866	-7.333127E-5	20.750757
2017.554571	-2.999400	3.118300	-9.352300	25.898574	-7.171452E-5	20.731892
2018.554618	-3.004300	3.120300	-9.373600	25.882571	-7.244040E-5	20.728143
2019.556673	-3.010000	3.120100	-9.390900	25.889500	-7.296832E-5	20.744587
2020.555715	-3.017200	3.118300	-9.407700	25.898292	-7.310030E-5	20.748204
2021.555060	-3.039600	3.117100	-9.473800	25.896870	-7.042771E-5	20.771432
2022.556488	-2.983500	3.116200	-9.296500	25.912124	-7.102162E-5	20.739340
2023.552603	-2.997700	3.115000	-9.337000	25.904919	-7.118660E-5	20.730204
2024.553150	-2.970800	3.115100	-9.254000	25.920564	-7.191249E-5	20.759673
2025.553727	-2.987300	3.115500	-9.305500	25.902603	-6.917390E-5	20.739733
2026.555659	-2.966400	3.114400	-9.237900	25.917751	-7.154954E-5	20.720810
2027.554928	-3.016500	3.112300	-9.387100	25.937222	-6.953685E-5	20.754123
2028.557226	-2.983000	3.111600	-9.280700	25.935032	-6.980081E-5	20.733430
2029.555073	-2.999000	3.111000	-9.329300	25.938934	-6.973482E-5	20.735927
2030.555603	-2.984100	3.108700	-9.275900	25.943849	-7.194548E-5	20.734227
2031.557572	-2.971000	3.110300	-9.239200	25.924920	-7.184650E-5	20.735599
2032.555197	-3.003200	3.109200	-9.337200	25.945183	-7.102162E-5	20.749319
2033.559944	-3.006000	3.108800	-9.343700	25.931817	-7.138457E-5	20.721191
2034.556210	-2.997800	3.107100	-9.313700	25.922302	-6.950385E-5	20.735340
2035.556647	-3.009200	3.105400	-9.343700	25.944265	-6.986680E-5	20.738438
2036.559769	-3.011500	3.104100	-9.346700	25.945605	-7.055969E-5	20.713705
2037.558767	-3.001600	3.104000	-9.316200	25.955359	-6.910791E-5	20.728247
2038.560806	-2.998200	3.103900	-9.304900	25.960853	-7.102162E-5	20.751311
2039.559042	-2.999300	3.101900	-9.302400	25.969172	-6.976781E-5	20.743547
2040.557507	-3.004600	3.102700	-9.321400	25.954220	-6.920690E-5	20.726154
2041.557591	-2.991500	3.101500	-9.276400	25.974263	-7.125259E-5	20.739178
2042.562417	-2.996800	3.100100	-9.289900	25.967234	-7.075766E-5	20.729271
2043.563747	-3.007600	3.099100	-9.319800	25.990731	-7.128558E-5	20.704987
2044.557054	-2.986900	3.099800	-9.257800	25.980298	-6.940487E-5	20.736706
2045.559941	-2.995600	3.098200	-9.280600	25.997187	-6.937187E-5	20.728070
2046.564744	-3.007500	3.097300	-9.314400	25.977441	-6.907492E-5	20.727198
2047.563657	-3.002200	3.097500	-9.297600	25.983029	-6.914091E-5	20.731389
2048.563508	-3.019700	3.094800	-9.344800	25.969443	-6.897593E-5	20.711101
2049.568112	-3.013100	3.096100	-9.327800	25.998106	-6.867898E-5	20.724251
2050.560153	-2.999200	3.095800	-9.283400	25.986528	-6.854700E-5	20.722576
2051.562495	-3.034200	3.092800	-9.383700	25.999812	-6.821705E-5	20.722646
2052.566025	-3.003100	3.092600	-9.286200	26.020633	-7.013076E-5	20.725548
2053.564789	-3.008300	3.092900	-9.303600	25.992216	-7.006477E-5	20.729714
2054.564466	-2.983400	3.090600	-9.219800	25.998647	-7.003177E-5	20.722425
2055.563619	-2.997000	3.090200	-9.259200	26.014096	-6.976781E-5	20.721350
2056.564092	-3.006100	3.090500	-9.288600	25.993406	-6.857999E-5	20.717632
2057.564476	-2.978100	3.088900	-9.198500	26.003562	-6.986680E-5	20.717879
2058.566156	-2.999300	3.087800	-9.259600	26.014316	-6.966883E-5	20.717778
2059.562832	-3.010700	3.086200	-9.290500	25.991166	-6.877796E-5	20.722020
2060.562751	-3.034300	3.083600	-9.354900	25.988133	-6.976781E-5	20.723715
2061.568533	-3.004800	3.084900	-9.268700	26.007690	-7.009776E-5	20.700688
2062.564545	-2.981800	3.082800	-9.191500	26.025051	-6.795309E-5	20.722399
2063.567330	-2.996700	3.083000	-9.237700	26.019759	-7.026274E-5	20.739369
2064.569236	-3.047600	3.080400	-9.386200	26.036874	-6.897593E-5	20.703931
2065.565517	-3.018100	3.080800	-9.297400	26.022118	-7.135157E-5	20.700486
2066.567218	-3.020200	3.079300	-9.299200	26.023755	-6.815106E-5	20.727736
2067.567406	-3.022200	3.078900	-9.304600	26.043903	-6.917390E-5	20.716684
2068.566159	-3.013600	3.077600	-9.274200	26.041895	-6.801908E-5	20.709925
2069.569509	-3.017800	3.078000	-9.287000	26.052353	-6.854700E-5	20.715217
2070.567320	-3.003700	3.076300	-9.239200	26.051157	-6.607238E-5	20.720180
2071.568111	-3.018400	3.075700	-9.282700	26.074482	-6.762314E-5	20.719908
2072.567809	-2.996000	3.074600	-9.210800	26.061992	-6.923989E-5	20.712099
2073.568950	-2.997100	3.074500	-9.213200	26.061369	-6.881096E-5	20.722380
2074.569280	-2.987900	3.073500	-9.182600	26.064547	-6.943786E-5	20.703286
2075.569797	-3.008900	3.071400	-9.240800	26.076647	-6.821705E-5	20.709280
2076.569138	-2.992400	3.070400	-9.186900	26.058758	-6.745817E-5	20.701737
2077.565646	-3.008600	3.069000	-9.232200	26.067856	-6.818406E-5	20.722259
2078.568334	-2.968100	3.070500	-9.112700	26.080221	-6.792010E-5	20.731838
2079.570218	-2.980200	3.068600	-9.143600	26.069071	-6.815106E-5	20.704987
2080.568777	-2.983300	3.068400	-9.152800	26.085512	-6.851401E-5	20.693530
2081.572307	-2.991700	3.067000	-9.174400	26.091867	-6.963583E-5	20.709400
2082.569681	-2.971000	3.066200	-9.109100	26.091792	-7.174751E-5	20.714540
2083.571911	-3.005500	3.064500	-9.209800	26.090678	-6.877796E-5	20.710102
2084.571848	-3.001000	3.064900	-9.196600	26.105181	-6.795309E-5	20.702388
2085.571973	-2.975000	3.064300	-9.115600	26.121074	-6.900893E-5	20.694175
2086.570731	-2.975200	3.064300	-9.114500	26.101607	-6.947086E-5	20.705436
2087.573379	-2.981100	3.060500	-9.122600	26.094372	-6.864598E-5	20.704804
2088.573211	-2.985100	3.059700	-9.132500	26.127354	-6.910791E-5	20.696218
2089.572441	-2.994200	3.059300	-9.159200	26.124850	-6.999878E-5	20.693227
2090.575800	-3.016900	3.058400	-9.225600	26.130267	-7.062568E-5	20.692506
2091.573451	-3.000000	3.056400	-9.168100	26.108730	-7.019675E-5	20.695522
2092.572955	-3.012000	3.056300	-9.204600	26.098719	-6.980081E-5	20.687834
2093.575176	-3.021100	3.055100	-9.228900	26.109467	-6.937187E-5	20.717601
2094.576008	-3.023600	3.053400	-9.231600	26.087168	-7.174751E-5	20.707997
2095.576168	-2.998900	3.052900	-9.154500	26.117690	-7.072467E-5	20.694094
2096.575248	-2.979700	3.052200	-9.094200	26.121862	-7.128558E-5	20.696389
2097.574923	-2.981100	3.051600	-9.095700	26.125165	-6.871197E-5	20.702553
2098.576653	-3.024700	3.049600	-9.222800	26.126731	-7.069167E-5	20.711240
2099.576072	-3.012100	3.048800	-9.182400	26.140781	-6.867898E-5	20.681259
2100.575756	-3.023600	3.047600	-9.214000	26.133281	-6.993279E-5	20.704545
2101.579915	-3.005100	3.047600	-9.157300	26.122906	-6.706223E-5	20.686058
2102.571311	-2.968900	3.046000	-9.042100	26.138182	-6.815106E-5	20.689080
2103.577691	-3.019600	3.044500	-9.193100	26.143864	-7.042771E-5	20.705222
2104.581958	-3.013000	3.043900	-9.170500	26.127449	-7.135157E-5	20.692994
2105.571746	-3.010900	3.042100	-9.158000	26.128688	-7.075766E-5	20.670529
2106.576266	-3.005000	3.042200	-9.141000	26.156278	-6.989979E-5	20.695409
2107.578957	-3.012600	3.040700	-9.159300	26.150967	-6.999878E-5	20.686753
2108.575814	-3.022000	3.038700	-9.182100	26.146399	-6.914091E-5	20.673153
2109.575224	-3.001800	3.039300	-9.122400	26.149646	-7.062568E-5	20.686849
2110.578612	-3.001800	3.037700	-9.117500	26.176178	-6.950385E-5	20.678420
2111.575152	-2.992000	3.036100	-9.082800	26.148457	-7.049370E-5	20.690869
2112.578913	-3.006400	3.036300	-9.127900	26.156460	-7.026274E-5	20.683263
2113.578004	-2.998500	3.034600	-9.098200	26.154265	-7.092264E-5	20.706664
2114.578792	-3.003100	3.033500	-9.108600	26.168767	-7.260538E-5	20.707960
2115.575764	-2.992000	3.032000	-9.071500	26.149501	-6.900893E-5	20.680538
2116.581299	-3.011700	3.031300	-9.128400	26.166558	-6.980081E-5	20.674443
2117.579139	-2.968400	3.029900	-8.993600	26.173882	-6.989979E-5	20.695081
2118.579588	-3.035300	3.027800	-9.189500	26.161714	-7.141756E-5	20.688543
2119.585692	-3.016700	3.026600	-9.130100	26.152623	-7.145056E-5	20.686994
2120.576577	-3.012800	3.025300	-9.113800	26.172265	-7.095563E-5	20.676385
2121.579662	-2.986800	3.026500	-9.038700	26.204301	-7.131858E-5	20.683922
2122.580417	-2.990800	3.023500	-9.041200	26.170151	-7.082365E-5	20.689909
2123.579530	-3.013100	3.022500	-9.106300	26.195953	-6.917390E-5	20.679800
2124.579742	-2.986800	3.022500	-9.026400	26.182722	-7.009776E-5	20.685471
2125.584294	-2.989100	3.021700	-9.031300	26.205661	-7.013076E-5	20.680072
2126.580470	-2.992700	3.020600	-9.038900	26.206378	-7.118660E-5	20.671783
2127.576436	-2.987400	3.018600	-9.017000	26.191078	-6.828304E-5	20.687704
2128.584680	-3.015300	3.017400	-9.097000	26.190832	-6.897593E-5	20.683189
2129.579683	-3.013700	3.015600	-9.087300	26.212481	-7.003177E-5	20.681710
2130.579988	-3.039200	3.014200	-9.159500	26.234085	-6.999878E-5	20.679238
2131.581906	-3.029100	3.014600	-9.130500	26.214117	-7.121959E-5	20.680983
2132.582192	-2.996500	3.011900	-9.023600	26.228713	-7.125259E-5	20.699920
2133.582140	-2.976900	3.011200	-8.963700	26.213218	-7.138457E-5	20.670595
2134.584712	-2.996100	3.010800	-9.019700	26.231715	-7.016375E-5	20.682071
2135.582847	-2.991900	3.009400	-9.003300	26.224637	-6.986680E-5	20.674010
2136.582431	-3.012700	3.007600	-9.060200	26.242838	-7.131858E-5	20.685663
2137.587820	-2.996600	3.006800	-9.008900	26.245839	-6.937187E-5	20.671608
2138.583533	-2.969700	3.006500	-8.927600	26.260289	-6.877796E-5	20.660998
2139.580954	-3.016500	3.004400	-9.060900	26.258377	-7.039472E-5	20.674251
2140.585606	-2.996200	3.003800	-8.998700	26.264756	-6.940487E-5	20.665488
2141.584903	-2.996200	3.002500	-8.995800	26.272331	-7.082365E-5	20.657926
2142.583935	-2.987800	3.000500	-8.964700	26.273891	-7.164853E-5	20.672772
2143.588326	-3.023300	2.999000	-9.065900	26.275005	-7.145056E-5	20.669149
2144.584202	-3.015100	2.996900	-9.034100	26.279597	-7.052670E-5	20.669497
2145.584723	-2.995900	2.998600	-8.982500	26.267204	-7.145056E-5	20.669371
2146.584123	-3.007000	2.994700	-9.003600	26.271772	-7.135157E-5	20.660209
2147.583505	-3.027200	2.994400	-9.063900	26.273936	-7.244040E-5	20.674239
2148.586805	-3.001000	2.994200	-8.984100	26.269186	-7.055969E-5	20.661405
2149.585992	-3.005200	2.992200	-8.991400	26.285915	-7.178051E-5	20.677743
2150.586961	-3.011100	2.990800	-9.005000	26.277453	-7.102162E-5	20.653116
2151.588820	-3.008200	2.989600	-8.992400	26.278170	-7.260538E-5	20.653362
2152.589993	-3.010800	2.987700	-8.994400	26.261807	-7.108761E-5	20.653514
2153.587431	-2.988600	2.987100	-8.926900	26.266124	-6.907492E-5	20.676346
2154.586811	-3.021300	2.985700	-9.019500	26.272327	-6.999878E-5	20.676890
2155.589049	-3.002800	2.984700	-8.961900	26.273346	-6.943786E-5	20.678863
2156.588847	-2.993200	2.983400	-8.929500	26.266961	-7.082365E-5	20.659642
2157.587589	-2.987300	2.982300	-8.908200	26.269923	-6.834903E-5	20.677320
2158.583880	-2.987100	2.981200	-8.904300	26.269345	-7.052670E-5	20.645441
2159.588735	-3.029500	2.978600	-9.022900	26.301328	-7.138457E-5	20.663834
2160.587824	-3.002300	2.979200	-8.943600	26.303190	-7.102162E-5	20.660963
2161.589114	-3.023100	2.975700	-8.993900	26.307782	-6.960284E-5	20.683599
2162.589697	-2.974700	2.975900	-8.851400	26.296012	-6.950385E-5	20.683150
2163.590989	-3.042400	2.973600	-9.045600	26.297548	-6.745817E-5	20.649602
2164.588577	-2.988600	2.972700	-8.883500	26.319993	-7.032873E-5	20.647503
2165.592413	-3.003800	2.972700	-8.928700	26.320622	-6.973482E-5	20.656196
2166.587134	-2.993800	2.971500	-8.894800	26.311777	-7.072467E-5	20.662956
2167.588831	-2.998000	2.968200	-8.897800	26.322774	-7.260538E-5	20.651246
2168.591087	-3.010500	2.967100	-8.931800	26.322026	-6.874497E-5	20.664720
2169.589333	-3.011500	2.965900	-8.931000	26.344426	-7.102162E-5	20.660680
2170.592083	-3.005900	2.964700	-8.910500	26.325970	-7.161553E-5	20.686705
2171.594884	-3.017300	2.963400	-8.940500	26.322768	-7.049370E-5	20.655508
2172.590768	-2.992100	2.961900	-8.861300	26.349856	-6.864598E-5	20.646694
2173.592054	-2.999200	2.960700	-8.878500	26.341684	-6.956984E-5	20.650337
2174.591606	-3.033200	2.959000	-8.973300	26.350969	-7.148355E-5	20.657772
2175.590834	-3.009200	2.957500	-8.897800	26.351064	-7.016375E-5	20.658342
2176.588152	-3.004100	2.955900	-8.879100	26.353077	-6.950385E-5	20.676014
2177.594240	-3.002400	2.953800	-8.867900	26.362965	-7.026274E-5	20.677891
2178.591219	-3.005000	2.954400	-8.877100	26.342000	-6.999878E-5	20.659189
2179.591516	-3.005800	2.952900	-8.875000	26.366759	-6.874497E-5	20.656097
2180.596236	-3.022000	2.951200	-8.917300	26.352259	-6.983380E-5	20.646739
2181.593724	-3.038600	2.949300	-8.960100	26.355374	-7.016375E-5	20.685910
2182.595751	-3.025200	2.948500	-8.918700	26.348549	-7.079066E-5	20.638742
2183.598686	-2.995200	2.948200	-8.829300	26.387832	-7.194548E-5	20.655466
2184.595741	-3.018900	2.944900	-8.889200	26.373894	-7.062568E-5	20.662320
2185.592937	-3.046600	2.945200	-8.971400	26.383184	-7.042771E-5	20.664546
2186.600322	-2.984300	2.944700	-8.787500	26.397010	-6.917390E-5	20.672753
2187.594451	-3.004200	2.942300	-8.837900	26.392544	-7.042771E-5	20.657831
2188.596236	-3.004400	2.941600	-8.836800	26.394746	-6.854700E-5	20.676642
2189.595649	-3.030900	2.940000	-8.909800	26.409522	-7.148355E-5	20.654031
2190.596389	-2.986100	2.939000	-8.775200	26.391595	-7.062568E-5	20.690071
2191.596494	-3.000300	2.937600	-8.812500	26.405521	-6.917390E-5	20.683205
2192.599826	-2.986300	2.936200	-8.767200	26.418158	-7.131858E-5	20.665558
2193.597355	-3.012300	2.934600	-8.838900	26.414510	-7.128558E-5	20.675643
2194.592775	-3.010000	2.932100	-8.824000	26.424984	-7.039472E-5	20.660089
2195.600398	-2.997100	2.931300	-8.785100	26.416536	-6.980081E-5	20.659186
2196.598672	-3.001100	2.929000	-8.789100	26.421008	-6.930588E-5	20.685494
2197.598088	-2.968100	2.929400	-8.692900	26.421480	-7.062568E-5	20.667475
2198.598731	-2.991400	2.926800	-8.754600	26.432752	-6.805208E-5	20.678331
2199.599934	-2.949900	2.927000	-8.633100	26.443722	-6.834903E-5	20.674658
2200.597284	-3.005600	2.924300	-8.788000	26.429802	-7.022974E-5	20.674417
2201.598723	-2.966700	2.923700	-8.672800	26.446056	-6.970182E-5	20.675581
2202.597625	-3.004000	2.919500	-8.769100	26.471510	-6.966883E-5	20.656119
2203.595650	-2.986200	2.920300	-8.719200	26.473517	-7.131858E-5	20.678527
2204.601989	-3.024500	2.917300	-8.822700	26.455340	-6.953685E-5	20.678274
2205.603497	-3.007500	2.916900	-8.771700	26.466190	-6.970182E-5	20.652667
2206.600301	-3.010500	2.913700	-8.770200	26.476493	-6.782111E-5	20.678673
2207.597856	-2.985800	2.913900	-8.698900	26.490368	-7.115360E-5	20.682663
2208.600209	-3.000500	2.913300	-8.740900	26.474008	-6.745817E-5	20.675227
2209.601505	-3.018000	2.909700	-8.780200	26.492978	-6.943786E-5	20.684812
2210.599777	-2.978200	2.910900	-8.668600	26.495777	-7.016375E-5	20.674823
2211.603835	-2.985900	2.907800	-8.681100	26.512810	-7.118660E-5	20.674399
2212.599041	-3.013500	2.905300	-8.754400	26.501262	-7.049370E-5	20.688872
2213.601587	-3.035700	2.904600	-8.816800	26.495080	-6.854700E-5	20.687399
2214.603910	-2.999300	2.902900	-8.705700	26.492330	-6.920690E-5	20.666616
2215.603829	-3.007800	2.901500	-8.726000	26.497885	-7.016375E-5	20.673622
2216.604853	-2.986600	2.899400	-8.657700	26.528943	-6.772213E-5	20.686350
2217.608982	-2.964500	2.898400	-8.590800	26.502331	-6.828304E-5	20.689947
2218.604619	-2.992400	2.896700	-8.667300	26.513798	-6.887695E-5	20.653579
2219.604794	-3.017700	2.894800	-8.734500	26.529830	-6.712822E-5	20.677283
2220.607315	-2.993200	2.893000	-8.658200	26.540509	-6.966883E-5	20.676638
2221.603128	-2.978300	2.891600	-8.611000	26.541006	-6.973482E-5	20.684725
2222.603641	-3.011600	2.889000	-8.699700	26.539887	-6.815106E-5	20.698300
2223.605993	-3.007400	2.887600	-8.683600	26.550094	-6.752416E-5	20.689119
2224.603392	-3.003000	2.886600	-8.666800	26.575465	-6.950385E-5	20.708460
2225.606537	-2.985100	2.883400	-8.606400	26.573974	-6.778812E-5	20.663335
2226.603733	-2.974600	2.884800	-8.579100	26.563346	-6.805208E-5	20.705761
2227.602444	-2.980100	2.882200	-8.588200	26.570497	-6.920690E-5	20.674539
2228.606777	-2.986400	2.879300	-8.597500	26.569397	-6.831604E-5	20.688608
2229.604349	-2.962800	2.878500	-8.527500	26.584321	-6.831604E-5	20.687963
2230.603813	-2.993600	2.875700	-8.607900	26.580226	-6.904192E-5	20.687166
2231.607934	-3.026600	2.874600	-8.698600	26.569352	-6.904192E-5	20.687615
2232.606137	-3.026400	2.871800	-8.690700	26.588295	-6.910791E-5	20.692907
2233.606557	-2.965700	2.871500	-8.514600	26.602270	-6.914091E-5	20.692256
2234.607433	-3.025400	2.868000	-8.675500	26.592013	-6.716121E-5	20.680047
2235.605837	-2.997900	2.866200	-8.591800	26.622822	-6.739218E-5	20.679725
2236.606164	-3.006900	2.865700	-8.616000	26.614603	-6.795309E-5	20.688532
2237.608896	-3.004400	2.863800	-8.603100	26.611918	-6.937187E-5	20.701007
2238.609523	-3.005500	2.862000	-8.600400	26.635055	-6.980081E-5	20.704352
2239.606035	-3.016600	2.859500	-8.625300	26.629967	-6.805208E-5	20.688330
2240.608509	-2.988700	2.858500	-8.542100	26.633288	-6.732619E-5	20.715379
2241.610164	-2.991000	2.857000	-8.544300	26.659103	-6.867898E-5	20.690120
2242.610534	-2.988700	2.854700	-8.531400	26.664813	-6.805208E-5	20.708664
2243.612321	-2.988000	2.853400	-8.523900	26.676554	-6.874497E-5	20.684904
2244.612325	-2.987400	2.851700	-8.518000	26.702073	-6.828304E-5	20.689222
2245.608073	-2.988600	2.849700	-8.515900	26.684717	-6.917390E-5	20.684101
2246.613380	-3.002100	2.846600	-8.544600	26.676951	-6.923989E-5	20.681035
2247.612536	-3.002000	2.844100	-8.537200	26.710361	-6.854700E-5	20.707514
2248.612810	-2.977800	2.844600	-8.468900	26.694898	-6.986680E-5	20.702873
2249.616635	-3.001900	2.842200	-8.531300	26.685510	-6.986680E-5	20.699124
2250.616049	-2.974500	2.839900	-8.446600	26.696754	-6.792010E-5	20.688142
2251.616271	-3.007500	2.836800	-8.530500	26.700778	-6.861299E-5	20.698827
2252.621141	-3.026200	2.834100	-8.574700	26.726371	-6.867898E-5	20.693737
2253.619920	-2.996800	2.833400	-8.490100	26.714801	-6.940487E-5	20.703917
2254.616064	-3.036600	2.829500	-8.591300	26.728824	-6.844802E-5	20.718490
2255.617041	-2.990500	2.829800	-8.461500	26.734213	-6.844802E-5	20.712054
2256.617910	-3.027000	2.827500	-8.557400	26.735307	-6.617136E-5	20.709834
2257.620925	-2.985500	2.825300	-8.433500	26.719593	-6.778812E-5	20.699725
2258.623446	-2.992800	2.823500	-8.449300	26.755380	-6.937187E-5	20.704885
2259.620461	-2.991700	2.821800	-8.440900	26.750443	-6.541248E-5	20.710353
2260.623240	-3.073500	2.817600	-8.658200	26.735156	-6.867898E-5	20.714899
2261.624222	-3.020900	2.816300	-8.507400	26.751562	-6.831604E-5	20.703417
2262.625828	-2.957000	2.817000	-8.328900	26.749802	-6.798609E-5	20.716347
2263.624595	-2.987600	2.813600	-8.404100	26.771395	-6.917390E-5	20.697278
2264.622243	-3.013100	2.810100	-8.466700	26.786907	-6.795309E-5	20.693908
2265.627868	-3.004800	2.808100	-8.437300	26.792396	-6.894294E-5	20.709385
2266.625232	-3.018500	2.806300	-8.470100	26.798156	-6.759015E-5	20.698580
2267.623409	-3.009400	2.803800	-8.436600	26.785172	-6.749116E-5	20.718717
2268.630153	-3.028500	2.801900	-8.484700	26.813964	-6.666629E-5	20.700724
2269.625805	-3.026400	2.800100	-8.473300	26.812203	-6.831604E-5	20.717446
2270.627933	-2.962100	2.799000	-8.290200	26.818063	-6.851401E-5	20.725235
2271.625512	-3.010700	2.796000	-8.417100	26.836574	-6.811807E-5	20.721088
2272.626824	-3.002400	2.794200	-8.388400	26.831462	-6.890994E-5	20.712155
2273.623817	-3.053500	2.790800	-8.521000	26.823968	-6.950385E-5	20.709834
2274.629107	-2.987800	2.789000	-8.331500	26.850526	-6.815106E-5	20.704770
2275.627913	-3.002400	2.787500	-8.368300	26.851815	-6.669928E-5	20.738785
2276.624986	-3.003900	2.784200	-8.361800	26.867302	-6.765614E-5	20.729225
2277.632141	-3.016400	2.781400	-8.388400	26.858342	-6.910791E-5	20.712155
2278.629525	-3.000300	2.779200	-8.337300	26.875513	-6.808507E-5	20.704764
2279.631106	-3.006700	2.777600	-8.350400	26.890408	-7.171452E-5	20.708361
2280.634496	-3.001700	2.777000	-8.334100	26.884177	-6.762314E-5	20.729598
2281.631341	-2.997300	2.774000	-8.313400	26.902386	-6.887695E-5	20.702861
2282.630528	-3.019400	2.770600	-8.364500	26.897651	-6.801908E-5	20.715645
2283.633210	-3.029800	2.766800	-8.381800	26.897581	-6.857999E-5	20.721265
2284.634823	-2.984600	2.766200	-8.255300	26.908968	-6.798609E-5	20.735561
2285.634598	-2.949100	2.763700	-8.149400	26.898047	-6.923989E-5	20.731691
2286.636379	-2.989200	2.761500	-8.253200	26.915218	-6.623735E-5	20.729043
2287.637072	-3.008900	2.758100	-8.297900	26.959938	-6.445563E-5	20.719483
2288.634830	-2.994000	2.755900	-8.249200	26.931326	-6.864598E-5	20.724377
2289.636774	-3.005900	2.751500	-8.269300	26.933086	-6.610537E-5	20.722828
2290.638201	-2.991800	2.750900	-8.229400	26.976541	-6.841502E-5	20.718636
2291.633706	-2.974700	2.748700	-8.175400	26.971921	-6.792010E-5	20.737699
2292.636749	-2.985300	2.745100	-8.193300	26.979415	-6.663329E-5	20.707774
2293.637933	-3.001700	2.742900	-8.232400	26.988890	-6.785411E-5	20.718251
2294.637111	-2.977700	2.739800	-8.157400	26.978712	-6.732619E-5	20.726035
2295.639400	-2.993200	2.737800	-8.194300	27.007900	-6.683126E-5	20.724093
2296.638151	-2.998700	2.735000	-8.200700	27.006952	-6.801908E-5	20.733097
2297.638277	-2.995300	2.732000	-8.182300	27.006581	-6.683126E-5	20.716602
2298.638775	-3.013400	2.728100	-8.219300	27.012830	-6.514852E-5	20.747070
2299.638427	-2.983600	2.726500	-8.133300	27.031439	-6.805208E-5	20.731643
2300.635415	-3.001300	2.723400	-8.173000	27.018418	-6.726020E-5	20.730878
2301.638631	-3.005400	2.719900	-8.173100	27.038316	-6.788710E-5	20.723860
2302.639441	-3.044700	2.714600	-8.263100	27.029062	-6.811807E-5	20.725934
2303.640623	-3.003500	2.713600	-8.148900	27.052365	-6.821705E-5	20.752690
2304.641354	-3.018600	2.709800	-8.179100	27.039133	-6.970182E-5	20.751236
2305.639189	-2.973500	2.708700	-8.052900	27.051191	-6.821705E-5	20.730170
2306.640443	-3.019100	2.704400	-8.163400	27.064121	-6.798609E-5	20.757875
2307.642292	-3.015700	2.701300	-8.145100	27.067396	-6.910791E-5	20.734141
2308.638874	-3.006700	2.697700	-8.109800	27.096106	-6.716121E-5	20.760170
2309.636413	-3.013400	2.694700	-8.118800	27.066057	-6.818406E-5	20.743700
2310.638726	-3.014700	2.691400	-8.113000	27.089505	-6.759015E-5	20.755428
2311.640039	-3.047800	2.686400	-8.186900	27.100845	-6.792010E-5	20.723683
2312.639947	-2.992800	2.685300	-8.035400	27.104667	-6.782111E-5	20.734166
2313.642001	-3.006400	2.680100	-8.056000	27.123550	-6.927289E-5	20.743200
2314.635782	-3.017300	2.675700	-8.071600	27.132363	-6.864598E-5	20.753486
2315.640080	-3.002900	2.673000	-8.025600	27.126580	-6.580842E-5	20.741506
2316.643573	-3.024400	2.669300	-8.072600	27.146776	-7.088964E-5	20.754233
2317.639608	-2.951600	2.667600	-7.872800	27.146827	-6.663329E-5	20.738636
2318.636182	-3.007200	2.663700	-8.009500	27.174270	-6.739218E-5	20.730675
2319.639698	-2.989300	2.659000	-7.947400	27.150523	-6.603938E-5	20.745672
2320.641608	-2.991500	2.654400	-7.939800	27.160473	-6.755715E-5	20.741929
2321.640337	-2.956500	2.653300	-7.843400	27.157053	-6.808507E-5	20.739912
2322.643600	-3.017900	2.648100	-7.991400	27.183874	-6.574243E-5	20.761199
2323.642060	-2.985500	2.642700	-7.889000	27.190965	-6.861299E-5	20.736088
2324.641737	-2.977400	2.640400	-7.859700	27.178884	-6.805208E-5	20.754283
2325.641656	-3.000900	2.635100	-7.906900	27.209475	-6.630334E-5	20.739059
2326.643808	-3.000600	2.631900	-7.895800	27.212203	-6.910791E-5	20.766460
2327.644341	-2.997900	2.626700	-7.873800	27.211462	-7.075766E-5	20.728728
2328.643343	-3.003300	2.622400	-7.874800	27.237489	-6.818406E-5	20.754435
2329.642217	-3.083900	2.617100	-8.068600	27.240248	-6.577542E-5	20.766693
2330.646335	-3.022800	2.613100	-7.897900	27.235603	-6.841502E-5	20.764392
2331.646100	-3.008100	2.610300	-7.851100	27.266049	-6.706223E-5	20.756609
2332.645643	-3.033800	2.605100	-7.903000	27.259324	-6.643532E-5	20.754586
2333.649927	-3.015300	2.601300	-7.842400	27.275671	-6.699624E-5	20.777669
2334.646003	-3.004500	2.597500	-7.803800	27.291913	-6.666629E-5	20.748961
2335.645686	-3.008400	2.593000	-7.799800	27.273805	-6.676527E-5	20.768205
2336.648203	-3.032700	2.587000	-7.845200	27.307543	-6.564344E-5	20.758520
2337.646195	-2.995900	2.583300	-7.737200	27.305658	-6.650131E-5	20.754252
2338.644254	-3.022500	2.578000	-7.791400	27.320289	-6.712822E-5	20.783670
2339.648572	-2.996300	2.573700	-7.710700	27.323940	-6.521451E-5	20.774066
2340.648107	-2.993600	2.569000	-7.689800	27.330980	-6.656730E-5	20.763130
2341.648151	-2.969600	2.565900	-7.618700	27.325725	-6.531349E-5	20.766853
2342.653469	-3.013100	2.558900	-7.709300	27.327134	-6.557745E-5	20.764950
2343.648057	-3.056900	2.553600	-7.804600	27.344303	-6.656730E-5	20.771791
2344.649649	-3.023000	2.550100	-7.707500	27.368933	-6.603938E-5	20.767170
2345.652242	-2.982200	2.545300	-7.590000	27.347918	-6.627035E-5	20.768789
2346.650145	-2.983200	2.541300	-7.580400	27.385505	-6.462060E-5	20.773884
2347.649153	-3.001100	2.534500	-7.605500	27.387956	-6.643532E-5	20.768763
2348.648622	-2.998000	2.529400	-7.582600	27.388322	-6.620436E-5	20.777666
2349.646993	-2.971800	2.525300	-7.504000	27.375571	-6.475258E-5	20.756777
2350.648996	-3.026800	2.518300	-7.620800	27.392268	-6.594040E-5	20.777843
2351.652046	-2.967800	2.513800	-7.459700	27.398892	-6.603938E-5	20.786403
2352.647835	-3.005700	2.508600	-7.539500	27.416651	-6.772213E-5	20.784354
2353.650200	-3.001700	2.502800	-7.510900	27.429968	-6.521451E-5	20.762664
2354.655567	-3.000100	2.498000	-7.492500	27.461495	-6.666629E-5	20.779683
