LabVIEW Measurement	
Writer_Version	2
Reader_Version	2
Separator	Tab
Decimal_Separator	.
Multi_Headings	No
X_Columns	One
Time_Pref	Absolute
Operator	admin
Description	Clolumns are: time, Current, Voltage, Power, Battery Temp, and Chamber Temp
Date	1903/12/31
Time	19:00:00
***End_of_Header***	
	
0.000000	-0.002359	4.144700	-0.009688	29.612839	29.294918
0.198950	-0.004195	4.146500	-0.017261	29.591688	29.294322
1.200616	0.002141	4.145000	0.008912	29.569634	29.288051
2.187290	0.003774	4.146500	0.015686	29.583499	29.303021
3.188070	-0.003504	4.147400	-0.014428	29.594476	29.287932
4.187482	0.000644	4.146200	0.002715	29.574185	29.290033
5.187094	-0.000500	4.146900	-0.002002	29.587038	29.281961
6.185806	-0.000634	4.146400	-0.002517	29.571935	29.277134
7.224338	0.004008	4.146200	0.016703	29.571093	29.270418
8.186234	-0.000944	4.146700	-0.003843	29.571323	29.267343
9.195788	0.003060	4.146600	0.012778	29.560978	29.258097
10.187041	-0.002778	4.147600	-0.011335	29.556273	29.265140
11.187129	-0.001868	4.146400	-0.007567	29.555142	29.260337
12.185441	0.001147	4.146600	0.004751	29.540062	29.259206
13.184510	-0.001070	4.146600	-0.004391	29.540380	29.248510
14.189351	0.003647	4.146400	0.015261	29.535338	29.254481
15.186152	-0.003114	4.145800	-0.012743	29.534453	29.247722
16.188093	0.004796	4.146800	0.020016	29.530782	29.253596
17.185629	-0.002659	4.146000	-0.010843	29.541567	29.236478
18.198166	-0.004275	4.145700	-0.017566	29.517586	29.214694
19.187253	0.005316	4.145900	0.022142	29.528665	29.230549
20.187440	0.000806	4.146300	0.003381	29.515624	29.242474
21.188334	0.001302	4.146600	0.005542	29.520469	29.224187
22.199438	0.002775	4.146000	0.011604	29.511021	29.219877
23.186012	-0.003145	4.144900	-0.012980	29.482628	29.200657
24.186193	0.003892	4.146600	0.016197	29.501085	29.201493
25.187257	0.000668	4.147600	0.002865	29.513861	29.199585
26.184446	-0.003151	4.146100	-0.012924	29.489656	29.186757
27.202273	-0.000169	4.145700	-0.000642	29.496355	29.206310
28.187757	0.002218	4.146800	0.009272	29.487641	29.190249
29.186647	0.003333	4.146500	0.013856	29.481942	29.176103
30.187322	0.001331	4.147000	0.005642	29.473083	29.171281
31.186134	0.002342	4.146600	0.009836	29.454090	29.185698
32.185905	-0.001154	4.146400	-0.004635	29.455973	29.160410
33.187138	0.003434	4.146100	0.014248	29.462316	29.174465
34.197092	-0.000386	4.146100	-0.001467	29.448666	29.160812
35.186617	0.003788	4.147000	0.015874	29.451622	29.147244
36.196350	-0.001352	4.147300	-0.005575	29.447048	29.157357
37.186985	0.002424	4.146400	0.010136	29.439928	29.127101
38.188224	0.002642	4.146500	0.011008	29.435552	29.131905
39.187519	0.002231	4.145400	0.009299	29.418839	29.121062
40.188291	0.004406	4.145900	0.018310	29.417201	29.126769
41.185599	0.006585	4.147200	0.027419	29.436412	29.140109
42.185663	0.006549	4.145500	0.027279	29.410984	29.122754
43.187758	0.004394	4.145500	0.018312	29.402179	29.120556
44.186013	0.005207	4.145000	0.021702	29.408203	29.114096
45.199302	0.004542	4.146400	0.018916	29.402624	29.095296
46.187001	0.002148	4.144900	0.008912	29.418579	29.104278
47.187144	0.003710	4.146100	0.015435	29.396900	29.096547
48.185585	0.004896	4.144900	0.020327	29.390026	29.093712
49.187654	0.005120	4.145200	0.021280	29.382568	29.092495
50.186450	0.003657	4.146900	0.015288	29.392631	29.090809
51.186752	0.002530	4.145800	0.010530	29.392047	29.072965
52.196024	-0.000821	4.145700	-0.003371	29.375526	29.057541
53.186503	0.001696	4.145200	0.007114	29.379565	29.053869
54.199171	-0.001567	4.145500	-0.006467	29.378005	29.051942
55.186452	-0.002533	4.145400	-0.010483	29.366648	29.065553
56.184961	0.003514	4.145200	0.014658	29.344673	29.045776
57.186929	-0.003645	4.146500	-0.015103	29.361929	29.050183
58.187346	-0.002142	4.146100	-0.008859	29.338298	29.022506
59.186440	-0.000429	4.146000	-0.001729	29.331593	29.037467
60.186295	-0.000348	4.146400	-0.001441	29.322618	29.012698
61.185513	0.002339	4.146100	0.009718	29.333289	29.014559
62.186269	-0.002131	4.146800	-0.008874	29.311260	29.011621
63.198744	0.000339	4.146900	0.001433	29.325464	29.008568
64.185294	-0.000626	4.146500	-0.002554	29.324020	29.000145
65.185243	0.001641	4.145800	0.006794	29.299841	28.991017
66.186996	0.001395	4.146800	0.005835	29.300171	28.995387
67.186326	-0.000960	4.146300	-0.003973	29.306461	28.969360
68.186371	-0.000410	4.145500	-0.001651	29.300616	28.963881
69.185986	-0.001942	4.145600	-0.008019	29.295915	28.963218
70.185164	-0.001073	4.145600	-0.004440	29.305395	28.974170
71.186463	-0.001011	4.144600	-0.004189	29.293916	28.960117
72.199049	0.006298	4.147300	0.026235	29.293308	28.960243
73.200377	-0.001448	4.146200	-0.005937	29.288396	28.962308
74.184938	-0.001535	4.145700	-0.006346	29.277531	28.937483
75.185720	-0.001649	4.146300	-0.006831	29.283448	28.933119
76.186117	-2.630000E-5	4.145500	-7.460000E-5	29.258642	28.936953
77.201132	-0.001677	4.146800	-0.006865	29.277103	28.924568
78.185509	-0.002421	4.145600	-0.009976	29.260484	28.930348
79.188064	0.006556	4.145400	0.027259	29.263011	28.919287
80.198419	0.003638	4.146200	0.015133	29.253146	28.921906
81.187342	-0.002137	4.146500	-0.008788	29.234798	28.899513
82.184370	0.000414	4.145100	0.001740	29.235291	28.886049
83.185461	-0.001115	4.146600	-0.004660	29.220508	28.881178
84.187500	0.003018	4.146600	0.012633	29.203430	28.891275
85.201106	-0.002140	4.145900	-0.008825	29.215185	28.891648
86.188794	0.005191	4.144800	0.021658	29.205416	28.868286
87.189889	0.000118	4.145700	0.000624	29.190096	28.879407
88.186090	0.000809	4.145800	0.003342	29.178959	28.868267
89.214927	-0.001175	4.146700	-0.004745	29.195236	28.858471
90.206934	0.002951	4.145900	0.012264	29.201141	28.857031
91.186892	-0.000938	4.146600	-0.003871	29.191184	28.862131
92.188073	-0.000380	4.146300	-0.001505	29.185218	28.835961
93.208141	0.002485	4.146400	0.010322	29.177748	28.840610
94.186937	-0.001388	4.145600	-0.005717	29.176478	28.825382
95.186318	-0.002774	4.146300	-0.011479	29.167966	28.841109
96.192520	0.000941	4.146500	0.003999	29.152639	28.817698
97.185327	0.004060	4.146500	0.016890	29.165178	28.817017
98.187148	0.000806	4.145600	0.003340	29.161193	28.815235
99.212430	-0.001234	4.144800	-0.004938	29.165913	28.799019
100.186913	0.003703	4.146900	0.015422	29.152458	28.803191
101.186224	0.001668	4.146800	0.006946	29.144987	28.769639
102.212013	-0.001582	4.146600	-0.006432	29.138799	28.768223
103.186108	0.004477	4.146200	0.018726	29.141857	28.769078
104.186209	0.002342	4.145800	0.009756	29.150260	28.766097
105.192086	0.001364	4.146900	0.005713	29.128426	28.761888
106.185993	0.001762	4.146000	0.007400	29.135186	28.759467
107.187323	0.005701	4.146400	0.023749	29.118921	28.739890
108.205582	0.005577	4.146000	0.023216	29.121082	28.742052
109.186068	0.003405	4.147500	0.014221	29.114008	28.739017
110.187008	0.005657	4.147200	0.023620	29.112786	28.725305
111.204856	0.007910	4.145300	0.032923	29.112936	28.711863
112.185922	-0.002744	4.145900	-0.011229	29.091168	28.709190
113.184144	-0.004097	4.147100	-0.016863	29.086821	28.712555
114.188466	0.003085	4.146200	0.012909	29.069440	28.717578
115.185805	-0.004327	4.147300	-0.017791	29.080969	28.705232
116.206697	0.002048	4.146900	0.008581	29.069783	28.687798
117.186527	-0.002075	4.145800	-0.008445	29.074930	28.682661
118.186200	-0.000194	4.146900	-0.000612	29.061932	28.665985
119.190106	-0.001327	4.145800	-0.005505	29.041836	28.688496
120.186548	-0.001619	4.145800	-0.006634	29.051806	28.692223
121.190762	-0.000957	4.146600	-0.003961	29.049163	28.652109
122.189916	0.003458	4.146600	0.014369	29.056266	28.665460
123.186423	-0.002104	4.146000	-0.008564	29.048356	28.662690
124.184827	0.000326	4.145100	0.001430	29.043955	28.651308
125.205586	0.002200	4.146400	0.009163	29.048608	28.647881
126.186688	-0.001200	4.144800	-0.004828	29.033112	28.648543
127.186145	-0.001604	4.145300	-0.006473	29.036766	28.627217
128.189043	0.002572	4.145900	0.010735	29.026627	28.626627
129.188333	-7.350000E-5	4.145800	-0.000126	29.037446	28.627898
130.188583	-0.003517	4.144800	-0.014363	29.029300	28.615708
131.188788	-0.001129	4.147600	-0.004501	29.016549	28.603320
132.187166	-0.000724	4.147000	-0.002930	29.005947	28.610348
133.186982	0.000926	4.145500	0.003851	29.028030	28.606722
134.209453	0.004436	4.145300	0.018507	29.025880	28.610817
135.185659	0.003312	4.147000	0.013758	29.007668	28.600314
136.186013	0.006757	4.145700	0.027995	28.991063	28.592888
137.192145	0.007863	4.145200	0.032674	28.995651	28.591599
138.186421	0.002659	4.145900	0.011008	28.991147	28.576440
139.184572	-0.002783	4.146100	-0.011432	29.003484	28.589515
140.192594	0.004268	4.146200	0.017735	28.982387	28.572452
141.187602	0.003666	4.145200	0.015252	28.988678	28.565520
142.186380	0.002134	4.147000	0.008826	28.992598	28.565399
143.202702	-0.001988	4.145500	-0.008184	28.984692	28.550143
144.184464	-0.002474	4.145900	-0.010176	28.980875	28.549631
145.188130	0.002106	4.146800	0.008777	28.972693	28.542916
146.191199	-0.002370	4.146900	-0.009687	28.982007	28.543415
147.190507	-0.002996	4.146200	-0.012316	28.961247	28.554244
148.186902	0.000408	4.146600	0.001684	28.966040	28.547282
149.191777	0.000228	4.145600	0.001120	28.970820	28.530755
150.185989	0.000177	4.147100	0.000801	28.960266	28.533423
151.186384	-0.001100	4.146000	-0.004472	28.959236	28.525780
152.211525	0.002965	4.145900	0.012424	28.960272	28.517263
153.186393	0.004008	4.147200	0.016658	28.962764	28.520859
154.184409	-0.000534	4.145400	-0.002077	28.952848	28.524901
155.194952	-0.003461	4.144500	-0.014313	28.949736	28.516276
156.184850	-0.001879	4.145300	-0.007728	28.955004	28.502440
157.189161	0.002827	4.145400	0.011751	28.940650	28.499839
158.190683	0.003693	4.145000	0.015361	28.942034	28.489466
159.185534	-0.000348	4.146400	-0.001348	28.928914	28.493242
160.186154	-0.000923	4.146900	-0.003808	28.934225	28.495248
161.210546	0.002535	4.145800	0.010586	28.932539	28.472986
162.186489	0.003604	4.146100	0.014977	28.950216	28.494345
163.214751	0.003311	4.146200	0.013819	28.927499	28.467945
164.195270	-0.000753	4.145000	-0.003095	28.921797	28.467017
165.185874	0.004869	4.146500	0.020170	28.912272	28.478798
166.186959	0.004306	4.146700	0.017831	28.909165	28.464300
167.189482	0.003625	4.144600	0.015097	28.916540	28.463228
168.184405	-0.000307	4.146600	-0.001191	28.910345	28.464011
169.185753	0.004995	4.146800	0.020689	28.912307	28.455686
170.203518	0.002056	4.144900	0.008560	28.927414	28.463450
171.184934	0.000426	4.145600	0.001777	28.919924	28.454120
172.186702	0.006161	4.146000	0.025529	28.907364	28.460294
173.194647	0.001085	4.145000	0.004574	28.905413	28.441440
174.185183	0.004474	4.145800	0.018591	28.907568	28.448373
175.191222	0.001479	4.145100	0.006169	28.911668	28.447698
176.194930	0.003408	4.146000	0.014111	28.912770	28.430796
177.187736	-0.002970	4.146400	-0.012158	28.901818	28.432333
178.191723	0.001334	4.146200	0.005528	28.895634	28.419165
179.210708	0.004276	4.146500	0.017797	28.898253	28.420683
180.185160	0.004546	4.146300	0.018810	28.893899	28.423676
181.185288	0.000253	4.145300	0.001067	28.917459	28.417116
182.194731	-0.002263	4.146600	-0.009312	28.898680	28.424784
183.185497	-0.002473	4.145800	-0.010149	28.901690	28.428163
184.184382	0.002396	4.146100	0.010010	28.891291	28.417760
185.189330	0.005098	4.145200	0.021271	28.885686	28.415092
186.184071	0.001234	4.144400	0.005124	28.901949	28.405273
187.185461	-0.003766	4.145800	-0.015460	28.896758	28.411839
188.208639	-0.000489	4.146500	-0.001916	28.897710	28.413525
189.185374	-0.002016	4.146000	-0.008214	28.887775	28.406893
190.186234	-0.002442	4.145800	-0.009945	28.900925	28.382937
191.190392	-0.002645	4.146500	-0.010970	28.900665	28.412073
192.185745	-0.001721	4.145100	-0.007004	28.908011	28.403254
193.185355	0.002895	4.145700	0.012097	28.908968	28.396863
194.191248	-0.000479	4.144900	-0.001946	28.911376	28.407356
195.185993	0.003834	4.146400	0.015975	28.910076	28.406790
196.184845	0.003776	4.145800	0.015798	28.903519	28.396555
197.205886	-0.002196	4.147000	-0.009035	28.894511	28.402976
198.186875	0.004150	4.144700	0.017230	28.916283	28.406018
199.187896	-0.002741	4.146000	-0.011369	28.921937	28.391098
200.193182	0.000688	4.146400	0.002934	28.913146	28.399940
201.185987	0.002246	4.145000	0.009347	28.908160	28.405241
202.185571	0.002555	4.145500	0.010651	28.923959	28.388344
203.194722	-0.001538	4.146500	-0.006328	28.923833	28.392995
204.185558	0.003766	4.145200	0.015698	28.902662	28.389820
205.194322	0.004967	4.145500	0.020621	28.905456	28.409884
206.223658	-0.002725	4.145000	-0.011155	28.920466	28.403222
207.183645	0.004863	4.145700	0.020227	28.921839	28.401656
208.186828	-0.001820	4.145700	-0.007491	28.928233	28.402174
209.184886	-0.001615	4.145700	-0.006712	28.921092	28.395029
210.186352	-0.000178	4.146600	-0.000676	28.919671	28.394710
211.196631	-0.001202	4.145600	-0.005017	28.924427	28.389180
212.195051	-0.000688	4.146500	-0.002789	28.925650	28.386361
213.185722	0.000205	4.145200	0.000876	28.907123	28.394649
214.196303	-0.001945	4.144000	-0.008031	28.928304	28.387180
215.200853	0.007788	4.145200	0.032361	28.934241	28.386505
216.186123	0.004063	4.145900	0.016874	28.909458	28.377511
217.184859	-0.001092	4.145400	-0.004516	28.931007	28.383270
218.194605	-0.002169	4.145700	-0.009027	28.929616	28.383715
219.185327	0.005939	4.144900	0.024694	28.931043	28.380733
220.197158	0.004865	4.145600	0.020229	28.944710	28.388528
221.184732	0.000460	4.145800	0.001903	28.913714	28.393160
222.185400	0.007820	4.145100	0.032511	28.918417	28.385371
223.201490	0.004710	4.146200	0.019545	28.919988	28.381432
224.183964	-0.000571	4.145300	-0.002334	28.906145	28.384118
225.185434	0.006182	4.145700	0.025748	28.925015	28.380582
226.186210	0.007999	4.144800	0.033267	28.935088	28.381841
227.192855	0.002039	4.145900	0.008455	28.926761	28.391515
228.186326	-0.004788	4.146500	-0.019761	28.917049	28.385840
229.193020	-0.003122	4.146200	-0.012774	28.916952	28.379130
230.185778	0.002715	4.146100	0.011415	28.918626	28.372352
231.186888	-0.002780	4.145600	-0.011471	28.934352	28.383309
232.195237	0.005959	4.144700	0.024742	28.917879	28.379321
233.185366	0.001166	4.145200	0.004954	28.926645	28.366045
234.184048	0.005598	4.144400	0.023269	28.926085	28.389736
235.186760	-0.002641	4.145400	-0.010850	28.927440	28.374556
236.183140	0.008434	4.146200	0.035096	28.913995	28.377641
237.185400	-0.001597	4.144800	-0.006541	28.928180	28.374562
238.202305	0.004558	4.146200	0.018866	28.910285	28.363273
239.184987	-0.001893	4.145500	-0.007665	28.931178	28.377194
240.186783	-0.002154	4.146300	-0.008881	28.911002	28.366195
241.196721	-0.003359	4.145200	-0.013912	28.926819	28.361442
242.212870	0.002283	4.146800	0.009465	28.925428	28.347189
243.184169	-0.003290	4.145400	-0.013482	28.915933	28.375905
244.186594	0.004083	4.146000	0.016969	28.913440	28.383332
245.184742	-0.001798	4.145500	-0.007400	28.922766	28.371718
246.185735	0.002588	4.145600	0.010742	28.906383	28.359002
247.199976	0.002954	4.146200	0.012306	28.915041	28.376115
248.185085	0.002325	4.145900	0.009668	28.927378	28.373760
249.184914	0.001824	4.144900	0.007577	28.921309	28.358501
250.196226	0.003818	4.146500	0.015872	28.913331	28.368525
251.211361	0.005341	4.146000	0.022128	28.904709	28.370555
252.185930	0.002641	4.146400	0.010995	28.912133	28.372470
253.190066	0.003654	4.145600	0.015277	28.903221	28.372374
254.195198	-0.001439	4.145400	-0.005917	28.910369	28.368868
255.184554	0.003265	4.145100	0.013562	28.903083	28.379584
256.193179	-0.001006	4.145700	-0.004191	28.912602	28.357140
257.194336	-0.000420	4.146500	-0.001680	28.908875	28.371784
258.184115	0.002933	4.145600	0.012210	28.901265	28.369681
259.192315	-0.003373	4.145700	-0.013964	28.915348	28.350332
260.185486	-0.002876	4.146700	-0.011715	28.908520	28.380614
261.186323	-0.003661	4.146000	-0.014981	28.894539	28.352664
262.211288	-0.002873	4.146000	-0.011839	28.912313	28.357218
263.185154	-0.002899	4.146800	-0.011877	28.902270	28.355254
264.184220	-0.000469	4.146800	-0.001737	28.916257	28.350140
265.200519	0.002356	4.145700	0.009770	28.906599	28.346357
266.183853	-0.002162	4.144400	-0.008843	28.911133	28.360079
267.192027	0.006472	4.145900	0.026961	28.910187	28.362440
268.198199	0.000281	4.145300	0.001205	28.918364	28.357025
269.183385	0.000131	4.145200	0.000636	28.912975	28.364862
270.186715	0.002013	4.146700	0.008491	28.912042	28.353640
271.184084	0.003073	4.145500	0.012874	28.897688	28.340381
272.197410	0.000234	4.146700	0.000964	28.898742	28.356869
273.184186	0.003648	4.146500	0.015312	28.902149	28.359910
274.201999	0.008003	4.145900	0.033245	28.892455	28.347272
275.183701	0.000669	4.144800	0.002828	28.887898	28.360718
276.184862	0.001721	4.144700	0.007195	28.909935	28.343080
277.200434	0.006219	4.145200	0.025872	28.897002	28.357700
278.185030	0.002351	4.145600	0.009747	28.901764	28.353278
279.182857	0.005400	4.146000	0.022517	28.890198	28.354200
280.185395	0.001351	4.145200	0.005592	28.896002	28.339429
281.182748	0.001485	4.145700	0.006256	28.887067	28.353272
282.184189	0.004066	4.146400	0.016904	28.887085	28.340062
283.202002	0.003045	4.146200	0.012820	28.888729	28.357140
284.183596	0.002181	4.145200	0.009074	28.896068	28.343905
285.185673	-0.002283	4.144700	-0.009500	28.888873	28.339646
286.195689	0.002309	4.145200	0.009565	28.885790	28.351628
287.185576	-0.000839	4.145500	-0.003463	28.882599	28.363134
288.186076	-0.001293	4.145900	-0.005318	28.881251	28.329448
289.185713	-0.001305	4.145200	-0.005364	28.893449	28.337610
290.185052	-0.000650	4.144900	-0.002697	28.880841	28.354760
291.186547	-0.001239	4.145300	-0.005089	28.878926	28.347333
292.199320	0.000385	4.145300	0.001596	28.880444	28.363182
293.185916	-0.000491	4.146200	-0.001992	28.889650	28.352182
294.185033	-0.003458	4.146000	-0.014333	28.877301	28.343135
295.198058	0.003223	4.145700	0.013467	28.882028	28.346393
296.185161	-0.002381	4.144500	-0.009866	28.883575	28.333610
297.186153	-0.000978	4.145500	-0.004066	28.869781	28.344430
298.186178	0.000224	4.146400	0.000995	28.883743	28.323123
299.187021	0.003959	4.146500	0.016532	28.886875	28.337279
300.184188	-0.002321	4.145100	-0.009595	28.881690	28.338707
