LabVIEW Measurement	
Writer_Version	2
Reader_Version	2
Separator	Tab
Decimal_Separator	.
Multi_Headings	No
X_Columns	One
Time_Pref	Absolute
Operator	admin
Description	Clolumns are: time, Current, Voltage, Power, Battery Temp, and Chamber Temp
Date	2024/08/16
Time	13:07:17.8513970375061035156
***End_of_Header***	
	
Channels	6						
Samples	1	1	1	1	1	1	
Date	2024/09/14	2024/09/14	2024/09/14	2024/09/14	2024/09/14	2024/09/14	
Time	23:01:45.9136424064636230469	23:01:45.9206905364990234375	23:01:45.9266400337219238282	23:01:45.8975534439086914062	23:01:45.8975534439086914062	23:01:45.8975534439086914062	
X_Dimension	Time	Time	Time	Time	Time	Time	
X0	0.0000000000000000E+0	0.0000000000000000E+0	0.0000000000000000E+0	0.0000000000000000E+0	0.0000000000000000E+0	0.0000000000000000E+0	
Delta_X	1.000000	1.000000	1.000000	1.000000	1.000000	1.000000	
***End_of_Header***							
X_Value	Untitled	Untitled 1	Untitled 2	Untitled 3	Untitled 4	Untitled 5	Comment
0.000000	0.010218	4.089100	0.041933	20.809457	0.000470	20.802345
0.999068	-2.995100	3.918000	-11.733000	20.830865	0.000474	20.817115
1.997514	-3.007800	3.910200	-11.759000	20.819386	0.000472	20.780031
3.004553	-3.011200	3.905900	-11.760000	20.825150	0.000471	20.807133
3.999727	-3.013800	3.902800	-11.761000	20.825578	0.000470	20.801870
5.000491	-2.992300	3.899800	-11.668000	20.818066	0.000470	20.798626
6.003121	-2.963400	3.898500	-11.551000	20.843019	0.000469	20.817889
7.000171	-3.003300	3.896200	-11.701000	20.841376	0.000467	20.809609
8.000855	-3.001400	3.894000	-11.686000	20.844395	0.000467	20.809782
9.006155	-3.008900	3.891100	-11.706000	20.845519	0.000466	20.792889
10.000337	-3.010400	3.890200	-11.710000	20.846266	0.000464	20.805016
11.000812	-3.005800	3.888000	-11.686000	20.860692	0.000467	20.807114
12.001332	-3.013400	3.886900	-11.712000	20.859895	0.000465	20.829076
13.004354	-3.026900	3.884800	-11.758000	20.874193	0.000465	20.819668
14.000483	-2.991200	3.885800	-11.623000	20.880580	0.000463	20.796184
15.003390	-3.001900	3.882500	-11.653000	20.889892	0.000464	20.814031
16.003161	-3.000700	3.882400	-11.648000	20.912376	0.000465	20.826560
17.002486	-2.993600	3.882000	-11.619000	20.876991	0.000464	20.799707
18.008207	-2.982400	3.879700	-11.570000	20.922305	0.000464	20.827480
19.005197	-2.999500	3.879900	-11.637000	20.929993	0.000462	20.810039
20.004142	-2.991500	3.880300	-11.607000	20.944714	0.000462	20.811961
21.005053	-3.011600	3.878100	-11.678000	20.945412	0.000461	20.821193
22.005552	-2.999700	3.877900	-11.630000	20.960486	0.000460	20.814933
23.002761	-3.001900	3.877000	-11.637000	20.968221	0.000461	20.803228
24.002948	-2.983100	3.876300	-11.563000	20.962857	0.000460	20.814933
25.003642	-2.979900	3.875300	-11.547000	20.996591	0.000460	20.825912
26.002813	-2.987000	3.874500	-11.572000	20.977079	0.000457	20.832002
27.003384	-3.005700	3.873700	-11.643000	20.991026	0.000457	20.808967
28.006641	-2.996700	3.873300	-11.606000	21.014379	0.000457	20.817626
29.004050	-2.993800	3.873700	-11.596000	21.008368	0.000458	20.823941
30.004247	-3.002200	3.873300	-11.628000	21.021540	0.000459	20.800132
31.004422	-3.006700	3.872000	-11.641000	21.042972	0.000459	20.831525
32.006090	-2.974400	3.873100	-11.520000	21.041899	0.000455	20.818125
33.004994	-2.995300	3.871600	-11.595000	21.048862	0.000456	20.815605
34.005724	-3.007000	3.871000	-11.639000	21.084486	0.000454	20.853133
35.008723	-2.994300	3.871300	-11.591000	21.055300	0.000455	20.822519
36.005418	-2.991900	3.869500	-11.576000	21.085462	0.000454	20.834196
37.005331	-2.996200	3.870000	-11.594000	21.108615	0.000454	20.815630
38.008729	-3.011300	3.868300	-11.648000	21.099234	0.000454	20.812410
39.005698	-3.015400	3.868300	-11.664000	21.122761	0.000454	20.824090
40.005643	-2.997500	3.869000	-11.596000	21.105573	0.000454	20.803104
41.008556	-3.000500	3.869600	-11.610000	21.117423	0.000455	20.820173
42.005612	-3.004600	3.868200	-11.621000	21.137159	0.000454	20.843232
43.005770	-3.001400	3.866400	-11.602000	21.132418	0.000454	20.833750
44.005993	-3.000200	3.867900	-11.604000	21.171287	0.000454	20.835646
45.004579	-2.996700	3.867200	-11.588000	21.156323	0.000453	20.811195
46.005815	-2.987000	3.867700	-11.552000	21.192443	0.000455	20.811291
47.006016	-2.988400	3.867000	-11.555000	21.166851	0.000453	20.844010
48.006404	-2.999500	3.866900	-11.598000	21.197437	0.000454	20.854218
49.006113	-3.006700	3.865100	-11.621000	21.210929	0.000455	20.825041
50.005757	-3.004600	3.865700	-11.614000	21.217893	0.000455	20.831534
51.007572	-2.981900	3.866100	-11.528000	21.224005	0.000452	20.824846
52.006929	-2.993800	3.864900	-11.569000	21.199086	0.000452	20.826470
53.009758	-3.006100	3.865300	-11.618000	21.242165	0.000453	20.828788
54.009672	-2.988700	3.865200	-11.551000	21.234433	0.000452	20.820105
55.006209	-3.016700	3.864400	-11.657000	21.286095	0.000454	20.840967
56.006790	-2.987200	3.865100	-11.545000	21.261502	0.000452	20.870416
57.006144	-2.997100	3.864200	-11.580000	21.285925	0.000453	20.828943
58.005963	-2.997500	3.864100	-11.582000	21.277666	0.000452	20.837750
59.007014	-2.987000	3.864600	-11.543000	21.302315	0.000452	20.826374
60.007220	-3.008900	3.863500	-11.623000	21.290339	0.000453	20.830988
61.007139	-3.004200	3.863600	-11.606000	21.294130	0.000452	20.842842
62.007102	-3.020300	3.862100	-11.663000	21.317781	0.000451	20.830468
63.005391	-2.995800	3.863300	-11.573000	21.330779	0.000453	20.833040
64.009788	-3.012700	3.862700	-11.636000	21.355002	0.000452	20.858222
65.006161	-2.994600	3.861300	-11.562000	21.343426	0.000452	20.835736
66.006497	-3.007300	3.861300	-11.612000	21.337340	0.000451	20.861413
67.005181	-2.965900	3.862900	-11.456000	21.366574	0.000452	20.836136
68.006701	-2.963900	3.862700	-11.447000	21.362036	0.000452	20.824484
69.006177	-2.968400	3.861800	-11.463000	21.376877	0.000451	20.847865
70.009197	-2.978800	3.863400	-11.507000	21.385831	0.000452	20.846867
71.008614	-2.991800	3.861800	-11.553000	21.413371	0.000453	20.844549
72.006183	-2.996200	3.861600	-11.569000	21.417286	0.000451	20.838035
73.006151	-3.012300	3.859900	-11.626000	21.430233	0.000452	20.834868
74.008165	-3.017400	3.859600	-11.645000	21.435817	0.000452	20.861317
75.006471	-3.006400	3.861200	-11.607000	21.423722	0.000451	20.860121
76.006437	-3.001200	3.860400	-11.585000	21.446144	0.000453	20.839882
77.010001	-3.006200	3.861000	-11.606000	21.462206	0.000453	20.835565
78.006202	-3.000300	3.860400	-11.581000	21.464625	0.000452	20.848417
79.006656	-3.012700	3.859700	-11.627000	21.474251	0.000452	20.875117
80.009928	-3.019800	3.859000	-11.652000	21.496821	0.000453	20.852182
81.005561	-3.004400	3.860400	-11.597000	21.472480	0.000453	20.877137
82.009511	-2.993200	3.858100	-11.547000	21.494504	0.000455	20.863614
83.011223	-2.983800	3.859400	-11.515000	21.496796	0.000454	20.860217
84.005855	-2.999800	3.859100	-11.576000	21.508596	0.000452	20.860645
85.009414	-2.999100	3.858600	-11.571000	21.526203	0.000452	20.855978
86.006895	-3.032900	3.857200	-11.696000	21.541565	0.000451	20.842426
87.006451	-2.970700	3.857200	-11.457000	21.545157	0.000454	20.858823
88.006197	-2.993500	3.857300	-11.546000	21.536727	0.000451	20.848491
89.006626	-2.974700	3.858300	-11.476000	21.568502	0.000454	20.846148
90.013301	-3.000700	3.855900	-11.570000	21.571420	0.000453	20.855705
91.008421	-2.990100	3.856500	-11.531000	21.579029	0.000454	20.840087
92.008982	-3.011300	3.857000	-11.614000	21.585214	0.000454	20.854810
93.011359	-2.991100	3.856900	-11.535000	21.602448	0.000455	20.867788
94.017566	-2.989900	3.857000	-11.531000	21.589652	0.000454	20.861147
95.012118	-3.002200	3.858000	-11.582000	21.595765	0.000457	20.856833
96.009345	-3.000900	3.856000	-11.571000	21.635191	0.000454	20.861200
97.009717	-2.987900	3.856300	-11.520000	21.637959	0.000454	20.896210
98.011115	-2.962800	3.855900	-11.423000	21.637987	0.000456	20.873954
99.012619	-2.968100	3.856600	-11.446000	21.644147	0.000455	20.872058
100.011143	-3.007600	3.855900	-11.596000	21.658187	0.000455	20.880419
101.010190	-2.996700	3.855500	-11.554000	21.681351	0.000457	20.864246
102.011613	-2.980300	3.857200	-11.495000	21.681029	0.000455	20.862501
103.010758	-3.017600	3.854300	-11.629000	21.698636	0.000457	20.876802
104.010924	-3.007400	3.855600	-11.595000	21.694146	0.000455	20.882266
105.011953	-2.987000	3.855500	-11.515000	21.695016	0.000456	20.869387
106.009954	-2.997100	3.855000	-11.553000	21.700479	0.000457	20.877224
107.012283	-3.023700	3.855200	-11.656000	21.712026	0.000456	20.871711
108.012423	-2.996000	3.855200	-11.550000	21.732027	0.000456	20.887933
109.014827	-3.026000	3.853200	-11.659000	21.731101	0.000457	20.887007
110.012087	-2.985200	3.854200	-11.505000	21.750178	0.000455	20.869117
111.016034	-2.990700	3.854600	-11.527000	21.756588	0.000457	20.862256
112.015031	-2.989600	3.854900	-11.524000	21.764168	0.000459	20.876006
113.023238	-3.019800	3.854300	-11.639000	21.777359	0.000458	20.874509
114.015101	-3.006100	3.854500	-11.586000	21.766785	0.000457	20.902804
115.014915	-2.999500	3.854100	-11.560000	21.795337	0.000457	20.879226
116.013569	-2.991900	3.854200	-11.531000	21.801099	0.000458	20.861286
117.014194	-2.989800	3.853100	-11.519000	21.827281	0.000457	20.878956
118.013653	-3.015300	3.852500	-11.616000	21.848224	0.000458	20.899916
119.031246	-3.019500	3.851800	-11.630000	21.825860	0.000454	20.890335
120.014952	-3.002300	3.852800	-11.566000	21.857525	0.000457	20.890735
121.016052	-3.004100	3.852900	-11.573000	21.833217	0.000460	20.864509
122.019589	-2.984700	3.853600	-11.500000	21.837106	0.000461	20.884522
123.018303	-2.984100	3.853100	-11.497000	21.845463	0.000458	20.899049
124.017010	-2.995000	3.852600	-11.537000	21.871991	0.000458	20.902368
125.019288	-2.996500	3.851800	-11.540000	21.864337	0.000459	20.909405
126.016145	-3.000100	3.851800	-11.556000	21.883961	0.000460	20.881634
127.015230	-2.989200	3.852500	-11.515000	21.910116	0.000459	20.891692
128.016261	-3.012400	3.850600	-11.599000	21.915702	0.000461	20.902024
129.023928	-3.002200	3.849900	-11.557000	21.920089	0.000460	20.888872
130.016103	-2.992500	3.851800	-11.525000	21.916027	0.000460	20.879117
131.016348	-3.008700	3.850600	-11.585000	21.918649	0.000461	20.904026
132.017162	-3.022600	3.850400	-11.637000	21.945946	0.000460	20.892470
133.016266	-3.010400	3.851100	-11.592000	21.948937	0.000462	20.896412
134.017321	-2.996000	3.851600	-11.538000	21.956169	0.000460	20.909814
135.017067	-3.008500	3.850200	-11.582000	21.936076	0.000463	20.925735
136.027369	-3.005800	3.850100	-11.572000	21.977336	0.000463	20.905872
137.017743	-3.017200	3.850300	-11.617000	21.996010	0.000462	20.898962
138.016901	-3.003200	3.849300	-11.560000	21.982878	0.000461	20.927539
139.018237	-2.989300	3.848800	-11.505000	22.006709	0.000464	20.920102
140.024964	-2.994500	3.851100	-11.531000	22.017402	0.000462	20.913263
141.022334	-3.020800	3.848800	-11.626000	22.028398	0.000464	20.905305
142.018589	-3.009400	3.848900	-11.582000	22.030289	0.000465	20.915259
143.017909	-3.012100	3.850300	-11.596000	22.039614	0.000465	20.902783
144.019431	-3.000900	3.849700	-11.551000	22.050210	0.000464	20.900115
145.021478	-3.018800	3.846700	-11.612000	22.050585	0.000464	20.922773
146.019127	-3.020500	3.848000	-11.622000	22.062772	0.000465	20.887562
147.020968	-3.004000	3.847900	-11.558000	22.068555	0.000465	20.900936
148.019095	-3.005500	3.847300	-11.562000	22.055968	0.000466	20.919154
149.020881	-3.009100	3.846900	-11.575000	22.089766	0.000465	20.901782
150.021756	-3.032100	3.847100	-11.664000	22.092307	0.000465	20.894844
151.027543	-3.002500	3.847900	-11.552000	22.111831	0.000467	20.893527
152.020833	-2.993600	3.847200	-11.516000	22.092286	0.000467	20.886288
153.031919	-2.999200	3.847500	-11.539000	22.110580	0.000469	20.902231
154.037714	-2.990600	3.848100	-11.506000	22.124315	0.000471	20.907447
155.024724	-3.021200	3.846400	-11.620000	22.138145	0.000469	20.886682
156.023511	-3.003800	3.846000	-11.552000	22.136000	0.000469	20.897335
157.032085	-2.984100	3.847000	-11.478000	22.153449	0.000470	20.904373
158.028726	-3.009400	3.846600	-11.575000	22.149487	0.000470	20.898036
159.026736	-3.004300	3.846000	-11.553000	22.149484	0.000470	20.897558
160.031507	-3.015000	3.845500	-11.592000	22.174012	0.000469	20.898882
161.029202	-3.011000	3.845000	-11.576000	22.173683	0.000471	20.900449
162.031583	-3.003800	3.846000	-11.552000	22.184177	0.000472	20.910480
163.029801	-3.021200	3.844800	-11.615000	22.197462	0.000473	20.897704
164.032497	-3.001200	3.843900	-11.536000	22.225625	0.000471	20.905039
165.028677	-3.010000	3.844600	-11.571000	22.238783	0.000473	20.880282
166.030502	-3.021600	3.844700	-11.616000	22.231181	0.000470	20.886895
167.032296	-3.000900	3.844800	-11.537000	22.230556	0.000473	20.891959
168.031451	-3.001500	3.843900	-11.536000	22.237730	0.000472	20.896771
169.031077	-3.003700	3.845400	-11.550000	22.246081	0.000471	20.884271
170.030140	-3.005100	3.843300	-11.548000	22.246678	0.000473	20.882024
171.029139	-2.989300	3.843800	-11.489000	22.227634	0.000472	20.889507
172.028986	-2.984500	3.844000	-11.471000	22.257892	0.000474	20.887561
173.030008	-2.953100	3.843900	-11.350000	22.292454	0.000473	20.884711
174.030513	-2.995000	3.843000	-11.508000	22.276029	0.000474	20.874429
175.029682	-3.003200	3.842400	-11.538000	22.274259	0.000475	20.903000
176.028996	-3.002900	3.842800	-11.538000	22.287790	0.000475	20.888575
177.029678	-3.017500	3.844000	-11.598000	22.307753	0.000474	20.881063
178.029448	-2.988800	3.843300	-11.486000	22.293547	0.000476	20.872055
179.029301	-2.989900	3.843600	-11.491000	22.332571	0.000476	20.876043
180.031571	-2.993800	3.842500	-11.502000	22.339974	0.000476	20.887723
181.032013	-3.001100	3.843100	-11.533000	22.357766	0.000477	20.878513
182.033587	-2.994700	3.843300	-11.509000	22.363600	0.000475	20.882458
183.035886	-3.011400	3.842000	-11.569000	22.362053	0.000476	20.892287
184.033981	-3.007800	3.841100	-11.552000	22.369554	0.000477	20.862817
185.036793	-3.004000	3.840700	-11.537000	22.353727	0.000479	20.874943
186.033914	-3.002200	3.842100	-11.534000	22.374361	0.000476	20.877586
187.033674	-2.981600	3.841000	-11.451000	22.385000	0.000477	20.882077
188.035810	-3.008900	3.842100	-11.560000	22.384354	0.000479	20.871472
189.032994	-3.026500	3.840500	-11.623000	22.410841	0.000478	20.888513
190.035627	-3.014500	3.840400	-11.576000	22.420162	0.000479	20.876985
191.033859	-3.004500	3.840600	-11.539000	22.394866	0.000480	20.841224
192.034907	-3.013400	3.839000	-11.566000	22.409569	0.000480	20.879653
193.035651	-3.005600	3.840000	-11.541000	22.425594	0.000481	20.850657
194.033394	-2.996000	3.840000	-11.504000	22.446600	0.000481	20.865055
195.034565	-3.010400	3.838800	-11.556000	22.459906	0.000481	20.861785
196.033874	-2.991800	3.838100	-11.481000	22.452628	0.000482	20.865876
197.033857	-2.980800	3.838500	-11.441000	22.473857	0.000482	20.874807
198.035250	-2.984900	3.839300	-11.459000	22.468546	0.000484	20.862851
199.040697	-2.981800	3.839200	-11.447000	22.508069	0.000482	20.878249
200.037180	-2.981500	3.840600	-11.450000	22.504702	0.000483	20.876774
201.035299	-3.001200	3.837500	-11.515000	22.499494	0.000483	20.867292
202.044328	-3.031600	3.838300	-11.636000	22.512547	0.000483	20.860924
203.035530	-2.996200	3.838200	-11.499000	22.522888	0.000482	20.872703
204.034489	-3.001600	3.837700	-11.518000	22.530760	0.000483	20.855932
205.044555	-2.999400	3.837600	-11.510000	22.538583	0.000485	20.872300
206.037054	-3.008800	3.837200	-11.544000	22.539582	0.000484	20.876620
207.036445	-3.003900	3.836600	-11.524000	22.551164	0.000483	20.878262
208.040358	-3.015900	3.836200	-11.569000	22.562003	0.000484	20.867782
209.040390	-2.990200	3.836700	-11.472000	22.547674	0.000485	20.836836
210.038298	-3.006900	3.836300	-11.534000	22.545155	0.000484	20.861339
211.036981	-3.004600	3.836400	-11.526000	22.558111	0.000485	20.881900
212.036226	-2.994800	3.836200	-11.487000	22.518092	0.000486	20.892554
213.040486	-2.991000	3.835800	-11.472000	22.551053	0.000485	20.841643
214.035890	-2.986600	3.836400	-11.457000	22.556638	0.000485	20.856245
215.036756	-2.994500	3.835900	-11.486000	22.562412	0.000487	20.870562
216.037353	-3.016000	3.835300	-11.565000	22.597646	0.000487	20.847057
217.037335	-2.993700	3.836800	-11.485000	22.620694	0.000486	20.852123
218.041181	-3.011800	3.834000	-11.547000	22.635964	0.000487	20.844184
219.036980	-3.011900	3.835000	-11.550000	22.618869	0.000489	20.855036
220.039989	-2.988100	3.836000	-11.460000	22.631103	0.000487	20.850695
221.042435	-2.993000	3.834700	-11.476000	22.639002	0.000489	20.831107
222.037722	-2.998600	3.833800	-11.495000	22.643884	0.000489	20.862074
223.040534	-3.014800	3.834200	-11.558000	22.633297	0.000489	20.841513
224.039823	-2.987700	3.834400	-11.456000	22.677773	0.000490	20.858086
225.038159	-2.990000	3.833800	-11.462000	22.675053	0.000490	20.842560
226.041114	-2.998500	3.833800	-11.494000	22.671019	0.000490	20.852743
227.040133	-2.988400	3.833100	-11.453000	22.678218	0.000492	20.847627
228.038497	-2.989500	3.834200	-11.461000	22.675403	0.000492	20.862824
229.045518	-2.973700	3.833200	-11.397000	22.675951	0.000492	20.834924
230.039307	-3.006100	3.833600	-11.523000	22.713597	0.000490	20.860304
231.040622	-2.999700	3.832500	-11.496000	22.712749	0.000492	20.841438
232.044883	-2.997300	3.832300	-11.486000	22.716035	0.000492	20.841411
233.049564	-3.016400	3.832700	-11.560000	22.731486	0.000493	20.846455
234.040458	-3.004400	3.832700	-11.514000	22.739752	0.000491	20.863744
235.040341	-3.001500	3.833100	-11.504000	22.746850	0.000492	20.846673
236.042953	-2.993600	3.832800	-11.474000	22.765112	0.000491	20.847897
237.044258	-3.023400	3.831700	-11.584000	22.795928	0.000491	20.860274
238.041203	-3.027500	3.830000	-11.594000	22.786582	0.000494	20.852334
239.043692	-3.010000	3.829500	-11.526000	22.817450	0.000494	20.842480
240.054440	-2.995600	3.830900	-11.475000	22.810746	0.000493	20.850937
241.043112	-2.995500	3.830300	-11.473000	22.829131	0.000492	20.865086
242.043229	-2.991900	3.829300	-11.455000	22.816101	0.000493	20.858197
243.041079	-3.008100	3.830000	-11.520000	22.810344	0.000494	20.843896
244.042263	-2.994200	3.829600	-11.466000	22.815003	0.000493	20.844770
245.046307	-3.010300	3.829900	-11.528000	22.799634	0.000494	20.846443
246.041501	-3.003200	3.829000	-11.498000	22.796296	0.000495	20.862065
247.045088	-2.991000	3.828900	-11.451000	22.817370	0.000494	20.847141
248.046773	-3.005100	3.828600	-11.503000	22.832095	0.000495	20.850512
249.048473	-2.967500	3.829000	-11.362000	22.835606	0.000494	20.839331
250.045502	-2.976500	3.828800	-11.395000	22.862086	0.000495	20.836462
251.048193	-2.993000	3.828200	-11.457000	22.849131	0.000497	20.833914
252.052366	-2.988900	3.827100	-11.438000	22.850254	0.000496	20.846893
253.046728	-2.990500	3.828600	-11.448000	22.859420	0.000498	20.839006
254.044486	-2.988700	3.828300	-11.440000	22.857926	0.000497	20.817121
255.044071	-2.997900	3.827700	-11.474000	22.869387	0.000495	20.826706
256.044377	-2.993200	3.826400	-11.452000	22.893098	0.000499	20.853779
257.047383	-2.967600	3.827000	-11.355000	22.889639	0.000501	20.838935
258.047354	-2.996200	3.827800	-11.468000	22.920501	0.000497	20.840930
259.046095	-3.003900	3.826600	-11.494000	22.896788	0.000499	20.839932
260.046986	-2.976700	3.827800	-11.394000	22.883087	0.000501	20.807716
261.049089	-2.969100	3.827700	-11.364000	22.924117	0.000501	20.830803
262.049598	-2.985800	3.825500	-11.422000	22.931043	0.000501	20.836319
263.049858	-2.978800	3.827000	-11.398000	22.954329	0.000500	20.825984
264.051077	-2.988500	3.826700	-11.435000	22.905161	0.000499	20.832201
265.050375	-2.989600	3.826200	-11.438000	22.903145	0.000500	20.837766
266.056025	-2.987100	3.826200	-11.428000	22.921776	0.000501	20.844578
267.052621	-3.000800	3.824200	-11.474000	22.923693	0.000503	20.818051
268.050350	-2.985500	3.825100	-11.419000	22.922970	0.000502	20.832024
269.056505	-3.008100	3.823300	-11.499000	22.948501	0.000503	20.821094
270.055295	-2.994400	3.825900	-11.454000	22.940459	0.000501	20.821097
271.052584	-3.006300	3.823900	-11.495000	22.941777	0.000502	20.821469
272.054981	-2.992000	3.823800	-11.440000	22.935052	0.000505	20.845551
273.057632	-2.998000	3.824300	-11.464000	22.946707	0.000504	20.810288
274.054707	-2.970900	3.825100	-11.363000	22.986136	0.000503	20.832247
275.052967	-2.985400	3.822700	-11.411000	22.980135	0.000504	20.825761
276.052798	-3.000900	3.822200	-11.469000	23.017620	0.000504	20.822067
277.054094	-2.995100	3.823400	-11.449000	23.051618	0.000504	20.837165
278.051338	-3.001700	3.822400	-11.473000	23.031393	0.000507	20.841082
279.053947	-3.005200	3.821800	-11.485000	23.019757	0.000504	20.815674
280.052841	-3.034400	3.820500	-11.592000	23.012065	0.000505	20.805596
281.053551	-3.024000	3.822400	-11.558000	23.034681	0.000505	20.819247
282.052089	-2.998500	3.822500	-11.461000	23.047207	0.000504	20.809513
283.052855	-3.015700	3.821700	-11.524000	23.068777	0.000505	20.832548
284.054087	-3.006700	3.822600	-11.493000	23.057967	0.000505	20.829777
285.054093	-3.014700	3.820000	-11.515000	23.066510	0.000505	20.829328
286.054257	-3.033800	3.820900	-11.591000	23.071814	0.000506	20.833220
287.056287	-3.024900	3.820400	-11.556000	23.067333	0.000507	20.812609
288.053985	-3.008200	3.819900	-11.490000	23.068028	0.000507	20.829901
289.059250	-2.977100	3.820500	-11.373000	23.112209	0.000508	20.818221
290.058562	-3.016900	3.818500	-11.519000	23.128072	0.000507	20.809935
291.053966	-2.986900	3.821300	-11.413000	23.144336	0.000509	20.823861
292.052819	-3.004600	3.820000	-11.476000	23.126108	0.000508	20.799906
293.058075	-3.020200	3.819000	-11.533000	23.121450	0.000511	20.813731
294.055700	-2.997200	3.819400	-11.446000	23.146804	0.000508	20.831550
295.060470	-3.015100	3.819400	-11.515000	23.153478	0.000509	20.821168
296.057505	-3.008200	3.818800	-11.486000	23.165883	0.000509	20.805150
297.056120	-3.033500	3.818500	-11.582000	23.161847	0.000509	20.818649
298.059653	-2.995300	3.819400	-11.440000	23.177288	0.000511	20.814208
299.056481	-2.993900	3.818700	-11.432000	23.176113	0.000509	20.817298
300.060832	-3.013500	3.818100	-11.505000	23.175770	0.000511	20.802255
301.066084	-3.012100	3.816600	-11.495000	23.190886	0.000509	20.810291
302.061525	-3.007500	3.816500	-11.478000	23.221418	0.000513	20.820973
303.063201	-2.988100	3.818500	-11.409000	23.238949	0.000510	20.808196
304.060701	-2.991700	3.817800	-11.421000	23.239125	0.000510	20.805528
305.058599	-3.016500	3.815900	-11.510000	23.218428	0.000511	20.813235
306.061919	-3.017100	3.816500	-11.513000	23.252221	0.000515	20.816755
307.059076	-3.018100	3.815500	-11.514000	23.236707	0.000512	20.798837
308.062372	-3.030700	3.815500	-11.563000	23.249110	0.000512	20.806051
309.065762	-2.982600	3.815800	-11.380000	23.241243	0.000512	20.800538
310.064670	-2.995200	3.815000	-11.425000	23.243461	0.000514	20.805605
311.062512	-2.981600	3.815600	-11.375000	23.249961	0.000513	20.804533
312.067898	-2.993400	3.814600	-11.417000	23.267269	0.000513	20.805757
313.064538	-2.987000	3.813800	-11.391000	23.288933	0.000513	20.778157
314.065179	-2.995600	3.814700	-11.427000	23.302926	0.000515	20.816836
315.065619	-3.015000	3.815300	-11.503000	23.293142	0.000515	20.790909
316.066358	-2.976500	3.815000	-11.354000	23.291797	0.000514	20.799993
317.067407	-2.996500	3.814300	-11.429000	23.268966	0.000514	20.799872
318.067739	-3.007000	3.814100	-11.468000	23.263712	0.000516	20.798874
319.067577	-3.019200	3.813000	-11.511000	23.229300	0.000515	20.811803
320.069656	-3.000900	3.813900	-11.444000	23.240881	0.000516	20.781209
321.068082	-3.017100	3.812400	-11.502000	23.256819	0.000516	20.799552
322.067258	-2.984400	3.813200	-11.379000	23.289097	0.000514	20.787804
323.068275	-2.978700	3.811800	-11.353000	23.295250	0.000516	20.784962
324.068614	-2.997300	3.812300	-11.425000	23.323337	0.000515	20.803627
325.069531	-2.976900	3.812900	-11.350000	23.316812	0.000515	20.786183
326.069543	-2.994600	3.810900	-11.410000	23.311339	0.000515	20.792077
327.068938	-2.995000	3.812100	-11.417000	23.290699	0.000519	20.791306
328.073634	-2.964700	3.811900	-11.300000	23.302455	0.000517	20.797872
329.069968	-2.993400	3.810500	-11.406000	23.302233	0.000517	20.800494
330.074218	-3.014500	3.810700	-11.487000	23.284226	0.000517	20.779603
331.074394	-3.013900	3.810100	-11.482000	23.322901	0.000517	20.781853
332.074825	-2.998700	3.810000	-11.423000	23.317700	0.000516	20.780908
333.072498	-2.996200	3.810300	-11.415000	23.324175	0.000519	20.787872
334.074461	-3.009500	3.808700	-11.460000	23.335084	0.000518	20.802598
335.071814	-2.981300	3.810300	-11.359000	23.349552	0.000519	20.791969
336.074025	-2.979800	3.809700	-11.350000	23.360260	0.000518	20.771881
337.077111	-2.972700	3.809800	-11.325000	23.408788	0.000521	20.788278
338.076468	-2.992500	3.808400	-11.396000	23.397110	0.000521	20.751916
339.073724	-3.007600	3.807700	-11.451000	23.405727	0.000520	20.771459
340.074684	-3.012000	3.807700	-11.468000	23.399052	0.000520	20.793218
341.074271	-3.013600	3.809900	-11.481000	23.408566	0.000521	20.773356
342.078212	-2.987300	3.807800	-11.375000	23.416234	0.000521	20.765868
343.074090	-3.009200	3.808700	-11.460000	23.417106	0.000524	20.770535
344.074088	-3.003500	3.808000	-11.437000	23.431866	0.000522	20.786753
345.078615	-3.014400	3.806200	-11.472000	23.419870	0.000523	20.772358
346.073281	-3.009800	3.806900	-11.457000	23.413964	0.000524	20.778293
347.076159	-2.993500	3.807000	-11.395000	23.399547	0.000524	20.755306
348.078259	-3.017500	3.806900	-11.485000	23.390685	0.000524	20.779142
349.081006	-3.002300	3.806300	-11.427000	23.381125	0.000523	20.769085
350.078067	-2.993300	3.806600	-11.393000	23.437617	0.000526	20.756481
351.079926	-2.992500	3.806500	-11.390000	23.443390	0.000523	20.773647
352.079250	-2.984000	3.807300	-11.360000	23.458728	0.000523	20.785228
353.081132	-2.985600	3.805900	-11.361000	23.490941	0.000525	20.783852
354.081337	-2.995000	3.806200	-11.398000	23.493306	0.000524	20.771524
355.079639	-2.979600	3.804400	-11.334000	23.490888	0.000524	20.764833
356.082211	-3.002600	3.804300	-11.422000	23.471194	0.000523	20.763584
357.082139	-2.994000	3.804900	-11.390000	23.476843	0.000525	20.769246
358.081690	-2.954200	3.805000	-11.240000	23.481078	0.000526	20.753577
359.081546	-2.958600	3.804700	-11.255000	23.470146	0.000523	20.764430
360.080537	-2.991600	3.802900	-11.376000	23.482445	0.000526	20.756844
361.080799	-2.995700	3.803900	-11.394000	23.517647	0.000524	20.771267
362.080728	-2.981800	3.803600	-11.341000	23.514932	0.000524	20.753373
363.081414	-2.983700	3.803100	-11.346000	23.510078	0.000528	20.765577
364.082238	-2.989100	3.802800	-11.366000	23.499696	0.000526	20.769869
365.082924	-2.971400	3.804400	-11.304000	23.491306	0.000529	20.760984
366.083055	-3.001600	3.802200	-11.412000	23.543112	0.000528	20.763603
367.087225	-2.990600	3.801200	-11.366000	23.545950	0.000527	20.754119
368.081879	-2.987600	3.802600	-11.359000	23.553370	0.000526	20.756816
369.082908	-2.974100	3.801900	-11.306000	23.545526	0.000528	20.771239
370.086100	-2.990100	3.801000	-11.364000	23.547567	0.000529	20.763327
371.083700	-2.989400	3.800300	-11.360000	23.552198	0.000530	20.762754
372.083546	-2.993000	3.802500	-11.380000	23.585830	0.000529	20.744311
373.085412	-2.988500	3.800800	-11.358000	23.586572	0.000531	20.762599
374.084513	-2.998300	3.799000	-11.389000	23.597952	0.000530	20.760256
375.084169	-2.996400	3.800600	-11.388000	23.584461	0.000531	20.775181
376.086082	-2.990700	3.799500	-11.362000	23.600935	0.000530	20.757556
377.085060	-2.983100	3.799100	-11.332000	23.600165	0.000533	20.780019
378.084889	-2.985400	3.800400	-11.345000	23.632130	0.000530	20.757535
379.086051	-2.979900	3.798700	-11.318000	23.643802	0.000531	20.748848
380.085103	-2.986200	3.800200	-11.347000	23.654727	0.000529	20.745101
381.086404	-3.011200	3.798500	-11.437000	23.664885	0.000532	20.741534
382.086452	-2.995400	3.797000	-11.373000	23.676112	0.000531	20.754687
383.086841	-3.008000	3.798600	-11.424000	23.643029	0.000531	20.754237
384.086725	-3.017600	3.798200	-11.460000	23.670980	0.000532	20.725359
385.087049	-3.007600	3.796600	-11.417000	23.655645	0.000532	20.754557
386.086646	-2.984000	3.797700	-11.331000	23.664807	0.000531	20.759475
387.088448	-2.996900	3.797400	-11.378000	23.676028	0.000532	20.760293
388.091155	-2.984500	3.798200	-11.335000	23.691014	0.000531	20.764412
389.088745	-2.992100	3.796900	-11.360000	23.671970	0.000532	20.765707
390.088282	-2.991700	3.797200	-11.359000	23.673985	0.000533	20.763935
391.091112	-2.992000	3.797100	-11.361000	23.678940	0.000532	20.750410
392.089481	-3.007600	3.796500	-11.417000	23.678415	0.000534	20.749883
393.087098	-2.979300	3.795900	-11.308000	23.656109	0.000536	20.744116
394.090259	-2.996800	3.795800	-11.374000	23.679086	0.000534	20.772842
395.090453	-3.005800	3.795200	-11.407000	23.676245	0.000533	20.751975
396.090086	-2.988800	3.796200	-11.345000	23.708829	0.000533	20.755719
397.096033	-3.001100	3.796000	-11.391000	23.694164	0.000532	20.759035
398.093437	-2.989900	3.794200	-11.343000	23.707583	0.000532	20.773911
399.094550	-2.979400	3.794900	-11.306000	23.697527	0.000535	20.750078
400.095857	-3.012900	3.793100	-11.427000	23.720426	0.000535	20.764976
401.095223	-2.990300	3.793900	-11.345000	23.738221	0.000536	20.760532
402.093873	-3.002800	3.794000	-11.392000	23.748202	0.000535	20.764375
403.098561	-3.004800	3.792000	-11.393000	23.747751	0.000534	20.753965
404.099127	-3.023100	3.792600	-11.464000	23.709348	0.000535	20.767146
405.095188	-2.994400	3.793200	-11.358000	23.703024	0.000536	20.764598
406.094738	-3.012200	3.791500	-11.420000	23.735279	0.000536	20.750469
407.095243	-3.033200	3.791100	-11.498000	23.744688	0.000536	20.767964
408.095060	-2.990600	3.792100	-11.339000	23.799845	0.000537	20.747875
409.094110	-3.032100	3.789500	-11.489000	23.813880	0.000535	20.754836
410.094468	-3.006800	3.791500	-11.400000	23.791079	0.000536	20.755682
411.094391	-3.006800	3.792400	-11.402000	23.841527	0.000535	20.752211
412.095377	-3.026000	3.790400	-11.468000	23.824374	0.000538	20.738804
413.095299	-2.991900	3.791000	-11.341000	23.849736	0.000536	20.752382
414.095179	-3.000300	3.789900	-11.369000	23.872805	0.000538	20.757495
415.095639	-3.012100	3.790200	-11.416000	23.883755	0.000537	20.751405
416.096370	-3.001500	3.790400	-11.377000	23.873476	0.000536	20.762435
417.095475	-3.012200	3.788400	-11.411000	23.899783	0.000537	20.747562
418.097412	-3.008200	3.789400	-11.397000	23.883279	0.000536	20.743816
419.095743	-2.985300	3.789400	-11.312000	23.832308	0.000538	20.746760
420.099212	-2.988500	3.788400	-11.321000	23.846071	0.000535	20.747284
421.097172	-3.012800	3.788700	-11.413000	23.824711	0.000537	20.766644
422.097169	-2.995300	3.788700	-11.348000	23.838950	0.000536	20.764800
423.098351	-3.015100	3.786500	-11.416000	23.831084	0.000539	20.761655
424.096725	-2.996200	3.787700	-11.348000	23.863187	0.000537	20.771559
425.100434	-3.025000	3.787000	-11.455000	23.857114	0.000537	20.770211
426.103813	-3.010400	3.787200	-11.400000	23.871548	0.000536	20.760502
427.098215	-3.012800	3.786800	-11.407000	23.854101	0.000537	20.756284
428.100755	-3.013200	3.786400	-11.408000	23.872367	0.000536	20.776022
429.103968	-2.997100	3.785600	-11.345000	23.889464	0.000539	20.768510
430.097855	-3.019000	3.785700	-11.428000	23.901752	0.000535	20.768030
431.100920	-3.003100	3.786200	-11.369000	23.915094	0.000537	20.773822
432.100539	-3.000700	3.785100	-11.357000	23.915341	0.000541	20.777863
433.098125	-2.992200	3.787000	-11.330000	23.950205	0.000537	20.766357
434.110200	-3.012700	3.785800	-11.404000	23.963320	0.000537	20.774293
435.101765	-2.993800	3.786000	-11.334000	23.963320	0.000538	20.767655
436.099478	-3.005700	3.784500	-11.374000	23.974344	0.000538	20.768278
437.100118	-3.001500	3.784600	-11.359000	23.964068	0.000540	20.765560
438.100995	-3.009400	3.784300	-11.387000	23.982654	0.000539	20.781827
439.103651	-3.008000	3.783600	-11.380000	23.987280	0.000538	20.769871
440.102057	-2.985000	3.783700	-11.293000	23.987255	0.000538	20.752302
441.101436	-3.013400	3.783900	-11.402000	24.017466	0.000539	20.756520
442.105295	-3.001400	3.783200	-11.354000	23.984319	0.000540	20.776860
443.103318	-2.984000	3.783000	-11.288000	23.996588	0.000540	20.768300
444.105998	-2.994300	3.783100	-11.327000	24.002086	0.000540	20.767649
445.105073	-2.976600	3.781700	-11.256000	23.944154	0.000541	20.761237
446.104031	-3.001900	3.781000	-11.348000	23.915382	0.000540	20.756567
447.106590	-2.969200	3.781200	-11.226000	23.920982	0.000540	20.765027
448.104254	-3.001000	3.781600	-11.348000	23.948379	0.000541	20.777802
449.103887	-2.994700	3.782300	-11.326000	23.980210	0.000541	20.774160
450.104554	-3.008500	3.781400	-11.376000	23.995714	0.000540	20.771216
451.104515	-2.991600	3.781400	-11.311000	24.022762	0.000543	20.763729
452.106798	-3.000900	3.780100	-11.343000	24.008353	0.000540	20.803806
453.108086	-2.979000	3.780600	-11.262000	24.030871	0.000540	20.764749
454.104895	-3.000400	3.780100	-11.341000	24.032169	0.000539	20.784542
455.112177	-3.010300	3.780000	-11.378000	24.027290	0.000541	20.773011
456.106807	-2.994900	3.779300	-11.318000	23.988519	0.000542	20.777752
457.107682	-3.012100	3.778400	-11.379000	23.978291	0.000538	20.792625
458.108896	-2.982300	3.779800	-11.272000	24.014851	0.000541	20.778081
459.107960	-3.004100	3.777400	-11.347000	24.027493	0.000539	20.778431
460.107515	-3.009200	3.778700	-11.369000	24.031199	0.000541	20.780250
461.111123	-2.999400	3.778200	-11.332000	24.038043	0.000540	20.807503
462.106850	-2.973400	3.779800	-11.238000	24.037898	0.000541	20.804512
463.107952	-2.995100	3.776800	-11.312000	24.042131	0.000540	20.795008
464.108850	-3.011900	3.776400	-11.373000	24.028621	0.000540	20.760121
465.109553	-3.000400	3.776300	-11.330000	23.999607	0.000542	20.749990
466.110370	-3.007200	3.776300	-11.355000	24.018297	0.000543	20.781062
467.110713	-2.993800	3.775800	-11.303000	24.028476	0.000540	20.777993
468.111382	-2.969100	3.778000	-11.215000	24.039826	0.000541	20.774203
469.109610	-2.996500	3.775900	-11.314000	24.035277	0.000540	20.767744
470.115919	-2.971500	3.777000	-11.222000	24.040904	0.000541	20.767224
471.112091	-2.999500	3.775000	-11.322000	24.046182	0.000540	20.780578
472.112086	-3.008300	3.773200	-11.350000	24.039340	0.000543	20.794105
473.115576	-2.987400	3.774400	-11.275000	24.032971	0.000543	20.766855
474.113349	-3.013400	3.773500	-11.369000	24.033895	0.000543	20.782954
475.112239	-3.012700	3.773600	-11.367000	24.045298	0.000543	20.792493
476.113715	-3.035000	3.772800	-11.450000	24.055823	0.000545	20.775073
477.114305	-3.007700	3.774700	-11.353000	24.103675	0.000544	20.787029
478.118094	-3.004900	3.775200	-11.344000	24.124653	0.000542	20.786258
479.115388	-2.996500	3.774100	-11.308000	24.102933	0.000542	20.779647
480.115736	-3.013500	3.772100	-11.367000	24.106891	0.000543	20.781246
481.114213	-2.982600	3.774200	-11.256000	24.147128	0.000542	20.809748
482.115098	-2.976800	3.773000	-11.230000	24.134419	0.000543	20.780406
483.113671	-2.984400	3.773000	-11.260000	24.130888	0.000542	20.772597
484.113938	-2.961900	3.773200	-11.175000	24.154902	0.000541	20.787200
485.113059	-2.988700	3.772500	-11.274000	24.115815	0.000543	20.796360
486.113690	-2.972000	3.773000	-11.212000	24.136369	0.000544	20.799906
487.119086	-3.009000	3.771300	-11.347000	24.127986	0.000544	20.788179
488.116718	-3.009400	3.771200	-11.349000	24.130053	0.000542	20.790726
489.121438	-3.017600	3.770500	-11.377000	24.129559	0.000543	20.761781
490.117150	-2.995100	3.770900	-11.294000	24.165614	0.000543	20.768546
491.116718	-2.991200	3.771600	-11.280000	24.150938	0.000543	20.800767
492.118287	-3.005000	3.769700	-11.327000	24.166242	0.000543	20.795728
493.118351	-2.984200	3.770300	-11.250000	24.175325	0.000542	20.796778
494.129156	-2.983000	3.769900	-11.244000	24.144375	0.000543	20.790391
495.117621	-2.999400	3.769800	-11.307000	24.186205	0.000543	20.779241
496.118987	-3.023400	3.768900	-11.394000	24.215566	0.000545	20.814855
497.118508	-3.026500	3.766800	-11.398000	24.182976	0.000541	20.798762
498.119258	-2.978600	3.768500	-11.224000	24.237166	0.000543	20.799062
499.119456	-3.005000	3.768300	-11.323000	24.241145	0.000543	20.784562
500.119650	-3.016000	3.766800	-11.360000	24.247102	0.000542	20.793382
501.119321	-3.000000	3.766600	-11.299000	24.234737	0.000543	20.775764
502.121675	-2.989800	3.768500	-11.267000	24.259543	0.000543	20.777412
503.122500	-2.987400	3.767600	-11.255000	24.271191	0.000542	20.787199
504.120258	-3.003300	3.766800	-11.312000	24.282811	0.000542	20.813079
505.120768	-3.006000	3.767700	-11.325000	24.264379	0.000544	20.777047
506.122253	-2.990400	3.767900	-11.267000	24.259602	0.000545	20.778894
507.120804	-2.996100	3.767400	-11.286000	24.241519	0.000542	20.783041
508.122089	-2.996400	3.767500	-11.288000	24.265160	0.000542	20.774986
509.125258	-2.981100	3.765600	-11.225000	24.298273	0.000543	20.775959
510.123097	-2.985100	3.766200	-11.242000	24.298925	0.000544	20.801744
511.124079	-2.987600	3.765100	-11.248000	24.308503	0.000544	20.781005
512.125190	-3.001100	3.765100	-11.298000	24.307536	0.000542	20.780509
513.126773	-2.999400	3.764800	-11.292000	24.279206	0.000543	20.797135
514.125448	-2.984400	3.765400	-11.237000	24.293711	0.000544	20.796513
515.125101	-3.016100	3.763100	-11.349000	24.303841	0.000544	20.817580
516.125023	-2.982200	3.765100	-11.228000	24.295957	0.000545	20.780274
517.126217	-2.988600	3.764300	-11.249000	24.291310	0.000545	20.795527
518.126148	-2.974500	3.765100	-11.198000	24.269517	0.000545	20.808280
519.125289	-2.995600	3.763600	-11.274000	24.271037	0.000545	20.771872
520.124972	-2.994600	3.761900	-11.264000	24.296940	0.000546	20.786001
521.126251	-3.015000	3.761500	-11.340000	24.307716	0.000544	20.811509
522.129798	-3.007400	3.760800	-11.308000	24.308714	0.000545	20.798760
523.127660	-3.001900	3.762100	-11.293000	24.313542	0.000544	20.786535
524.131938	-3.011000	3.761500	-11.324000	24.301478	0.000544	20.794821
525.129401	-3.011300	3.761400	-11.325000	24.308251	0.000544	20.801141
526.126511	-3.000500	3.761200	-11.285000	24.333877	0.000544	20.807407
527.126746	-3.006600	3.760600	-11.305000	24.336169	0.000545	20.802120
528.128324	-2.995900	3.761700	-11.269000	24.369629	0.000545	20.774046
529.125251	-3.019000	3.759700	-11.349000	24.379805	0.000546	20.776194
530.126679	-3.004900	3.760000	-11.298000	24.432095	0.000545	20.813004
531.128594	-3.012600	3.760100	-11.327000	24.406749	0.000545	20.822190
532.127779	-3.007100	3.760900	-11.308000	24.398816	0.000547	20.821344
533.128792	-2.994600	3.760000	-11.259000	24.393571	0.000544	20.784314
534.130567	-3.030600	3.759000	-11.392000	24.362803	0.000543	20.804656
535.128555	-2.989000	3.760000	-11.238000	24.343946	0.000544	20.811344
536.127799	-2.994000	3.759700	-11.256000	24.339050	0.000546	20.796001
537.129349	-2.993600	3.759000	-11.252000	24.336115	0.000546	20.790212
538.135527	-2.989100	3.758600	-11.233000	24.334400	0.000545	20.802716
539.129695	-3.003000	3.758200	-11.285000	24.377712	0.000544	20.792111
540.131582	-2.990400	3.757200	-11.235000	24.412542	0.000545	20.800975
541.132420	-2.988000	3.757500	-11.226000	24.411124	0.000544	20.824208
542.130045	-2.979200	3.757900	-11.194000	24.424012	0.000543	20.796361
543.133452	-3.000500	3.756200	-11.268000	24.429190	0.000545	20.810089
544.133848	-2.987600	3.755800	-11.219000	24.472494	0.000547	20.796162
545.131842	-3.005500	3.756700	-11.290000	24.437178	0.000543	20.822845
546.131424	-2.996300	3.756800	-11.255000	24.458224	0.000544	20.803656
547.132195	-2.985300	3.756400	-11.213000	24.466163	0.000546	20.799767
548.133287	-3.004900	3.756700	-11.288000	24.443209	0.000544	20.813248
549.131268	-3.017400	3.754100	-11.327000	24.461020	0.000544	20.792237
550.136676	-3.018400	3.754800	-11.332000	24.466642	0.000544	20.792661
551.132777	-2.996900	3.754500	-11.251000	24.464659	0.000546	20.810587
552.134127	-2.993200	3.754400	-11.237000	24.416949	0.000544	20.798284
553.132788	-3.001400	3.754200	-11.268000	24.403722	0.000545	20.806825
554.142646	-3.017300	3.753400	-11.325000	24.433127	0.000545	20.807876
555.133740	-3.004600	3.752100	-11.272000	24.473822	0.000543	20.822150
556.133424	-2.993400	3.752200	-11.231000	24.484892	0.000544	20.810023
557.133076	-2.990600	3.752600	-11.222000	24.482758	0.000544	20.817840
558.133446	-3.004600	3.752800	-11.275000	24.492337	0.000545	20.809432
559.135931	-2.990400	3.753000	-11.222000	24.448363	0.000545	20.816049
560.135614	-3.015800	3.751500	-11.313000	24.447943	0.000543	20.820843
561.134310	-3.014600	3.751500	-11.309000	24.465208	0.000546	20.808766
562.133931	-3.013000	3.750900	-11.301000	24.460834	0.000545	20.814336
563.134711	-3.000500	3.751800	-11.256000	24.434071	0.000545	20.806452
564.134241	-2.993100	3.751000	-11.225000	24.484372	0.000544	20.825623
565.133851	-3.008000	3.750800	-11.282000	24.458679	0.000543	20.818811
566.135143	-3.003000	3.752300	-11.267000	24.470723	0.000545	20.827576
567.135110	-2.977200	3.750100	-11.164000	24.501269	0.000544	20.827876
568.137781	-2.990800	3.751300	-11.219000	24.525798	0.000544	20.811709
569.137113	-3.012500	3.748300	-11.291000	24.548185	0.000544	20.812834
570.137605	-2.990400	3.749600	-11.212000	24.525900	0.000545	20.833622
571.139161	-3.010800	3.749100	-11.287000	24.489940	0.000545	20.818881
572.136515	-3.000900	3.750200	-11.254000	24.494141	0.000543	20.837794
573.136943	-3.007600	3.749800	-11.277000	24.454248	0.000543	20.852297
574.136924	-3.007600	3.749800	-11.277000	24.460716	0.000544	20.821804
575.138269	-2.998800	3.748000	-11.239000	24.482738	0.000544	20.811181
576.136070	-2.993500	3.747200	-11.217000	24.509405	0.000544	20.817547
577.138699	-2.995700	3.748400	-11.228000	24.499156	0.000543	20.820540
578.137472	-3.016700	3.746300	-11.301000	24.541519	0.000544	20.823689
579.138011	-2.996800	3.747000	-11.228000	24.545180	0.000543	20.809819
580.139439	-3.002500	3.746700	-11.249000	24.519586	0.000543	20.823020
581.141087	-3.004700	3.746100	-11.255000	24.483397	0.000544	20.837446
582.141638	-2.998900	3.747700	-11.238000	24.466091	0.000544	20.827670
583.140755	-2.991200	3.747300	-11.208000	24.477655	0.000542	20.819358
584.141127	-3.004700	3.747900	-11.261000	24.465770	0.000544	20.815494
585.141180	-2.999000	3.745800	-11.233000	24.457492	0.000546	20.832319
586.141442	-3.017000	3.745400	-11.299000	24.491967	0.000543	20.821389
587.144580	-3.010000	3.745600	-11.274000	24.540027	0.000545	20.830726
588.141390	-2.985600	3.745800	-11.183000	24.552239	0.000544	20.830652
589.142303	-3.002000	3.744000	-11.238000	24.512324	0.000543	20.832329
590.141281	-2.999800	3.745400	-11.235000	24.498023	0.000544	20.827464
591.141752	-2.962600	3.746300	-11.098000	24.497328	0.000541	20.827241
592.141414	-3.000400	3.744200	-11.233000	24.516778	0.000544	20.816410
593.146351	-2.996200	3.744000	-11.216000	24.527531	0.000544	20.839526
594.141294	-2.991500	3.742900	-11.196000	24.554965	0.000545	20.835284
595.142487	-2.997500	3.744600	-11.223000	24.553576	0.000544	20.827726
596.142087	-2.994200	3.743600	-11.208000	24.568451	0.000543	20.846443
597.143897	-2.989600	3.744000	-11.192000	24.553480	0.000543	20.836164
598.146263	-3.004200	3.741700	-11.240000	24.591511	0.000544	20.847770
599.143921	-2.996400	3.742200	-11.212000	24.609645	0.000544	20.841783
600.145151	-2.987600	3.743000	-11.181000	24.637602	0.000541	20.845180
601.146826	-3.003200	3.741100	-11.235000	24.589029	0.000541	20.844331
602.146374	-2.975900	3.741900	-11.134000	24.591670	0.000543	20.836076
603.148211	-2.977300	3.742500	-11.141000	24.607342	0.000541	20.844688
604.150490	-2.995800	3.740800	-11.206000	24.594664	0.000542	20.850459
605.149068	-2.992900	3.740400	-11.193000	24.628017	0.000543	20.836037
606.149858	-2.993200	3.741200	-11.196000	24.641301	0.000541	20.856004
607.152611	-3.017100	3.739700	-11.282000	24.631279	0.000542	20.843577
608.150639	-3.023000	3.739100	-11.302000	24.628599	0.000542	20.841836
609.150580	-2.980200	3.740400	-11.147000	24.620643	0.000543	20.831957
610.156207	-2.997300	3.739600	-11.208000	24.612339	0.000544	20.844486
611.151843	-3.027400	3.738700	-11.317000	24.631092	0.000541	20.846234
612.148752	-3.028800	3.739000	-11.324000	24.650572	0.000542	20.858194
613.150964	-3.007600	3.738700	-11.243000	24.655096	0.000542	20.850880
614.150157	-2.998200	3.738800	-11.209000	24.643932	0.000543	20.849161
615.149200	-3.019600	3.738400	-11.288000	24.648439	0.000543	20.855105
616.150077	-3.020600	3.738300	-11.291000	24.612973	0.000544	20.839434
617.151371	-3.004100	3.737300	-11.226000	24.614370	0.000542	20.839413
618.149860	-2.995200	3.737700	-11.194000	24.635585	0.000542	20.852165
619.149852	-2.968900	3.737800	-11.096000	24.636184	0.000541	20.856559
620.153316	-2.987700	3.738200	-11.167000	24.655262	0.000542	20.854840
621.152643	-2.995300	3.737500	-11.194000	24.633254	0.000542	20.846033
622.152496	-3.005000	3.736300	-11.227000	24.629128	0.000542	20.854220
623.153731	-3.005600	3.736000	-11.228000	24.649948	0.000539	20.849033
624.152368	-2.992300	3.737300	-11.182000	24.685440	0.000542	20.859991
625.152957	-3.005800	3.736000	-11.229000	24.716150	0.000543	20.859988
626.154100	-2.988000	3.736800	-11.164000	24.743886	0.000540	20.866958
627.153002	-3.003600	3.735500	-11.219000	24.724341	0.000541	20.860621
628.151726	-2.988700	3.735800	-11.164000	24.729863	0.000541	20.850516
629.153330	-3.006300	3.735700	-11.230000	24.691745	0.000541	20.852094
630.153329	-3.013800	3.735500	-11.257000	24.673021	0.000541	20.850375
631.155186	-2.994600	3.735000	-11.184000	24.642610	0.000541	20.865377
632.156921	-2.989300	3.733700	-11.160000	24.692648	0.000540	20.868646
633.156057	-3.010500	3.733900	-11.240000	24.712719	0.000538	20.854649
634.154732	-2.985000	3.734200	-11.145000	24.700364	0.000541	20.866432
635.154283	-2.985600	3.733100	-11.145000	24.677859	0.000540	20.843850
636.157150	-2.999200	3.733600	-11.198000	24.711037	0.000540	20.867185
637.155924	-2.988700	3.732700	-11.155000	24.716785	0.000541	20.878642
638.156486	-3.004700	3.731600	-11.211000	24.734543	0.000542	20.857583
639.154870	-3.005900	3.731700	-11.216000	24.759091	0.000540	20.873682
640.155567	-3.008900	3.733400	-11.233000	24.800471	0.000540	20.890078
641.159257	-3.005900	3.730800	-11.213000	24.822479	0.000540	20.855743
642.155025	-2.989200	3.732800	-11.156000	24.817064	0.000540	20.870222
643.156494	-3.017400	3.730300	-11.255000	24.764895	0.000541	20.875239
644.157683	-2.992500	3.733100	-11.170000	24.724540	0.000539	20.859398
645.155129	-2.997000	3.731900	-11.184000	24.692984	0.000539	20.853337
646.155811	-2.999100	3.731300	-11.189000	24.632349	0.000539	20.846073
647.159796	-2.994300	3.731400	-11.172000	24.706810	0.000540	20.865314
648.154728	-2.999900	3.730800	-11.192000	24.702833	0.000539	20.861797
649.156673	-2.983000	3.731100	-11.129000	24.678915	0.000537	20.878098
650.158243	-2.997100	3.728600	-11.174000	24.687272	0.000538	20.877950
651.156390	-2.978800	3.730200	-11.110000	24.702223	0.000537	20.866875
652.156408	-2.983100	3.730000	-11.127000	24.723810	0.000540	20.861037
653.158471	-2.978700	3.730100	-11.110000	24.731991	0.000538	20.841272
654.156743	-2.996300	3.729600	-11.174000	24.737298	0.000538	20.848020
655.156723	-3.010000	3.728900	-11.223000	24.745031	0.000538	20.860995
656.159829	-3.014800	3.728000	-11.239000	24.778901	0.000539	20.850890
657.155706	-3.009300	3.728700	-11.220000	24.826846	0.000539	20.850168
658.156310	-3.018100	3.727700	-11.250000	24.804023	0.000538	20.841963
659.159975	-3.006700	3.726700	-11.204000	24.818599	0.000539	20.855642
660.157065	-2.987300	3.726900	-11.132000	24.821536	0.000539	20.833461
661.157335	-3.010900	3.727200	-11.221000	24.845956	0.000539	20.827622
662.159702	-2.980300	3.726500	-11.105000	24.791077	0.000537	20.855522
663.157096	-3.003900	3.726900	-11.194000	24.804511	0.000539	20.842926
664.155932	-2.995700	3.727300	-11.164000	24.748512	0.000537	20.830825
665.158779	-3.010700	3.726500	-11.219000	24.732172	0.000537	20.835290
666.155532	-3.003500	3.727200	-11.194000	24.769231	0.000536	20.827910
667.157762	-2.973700	3.727100	-11.081000	24.815064	0.000538	20.820327
668.160044	-3.017400	3.725200	-11.240000	24.805495	0.000536	20.847233
669.157857	-3.004000	3.725900	-11.191000	24.824192	0.000534	20.835178
670.156858	-3.012000	3.723900	-11.216000	24.816916	0.000536	20.824556
671.160324	-3.000100	3.725800	-11.176000	24.809406	0.000535	20.838356
672.159690	-2.998300	3.725000	-11.168000	24.774020	0.000536	20.823233
673.157567	-3.010100	3.723200	-11.206000	24.781558	0.000537	20.826057
674.157582	-3.009500	3.723400	-11.204000	24.777113	0.000537	20.819698
675.157981	-3.016000	3.724300	-11.231000	24.806582	0.000536	20.821772
676.159715	-3.001700	3.723200	-11.175000	24.832740	0.000536	20.826213
677.162554	-2.986600	3.723100	-11.118000	24.821130	0.000537	20.822621
678.160563	-2.985100	3.723000	-11.113000	24.826129	0.000538	20.834277
679.160969	-3.011600	3.722800	-11.210000	24.817378	0.000535	20.818857
680.165108	-3.035000	3.721200	-11.293000	24.821310	0.000535	20.828018
681.162755	-3.006500	3.721100	-11.187000	24.808878	0.000536	20.831188
682.163655	-2.985800	3.722800	-11.115000	24.800850	0.000537	20.830244
683.166406	-2.989000	3.721100	-11.121000	24.792941	0.000535	20.826574
684.162231	-2.997500	3.720200	-11.150000	24.773972	0.000535	20.833142
685.163578	-2.999700	3.721100	-11.161000	24.764152	0.000536	20.812856
686.166533	-2.983000	3.721200	-11.099000	24.790939	0.000533	20.814608
687.164032	-2.993700	3.719700	-11.135000	24.864244	0.000533	20.809467
688.164231	-3.015100	3.719600	-11.214000	24.869962	0.000535	20.799085
689.168612	-2.980300	3.720700	-11.088000	24.883942	0.000533	20.819279
690.165799	-3.005700	3.719600	-11.179000	24.900850	0.000535	20.805904
691.164359	-2.996500	3.720500	-11.148000	24.888871	0.000534	20.789139
692.167863	-2.999700	3.719100	-11.155000	24.889967	0.000532	20.791188
693.165595	-3.014400	3.718800	-11.208000	24.887359	0.000532	20.824131
694.165003	-3.005000	3.718700	-11.173000	24.910183	0.000535	20.803417
695.167902	-3.016900	3.719000	-11.219000	24.919216	0.000534	20.802526
696.166552	-3.000600	3.718100	-11.155000	24.890279	0.000534	20.814260
697.166938	-2.998300	3.718700	-11.149000	24.916336	0.000531	20.791101
698.169511	-3.015400	3.718200	-11.211000	24.927332	0.000530	20.814466
699.167822	-2.997400	3.717900	-11.143000	24.891030	0.000533	20.788936
700.167754	-2.990600	3.717300	-11.116000	24.867317	0.000533	20.803069
701.170413	-2.973800	3.718800	-11.058000	24.829916	0.000532	20.811051
702.168004	-3.015300	3.718300	-11.211000	24.835816	0.000531	20.778565
703.168435	-3.014100	3.716500	-11.201000	24.844722	0.000533	20.793194
704.170574	-2.995900	3.717500	-11.135000	24.874535	0.000533	20.788976
705.169161	-3.008300	3.716900	-11.180000	24.889956	0.000530	20.788806
706.172227	-3.006900	3.716300	-11.173000	24.913228	0.000533	20.806000
707.171482	-3.026700	3.715500	-11.245000	24.907094	0.000531	20.797947
708.169852	-2.998600	3.715700	-11.140000	24.930690	0.000533	20.801715
709.172317	-3.015300	3.715600	-11.203000	24.964510	0.000529	20.810056
710.171327	-2.989900	3.715600	-11.108000	24.933705	0.000531	20.786723
711.171056	-3.003200	3.716000	-11.159000	24.921624	0.000529	20.810633
712.173794	-2.983900	3.715000	-11.084000	24.934703	0.000530	20.796260
713.172404	-3.011500	3.713900	-11.183000	24.934531	0.000529	20.793242
714.171452	-3.017800	3.713200	-11.205000	24.917926	0.000530	20.785111
715.176463	-2.997600	3.716100	-11.138000	24.887420	0.000531	20.782467
716.175546	-2.997100	3.713300	-11.128000	24.862134	0.000529	20.795496
717.173161	-3.011700	3.714000	-11.185000	24.906218	0.000530	20.789955
718.173201	-3.004100	3.712600	-11.152000	24.932127	0.000529	20.787510
719.174212	-2.977100	3.713900	-11.056000	24.935039	0.000530	20.804658
720.172002	-2.986500	3.712400	-11.086000	24.904255	0.000529	20.766173
721.174122	-3.023300	3.711400	-11.219000	24.892053	0.000531	20.777635
722.173285	-2.998100	3.712900	-11.130000	24.852640	0.000529	20.772691
723.172873	-2.988700	3.712500	-11.095000	24.862491	0.000527	20.783052
724.173979	-3.013500	3.712500	-11.187000	24.875921	0.000530	20.764288
725.174465	-3.003600	3.710500	-11.143000	24.889243	0.000527	20.788091
726.175013	-2.999600	3.711300	-11.132000	24.868037	0.000527	20.771549
727.175514	-3.009700	3.711100	-11.168000	24.867117	0.000528	20.784376
728.176466	-2.993600	3.711200	-11.109000	24.860729	0.000528	20.769429
729.175770	-3.000800	3.709100	-11.130000	24.871196	0.000528	20.770926
730.178307	-2.994200	3.710700	-11.110000	24.883956	0.000527	20.788474
731.177681	-2.998400	3.710500	-11.125000	24.851506	0.000529	20.779613
732.177359	-2.999400	3.709600	-11.126000	24.858370	0.000527	20.767537
733.175479	-3.004200	3.710000	-11.145000	24.866776	0.000527	20.784033
734.176849	-3.003100	3.710200	-11.141000	24.893581	0.000526	20.796712
735.176953	-3.007200	3.709900	-11.156000	24.893458	0.000527	20.788053
736.178949	-2.985800	3.709600	-11.075000	24.926478	0.000526	20.773305
737.180571	-2.972500	3.709700	-11.026000	24.942293	0.000528	20.762151
738.179966	-2.995300	3.709000	-11.108000	24.941644	0.000526	20.772406
739.180072	-3.001300	3.708400	-11.129000	24.936924	0.000525	20.751546
740.180497	-2.991300	3.708300	-11.092000	24.914470	0.000524	20.743708
741.180049	-3.004700	3.706900	-11.136000	24.901144	0.000526	20.773956
742.180585	-3.015800	3.707500	-11.180000	24.929989	0.000525	20.777778
743.181795	-2.996700	3.707300	-11.109000	24.911208	0.000526	20.769359
744.181032	-3.003700	3.707300	-11.135000	24.896296	0.000522	20.763401
745.185130	-2.997500	3.706800	-11.110000	24.896744	0.000524	20.772859
746.182415	-3.007300	3.706600	-11.146000	24.934085	0.000524	20.766242
747.182999	-3.002700	3.706800	-11.129000	24.935605	0.000522	20.777250
748.183141	-2.987200	3.706900	-11.072000	24.882945	0.000525	20.781295
749.184661	-3.003700	3.707000	-11.134000	24.873073	0.000522	20.750998
750.182704	-3.011800	3.706000	-11.161000	24.938045	0.000523	20.763104
751.185592	-3.000500	3.705400	-11.118000	24.979883	0.000521	20.760527
752.185701	-3.013400	3.704200	-11.161000	24.949506	0.000523	20.771288
753.183904	-2.989700	3.705900	-11.079000	24.920611	0.000522	20.762675
754.184316	-2.989600	3.706200	-11.079000	24.895552	0.000522	20.776879
755.185167	-3.011000	3.704500	-11.153000	24.864742	0.000521	20.776776
756.185614	-3.007700	3.703800	-11.140000	24.892640	0.000521	20.772059
757.187447	-2.996900	3.704400	-11.101000	24.927422	0.000523	20.776150
758.185982	-2.970800	3.703800	-11.002000	24.965539	0.000522	20.766992
759.183808	-2.984200	3.703700	-11.052000	25.000146	0.000522	20.758581
760.186107	-2.978400	3.704800	-11.034000	25.017677	0.000522	20.774756
761.186416	-2.982000	3.702900	-11.041000	24.977074	0.000521	20.773828
762.185329	-3.007700	3.702100	-11.134000	24.919843	0.000522	20.765697
763.186719	-3.015200	3.702900	-11.164000	24.926206	0.000522	20.755014
764.188360	-3.012800	3.702100	-11.153000	24.911118	0.000519	20.755043
765.186687	-2.995700	3.703700	-11.094000	24.935227	0.000520	20.778768
766.189638	-2.992400	3.702400	-11.078000	24.974913	0.000522	20.771185
767.187901	-3.027600	3.700600	-11.202000	25.001321	0.000521	20.773985
768.188910	-3.000100	3.702000	-11.105000	25.035726	0.000521	20.760630
769.188931	-3.000300	3.702200	-11.107000	25.034284	0.000520	20.760131
770.190147	-2.985600	3.702000	-11.052000	24.970337	0.000520	20.760428
771.187458	-2.983500	3.702500	-11.046000	24.945349	0.000519	20.755736
772.189831	-3.000800	3.700500	-11.104000	24.943238	0.000519	20.764996
773.194149	-3.000800	3.700800	-11.105000	24.919667	0.000520	20.764572
774.191170	-3.023200	3.699400	-11.183000	24.940227	0.000517	20.752017
775.191286	-2.994400	3.700000	-11.079000	24.904948	0.000517	20.753117
776.192547	-3.009100	3.700200	-11.133000	24.967083	0.000516	20.747205
777.191061	-3.003200	3.699200	-11.107000	24.970813	0.000519	20.756164
778.192031	-2.993100	3.699600	-11.072000	25.009125	0.000518	20.751946
779.193308	-3.013800	3.698200	-11.144000	25.022948	0.000518	20.751122
780.194411	-3.013100	3.699000	-11.144000	25.034908	0.000516	20.775931
781.194015	-2.985100	3.698500	-11.040000	25.027474	0.000517	20.758985
782.195172	-3.020800	3.699400	-11.174000	25.019891	0.000517	20.746157
783.193160	-3.009100	3.698700	-11.129000	24.965666	0.000518	20.755740
784.192920	-3.001200	3.697400	-11.097000	24.957290	0.000518	20.762506
785.197415	-2.971400	3.698300	-10.987000	24.958580	0.000516	20.747205
786.195290	-3.001200	3.697200	-11.094000	24.949683	0.000517	20.764353
787.196488	-3.023900	3.696600	-11.177000	24.970221	0.000518	20.751777
788.198258	-2.994200	3.697700	-11.072000	24.983148	0.000517	20.760485
789.196556	-3.000100	3.697000	-11.091000	24.999054	0.000519	20.756536
790.196113	-3.000600	3.694900	-11.086000	25.001243	0.000517	20.739766
791.199669	-2.990000	3.695900	-11.050000	24.988789	0.000516	20.754292
792.197375	-2.989900	3.696400	-11.051000	25.015340	0.000516	20.762452
793.195423	-2.995900	3.696800	-11.074000	25.028513	0.000516	20.755760
794.215630	-2.997400	3.694600	-11.073000	25.031171	0.000517	20.749419
795.198545	-3.023600	3.695200	-11.171000	25.081117	0.000515	20.753089
796.197679	-2.972100	3.696500	-10.985000	25.086708	0.000517	20.748269
797.200628	-3.003900	3.693700	-11.094000	25.083172	0.000514	20.757522
798.199401	-2.985900	3.694700	-11.031000	25.040089	0.000515	20.734662
799.198476	-3.006300	3.694000	-11.105000	25.042246	0.000514	20.761959
800.201132	-2.996500	3.694600	-11.070000	25.042492	0.000514	20.742765
801.199210	-3.001400	3.693500	-11.085000	25.040582	0.000515	20.756969
802.200943	-3.010700	3.694300	-11.121000	25.055341	0.000513	20.752818
803.207436	-3.014800	3.692400	-11.130000	25.093178	0.000513	20.742435
804.200319	-3.006300	3.692700	-11.099000	25.055912	0.000511	20.752917
805.201321	-2.999400	3.692200	-11.073000	25.115698	0.000514	20.738964
806.205954	-3.011800	3.693200	-11.122000	25.080967	0.000513	20.742980
807.202810	-3.003600	3.693000	-11.091000	25.092779	0.000511	20.744881
808.203218	-2.988600	3.692100	-11.033000	25.075644	0.000512	20.748542
809.206054	-3.008300	3.690500	-11.101000	25.059510	0.000510	20.742304
810.202297	-2.990900	3.693000	-11.044000	25.041782	0.000513	20.734466
811.202711	-2.978300	3.691300	-10.992000	25.026638	0.000513	20.750085
812.206313	-2.998500	3.691400	-11.068000	25.032257	0.000510	20.737707
813.204427	-2.992100	3.690800	-11.042000	24.996308	0.000511	20.754253
814.203990	-2.999400	3.690200	-11.068000	25.005780	0.000510	20.750959
815.205032	-2.980000	3.690500	-10.997000	25.016591	0.000510	20.742845
816.203581	-2.993400	3.690800	-11.047000	25.055304	0.000510	20.735237
817.205256	-2.981700	3.689700	-11.001000	25.090349	0.000510	20.750502
818.205270	-2.978100	3.690200	-10.989000	25.117149	0.000510	20.733782
819.204891	-2.986600	3.689200	-11.017000	25.120702	0.000508	20.758687
820.205518	-3.013500	3.688600	-11.115000	25.085774	0.000509	20.731209
821.204638	-2.990200	3.689500	-11.032000	25.075033	0.000510	20.752197
822.205151	-3.000800	3.687700	-11.065000	25.067126	0.000510	20.745208
823.204766	-3.015500	3.687600	-11.119000	25.055790	0.000509	20.732405
824.205901	-3.004800	3.687500	-11.080000	25.069558	0.000509	20.723940
825.204066	-2.977100	3.688200	-10.980000	25.104914	0.000509	20.737147
826.207478	-3.031000	3.686800	-11.173000	25.131332	0.000507	20.733321
827.207303	-3.010600	3.687700	-11.101000	25.115646	0.000508	20.759776
828.204733	-2.983200	3.686800	-10.998000	25.121265	0.000509	20.747398
829.206718	-3.008700	3.686900	-11.092000	25.088522	0.000507	20.721640
830.206699	-2.999400	3.686700	-11.057000	25.103961	0.000507	20.740458
831.205689	-3.014600	3.685700	-11.110000	25.098191	0.000508	20.751261
832.205199	-2.988700	3.686600	-11.017000	25.107584	0.000508	20.759269
833.208230	-2.995000	3.687300	-11.043000	25.144105	0.000508	20.726703
834.206104	-3.010800	3.685500	-11.096000	25.119216	0.000508	20.721158
835.205659	-3.001600	3.685200	-11.060000	25.142134	0.000507	20.746537
836.214117	-3.014600	3.685200	-11.109000	25.184839	0.000504	20.749106
837.206381	-2.991700	3.685700	-11.026000	25.216630	0.000507	20.719855
838.207374	-3.016100	3.683800	-11.110000	25.206068	0.000506	20.728217
839.208900	-2.999000	3.684700	-11.049000	25.193739	0.000507	20.755670
840.207035	-2.990200	3.685100	-11.018000	25.190552	0.000505	20.729710
841.208351	-3.008800	3.684800	-11.085000	25.214935	0.000505	20.726214
842.206479	-3.002000	3.684100	-11.059000	25.176605	0.000507	20.733252
843.207033	-2.990900	3.684900	-11.020000	25.164445	0.000505	20.749494
844.207234	-3.003400	3.682800	-11.060000	25.202228	0.000504	20.738588
845.209866	-3.017500	3.684300	-11.117000	25.183460	0.000502	20.726857
846.207450	-3.025900	3.683900	-11.146000	25.196734	0.000503	20.724536
847.209087	-2.970400	3.684800	-10.944000	25.238590	0.000504	20.752810
848.212480	-2.983400	3.682800	-10.986000	25.210003	0.000503	20.721737
849.209013	-2.995600	3.682500	-11.030000	25.166154	0.000503	20.754055
850.209690	-2.972400	3.681400	-10.941000	25.143155	0.000502	20.728594
851.218482	-3.002200	3.682500	-11.054000	25.132337	0.000502	20.743339
852.211442	-2.983100	3.682100	-10.983000	25.111534	0.000503	20.718187
853.212392	-3.012600	3.680000	-11.085000	25.108322	0.000503	20.717334
854.214811	-3.017900	3.681700	-11.110000	25.077793	0.000499	20.721775
855.210843	-3.000300	3.681100	-11.043000	25.083654	0.000500	20.733824
856.213727	-3.009300	3.681200	-11.077000	25.114483	0.000502	20.735848
857.217412	-3.008100	3.681600	-11.074000	25.127359	0.000500	20.742610
858.213355	-3.008500	3.679800	-11.069000	25.148906	0.000502	20.736265
859.214726	-3.007800	3.680700	-11.070000	25.166036	0.000501	20.731177
860.218838	-3.008400	3.679800	-11.070000	25.182017	0.000498	20.696483
861.213714	-3.004000	3.678600	-11.050000	25.154274	0.000499	20.723635
862.216437	-3.013400	3.677800	-11.082000	25.192876	0.000502	20.720663
863.218523	-2.975500	3.680300	-10.949000	25.216687	0.000499	20.729870
864.215918	-2.991400	3.678300	-11.003000	25.221008	0.000500	20.741795
865.218040	-2.974600	3.679200	-10.942000	25.223197	0.000499	20.733561
866.217696	-2.978600	3.678700	-10.956000	25.229357	0.000499	20.712244
867.217103	-3.006500	3.678500	-11.058000	25.214819	0.000499	20.725624
868.218690	-2.996400	3.676900	-11.016000	25.220631	0.000497	20.705853
869.218118	-2.998400	3.677800	-11.027000	25.217945	0.000497	20.730659
870.216441	-2.983000	3.678000	-10.971000	25.220433	0.000497	20.735054
871.219937	-3.000800	3.677400	-11.034000	25.198528	0.000499	20.727760
872.224224	-2.984400	3.676400	-10.971000	25.230718	0.000497	20.737318
873.216234	-2.981500	3.679400	-10.968000	25.198557	0.000495	20.730160
874.220282	-2.997600	3.676600	-11.019000	25.159352	0.000495	20.717827
875.221370	-2.979300	3.675700	-10.950000	25.135683	0.000496	20.740060
876.217451	-3.001900	3.676300	-11.034000	25.145179	0.000497	20.735368
877.215886	-3.008900	3.674700	-11.055000	25.164071	0.000495	20.736317
878.219862	-3.006800	3.674800	-11.048000	25.181871	0.000495	20.730004
879.217789	-3.011800	3.674700	-11.067000	25.227383	0.000495	20.730177
880.217931	-2.999800	3.674700	-11.023000	25.259247	0.000496	20.725658
881.218353	-2.990900	3.674500	-10.989000	25.305927	0.000494	20.736490
882.218966	-3.003200	3.673200	-11.031000	25.304408	0.000492	20.733542
883.216441	-3.014000	3.673600	-11.071000	25.319519	0.000494	20.733542
884.217744	-3.009800	3.672400	-11.052000	25.285567	0.000492	20.739282
885.219073	-2.948000	3.675100	-10.834000	25.233815	0.000492	20.739954
886.223150	-3.003800	3.672700	-11.031000	25.213753	0.000493	20.733089
887.221083	-3.007900	3.672200	-11.045000	25.245051	0.000495	20.735587
888.222944	-3.013600	3.674300	-11.072000	25.194308	0.000493	20.717833
889.220650	-3.013100	3.673100	-11.066000	25.168138	0.000490	20.747038
890.221926	-2.994500	3.672100	-10.995000	25.214596	0.000492	20.758117
891.220044	-3.008700	3.672000	-11.047000	25.204998	0.000491	20.742317
892.219396	-2.979300	3.671700	-10.938000	25.189286	0.000491	20.737922
893.217711	-2.995800	3.672000	-11.000000	25.205048	0.000492	20.742367
894.220382	-2.989800	3.672400	-10.978000	25.205565	0.000491	20.754741
895.218729	-2.991400	3.671700	-10.983000	25.166167	0.000490	20.740792
896.222045	-3.013100	3.670500	-11.059000	25.199401	0.000491	20.740491
897.220780	-3.007200	3.671200	-11.038000	25.208001	0.000488	20.753867
898.222796	-2.990800	3.671600	-10.981000	25.226892	0.000489	20.720200
899.221795	-2.996500	3.669400	-10.994000	25.207222	0.000491	20.741230
900.222063	-3.010800	3.670200	-11.050000	25.210359	0.000487	20.744380
901.227022	-3.004500	3.669900	-11.025000	25.233197	0.000490	20.736488
902.225518	-2.979500	3.671000	-10.937000	25.165335	0.000487	20.767932
903.225268	-3.017400	3.669300	-11.070000	25.177541	0.000488	20.735614
904.225086	-2.982900	3.669000	-10.943000	25.218027	0.000490	20.725525
905.227454	-2.994300	3.668800	-10.984000	25.200926	0.000489	20.726375
906.224073	-2.993600	3.667200	-10.977000	25.201719	0.000488	20.755621
907.225156	-2.992400	3.668500	-10.976000	25.191304	0.000487	20.747536
908.226742	-2.995400	3.668600	-10.988000	25.181534	0.000488	20.742468
909.225520	-2.996500	3.668100	-10.990000	25.236562	0.000486	20.740816
910.228534	-3.019300	3.666400	-11.069000	25.239424	0.000488	20.755543
911.226552	-3.009900	3.666600	-11.035000	25.247847	0.000487	20.758310
912.226027	-2.995400	3.667800	-10.986000	25.203749	0.000487	20.752443
913.226239	-2.995700	3.666600	-10.983000	25.229379	0.000485	20.755416
914.224026	-2.980300	3.666600	-10.927000	25.200020	0.000486	20.749648
915.225962	-2.987700	3.665400	-10.950000	25.185901	0.000486	20.756810
916.225059	-2.990900	3.665900	-10.963000	25.192812	0.000486	20.749050
917.226276	-2.985700	3.664900	-10.941000	25.183683	0.000483	20.759326
918.228282	-3.016200	3.664800	-11.053000	25.201705	0.000482	20.749442
919.228335	-3.008600	3.665300	-11.026000	25.202226	0.000484	20.752337
920.228072	-3.012900	3.663900	-11.038000	25.222383	0.000484	20.738908
921.230406	-3.006200	3.664400	-11.014000	25.228843	0.000483	20.734488
922.228559	-3.009100	3.664700	-11.027000	25.282382	0.000485	20.745567
923.232730	-3.018200	3.663900	-11.057000	25.285462	0.000483	20.740125
924.230939	-3.015500	3.664100	-11.048000	25.268633	0.000483	20.762584
925.231398	-2.997100	3.663100	-10.977000	25.302808	0.000483	20.762283
926.235450	-2.999000	3.663400	-10.986000	25.309941	0.000483	20.764230
927.233608	-2.994500	3.664000	-10.970000	25.330917	0.000484	20.745935
928.232309	-3.007100	3.663000	-11.015000	25.304419	0.000481	20.762952
929.231524	-3.001700	3.663200	-10.995000	25.289976	0.000480	20.748925
930.232686	-2.985000	3.663300	-10.934000	25.331403	0.000481	20.767286
931.234762	-2.993800	3.663100	-10.966000	25.336199	0.000480	20.770206
932.233282	-3.009100	3.662300	-11.019000	25.346557	0.000480	20.764958
933.234199	-2.996300	3.662900	-10.974000	25.372631	0.000479	20.773121
934.234630	-2.994100	3.661600	-10.962000	25.354835	0.000480	20.773270
935.234242	-2.988200	3.662100	-10.942000	25.348622	0.000477	20.780308
936.237438	-2.997700	3.662100	-10.977000	25.302762	0.000478	20.759866
937.234703	-2.991000	3.660400	-10.947000	25.267589	0.000479	20.769597
938.237801	-3.019300	3.659700	-11.048000	25.244921	0.000479	20.766278
939.243666	-2.999600	3.659400	-10.976000	25.221677	0.000477	20.762856
940.235611	-3.001900	3.660500	-10.988000	25.207483	0.000477	20.765676
941.237066	-3.002100	3.659500	-10.985000	25.199455	0.000477	20.757141
942.238916	-3.017700	3.659300	-11.041000	25.180982	0.000477	20.759459
943.237522	-3.000800	3.659000	-10.979000	25.230051	0.000480	20.793075
944.236993	-3.002100	3.658800	-10.983000	25.230794	0.000476	20.780071
945.241082	-3.014500	3.658200	-11.027000	25.213147	0.000475	20.782742
946.235626	-3.012400	3.657600	-11.017000	25.244889	0.000475	20.761504
947.239788	-2.987300	3.659400	-10.931000	25.261094	0.000476	20.784887
948.240990	-2.986200	3.659300	-10.926000	25.238795	0.000473	20.783361
949.239192	-3.003200	3.657100	-10.982000	25.294994	0.000478	20.780042
950.238084	-3.005100	3.656500	-10.987000	25.337668	0.000474	20.768362
951.240785	-2.979300	3.658000	-10.897000	25.335085	0.000474	20.764819
952.237843	-2.993900	3.656100	-10.944000	25.313658	0.000475	20.761323
953.236895	-3.011400	3.656300	-11.010000	25.288358	0.000476	20.797087
954.238738	-3.002800	3.656500	-10.978000	25.265312	0.000473	20.771578
955.236811	-3.008700	3.656100	-10.999000	25.304259	0.000473	20.798354
956.236923	-2.981800	3.656600	-10.902000	25.320742	0.000474	20.781712
957.241100	-2.995400	3.656100	-10.951000	25.350838	0.000471	20.788697
958.238158	-2.991000	3.656100	-10.935000	25.321880	0.000473	20.775743
959.240686	-2.997800	3.653500	-10.951000	25.326183	0.000473	20.776744
960.240570	-3.011800	3.654100	-11.005000	25.343906	0.000471	20.776521
961.240285	-3.006100	3.653000	-10.980000	25.386377	0.000472	20.785502
962.240949	-3.018400	3.653600	-11.027000	25.405093	0.000471	20.766362
963.240951	-3.003800	3.653500	-10.974000	25.400769	0.000470	20.780987
964.240795	-3.024000	3.652200	-11.043000	25.417518	0.000473	20.785477
965.241619	-2.991000	3.654200	-10.928000	25.410509	0.000472	20.781758
966.251076	-2.976100	3.651900	-10.867000	25.386546	0.000472	20.779034
967.243674	-3.011000	3.651500	-10.993000	25.391022	0.000470	20.781157
968.245052	-3.001800	3.652600	-10.963000	25.396984	0.000469	20.777186
969.245006	-3.000100	3.651400	-10.953000	25.374642	0.000467	20.804539
970.244366	-2.984600	3.652100	-10.899000	25.345932	0.000469	20.779504
971.244150	-3.002700	3.651700	-10.964000	25.338154	0.000468	20.789713
972.246724	-2.998000	3.651200	-10.945000	25.362160	0.000470	20.786316
973.244099	-2.987800	3.651200	-10.908000	25.369515	0.000468	20.784217
974.256528	-3.006500	3.649100	-10.970000	25.311875	0.000467	20.787034
975.246653	-2.973700	3.652100	-10.859000	25.352712	0.000468	20.789631
976.244577	-2.990000	3.650900	-10.915000	25.349079	0.000469	20.790724
977.242540	-2.999300	3.648800	-10.943000	25.361558	0.000465	20.789030
978.245786	-3.007700	3.649600	-10.976000	25.305883	0.000467	20.782441
979.245893	-2.985700	3.649700	-10.895000	25.302652	0.000465	20.803852
980.245097	-2.992000	3.647600	-10.913000	25.335384	0.000467	20.779345
981.247278	-2.987400	3.649000	-10.900000	25.399905	0.000465	20.820897
982.249390	-2.983800	3.648600	-10.886000	25.424854	0.000465	20.792844
983.247665	-3.038100	3.646700	-11.078000	25.428160	0.000466	20.796163
984.247473	-3.000600	3.647500	-10.944000	25.403133	0.000464	20.801853
985.247134	-3.005400	3.647300	-10.961000	25.424830	0.000466	20.804673
986.246773	-3.009000	3.647900	-10.975000	25.376616	0.000464	20.790873
987.249733	-3.011600	3.646600	-10.981000	25.396744	0.000464	20.811085
988.249998	-2.989100	3.646300	-10.899000	25.438893	0.000463	20.808838
989.248873	-3.015300	3.645800	-10.993000	25.409716	0.000462	20.813678
990.248420	-2.992400	3.646800	-10.912000	25.421271	0.000464	20.806315
991.245849	-3.000800	3.645700	-10.939000	25.416676	0.000462	20.802175
992.246738	-3.006400	3.646200	-10.961000	25.442047	0.000462	20.807737
993.247586	-2.997500	3.645200	-10.925000	25.393731	0.000462	20.809482
994.250326	-3.005500	3.644300	-10.952000	25.398753	0.000461	20.813101
995.246851	-3.017800	3.643600	-10.995000	25.345220	0.000461	20.812928
996.252912	-3.018500	3.644300	-10.999000	25.341964	0.000461	20.810607
997.248601	-2.993500	3.644400	-10.909000	25.352850	0.000462	20.814899
998.249735	-2.988700	3.644000	-10.891000	25.412968	0.000460	20.826901
999.252748	-2.982100	3.645200	-10.869000	25.426317	0.000462	20.808063
1000.250676	-2.980700	3.644700	-10.863000	25.464187	0.000462	20.829495
1001.248456	-2.974200	3.644700	-10.840000	25.444404	0.000459	20.806785
1002.249401	-3.013300	3.643300	-10.978000	25.453425	0.000460	20.810628
1003.249941	-2.962700	3.644200	-10.795000	25.466695	0.000459	20.808307
1004.248234	-2.982400	3.643100	-10.863000	25.469106	0.000458	20.808831
1005.247919	-2.988200	3.642700	-10.884000	25.487270	0.000460	20.811424
1006.249509	-2.985900	3.641900	-10.874000	25.482052	0.000458	20.826572
1007.250412	-3.005100	3.641500	-10.942000	25.449944	0.000458	20.807132
1008.251380	-2.977800	3.642500	-10.846000	25.442685	0.000456	20.805059
1009.250924	-2.990300	3.641300	-10.887000	25.455434	0.000457	20.824973
1010.250824	-2.985800	3.641100	-10.871000	25.442586	0.000456	20.816813
1011.249594	-2.996900	3.640600	-10.909000	25.421757	0.000458	20.817234
1012.250725	-3.004600	3.640000	-10.936000	25.428343	0.000457	20.827166
1013.250351	-3.007100	3.640000	-10.944000	25.462710	0.000456	20.803356
1014.255519	-3.013700	3.639100	-10.966000	25.440472	0.000454	20.840294
1015.249805	-3.027300	3.637700	-11.012000	25.414300	0.000453	20.814488
1016.250961	-2.994500	3.640100	-10.900000	25.413951	0.000456	20.812241
1017.250960	-3.008200	3.638800	-10.946000	25.433086	0.000455	20.817705
1018.250031	-3.005200	3.637000	-10.927000	25.435471	0.000454	20.821997
1019.250775	-2.989400	3.637500	-10.873000	25.366357	0.000454	20.821349
1020.249073	-3.001700	3.637400	-10.918000	25.374832	0.000453	20.830807
1021.250946	-3.001300	3.638200	-10.918000	25.402171	0.000454	20.831232
1022.251592	-2.990600	3.638000	-10.879000	25.402566	0.000453	20.821671
1023.251606	-2.980300	3.637000	-10.838000	25.400825	0.000453	20.820397
1024.251826	-2.984300	3.637400	-10.854000	25.436113	0.000451	20.842555
1025.252109	-2.979600	3.637100	-10.836000	25.458157	0.000451	20.813958
1026.252835	-2.965100	3.637000	-10.784000	25.479504	0.000452	20.820695
1027.253973	-2.996400	3.636000	-10.894000	25.492228	0.000450	20.840110
1028.256942	-3.019800	3.635500	-10.978000	25.502090	0.000453	20.829151
1029.255534	-2.997800	3.636300	-10.899000	25.483552	0.000451	20.849889
1030.254997	-2.988500	3.635900	-10.864000	25.506812	0.000452	20.833419
1031.255264	-2.997100	3.634700	-10.893000	25.536857	0.000450	20.836564
1032.256434	-2.988500	3.635400	-10.864000	25.498489	0.000451	20.836440
1033.255956	-2.983900	3.635100	-10.846000	25.451244	0.000450	20.831671
1034.277468	-2.988600	3.633900	-10.860000	25.482707	0.000448	20.830075
1035.257337	-2.991700	3.634400	-10.873000	25.455641	0.000448	20.835138
1036.259767	-3.015200	3.634000	-10.956000	25.437776	0.000448	20.840432
1037.258585	-2.990300	3.632700	-10.862000	25.457904	0.000447	20.842151
1038.257339	-2.990600	3.632600	-10.862000	25.475744	0.000447	20.847738
1039.259311	-3.002000	3.632100	-10.903000	25.499352	0.000448	20.857221
1040.259158	-2.990500	3.632000	-10.860000	25.498732	0.000447	20.841900
1041.258725	-2.978500	3.633500	-10.822000	25.478352	0.000446	20.850831
1042.260169	-2.989600	3.630500	-10.853000	25.476931	0.000448	20.838974
1043.257639	-2.988200	3.631300	-10.850000	25.502206	0.000446	20.837328
1044.259753	-2.991000	3.629500	-10.855000	25.501981	0.000444	20.850852
1045.260469	-3.003400	3.631400	-10.906000	25.508214	0.000446	20.857585
1046.261845	-3.013900	3.629200	-10.937000	25.530053	0.000444	20.851068
1047.260728	-2.983400	3.631200	-10.833000	25.524190	0.000445	20.852766
1048.260683	-2.981800	3.630300	-10.824000	25.559974	0.000445	20.846977
1049.263839	-2.971500	3.629700	-10.784000	25.528037	0.000443	20.862319
1050.262713	-3.007200	3.628800	-10.912000	25.484127	0.000444	20.856630
1051.261274	-3.007000	3.628100	-10.909000	25.448210	0.000443	20.858495
1052.262519	-3.007800	3.628300	-10.912000	25.428082	0.000442	20.823585
1053.262862	-2.999200	3.627500	-10.878000	25.405339	0.000441	20.846266
1054.265346	-2.998600	3.628700	-10.881000	25.427109	0.000443	20.860540
1055.263987	-2.990500	3.627000	-10.845000	25.423755	0.000441	20.860490
1056.264595	-3.003200	3.627000	-10.892000	25.419005	0.000442	20.859514
1057.265047	-3.023900	3.626900	-10.966000	25.405388	0.000443	20.859117
1058.265716	-3.023800	3.626100	-10.963000	25.369673	0.000442	20.849808
1059.265069	-2.999500	3.627300	-10.879000	25.452579	0.000442	20.864304
1060.266735	-3.034200	3.625800	-11.000000	25.464556	0.000441	20.861159
1061.265551	-2.998400	3.627500	-10.876000	25.451586	0.000440	20.873263
1062.268423	-3.010600	3.625600	-10.913000	25.460356	0.000442	20.871639
1063.267403	-3.017300	3.624700	-10.936000	25.475987	0.000440	20.865525
1064.266127	-3.014100	3.625000	-10.926000	25.520416	0.000441	20.853718
1065.266982	-2.985800	3.626100	-10.825000	25.487911	0.000439	20.881766
1066.266965	-2.980300	3.625100	-10.803000	25.462661	0.000438	20.871583
1067.267949	-3.020000	3.623400	-10.941000	25.508334	0.000439	20.864343
1068.267941	-2.994000	3.624200	-10.849000	25.534729	0.000440	20.888003
1069.270397	-3.008500	3.623300	-10.899000	25.528460	0.000440	20.870804
1070.270211	-2.995300	3.622900	-10.851000	25.486886	0.000437	20.862245
1071.269634	-2.995600	3.623300	-10.854000	25.546973	0.000438	20.846723
1072.272751	-2.987100	3.621500	-10.817000	25.545856	0.000437	20.880212
1073.282718	-3.008500	3.621300	-10.893000	25.576812	0.000438	20.882378
1074.273258	-3.009100	3.622200	-10.898000	25.603624	0.000438	20.887020
1075.275672	-2.995000	3.622900	-10.850000	25.595824	0.000436	20.865911
1076.271677	-3.011300	3.621000	-10.903000	25.607845	0.000435	20.898845
1077.272635	-3.000800	3.620900	-10.864000	25.638585	0.000436	20.870925
1078.274629	-2.982600	3.621900	-10.802000	25.586279	0.000433	20.886196
1079.272834	-3.017400	3.619500	-10.921000	25.602081	0.000434	20.880729
1080.273517	-2.991200	3.621100	-10.830000	25.571563	0.000435	20.890381
1081.276178	-2.991000	3.621500	-10.831000	25.548083	0.000435	20.885767
1082.272353	-3.025100	3.618900	-10.947000	25.581900	0.000435	20.878479
1083.272303	-3.013300	3.618400	-10.903000	25.551187	0.000432	20.884143
1084.273946	-3.012300	3.619600	-10.903000	25.598748	0.000433	20.885442
1085.274226	-3.011200	3.618500	-10.896000	25.614973	0.000432	20.881348
1086.272290	-3.008300	3.618500	-10.885000	25.639917	0.000434	20.895020
1087.276554	-3.011900	3.619100	-10.899000	25.623150	0.000433	20.878182
1088.274162	-3.026800	3.617900	-10.950000	25.619768	0.000430	20.895646
1089.273775	-2.990800	3.618500	-10.822000	25.616012	0.000431	20.892349
1090.276926	-2.998200	3.618500	-10.848000	25.597107	0.000434	20.881897
1091.273514	-3.011800	3.615900	-10.889000	25.559213	0.000429	20.877980
1092.274934	-3.006900	3.615400	-10.871000	25.612862	0.000431	20.891082
1093.276836	-3.022600	3.616600	-10.931000	25.644592	0.000429	20.899241
1094.298452	-3.012600	3.615300	-10.890000	25.627942	0.000430	20.888209
1095.275465	-2.995800	3.616100	-10.832000	25.603519	0.000429	20.896870
1096.279235	-3.002500	3.614500	-10.852000	25.527752	0.000427	20.883369
1097.275491	-2.992800	3.615400	-10.819000	25.517862	0.000430	20.901410
1098.275710	-3.012500	3.615300	-10.891000	25.507400	0.000428	20.889009
1099.277944	-2.977200	3.616300	-10.765000	25.543830	0.000426	20.897143
1100.274832	-3.004500	3.614500	-10.859000	25.535032	0.000426	20.874559
1101.276431	-2.997300	3.613500	-10.830000	25.559509	0.000428	20.910517
1102.275407	-2.985700	3.613700	-10.789000	25.575960	0.000427	20.891478
1103.280697	-2.984200	3.613600	-10.782000	25.585275	0.000425	20.901781
1104.275938	-2.985400	3.614600	-10.790000	25.613923	0.000425	20.901155
1105.278254	-2.984800	3.612900	-10.782000	25.629996	0.000425	20.888375
1106.276968	-2.985500	3.613400	-10.787000	25.652635	0.000425	20.879820
1107.277847	-2.992400	3.611000	-10.805000	25.662997	0.000427	20.890226
1108.276482	-2.987100	3.611700	-10.788000	25.660834	0.000427	20.895639
1109.277236	-3.007800	3.610200	-10.858000	25.598889	0.000425	20.887954
1110.277986	-2.969600	3.612200	-10.726000	25.562934	0.000423	20.900681
1111.277217	-2.995400	3.610700	-10.815000	25.571084	0.000424	20.897012
1112.280343	-3.007600	3.611800	-10.862000	25.585892	0.000423	20.878695
1113.280282	-3.000500	3.609400	-10.829000	25.621325	0.000424	20.895788
1114.281308	-3.003000	3.609300	-10.837000	25.617351	0.000423	20.884211
1115.281859	-3.009500	3.610600	-10.865000	25.589169	0.000420	20.875822
1116.281432	-2.998500	3.609600	-10.823000	25.602737	0.000421	20.897981
1117.279778	-3.009700	3.608700	-10.859000	25.596103	0.000423	20.897483
1118.280113	-3.010900	3.608200	-10.863000	25.603086	0.000422	20.879367
1119.281469	-2.998100	3.607900	-10.816000	25.571027	0.000421	20.866138
1120.281263	-2.990800	3.607500	-10.788000	25.548115	0.000419	20.881533
1121.281909	-2.970900	3.608800	-10.720000	25.578310	0.000420	20.890045
1122.281276	-2.991400	3.607700	-10.791000	25.576171	0.000421	20.876045
1123.283244	-3.025700	3.607600	-10.915000	25.537928	0.000420	20.885527
1124.287743	-3.025200	3.605500	-10.905000	25.558005	0.000419	20.872974
1125.283167	-3.004000	3.607500	-10.836000	25.552762	0.000419	20.894734
1126.285975	-2.989800	3.607700	-10.785000	25.548784	0.000419	20.867981
1127.283078	-3.011200	3.606700	-10.859000	25.544383	0.000418	20.883475
1128.282763	-2.987200	3.606300	-10.772000	25.545803	0.000419	20.869255
1129.283184	-3.021200	3.604900	-10.890000	25.537950	0.000417	20.860420
1130.284428	-3.014000	3.605500	-10.867000	25.553227	0.000418	20.879555
1131.283476	-3.022200	3.604100	-10.892000	25.576563	0.000415	20.879757
1132.289594	-3.024300	3.605200	-10.903000	25.567740	0.000416	20.881328
1133.284478	-3.009000	3.604300	-10.844000	25.546420	0.000417	20.884098
1134.283057	-3.027100	3.602900	-10.905000	25.613606	0.000414	20.864804
1135.287221	-3.009900	3.603100	-10.844000	25.607370	0.000413	20.868498
1136.286474	-3.003300	3.603300	-10.822000	25.659601	0.000416	20.848411
1137.282737	-2.989800	3.604400	-10.776000	25.669462	0.000414	20.871116
1138.287188	-2.993800	3.604200	-10.789000	25.624909	0.000415	20.871414
1139.289794	-3.004000	3.603000	-10.822000	25.539430	0.000413	20.873759
1140.282555	-2.999500	3.602600	-10.805000	25.563407	0.000412	20.870812
1141.285527	-3.000800	3.603400	-10.812000	25.548598	0.000414	20.866846
1142.287317	-2.994100	3.602000	-10.783000	25.520294	0.000413	20.865922
1143.285078	-2.983000	3.601700	-10.742000	25.531199	0.000408	20.861227
1144.289593	-3.022900	3.600000	-10.881000	25.515269	0.000412	20.857084
1145.289798	-3.016000	3.600200	-10.858000	25.526301	0.000409	20.838292
1146.284660	-2.986200	3.601400	-10.754000	25.515741	0.000410	20.875101
1147.285426	-3.003700	3.600300	-10.813000	25.572074	0.000409	20.868612
1148.290636	-3.009700	3.600200	-10.834000	25.611658	0.000411	20.853365
1149.287094	-3.000400	3.600400	-10.802000	25.581661	0.000411	20.871601
1150.286418	-3.007800	3.598600	-10.823000	25.594159	0.000410	20.840058
1151.286866	-3.008200	3.598500	-10.824000	25.575052	0.000409	20.863541
1152.286575	-2.997900	3.599000	-10.788000	25.603301	0.000408	20.857774
1153.286348	-2.992900	3.598600	-10.770000	25.563270	0.000409	20.858347
1154.286166	-2.994600	3.597600	-10.772000	25.575890	0.000408	20.871021
1155.288204	-3.013100	3.598200	-10.839000	25.605634	0.000408	20.870547
1156.289150	-3.003700	3.597500	-10.805000	25.567822	0.000405	20.851065
1157.289212	-2.983600	3.598300	-10.735000	25.605637	0.000407	20.851586
1158.287561	-2.992300	3.596700	-10.761000	25.554669	0.000408	20.846866
1159.287323	-3.004400	3.595600	-10.802000	25.559440	0.000405	20.837907
1160.286258	-3.005200	3.596200	-10.807000	25.553376	0.000406	20.846515
1161.288525	-3.010500	3.596700	-10.827000	25.572311	0.000406	20.851780
1162.287030	-3.005200	3.595300	-10.803000	25.570197	0.000405	20.847761
1163.290055	-3.014200	3.594900	-10.835000	25.559158	0.000405	20.847107
1164.289359	-2.999900	3.594700	-10.783000	25.551706	0.000404	20.841994
1165.290879	-3.001100	3.595900	-10.791000	25.548077	0.000402	20.847832
1166.291350	-2.990200	3.595400	-10.750000	25.534040	0.000401	20.839899
1167.289661	-2.987100	3.594800	-10.737000	25.559609	0.000403	20.840921
1168.291457	-2.988800	3.594000	-10.741000	25.566836	0.000404	20.857661
1169.289508	-2.989200	3.594200	-10.742000	25.587137	0.000403	20.834903
1170.290314	-3.006000	3.592800	-10.799000	25.608210	0.000402	20.841367
1171.288749	-2.999300	3.592700	-10.775000	25.622546	0.000402	20.832058
1172.295790	-3.005000	3.593400	-10.797000	25.620087	0.000401	20.847131
1173.295165	-3.013900	3.591400	-10.823000	25.612829	0.000400	20.838420
1174.289616	-2.994900	3.592900	-10.759000	25.635691	0.000401	20.842889
1175.298615	-2.979300	3.592800	-10.703000	25.700363	0.000401	20.836248
1176.289870	-3.016000	3.590600	-10.828000	25.702674	0.000402	20.868439
1177.294607	-2.999200	3.590500	-10.769000	25.727095	0.000400	20.845079
1178.288837	-3.000900	3.591200	-10.776000	25.705408	0.000400	20.840366
1179.293763	-2.985700	3.590000	-10.717000	25.689555	0.000400	20.828711
1180.290714	-3.007700	3.589700	-10.795000	25.639415	0.000399	20.854215
1181.293344	-2.996500	3.589400	-10.755000	25.631784	0.000397	20.843232
1182.294635	-3.012400	3.588700	-10.810000	25.617747	0.000398	20.852842
1183.291995	-3.000300	3.588200	-10.764000	25.635039	0.000401	20.840338
1184.293707	-3.003100	3.588700	-10.777000	25.691591	0.000397	20.825541
1185.297714	-2.999300	3.588600	-10.762000	25.653373	0.000396	20.817976
1186.296557	-2.992300	3.587400	-10.733000	25.651584	0.000398	20.827558
1187.298355	-3.005600	3.587800	-10.783000	25.637868	0.000398	20.829429
1188.297007	-2.996700	3.587800	-10.750000	25.632323	0.000397	20.842826
1189.294396	-3.014500	3.586100	-10.810000	25.656101	0.000396	20.836361
1190.296635	-3.003000	3.587600	-10.773000	25.656946	0.000394	20.831995
1191.300694	-2.986500	3.585900	-10.709000	25.657989	0.000394	20.836361
1192.298220	-3.018200	3.585800	-10.822000	25.641487	0.000397	20.818839
1193.298463	-3.014100	3.585000	-10.805000	25.620366	0.000394	20.828446
1194.299181	-2.973800	3.587000	-10.666000	25.645983	0.000393	20.835682
1195.302458	-3.021100	3.584100	-10.826000	25.652416	0.000395	20.820333
1196.299514	-3.010200	3.585400	-10.792000	25.702876	0.000394	20.849676
1197.303984	-2.980500	3.584500	-10.682000	25.703101	0.000392	20.819084
1198.297275	-3.009100	3.583800	-10.783000	25.718183	0.000394	20.818111
1199.299005	-3.017800	3.583400	-10.813000	25.713483	0.000393	20.831882
1200.303473	-2.999300	3.583900	-10.748000	25.679269	0.000391	20.831182
1201.299712	-3.006100	3.583000	-10.769000	25.709827	0.000393	20.849546
1202.302515	-3.022300	3.583800	-10.830000	25.705554	0.000392	20.826288
1203.304813	-3.029300	3.582000	-10.850000	25.662196	0.000392	20.823992
1204.301023	-3.004700	3.583800	-10.768000	25.662940	0.000391	20.815730
1205.307604	-3.002400	3.581600	-10.752000	25.683109	0.000390	20.824608
1206.309266	-3.013000	3.582400	-10.792000	25.649989	0.000389	20.807939
1207.300511	-3.004500	3.581500	-10.760000	25.703507	0.000390	20.831345
1208.305494	-2.999100	3.580300	-10.737000	25.702211	0.000388	20.829095
1209.303756	-3.006200	3.581100	-10.765000	25.666932	0.000390	20.814998
1210.300536	-3.002400	3.580900	-10.750000	25.694087	0.000387	20.817616
1211.299302	-3.018300	3.580100	-10.805000	25.693266	0.000388	20.824853
1212.303738	-2.993000	3.581000	-10.717000	25.690554	0.000389	20.824499
1213.300627	-3.000300	3.579400	-10.739000	25.701933	0.000388	20.821230
1214.304361	-2.994600	3.579700	-10.719000	25.735548	0.000385	20.814216
1215.303924	-2.998700	3.579900	-10.734000	25.718801	0.000387	20.824421
1216.301788	-2.996500	3.578200	-10.721000	25.694947	0.000387	20.814687
1217.306963	-3.008000	3.578000	-10.763000	25.712143	0.000384	20.828165
1218.307370	-3.017000	3.578200	-10.795000	25.711121	0.000385	20.816708
1219.302691	-3.003500	3.578400	-10.746000	25.722000	0.000385	20.829531
1220.305436	-3.008900	3.578400	-10.766000	25.737726	0.000386	20.838214
1221.306418	-3.013100	3.578400	-10.782000	25.709480	0.000384	20.813637
1222.303753	-3.015500	3.576300	-10.783000	25.664083	0.000383	20.819249
1223.305226	-3.008200	3.577400	-10.761000	25.696829	0.000384	20.827008
1224.306526	-3.022000	3.575800	-10.804000	25.718019	0.000383	20.816050
1225.308476	-2.995000	3.576200	-10.709000	25.726341	0.000382	20.828675
1226.304434	-2.985400	3.575600	-10.673000	25.697992	0.000382	20.814900
1227.307507	-2.986000	3.577000	-10.680000	25.681022	0.000382	20.808761
1228.309906	-3.013500	3.574800	-10.772000	25.638481	0.000380	20.813450
1229.308223	-2.989400	3.575400	-10.688000	25.632717	0.000380	20.810980
1230.307782	-3.001500	3.574600	-10.728000	25.671129	0.000380	20.818266
1231.307951	-2.982700	3.575900	-10.665000	25.703826	0.000381	20.816019
1232.311235	-3.009200	3.574100	-10.754000	25.654159	0.000379	20.814497
1233.308457	-2.996400	3.572900	-10.705000	25.678355	0.000380	20.829790
1234.307691	-3.018200	3.573400	-10.784000	25.686007	0.000381	20.805234
1235.310061	-3.014300	3.573600	-10.772000	25.704940	0.000381	20.789636
1236.307990	-2.997400	3.573800	-10.710000	25.657957	0.000376	20.799346
1237.308370	-2.994800	3.571500	-10.695000	25.645112	0.000379	20.805411
1238.309218	-2.985200	3.571900	-10.662000	25.638873	0.000378	20.809101
1239.306656	-3.027200	3.570900	-10.809000	25.678824	0.000376	20.803235
1240.309654	-3.007600	3.571200	-10.739000	25.714751	0.000376	20.821776
1241.308373	-2.982100	3.571700	-10.650000	25.737287	0.000377	20.795100
1242.313559	-3.007000	3.571600	-10.738000	25.706994	0.000376	20.809244
1243.311593	-3.028700	3.569200	-10.809000	25.666251	0.000377	20.805305
1244.310383	-3.027100	3.569500	-10.804000	25.636928	0.000375	20.814261
1245.314056	-3.001300	3.570200	-10.714000	25.688685	0.000380	20.794647
1246.311885	-3.023500	3.569700	-10.791000	25.697951	0.000374	20.806324
1247.311357	-2.983300	3.569000	-10.646000	25.744414	0.000377	20.807948
1248.315659	-2.992700	3.569800	-10.683000	25.721505	0.000373	20.803904
1249.313933	-2.996300	3.569600	-10.695000	25.727716	0.000375	20.794021
1250.312774	-3.005400	3.567300	-10.720000	25.736907	0.000372	20.805624
1251.317890	-3.006800	3.567800	-10.727000	25.743512	0.000371	20.809888
1252.312418	-2.998900	3.568200	-10.700000	25.712286	0.000374	20.829731
1253.313942	-3.003800	3.568100	-10.717000	25.730943	0.000373	20.813858
1254.316349	-2.984300	3.568500	-10.649000	25.704158	0.000372	20.790748
1255.313900	-3.018600	3.566400	-10.765000	25.756458	0.000370	20.796813
1256.313058	-2.996100	3.566500	-10.685000	25.789202	0.000372	20.778020
1257.316853	-2.996600	3.565800	-10.685000	25.753623	0.000372	20.810086
1258.317111	-2.987200	3.565000	-10.648000	25.785426	0.000370	20.789874
1259.317334	-2.994500	3.565400	-10.676000	25.798717	0.000369	20.797061
1260.320302	-2.995600	3.564800	-10.678000	25.787585	0.000371	20.804372
1261.316114	-2.992900	3.565200	-10.670000	25.833446	0.000369	20.797808
1262.316677	-3.003100	3.565500	-10.706000	25.799781	0.000371	20.808561
1263.321290	-3.007200	3.563200	-10.714000	25.811581	0.000370	20.798130
1264.317350	-3.020700	3.563300	-10.763000	25.827975	0.000370	20.818391
1265.322755	-2.985200	3.564700	-10.640000	25.785493	0.000368	20.798477
1266.320292	-2.996700	3.564600	-10.682000	25.754888	0.000366	20.824633
1267.318094	-3.028800	3.561000	-10.784000	25.787705	0.000367	20.800225
1268.320904	-3.022200	3.561800	-10.763000	25.755307	0.000367	20.800398
1269.321652	-3.027100	3.560800	-10.778000	25.761067	0.000367	20.782950
1270.319488	-3.018100	3.561000	-10.747000	25.811430	0.000368	20.796556
1271.320414	-3.012800	3.561800	-10.730000	25.819081	0.000366	20.785275
1272.322390	-2.975400	3.561900	-10.597000	25.830332	0.000365	20.795629
1273.320597	-2.998300	3.561700	-10.679000	25.798013	0.000367	20.774543
1274.321011	-2.983700	3.561900	-10.627000	25.828842	0.000365	20.784649
1275.323168	-2.985600	3.560900	-10.630000	25.846701	0.000365	20.769872
1276.320964	-3.008700	3.559600	-10.709000	25.818232	0.000366	20.786319
1277.320962	-3.002100	3.560100	-10.687000	25.828420	0.000366	20.785173
1278.325527	-3.017800	3.558700	-10.738000	25.803970	0.000364	20.788588
1279.323691	-3.002800	3.559700	-10.688000	25.809187	0.000365	20.790035
1280.322347	-3.003600	3.558300	-10.687000	25.799722	0.000364	20.795226
1281.321990	-2.985200	3.558200	-10.621000	25.811346	0.000363	20.786040
1282.323161	-2.972800	3.559500	-10.580000	25.811864	0.000362	20.772336
1283.321998	-2.989300	3.557900	-10.634000	25.764960	0.000362	20.795870
1284.324677	-2.993600	3.558100	-10.651000	25.777082	0.000362	20.762053
1285.323922	-3.001200	3.556700	-10.673000	25.812012	0.000361	20.779597
1286.324684	-3.005500	3.557700	-10.692000	25.844631	0.000361	20.773956
1287.321443	-2.998500	3.557000	-10.665000	25.837748	0.000362	20.770361
1288.323255	-3.011800	3.555600	-10.708000	25.841049	0.000361	20.780316
1289.323719	-3.007900	3.556700	-10.698000	25.878658	0.000361	20.792018
1290.335190	-2.999100	3.555700	-10.663000	25.874533	0.000360	20.771278
1291.326453	-2.979600	3.557000	-10.597000	25.852001	0.000361	20.769980
1292.327497	-3.004000	3.554000	-10.676000	25.842733	0.000361	20.772050
1293.327365	-3.035500	3.555100	-10.791000	25.780000	0.000359	20.773045
1294.325740	-3.010500	3.553400	-10.697000	25.763278	0.000357	20.779481
1295.327426	-3.022300	3.554000	-10.740000	25.796247	0.000359	20.788416
1296.327417	-3.006600	3.553100	-10.681000	25.719923	0.000357	20.773392
1297.327716	-3.002900	3.554200	-10.671000	25.736819	0.000355	20.777086
1298.327018	-2.998400	3.553300	-10.653000	25.734726	0.000356	20.799166
1299.328610	-3.000500	3.552900	-10.659000	25.766252	0.000356	20.783891
1300.326490	-3.020100	3.552100	-10.727000	25.763543	0.000357	20.778799
1301.327107	-2.998500	3.552400	-10.651000	25.760661	0.000355	20.758835
1302.332471	-2.999200	3.553200	-10.656000	25.707816	0.000353	20.778300
1303.330825	-2.983800	3.551900	-10.597000	25.705702	0.000354	20.756737
1304.328181	-3.003800	3.551300	-10.666000	25.739490	0.000354	20.764596
1305.334351	-2.963900	3.552800	-10.529000	25.800013	0.000352	20.759482
1306.336220	-2.980700	3.551400	-10.585000	25.759566	0.000354	20.771011
1307.329747	-3.026300	3.550700	-10.745000	25.737947	0.000354	20.774426
1308.333705	-3.000100	3.549600	-10.648000	25.725103	0.000352	20.770534
1309.331760	-2.977800	3.551500	-10.574000	25.688726	0.000353	20.764816
1310.333776	-2.971200	3.549600	-10.546000	25.698914	0.000352	20.756557
1311.333117	-3.008900	3.548200	-10.675000	25.735781	0.000350	20.762767
1312.334967	-3.001100	3.548300	-10.648000	25.701472	0.000351	20.772877
1313.333326	-3.012300	3.548800	-10.688000	25.715930	0.000351	20.762742
1314.334270	-3.002200	3.548800	-10.654000	25.759958	0.000351	20.746748
1315.333802	-3.002700	3.547500	-10.651000	25.703483	0.000352	20.784380
1316.333765	-2.995100	3.549100	-10.629000	25.716525	0.000353	20.769505
1317.334574	-2.990500	3.548200	-10.610000	25.715060	0.000350	20.768981
1318.334182	-2.992500	3.546900	-10.614000	25.707433	0.000349	20.753733
1319.336158	-3.006700	3.547200	-10.664000	25.703107	0.000349	20.760294
1320.336874	-2.984500	3.547300	-10.586000	25.733220	0.000350	20.763514
1321.344185	-3.007400	3.546100	-10.663000	25.779555	0.000350	20.763114
1322.335458	-2.999300	3.546300	-10.636000	25.782412	0.000349	20.780683
1323.337343	-2.987700	3.545300	-10.592000	25.694137	0.000346	20.749388
1324.336006	-2.983200	3.545400	-10.576000	25.730163	0.000348	20.777987
1325.334758	-3.001900	3.544900	-10.641000	25.750010	0.000347	20.751455
1326.335641	-2.994600	3.544100	-10.613000	25.797464	0.000347	20.761190
1327.341425	-3.004900	3.544100	-10.647000	25.784072	0.000346	20.746788
1328.336089	-2.999300	3.542500	-10.624000	25.752071	0.000347	20.763957
1329.337246	-2.983000	3.543700	-10.570000	25.787971	0.000347	20.737902
1330.337358	-3.015700	3.541900	-10.680000	25.826326	0.000346	20.749877
1331.337781	-2.992900	3.543700	-10.605000	25.799667	0.000345	20.765773
1332.338744	-2.999200	3.542800	-10.625000	25.753583	0.000347	20.765001
1333.340286	-3.004300	3.541400	-10.638000	25.786006	0.000343	20.763430
1334.336074	-3.025600	3.540800	-10.712000	25.778475	0.000344	20.736424
1335.340259	-3.020300	3.539900	-10.690000	25.780536	0.000344	20.730433
1336.342278	-2.989700	3.542000	-10.588000	25.785383	0.000342	20.743363
1337.338556	-2.978900	3.540400	-10.545000	25.737854	0.000344	20.743038
1338.340221	-2.987100	3.540800	-10.575000	25.683714	0.000345	20.734651
1339.341953	-2.980000	3.540100	-10.549000	25.724211	0.000343	20.756361
1340.337911	-3.016700	3.539400	-10.675000	25.754968	0.000342	20.762125
1341.342949	-3.005700	3.537900	-10.633000	25.818175	0.000342	20.745483
1342.339116	-2.978000	3.539700	-10.540000	25.794669	0.000340	20.759330
1343.337610	-3.014500	3.538700	-10.666000	25.803986	0.000340	20.757309
1344.340028	-2.985900	3.537900	-10.563000	25.830913	0.000341	20.745476
1345.338603	-2.991800	3.538300	-10.585000	25.811986	0.000340	20.747801
1346.338949	-3.017000	3.537100	-10.670000	25.815635	0.000341	20.757157
1347.339272	-3.005900	3.536600	-10.630000	25.825495	0.000341	20.769433
1348.341175	-3.011900	3.536300	-10.650000	25.849025	0.000340	20.755137
1349.339279	-2.998500	3.536200	-10.602000	25.884595	0.000338	20.732072
1350.343830	-2.999300	3.536100	-10.605000	25.897687	0.000338	20.749019
1351.342428	-3.023600	3.534800	-10.687000	25.846983	0.000340	20.749291
1352.339366	-2.997700	3.536700	-10.601000	25.784880	0.000337	20.746651
1353.343194	-3.014000	3.534300	-10.651000	25.817172	0.000340	20.736888
1354.342365	-3.018200	3.534500	-10.666000	25.802909	0.000338	20.746270
1355.340310	-3.002300	3.534700	-10.611000	25.832224	0.000337	20.754380
1356.341929	-2.999700	3.534200	-10.600000	25.806139	0.000337	20.749040
1357.345698	-2.994000	3.535300	-10.584000	25.828596	0.000337	20.758796
1358.340700	-2.988700	3.534800	-10.564000	25.804270	0.000337	20.740998
1359.346428	-2.990400	3.534000	-10.567000	25.769145	0.000333	20.757873
1360.347930	-2.978000	3.533400	-10.522000	25.773489	0.000335	20.748960
1361.344597	-2.994500	3.533000	-10.578000	25.796072	0.000335	20.759317
1362.348959	-2.986900	3.532000	-10.548000	25.787323	0.000336	20.758114
1363.345272	-3.000300	3.531600	-10.595000	25.773655	0.000335	20.754343
1364.345943	-2.996100	3.531700	-10.581000	25.780066	0.000333	20.752722
1365.345326	-3.010300	3.531100	-10.629000	25.775494	0.000336	20.760457
1366.352811	-2.985500	3.530900	-10.540000	25.799293	0.000332	20.771087
1367.350111	-2.989500	3.530700	-10.554000	25.836108	0.000332	20.748798
1368.351277	-3.004900	3.529400	-10.604000	25.767910	0.000334	20.742882
1369.351494	-2.998300	3.530800	-10.586000	25.731313	0.000335	20.762072
1370.353642	-2.983100	3.529300	-10.526000	25.735385	0.000332	20.753360
1371.350967	-2.993600	3.528900	-10.563000	25.736027	0.000331	20.759695
1372.352760	-2.992300	3.528900	-10.558000	25.702165	0.000331	20.755554
1373.351071	-3.016200	3.526600	-10.636000	25.665466	0.000329	20.759946
1374.351020	-3.006900	3.529200	-10.611000	25.751083	0.000333	20.745420
1375.352321	-3.036100	3.527800	-10.710000	25.755329	0.000331	20.750159
1376.349814	-3.000800	3.527800	-10.585000	25.807302	0.000330	20.768701
1377.351478	-3.006200	3.528200	-10.606000	25.838255	0.000331	20.757594
1378.350131	-2.995500	3.527800	-10.567000	25.775994	0.000327	20.743889
1379.350461	-3.028300	3.526000	-10.678000	25.762823	0.000328	20.779498
1380.349175	-2.993600	3.527200	-10.558000	25.803668	0.000329	20.743238
1381.351360	-3.002600	3.525200	-10.583000	25.818421	0.000327	20.767542
1382.353919	-3.009400	3.526200	-10.610000	25.861124	0.000328	20.775352
1383.349358	-2.995500	3.524900	-10.558000	25.887877	0.000329	20.779941
1384.353414	-2.994100	3.525100	-10.553000	25.828478	0.000327	20.764368
1385.349502	-2.988700	3.525300	-10.535000	25.813895	0.000327	20.771530
1386.353677	-3.001600	3.525100	-10.580000	25.786860	0.000328	20.788944
1387.354209	-3.008100	3.524100	-10.600000	25.753841	0.000326	20.768580
1388.352861	-3.002100	3.523700	-10.577000	25.725071	0.000329	20.765286
1389.350159	-3.016600	3.522800	-10.625000	25.703627	0.000326	20.755601
1390.355695	-2.998000	3.522700	-10.560000	25.734284	0.000329	20.783074
1391.358978	-2.991700	3.522200	-10.536000	25.778631	0.000325	20.771670
1392.351551	-2.994100	3.522700	-10.545000	25.753339	0.000325	20.755746
1393.353743	-2.981400	3.522600	-10.501000	25.731649	0.000324	20.772841
1394.350163	-3.004300	3.520100	-10.574000	25.722479	0.000325	20.753673
1395.351121	-3.022600	3.519100	-10.636000	25.735916	0.000325	20.777127
1396.352757	-2.994400	3.522100	-10.545000	25.724586	0.000323	20.755316
1397.352449	-2.998900	3.521300	-10.559000	25.734074	0.000324	20.770061
1398.353202	-3.008500	3.520400	-10.590000	25.793675	0.000322	20.765444
1399.357059	-3.022700	3.519500	-10.637000	25.816656	0.000321	20.775252
1400.350618	-2.995800	3.519700	-10.543000	25.831930	0.000323	20.775897
1401.358414	-2.992500	3.519600	-10.532000	25.796501	0.000319	20.765912
1402.358797	-3.022800	3.518500	-10.635000	25.734216	0.000320	20.783481
1403.349675	-3.018900	3.518300	-10.620000	25.716947	0.000320	20.785101
1404.358169	-2.999500	3.518200	-10.552000	25.731057	0.000320	20.777462
1405.355344	-3.028200	3.516100	-10.646000	25.716469	0.000320	20.783199
1406.355254	-2.978700	3.518000	-10.478000	25.683847	0.000319	20.781252
1407.357862	-2.988300	3.517700	-10.511000	25.732738	0.000318	20.788635
1408.358578	-2.991100	3.516400	-10.517000	25.753509	0.000320	20.787686
1409.356426	-3.019300	3.516900	-10.618000	25.784586	0.000318	20.752995
1410.361320	-3.020400	3.516500	-10.620000	25.815416	0.000318	20.772110
1411.359745	-2.988600	3.515800	-10.507000	25.838268	0.000320	20.780841
1412.354927	-3.021300	3.515700	-10.621000	25.836034	0.000318	20.782390
1413.359492	-2.999100	3.517100	-10.547000	25.808506	0.000319	20.773703
1414.357570	-3.011200	3.515000	-10.584000	25.804378	0.000318	20.779040
1415.355888	-2.985100	3.515700	-10.494000	25.806217	0.000317	20.784680
1416.359234	-3.010600	3.514000	-10.578000	25.814611	0.000316	20.776043
1417.363617	-2.988000	3.515000	-10.501000	25.812794	0.000318	20.769476
1418.355409	-2.994800	3.513000	-10.520000	25.791303	0.000315	20.799572
1419.360498	-2.982800	3.515200	-10.484000	25.846230	0.000316	20.777934
1420.361489	-2.999600	3.513100	-10.536000	25.894047	0.000317	20.780925
1421.362128	-3.015500	3.511900	-10.589000	25.941745	0.000313	20.801815
1422.363259	-2.986200	3.512700	-10.489000	25.961065	0.000314	20.795146
1423.362130	-3.006400	3.512500	-10.559000	25.927404	0.000314	20.790727
1424.359626	-3.002800	3.511000	-10.542000	25.881847	0.000314	20.785738
1425.359367	-3.018300	3.511500	-10.597000	25.821051	0.000312	20.773029
1426.363181	-2.993000	3.511200	-10.508000	25.807862	0.000314	20.788230
1427.359065	-3.016700	3.509200	-10.585000	25.830442	0.000312	20.800954
1428.361932	-2.986700	3.509800	-10.482000	25.828902	0.000312	20.787080
1429.362530	-3.009600	3.508600	-10.559000	25.802167	0.000313	20.781086
1430.359134	-2.991300	3.509500	-10.497000	25.831580	0.000314	20.792141
1431.362463	-3.016100	3.508400	-10.581000	25.843282	0.000311	20.790619
1432.358847	-2.987700	3.510000	-10.486000	25.812848	0.000310	20.784229
1433.362505	-2.979500	3.509000	-10.453000	25.789070	0.000310	20.790216
1434.363246	-3.004900	3.509600	-10.545000	25.829393	0.000311	20.807487
1435.369196	-2.986300	3.507600	-10.474000	25.828023	0.000312	20.796154
1436.364553	-3.026500	3.507300	-10.613000	25.808097	0.000310	20.785621
1437.363523	-2.998300	3.508900	-10.520000	25.833215	0.000310	20.806586
1438.363339	-2.989800	3.508000	-10.487000	25.785810	0.000310	20.799269
1439.360442	-3.017600	3.505500	-10.578000	25.733465	0.000310	20.794580
1440.365037	-2.999600	3.506700	-10.517000	25.728612	0.000307	20.814836
1441.364147	-2.977300	3.506700	-10.439000	25.740216	0.000308	20.789507
1442.362031	-2.973700	3.505600	-10.423000	25.736587	0.000307	20.794398
1443.363021	-2.994400	3.504300	-10.492000	25.787346	0.000306	20.792278
1444.364046	-2.974500	3.506100	-10.428000	25.826370	0.000307	20.798761
1445.367413	-2.976700	3.504600	-10.432000	25.897788	0.000307	20.806019
1446.364558	-2.998400	3.503700	-10.505000	25.869218	0.000307	20.803872
1447.363987	-2.991100	3.503600	-10.479000	25.856598	0.000307	20.788823
1448.365056	-3.009500	3.503700	-10.543000	25.848401	0.000307	20.802874
1449.365064	-2.994300	3.503600	-10.490000	25.862759	0.000309	20.799279
1450.365481	-3.011900	3.502900	-10.549000	25.915149	0.000306	20.812081
1451.367022	-3.006500	3.503700	-10.534000	25.878677	0.000306	20.822857
1452.366788	-3.006500	3.503600	-10.533000	25.855398	0.000306	20.796153
1453.366467	-2.984900	3.501900	-10.452000	25.836617	0.000304	20.814744
1454.364759	-3.010300	3.502300	-10.542000	25.831202	0.000304	20.811201
1455.369053	-2.990200	3.501900	-10.471000	25.843647	0.000304	20.820384
1456.367393	-2.988800	3.501900	-10.466000	25.835074	0.000305	20.823625
1457.365783	-2.986300	3.501800	-10.456000	25.803896	0.000303	20.826445
1458.366062	-3.003500	3.499800	-10.511000	25.771227	0.000303	20.814493
1459.371482	-3.005300	3.498300	-10.513000	25.782778	0.000303	20.814242
1460.365705	-2.995100	3.498900	-10.479000	25.763372	0.000300	20.807077
1461.367772	-2.993300	3.499200	-10.474000	25.795372	0.000303	20.796546
1462.367699	-3.000000	3.499100	-10.497000	25.804983	0.000301	20.809519
1463.369210	-3.016200	3.497700	-10.549000	25.817206	0.000302	20.805202
1464.367165	-2.968500	3.498500	-10.385000	25.823614	0.000302	20.805001
1465.371944	-3.011600	3.498400	-10.535000	25.840979	0.000300	20.805376
1466.367561	-2.996200	3.498300	-10.481000	25.886662	0.000302	20.809067
1467.371376	-2.990600	3.497200	-10.458000	25.865225	0.000301	20.820248
1468.372814	-2.986700	3.497300	-10.444000	25.868850	0.000299	20.821519
1469.369856	-2.978600	3.497400	-10.416000	25.881467	0.000300	20.810961
1470.374885	-3.007100	3.496600	-10.514000	25.916764	0.000300	20.833617
1471.376283	-2.974500	3.496800	-10.400000	25.853940	0.000298	20.827878
1472.371894	-3.011500	3.495200	-10.525000	25.821569	0.000298	20.820490
1473.372695	-3.019500	3.496200	-10.556000	25.897364	0.000299	20.817447
1474.372744	-3.014200	3.494700	-10.533000	25.925208	0.000302	20.817918
1475.373581	-2.984500	3.494100	-10.427000	25.922024	0.000299	20.812350
1476.380715	-3.002100	3.494400	-10.489000	25.919516	0.000297	20.821210
1477.377853	-2.986600	3.493600	-10.433000	25.911443	0.000298	20.840126
1478.378350	-3.017000	3.494400	-10.541000	25.952351	0.000296	20.810574
1479.376646	-3.000900	3.493200	-10.482000	25.984296	0.000298	20.847882
1480.385054	-2.988000	3.493200	-10.436000	25.947607	0.000296	20.837101
1481.375786	-2.982900	3.492000	-10.416000	25.922142	0.000296	20.816735
1482.373487	-3.010400	3.492000	-10.512000	25.937588	0.000296	20.836519
1483.376558	-2.995600	3.492000	-10.460000	25.862595	0.000293	20.836098
1484.378356	-3.001100	3.493000	-10.482000	25.915109	0.000295	20.825316
1485.377644	-3.004500	3.491200	-10.488000	25.880629	0.000295	20.839516
1486.375753	-3.004800	3.490500	-10.487000	25.867608	0.000296	20.842082
1487.380805	-2.962300	3.492400	-10.344000	25.834046	0.000293	20.831601
1488.376752	-3.018100	3.489300	-10.529000	25.849718	0.000293	20.844025
1489.377265	-2.996400	3.489400	-10.455000	25.861892	0.000292	20.822590
1490.386071	-2.996500	3.489700	-10.456000	25.868574	0.000293	20.837363
1491.376493	-2.981400	3.490500	-10.405000	25.834935	0.000291	20.852408
1492.381065	-3.007900	3.488900	-10.494000	25.829469	0.000292	20.838857
1493.384671	-2.997400	3.489100	-10.458000	25.839702	0.000294	20.843446
1494.379646	-3.004500	3.487900	-10.478000	25.888417	0.000292	20.832166
1495.381421	-2.985100	3.487000	-10.408000	25.948728	0.000291	20.834909
1496.379696	-2.999200	3.488100	-10.460000	25.951585	0.000291	20.842046
1497.380941	-2.970700	3.487900	-10.360000	25.957119	0.000291	20.844761
1498.382566	-2.989500	3.487500	-10.425000	25.961345	0.000290	20.830515
1499.387056	-2.965700	3.488400	-10.344000	25.992019	0.000291	20.860857
1500.378720	-2.978100	3.487700	-10.386000	25.957714	0.000288	20.838721
1501.384904	-3.007200	3.485700	-10.481000	25.937143	0.000290	20.841762
1502.383660	-2.993500	3.485700	-10.433000	25.941890	0.000289	20.840367
1503.379869	-2.983300	3.486200	-10.399000	25.910391	0.000290	20.831956
1504.379554	-3.002100	3.484500	-10.460000	25.930859	0.000290	20.866742
1505.384008	-2.997000	3.486500	-10.448000	25.968243	0.000288	20.861626
1506.381862	-2.997200	3.483700	-10.440000	25.952841	0.000289	20.846153
1507.382155	-2.994300	3.483100	-10.428000	25.922882	0.000290	20.833599
1508.383370	-3.013300	3.483100	-10.494000	25.939050	0.000287	20.883978
1509.384950	-2.983200	3.483900	-10.393000	25.904870	0.000284	20.830203
1510.380162	-2.979500	3.484700	-10.381000	25.899777	0.000287	20.853535
1511.380559	-3.013300	3.482400	-10.493000	25.946876	0.000285	20.847272
1512.381765	-3.003700	3.481600	-10.456000	25.911104	0.000287	20.854009
1513.383221	-3.002700	3.481400	-10.453000	25.942425	0.000284	20.863662
1514.390383	-2.976900	3.482200	-10.365000	25.918650	0.000284	20.859693
1515.386746	-3.006000	3.482000	-10.465000	25.908143	0.000285	20.852457
1516.384284	-2.988600	3.482400	-10.406000	25.932683	0.000285	20.863359
1517.384718	-3.001300	3.480700	-10.446000	25.964777	0.000286	20.857670
1518.386295	-3.012800	3.481000	-10.486000	25.979358	0.000286	20.878007
1519.385285	-3.043500	3.478600	-10.586000	26.003548	0.000283	20.853000
1520.387084	-3.012800	3.479800	-10.483000	25.936555	0.000283	20.853973
1521.386612	-3.011200	3.479200	-10.475000	25.894272	0.000282	20.867444
1522.385678	-2.993200	3.479100	-10.412000	25.916082	0.000284	20.864699
1523.386549	-3.026300	3.477700	-10.524000	25.919753	0.000283	20.865542
1524.386363	-3.012700	3.477400	-10.475000	25.910786	0.000281	20.857956
1525.385921	-3.002200	3.479100	-10.444000	25.882667	0.000284	20.861950
1526.387921	-2.996300	3.477500	-10.419000	25.910064	0.000283	20.876670
1527.388172	-3.011100	3.477500	-10.470000	25.934209	0.000281	20.881012
1528.389219	-3.001200	3.476900	-10.434000	25.965581	0.000280	20.868434
1529.389635	-3.019300	3.476400	-10.495000	25.974273	0.000282	20.866262
1530.386305	-2.968700	3.477300	-10.321000	25.958875	0.000280	20.868334
1531.387803	-2.998200	3.475800	-10.420000	25.921984	0.000281	20.861620
1532.389871	-2.986400	3.475300	-10.377000	25.948239	0.000281	20.884201
1533.400815	-3.003200	3.475400	-10.436000	25.938352	0.000279	20.857201
1534.389813	-2.990000	3.474600	-10.387000	25.943788	0.000279	20.888264
1535.393020	-3.015900	3.475000	-10.479000	25.920911	0.000279	20.872869
1536.391092	-3.006400	3.475100	-10.447000	25.905981	0.000280	20.854552
1537.390485	-3.005400	3.474300	-10.441000	25.883051	0.000279	20.881775
1538.399225	-2.989500	3.473700	-10.384000	25.873710	0.000280	20.874763
1539.392606	-2.988500	3.473900	-10.381000	25.950766	0.000278	20.848336
1540.395154	-2.964000	3.473400	-10.294000	25.984324	0.000277	20.892479
1541.394679	-2.998400	3.472500	-10.412000	25.996419	0.000277	20.871441
1542.393148	-2.983300	3.472600	-10.360000	25.986607	0.000276	20.872963
1543.393996	-2.988700	3.472500	-10.377000	25.983254	0.000277	20.876706
1544.395741	-2.979500	3.472500	-10.345000	25.942268	0.000274	20.889107
1545.393617	-2.997500	3.472000	-10.406000	25.960526	0.000277	20.881373
1546.394342	-3.005300	3.470400	-10.428000	25.927807	0.000276	20.888804
1547.395388	-2.987900	3.469900	-10.367000	25.878970	0.000273	20.889529
1548.394129	-2.991700	3.471800	-10.386000	25.901277	0.000274	20.871637
1549.397643	-2.987100	3.470600	-10.366000	25.905575	0.000275	20.882117
1550.399059	-3.007700	3.470800	-10.438000	25.868161	0.000274	20.890050
1551.392889	-3.011200	3.470200	-10.448000	25.878619	0.000274	20.879220
1552.396365	-3.007500	3.469100	-10.432000	25.875340	0.000273	20.893468
1553.395872	-3.019500	3.469000	-10.474000	25.899285	0.000272	20.896186
1554.396920	-2.997900	3.470000	-10.402000	25.938234	0.000274	20.870832
1555.396433	-3.001800	3.468600	-10.411000	25.878243	0.000273	20.894014
1556.399263	-2.949100	3.469200	-10.230000	25.934206	0.000271	20.894758
1557.394629	-3.033400	3.468000	-10.519000	25.938583	0.000272	20.896310
1558.399971	-2.998500	3.466500	-10.394000	25.939425	0.000273	20.900001
1559.400447	-2.987600	3.468600	-10.361000	25.978197	0.000271	20.877789
1560.395945	-3.011000	3.467300	-10.438000	25.989675	0.000270	20.905914
1561.400259	-2.997300	3.466300	-10.388000	25.964310	0.000272	20.899397
1562.400031	-3.006800	3.465500	-10.418000	25.927645	0.000272	20.912821
1563.399514	-2.990600	3.466800	-10.367000	25.939145	0.000270	20.896401
1564.403628	-2.956000	3.467000	-10.248000	25.960507	0.000270	20.906482
1565.405614	-2.974800	3.465400	-10.309000	26.005962	0.000269	20.910423
1566.401092	-2.987100	3.465800	-10.352000	26.045775	0.000271	20.901112
1567.402411	-3.002600	3.464200	-10.399000	26.063559	0.000270	20.914712
1568.404906	-2.943000	3.467100	-10.202000	26.067107	0.000269	20.901683
1569.400908	-2.988000	3.464900	-10.352000	26.045300	0.000268	20.902532
1570.402939	-3.003100	3.464200	-10.402000	25.984319	0.000267	20.909541
1571.404667	-3.020200	3.463500	-10.460000	25.927110	0.000267	20.901854
1572.400475	-2.981300	3.464300	-10.327000	25.925420	0.000266	20.909164
1573.401715	-2.999500	3.463300	-10.387000	25.946458	0.000269	20.886679
1574.405107	-2.991200	3.461300	-10.352000	26.011415	0.000266	20.932968
1575.401214	-2.986400	3.461700	-10.337000	26.063123	0.000264	20.902896
1576.404334	-2.995200	3.462300	-10.370000	26.101049	0.000266	20.888372
1577.406869	-2.995400	3.461900	-10.369000	26.085128	0.000266	20.904616
1578.402925	-3.006700	3.460500	-10.404000	26.095087	0.000265	20.888546
1579.404785	-3.001800	3.461300	-10.389000	26.063368	0.000266	20.895555
1580.406929	-2.984200	3.460100	-10.325000	26.029612	0.000264	20.874443
1581.403096	-2.987600	3.459900	-10.336000	26.035420	0.000264	20.884546
1582.406065	-2.961000	3.460000	-10.244000	25.975062	0.000265	20.879380
1583.407655	-2.998400	3.459600	-10.372000	25.948259	0.000264	20.883747
1584.405498	-3.010200	3.460400	-10.415000	25.955961	0.000264	20.867778
1585.406558	-2.991800	3.459700	-10.350000	25.949373	0.000262	20.869694
1586.406345	-3.016100	3.458300	-10.429000	25.957621	0.000263	20.875610
1587.409421	-3.008700	3.457400	-10.401000	25.982385	0.000263	20.865402
1588.404675	-2.994800	3.457800	-10.354000	25.971676	0.000262	20.880246
1589.406115	-3.014000	3.456500	-10.417000	25.929076	0.000263	20.863054
1590.404120	-2.995600	3.457500	-10.356000	25.931957	0.000260	20.881594
1591.406143	-2.983300	3.457700	-10.313000	25.976121	0.000260	20.873807
1592.405991	-2.988100	3.456900	-10.329000	26.017924	0.000261	20.897786
1593.404697	-3.016400	3.456100	-10.424000	26.026243	0.000260	20.879593
1594.407484	-3.013700	3.455500	-10.413000	26.077904	0.000259	20.883135
1595.406081	-2.981600	3.455500	-10.300000	26.106841	0.000259	20.861003
1596.407394	-2.994400	3.454300	-10.342000	26.120378	0.000259	20.887405
1597.408413	-3.013900	3.454500	-10.411000	26.129884	0.000259	20.877518
1598.412069	-3.026500	3.453600	-10.451000	26.118638	0.000258	20.854365
1599.407244	-2.988000	3.453900	-10.319000	26.085578	0.000258	20.871406
1600.408294	-2.975300	3.454900	-10.279000	26.097000	0.000258	20.849219
1601.412781	-2.972800	3.454700	-10.269000	26.122954	0.000258	20.859176
1602.406911	-2.984200	3.454100	-10.307000	26.115404	0.000259	20.874822
1603.422670	-2.973000	3.453500	-10.266000	26.097296	0.000257	20.866111
1604.408377	-2.975700	3.451200	-10.269000	26.117042	0.000256	20.861295
1605.411914	-3.019100	3.452200	-10.422000	26.093370	0.000257	20.857425
1606.410440	-3.010300	3.451300	-10.389000	26.068658	0.000257	20.847295
1607.411798	-3.008000	3.450900	-10.380000	26.040143	0.000255	20.854680
1608.409219	-3.016300	3.450300	-10.406000	25.975389	0.000254	20.863115
1609.411335	-2.971900	3.452400	-10.260000	25.921933	0.000256	20.862043
1610.412730	-2.984200	3.450400	-10.296000	25.903499	0.000253	20.871972
1611.409890	-2.986400	3.451700	-10.307000	25.924217	0.000256	20.833992
1612.416783	-2.987300	3.450800	-10.307000	25.928687	0.000252	20.857448
1613.415562	-3.005700	3.450300	-10.369000	25.972379	0.000255	20.848712
1614.411196	-3.012100	3.449000	-10.388000	26.029632	0.000251	20.846016
1615.412284	-3.016500	3.449400	-10.405000	26.019623	0.000252	20.837857
1616.414510	-2.989500	3.448900	-10.310000	26.013139	0.000253	20.851256
1617.414773	-3.011800	3.448400	-10.385000	26.013136	0.000253	20.853150
1618.412591	-3.002400	3.447900	-10.351000	25.989317	0.000250	20.831591
1619.413287	-2.995200	3.447100	-10.323000	26.011175	0.000250	20.842171
1620.415652	-3.016400	3.447500	-10.398000	25.997609	0.000252	20.846559
1621.414126	-3.003200	3.447500	-10.353000	25.998405	0.000252	20.844514
1622.416799	-3.011800	3.446400	-10.379000	26.036533	0.000251	20.815492
1623.415246	-3.015400	3.446100	-10.390000	26.056823	0.000253	20.841567
1624.415802	-3.006500	3.445600	-10.359000	26.041524	0.000252	20.846584
1625.419293	-2.985800	3.446300	-10.289000	26.016561	0.000250	20.867970
1626.416969	-2.974000	3.445300	-10.245000	26.004187	0.000253	20.848426
1627.418456	-2.976800	3.445200	-10.254000	26.062582	0.000250	20.830759
1628.418966	-3.016700	3.445000	-10.392000	26.061687	0.000248	20.824645
1629.417469	-3.014300	3.443500	-10.379000	26.043008	0.000248	20.858507
1630.418561	-3.018300	3.443500	-10.392000	26.018295	0.000247	20.827988
1631.418894	-3.000400	3.444800	-10.335000	26.004955	0.000248	20.831655
1632.418470	-3.003400	3.443800	-10.341000	26.010915	0.000247	20.847125
1633.419681	-3.014600	3.442600	-10.377000	26.004903	0.000247	20.834922
1634.419651	-2.984800	3.443700	-10.278000	26.062006	0.000248	20.816430
1635.418417	-2.984200	3.441900	-10.270000	26.083313	0.000248	20.829778
1636.420138	-2.976100	3.443200	-10.246000	26.110409	0.000247	20.817175
1637.422097	-3.010000	3.442200	-10.360000	26.098315	0.000248	20.818773
1638.423119	-2.998100	3.441600	-10.317000	26.080556	0.000248	20.829852
1639.423100	-3.000000	3.441100	-10.322000	26.057032	0.000245	20.810958
1640.423834	-2.988900	3.440300	-10.282000	26.020417	0.000245	20.817792
1641.430015	-2.990800	3.439600	-10.286000	26.060407	0.000244	20.826677
1642.424407	-2.998400	3.438700	-10.310000	26.088077	0.000246	20.833141
1643.424638	-2.974200	3.440500	-10.231000	26.060330	0.000243	20.840824
1644.426425	-2.994900	3.439500	-10.300000	25.995133	0.000246	20.809933
1645.428478	-3.013700	3.439500	-10.364000	25.976721	0.000245	20.826523
1646.439587	-3.002700	3.438600	-10.323000	26.034943	0.000245	20.829542
1647.425745	-3.018800	3.436800	-10.374000	26.066262	0.000244	20.826396
1648.429499	-3.011600	3.437200	-10.351000	26.126591	0.000244	20.815417
1649.426168	-2.986700	3.438600	-10.270000	26.107291	0.000242	20.816886
1650.427060	-2.981400	3.438500	-10.251000	26.115061	0.000243	20.838443
1651.427313	-2.995700	3.437300	-10.296000	26.081707	0.000242	20.830060
1652.427624	-3.008200	3.437500	-10.339000	26.123407	0.000242	20.821699
1653.430147	-3.022200	3.436200	-10.384000	26.102915	0.000242	20.816757
1654.430142	-3.012900	3.437400	-10.356000	26.099908	0.000242	20.827486
1655.427551	-3.002900	3.436500	-10.319000	26.080187	0.000241	20.829482
1656.429533	-3.001800	3.435900	-10.312000	26.032746	0.000240	20.814058
1657.427359	-3.014800	3.435100	-10.355000	26.016377	0.000241	20.832225
1658.428535	-2.979600	3.434800	-10.233000	26.058551	0.000241	20.821019
1659.430969	-2.983000	3.436100	-10.249000	26.136239	0.000240	20.797609
1660.428409	-2.979700	3.434200	-10.232000	26.121037	0.000238	20.816948
1661.428673	-2.973400	3.435600	-10.214000	26.104496	0.000240	20.818345
1662.429290	-2.990900	3.433100	-10.267000	26.076231	0.000241	20.814602
1663.430630	-3.023300	3.431900	-10.375000	26.084350	0.000239	20.805690
1664.430385	-3.015800	3.433400	-10.353000	26.112291	0.000238	20.785400
1665.433692	-3.013900	3.432700	-10.345000	26.132011	0.000238	20.809009
1666.428915	-3.013300	3.432700	-10.343000	26.153394	0.000238	20.829546
1667.432752	-2.983800	3.432600	-10.241000	26.131586	0.000238	20.811901
1668.431717	-2.985900	3.432700	-10.248000	26.113504	0.000237	20.797051
1669.430597	-2.997000	3.432500	-10.286000	26.104091	0.000238	20.819360
1670.430097	-2.993400	3.431800	-10.272000	26.091671	0.000238	20.824425
1671.432568	-2.995400	3.430800	-10.276000	26.088268	0.000237	20.821006
1672.432579	-3.002200	3.430600	-10.299000	26.091495	0.000236	20.808602
1673.433067	-2.992800	3.431000	-10.267000	26.110569	0.000235	20.812593
1674.432154	-3.001300	3.429700	-10.293000	26.083122	0.000236	20.781696
1675.433035	-3.012000	3.429900	-10.330000	26.083816	0.000236	20.811791
1676.433828	-2.990800	3.428600	-10.253000	26.060322	0.000234	20.823273
1677.435413	-2.991200	3.429600	-10.258000	26.056519	0.000232	20.788632
1678.431797	-3.012900	3.427300	-10.325000	26.077333	0.000232	20.799113
1679.432408	-3.022900	3.428600	-10.363000	26.102564	0.000233	20.824464
1680.435189	-2.999300	3.427700	-10.280000	26.101422	0.000233	20.809567
1681.435066	-2.985500	3.428300	-10.234000	26.085177	0.000233	20.801780
1682.433753	-2.991300	3.426700	-10.250000	26.110586	0.000233	20.803602
1683.434394	-2.988900	3.426500	-10.241000	26.142474	0.000231	20.813832
1684.432488	-2.974700	3.427400	-10.195000	26.151610	0.000232	20.811632
1685.434575	-2.999200	3.426100	-10.275000	26.126178	0.000232	20.810260
1686.434947	-3.002800	3.427600	-10.292000	26.100523	0.000231	20.780214
1687.432918	-3.002500	3.424900	-10.283000	26.062718	0.000231	20.794861
1688.432726	-3.014700	3.426000	-10.328000	26.065649	0.000232	20.793064
1689.437764	-3.002200	3.424700	-10.281000	26.068305	0.000230	20.790517
1690.439107	-3.006400	3.424300	-10.293000	26.096545	0.000229	20.807512
1691.438570	-3.002400	3.423200	-10.277000	26.071238	0.000229	20.805317
1692.439460	-2.983300	3.424700	-10.216000	26.064480	0.000230	20.779561
1693.436907	-2.973400	3.425300	-10.184000	26.090635	0.000227	20.789720
1694.437329	-3.013600	3.422700	-10.313000	26.140727	0.000230	20.820137
1695.442398	-2.999800	3.424500	-10.272000	26.134417	0.000227	20.802892
1696.438124	-2.994400	3.422600	-10.248000	26.147605	0.000228	20.806186
1697.438453	-2.964400	3.424100	-10.149000	26.204278	0.000226	20.784424
1698.437735	-2.986100	3.423200	-10.221000	26.158483	0.000228	20.787719
1699.439614	-3.017800	3.420800	-10.323000	26.180189	0.000224	20.795779
1700.438471	-3.023700	3.421100	-10.343000	26.179517	0.000225	20.778983
1701.439338	-2.994900	3.422500	-10.249000	26.187215	0.000225	20.799046
1702.438120	-3.011700	3.421700	-10.304000	26.179339	0.000226	20.789236
1703.440994	-2.980500	3.422000	-10.198000	26.180011	0.000225	20.794178
1704.440391	-3.027000	3.421000	-10.354000	26.160736	0.000225	20.789983
1705.441625	-3.016700	3.419400	-10.314000	26.173778	0.000224	20.790760
1706.442158	-2.991500	3.419100	-10.228000	26.187756	0.000223	20.796745
1707.442351	-3.004800	3.418500	-10.271000	26.200894	0.000224	20.804731
1708.442409	-2.998100	3.419800	-10.252000	26.214177	0.000222	20.782518
1709.443364	-2.988600	3.419000	-10.217000	26.163763	0.000224	20.795869
1710.445291	-2.975600	3.417700	-10.169000	26.118983	0.000221	20.788332
1711.446867	-2.986000	3.418700	-10.207000	26.117294	0.000223	20.792324
1712.443742	-2.991600	3.418800	-10.227000	26.069607	0.000223	20.805101
1713.446040	-3.002900	3.417700	-10.262000	26.124495	0.000223	20.800034
1714.447156	-3.000800	3.416900	-10.253000	26.185812	0.000223	20.791946
1715.444915	-2.996400	3.416800	-10.236000	26.204436	0.000222	20.787903
1716.446902	-3.007200	3.416500	-10.273000	26.219760	0.000222	20.785758
1717.446817	-3.007100	3.416300	-10.272000	26.178460	0.000221	20.766540
1718.447361	-3.016300	3.415400	-10.301000	26.124589	0.000220	20.796810
1719.448473	-3.012200	3.414400	-10.284000	26.113637	0.000218	20.791495
1720.447453	-2.999800	3.414500	-10.242000	26.092325	0.000217	20.789521
1721.448105	-3.006700	3.413700	-10.263000	26.083035	0.000218	20.808636
1722.449420	-2.993500	3.415600	-10.222000	26.115273	0.000219	20.777965
1723.449101	-3.015400	3.413800	-10.293000	26.074440	0.000217	20.774395
1724.448069	-3.008700	3.413100	-10.268000	26.132656	0.000218	20.788794
1725.449618	-3.013400	3.413400	-10.286000	26.160892	0.000218	20.789191
1726.449041	-3.012500	3.413400	-10.282000	26.177904	0.000218	20.781629
1727.449727	-3.005000	3.414000	-10.258000	26.177682	0.000218	20.774768
1728.448970	-2.998300	3.413200	-10.233000	26.181380	0.000217	20.790812
1729.452069	-3.007500	3.412400	-10.262000	26.154456	0.000216	20.778457
1730.452236	-2.990900	3.412200	-10.205000	26.162728	0.000216	20.796251
1731.452994	-2.999300	3.411700	-10.231000	26.133990	0.000217	20.770220
1732.452206	-2.987200	3.410800	-10.188000	26.060226	0.000216	20.790934
1733.450150	-3.004900	3.410400	-10.247000	26.061493	0.000216	20.774663
1734.450638	-3.011700	3.409700	-10.268000	26.026643	0.000214	20.775210
1735.452973	-2.995400	3.409300	-10.210000	26.009703	0.000214	20.793752
1736.454935	-2.988100	3.409800	-10.188000	26.047655	0.000213	20.782570
1737.452013	-2.990500	3.410600	-10.198000	26.010918	0.000214	20.762730
1738.453465	-3.010400	3.407600	-10.258000	25.991369	0.000214	20.780073
1739.454102	-2.983800	3.409000	-10.171000	26.012431	0.000216	20.783690
1740.456162	-3.011500	3.408500	-10.264000	26.038688	0.000212	20.772139
1741.456954	-3.019900	3.407800	-10.290000	26.086549	0.000212	20.764277
1742.455647	-3.004400	3.406800	-10.234000	26.157083	0.000214	20.757388
1743.458317	-3.022900	3.407100	-10.299000	26.128545	0.000212	20.767593
1744.457988	-3.006900	3.406000	-10.240000	26.139670	0.000215	20.781617
1745.458402	-3.003900	3.406900	-10.233000	26.119429	0.000211	20.777874
1746.459448	-3.006600	3.406900	-10.242000	26.141407	0.000212	20.774353
1747.460676	-2.983800	3.406800	-10.164000	26.141904	0.000212	20.771059
1748.460155	-2.994600	3.405600	-10.198000	26.094441	0.000212	20.779793
1749.461145	-3.020600	3.404300	-10.281000	26.085892	0.000210	20.754607
1750.461791	-3.000400	3.404100	-10.213000	26.102139	0.000211	20.768088
1751.461622	-2.995100	3.404900	-10.197000	26.061007	0.000211	20.759950
1752.463461	-2.989200	3.404100	-10.174000	26.074942	0.000210	20.774425
1753.462973	-2.984100	3.405100	-10.159000	26.103827	0.000209	20.770732
1754.461182	-2.998600	3.404100	-10.206000	26.107849	0.000209	20.757703
1755.461661	-3.011700	3.403800	-10.250000	26.110330	0.000210	20.754506
1756.462418	-2.965900	3.404300	-10.096000	26.130099	0.000209	20.755404
1757.463749	-2.980900	3.404400	-10.148000	26.192732	0.000207	20.782305
1758.464600	-2.992000	3.401800	-10.178000	26.210838	0.000208	20.752609
1759.470366	-2.978700	3.402700	-10.135000	26.261796	0.000207	20.769679
1760.462716	-2.989700	3.403300	-10.174000	26.294673	0.000208	20.757199
1761.463303	-3.003700	3.401200	-10.215000	26.269393	0.000206	20.757872
1762.461274	-2.998800	3.401100	-10.199000	26.240959	0.000208	20.756325
1763.461852	-3.011800	3.401900	-10.245000	26.219329	0.000208	20.753081
1764.463212	-3.009400	3.400500	-10.233000	26.214929	0.000207	20.773316
1765.468441	-3.010900	3.400200	-10.237000	26.207061	0.000207	20.764935
1766.464618	-3.017400	3.400100	-10.258000	26.204079	0.000204	20.768103
1767.462890	-3.004200	3.399700	-10.212000	26.186470	0.000201	20.764158
1768.461699	-2.997900	3.400500	-10.194000	26.163126	0.000208	20.754451
1769.463605	-3.028900	3.399400	-10.296000	26.149639	0.000202	20.757495
1770.464367	-2.995600	3.400700	-10.186000	26.123985	0.000202	20.769175
1771.464360	-3.008300	3.398200	-10.222000	26.152271	0.000204	20.746388
1772.464661	-3.012200	3.398800	-10.237000	26.137146	0.000205	20.751579
1773.470095	-3.016500	3.398300	-10.250000	26.150136	0.000204	20.750881
1774.466642	-3.000500	3.398500	-10.197000	26.181129	0.000205	20.738401
1775.462746	-3.025500	3.396400	-10.275000	26.204895	0.000202	20.760861
1776.462521	-3.023800	3.395400	-10.266000	26.185274	0.000203	20.760112
1777.472331	-2.995800	3.397200	-10.177000	26.193197	0.000201	20.745313
1778.463970	-2.975000	3.397700	-10.107000	26.201861	0.000204	20.749752
1779.467510	-3.003800	3.395700	-10.199000	26.266876	0.000200	20.747756
1780.468687	-2.981300	3.396300	-10.125000	26.274946	0.000199	20.757763
1781.464787	-3.040700	3.394700	-10.321000	26.265137	0.000199	20.743163
1782.467655	-3.009900	3.395100	-10.218000	26.245243	0.000201	20.732655
1783.467678	-3.008500	3.395100	-10.214000	26.282666	0.000200	20.759831
1784.464539	-3.008400	3.395200	-10.213000	26.280801	0.000199	20.729507
1785.467279	-3.003900	3.394000	-10.194000	26.297690	0.000197	20.763076
1786.469184	-3.012400	3.392600	-10.219000	26.243924	0.000197	20.770211
1787.467164	-3.011400	3.393300	-10.218000	26.210048	0.000198	20.763196
1788.469905	-3.014300	3.393100	-10.227000	26.197956	0.000197	20.749621
1789.471952	-3.007600	3.393500	-10.206000	26.183353	0.000198	20.740162
1790.468384	-2.993900	3.392600	-10.156000	26.129458	0.000196	20.755708
1791.468872	-3.005100	3.392300	-10.194000	26.126204	0.000197	20.753387
1792.470249	-2.999800	3.392000	-10.175000	26.189013	0.000198	20.753437
1793.467477	-3.009800	3.391300	-10.206000	26.219458	0.000198	20.737563
1794.468931	-3.020800	3.391000	-10.243000	26.212331	0.000197	20.750316
1795.468838	-3.014700	3.390200	-10.219000	26.209028	0.000196	20.755532
1796.468290	-2.970400	3.390900	-10.071000	26.207786	0.000197	20.738636
1797.467067	-3.001500	3.389200	-10.171000	26.232025	0.000196	20.745450
1798.469491	-3.015200	3.388800	-10.216000	26.255614	0.000194	20.745922
1799.472986	-2.967100	3.389900	-10.057000	26.295494	0.000193	20.752809
1800.470385	-2.984400	3.388900	-10.113000	26.294128	0.000195	20.743375
1801.471042	-3.007500	3.388200	-10.189000	26.257524	0.000195	20.743099
1802.469738	-2.984700	3.387700	-10.110000	26.203510	0.000194	20.762315
1803.471468	-2.993300	3.388500	-10.142000	26.193998	0.000195	20.746118
1804.470187	-2.996900	3.388500	-10.155000	26.208848	0.000194	20.771473
1805.470970	-2.983400	3.387200	-10.104000	26.291616	0.000193	20.746541
1806.477714	-2.982700	3.387600	-10.102000	26.321763	0.000194	20.737482
1807.473928	-3.027200	3.386800	-10.252000	26.377058	0.000193	20.766977
1808.473619	-3.008900	3.385900	-10.186000	26.324591	0.000191	20.758817
1809.472428	-3.002600	3.387000	-10.169000	26.256848	0.000192	20.769447
1810.475667	-2.998200	3.387000	-10.154000	26.173355	0.000190	20.764730
1811.471608	-2.991300	3.386800	-10.130000	26.149984	0.000192	20.750255
1812.475283	-3.017200	3.383900	-10.209000	26.195904	0.000189	20.748507
1813.472275	-3.012400	3.385700	-10.198000	26.225455	0.000190	20.752598
1814.473538	-3.006700	3.384500	-10.175000	26.213310	0.000190	20.747033
1815.473312	-2.997100	3.384700	-10.144000	26.204644	0.000190	20.741643
1816.473093	-3.014000	3.385000	-10.201000	26.178541	0.000189	20.755717
1817.474937	-2.981500	3.385200	-10.092000	26.176625	0.000189	20.756161
1818.475184	-3.012400	3.384200	-10.193000	26.208044	0.000191	20.738421
1819.475281	-3.009300	3.383500	-10.181000	26.219936	0.000187	20.745630
1820.473611	-3.009500	3.383200	-10.181000	26.208140	0.000188	20.771710
1821.474752	-3.018300	3.382900	-10.210000	26.191749	0.000187	20.760454
1822.475586	-3.030900	3.381400	-10.248000	26.188643	0.000187	20.751169
1823.479911	-3.003300	3.382000	-10.157000	26.184893	0.000187	20.752616
1824.476717	-2.993400	3.382400	-10.124000	26.191052	0.000187	20.753115
1825.477390	-2.985800	3.380400	-10.092000	26.260287	0.000187	20.773852
1826.479922	-3.015400	3.379900	-10.191000	26.308215	0.000187	20.740462
1827.477428	-2.982700	3.380700	-10.083000	26.342305	0.000185	20.772353
1828.482944	-2.989700	3.381900	-10.109000	26.349429	0.000187	20.782358
1829.477264	-3.009800	3.379600	-10.171000	26.292193	0.000185	20.767984
1830.477042	-2.983800	3.379800	-10.084000	26.323730	0.000186	20.742304
1831.481251	-3.008900	3.378100	-10.163000	26.283698	0.000184	20.750911
1832.478871	-2.972900	3.379800	-10.047000	26.224917	0.000184	20.761542
1833.477219	-2.987800	3.378800	-10.094000	26.201525	0.000184	20.753682
1834.480864	-2.992500	3.378200	-10.108000	26.157965	0.000183	20.758749
1835.479308	-3.011300	3.377900	-10.171000	26.186248	0.000185	20.763935
1836.477462	-2.987100	3.378900	-10.092000	26.233210	0.000184	20.755177
1837.483715	-2.999000	3.377400	-10.128000	26.211978	0.000184	20.758970
1838.481071	-3.005300	3.377000	-10.148000	26.197573	0.000182	20.781953
1839.478961	-2.993500	3.376900	-10.108000	26.163050	0.000183	20.775238
1840.485863	-2.998500	3.376900	-10.124000	26.197573	0.000182	20.750184
1841.482103	-2.997800	3.376300	-10.120000	26.269687	0.000182	20.756746
1842.481295	-2.993300	3.376700	-10.106000	26.343163	0.000180	20.766103
1843.483567	-3.019600	3.375200	-10.191000	26.335217	0.000181	20.771867
1844.483093	-3.020500	3.374600	-10.193000	26.357987	0.000180	20.752076
1845.480011	-3.003400	3.374000	-10.132000	26.344253	0.000180	20.761982
1846.482126	-2.979800	3.376000	-10.059000	26.298118	0.000179	20.758764
1847.479569	-2.984000	3.374300	-10.068000	26.295707	0.000180	20.755868
1848.477954	-2.992200	3.374900	-10.098000	26.317734	0.000179	20.767573
1849.481544	-3.011100	3.374200	-10.159000	26.292278	0.000180	20.770440
1850.481829	-3.007300	3.373000	-10.143000	26.289596	0.000180	20.761580
1851.481702	-2.977700	3.373500	-10.044000	26.266627	0.000177	20.774534
1852.484271	-3.015100	3.372200	-10.167000	26.273804	0.000180	20.771314
1853.483001	-2.991300	3.371200	-10.084000	26.299578	0.000178	20.781095
1854.481453	-2.994000	3.372300	-10.095000	26.316761	0.000176	20.771337
1855.486053	-3.026000	3.370100	-10.197000	26.327686	0.000177	20.765247
1856.482027	-3.007000	3.371800	-10.138000	26.286390	0.000176	20.779695
1857.484001	-3.024300	3.370700	-10.193000	26.294858	0.000178	20.766868
1858.485720	-3.012000	3.369600	-10.149000	26.273275	0.000176	20.786905
1859.486869	-3.021900	3.370000	-10.183000	26.241169	0.000175	20.768864
1860.484765	-2.970700	3.371000	-10.013000	26.255173	0.000173	20.784360
1861.490903	-2.997100	3.368800	-10.095000	26.270692	0.000174	20.781463
1862.486242	-3.003800	3.368600	-10.118000	26.344469	0.000177	20.751767
1863.485681	-3.007300	3.369000	-10.131000	26.377988	0.000176	20.776446
1864.492607	-2.984400	3.370700	-10.059000	26.325096	0.000173	20.771179
1865.487575	-2.981600	3.368200	-10.042000	26.283626	0.000178	20.766961
1866.487514	-2.980100	3.369200	-10.039000	26.322836	0.000173	20.765114
1867.490049	-2.986300	3.368800	-10.059000	26.381760	0.000174	20.774547
1868.488024	-2.997200	3.367800	-10.094000	26.349429	0.000173	20.754856
1869.484185	-2.971500	3.368200	-10.008000	26.337608	0.000174	20.763838
1870.488957	-2.995400	3.367300	-10.086000	26.391687	0.000172	20.766033
1871.488504	-2.989000	3.366800	-10.062000	26.438616	0.000173	20.777639
1872.485554	-2.964100	3.367400	-9.980900	26.360128	0.000171	20.768927
1873.489099	-2.978500	3.366900	-10.027000	26.327945	0.000170	20.767403
1874.487483	-2.981900	3.366100	-10.036000	26.326132	0.000169	20.780280
1875.487815	-2.981500	3.367100	-10.038000	26.393893	0.000172	20.775363
1876.487800	-3.006900	3.364600	-10.116000	26.449511	0.000168	20.774365
1877.491364	-2.997600	3.364500	-10.085000	26.459267	0.000169	20.767575
1878.489702	-3.018400	3.364000	-10.153000	26.444344	0.000170	20.779603
1879.487089	-3.025500	3.364500	-10.178000	26.426741	0.000169	20.782299
1880.491941	-3.013800	3.363900	-10.137000	26.436448	0.000167	20.781150
1881.487200	-2.994700	3.363500	-10.071000	26.415044	0.000170	20.814638
1882.488347	-2.989700	3.364500	-10.058000	26.349492	0.000167	20.786688
1883.491108	-3.001200	3.363000	-10.092000	26.335116	0.000169	20.774611
1884.488178	-2.998500	3.362000	-10.080000	26.294417	0.000168	20.772116
1885.493122	-2.997700	3.362600	-10.078000	26.308641	0.000167	20.790204
1886.492830	-2.989500	3.362400	-10.051000	26.314950	0.000167	20.793225
1887.489427	-2.992800	3.360300	-10.055000	26.324260	0.000168	20.796892
1888.489510	-3.004400	3.361100	-10.096000	26.352815	0.000166	20.796666
1889.491585	-2.990000	3.360900	-10.048000	26.413946	0.000168	20.781766
1890.489150	-2.982800	3.360000	-10.022000	26.421146	0.000165	20.784261
1891.489298	-2.985700	3.361300	-10.034000	26.447811	0.000164	20.795415
1892.490506	-3.030400	3.358400	-10.176000	26.498109	0.000166	20.779590
1893.490076	-3.014300	3.359300	-10.125000	26.469783	0.000164	20.796163
1894.489471	-3.019000	3.358500	-10.138000	26.482519	0.000163	20.806120
1895.491599	-2.991300	3.360700	-10.052000	26.520702	0.000164	20.791394
1896.492341	-2.993400	3.358000	-10.052000	26.484056	0.000165	20.785379
1897.490351	-2.998300	3.358500	-10.068000	26.442316	0.000163	20.780884
1898.491905	-3.006700	3.356900	-10.093000	26.406910	0.000163	20.792713
1899.490023	-3.005400	3.357100	-10.089000	26.460788	0.000163	20.796605
1900.490653	-3.005400	3.357300	-10.089000	26.502375	0.000161	20.790042
1901.492960	-2.985100	3.358200	-10.024000	26.493237	0.000159	20.807409
1902.488930	-3.005400	3.358100	-10.092000	26.473945	0.000161	20.790389
1903.492141	-2.988300	3.356800	-10.031000	26.496166	0.000163	20.793284
1904.494346	-2.995100	3.356700	-10.053000	26.475406	0.000160	20.791383
1905.493745	-2.997100	3.355400	-10.055000	26.496090	0.000162	20.801268
1906.493955	-3.011600	3.355400	-10.104000	26.544252	0.000162	20.834506
1907.495460	-3.002300	3.356300	-10.075000	26.489038	0.000162	20.788965
1908.492897	-3.014200	3.353900	-10.109000	26.444048	0.000160	20.802065
1909.494210	-3.026100	3.355200	-10.151000	26.394858	0.000160	20.818532
1910.500589	-2.990700	3.354600	-10.032000	26.388651	0.000157	20.826043
1911.497055	-3.001300	3.353600	-10.064000	26.335488	0.000159	20.802485
1912.495310	-3.005200	3.353500	-10.077000	26.347853	0.000157	20.795472
1913.495756	-2.974000	3.355100	-9.976700	26.403372	0.000158	20.801485
1914.494615	-3.004200	3.352800	-10.072000	26.465421	0.000158	20.806951
1915.495198	-2.997100	3.353200	-10.049000	26.511374	0.000158	20.796242
1916.497081	-3.012800	3.353000	-10.100000	26.561896	0.000157	20.806723
1917.496322	-3.025200	3.350800	-10.136000	26.558073	0.000157	20.825165
1918.497942	-3.028300	3.352300	-10.151000	26.529546	0.000156	20.809293
1919.497349	-2.987200	3.351700	-10.012000	26.522843	0.000155	20.821995
1920.498423	-2.968600	3.351300	-9.947100	26.541413	0.000155	20.808893
1921.496996	-3.001300	3.350400	-10.055000	26.582327	0.000155	20.810191
1922.497454	-2.978800	3.350500	-9.978900	26.567208	0.000155	20.815382
1923.501945	-3.012900	3.349300	-10.090000	26.511221	0.000154	20.827857
1924.495407	-2.995200	3.350400	-10.033000	26.469238	0.000155	20.817900
1925.497932	-2.985300	3.350500	-10.001000	26.497269	0.000152	20.812411
1926.498423	-3.001800	3.349400	-10.053000	26.513108	0.000152	20.832124
1927.502336	-3.005400	3.349100	-10.065000	26.547963	0.000153	20.820219
1928.500257	-3.004600	3.349100	-10.061000	26.493244	0.000153	20.804098
1929.503100	-2.982500	3.349700	-9.988900	26.502553	0.000154	20.797807
1930.502156	-2.984800	3.348300	-9.991900	26.513054	0.000153	20.819742
1931.500611	-2.993500	3.348600	-10.022000	26.580631	0.000153	20.811332
1932.505054	-3.006300	3.348100	-10.065000	26.575912	0.000153	20.813701
1933.501822	-2.999400	3.348200	-10.042000	26.549547	0.000152	20.828923
1934.502569	-3.009000	3.348400	-10.075000	26.562258	0.000151	20.821786
1935.505424	-3.010300	3.346400	-10.073000	26.534922	0.000150	20.807110
1936.502708	-3.005400	3.346600	-10.057000	26.467863	0.000151	20.817467
1937.503544	-2.973300	3.347100	-9.951200	26.444499	0.000148	20.821958
1938.504410	-2.992000	3.347100	-10.014000	26.463815	0.000150	20.841847
1939.503694	-2.983400	3.345100	-9.979000	26.483527	0.000150	20.830840
1940.503226	-3.006100	3.344100	-10.052000	26.469101	0.000150	20.822030
1941.504037	-3.005100	3.343300	-10.045000	26.482137	0.000148	20.831813
1942.502020	-2.995600	3.345600	-10.021000	26.430095	0.000148	20.832610
1943.503926	-2.988800	3.344700	-9.995800	26.475533	0.000146	20.828020
1944.504061	-3.009400	3.344300	-10.064000	26.544996	0.000147	20.827668
1945.502876	-3.010800	3.342800	-10.063000	26.583055	0.000148	20.819459
1946.504247	-2.999400	3.343400	-10.028000	26.627938	0.000146	20.819059
1947.505875	-3.036600	3.341700	-10.146000	26.652139	0.000147	20.804033
1948.505980	-3.002000	3.341700	-10.030000	26.649186	0.000146	20.840418
1949.505520	-2.993700	3.342000	-10.004000	26.682994	0.000146	20.822724
1950.508074	-2.980600	3.341700	-9.960000	26.690491	0.000145	20.819355
1951.501977	-3.002300	3.341900	-10.033000	26.672989	0.000146	20.832105
1952.507430	-3.009100	3.340200	-10.050000	26.646329	0.000144	20.847029
1953.505780	-3.016100	3.340200	-10.073000	26.668593	0.000143	20.849497
1954.504844	-3.002700	3.341100	-10.031000	26.641536	0.000146	20.834625
1955.507883	-2.990200	3.339200	-9.984200	26.638257	0.000144	20.817104
1956.506454	-2.992500	3.340500	-9.995800	26.569514	0.000142	20.835718
1957.506606	-2.988600	3.340000	-9.980900	26.522517	0.000142	20.839211
1958.505682	-2.994500	3.340600	-10.003000	26.543171	0.000143	20.831523
1959.509998	-3.016800	3.339200	-10.073000	26.593741	0.000144	20.836838
1960.508688	-3.009900	3.339100	-10.049000	26.609679	0.000144	20.851437
1961.508909	-3.008900	3.338000	-10.043000	26.598307	0.000142	20.846644
1962.509761	-3.002900	3.336400	-10.018000	26.596145	0.000143	20.832142
1963.516307	-2.974000	3.338800	-9.928300	26.568688	0.000142	20.846741
1964.513349	-2.983600	3.338900	-9.961300	26.590161	0.000142	20.837981
1965.513303	-3.004800	3.337200	-10.027000	26.644450	0.000140	20.842296
1966.510625	-3.011100	3.335300	-10.042000	26.674807	0.000141	20.851476
1967.510262	-3.001900	3.336300	-10.014000	26.641520	0.000138	20.845987
1968.513934	-2.987400	3.335900	-9.964600	26.599366	0.000141	20.853872
1969.510484	-3.004600	3.336100	-10.023000	26.645861	0.000140	20.843240
1970.515042	-3.006400	3.335400	-10.027000	26.637965	0.000138	20.855689
1971.513703	-3.010700	3.334700	-10.039000	26.675102	0.000137	20.856988
1972.510530	-2.979200	3.335100	-9.935300	26.662491	0.000137	20.855215
1973.514640	-2.997000	3.334200	-9.991500	26.626072	0.000137	20.847054
1974.514574	-2.997100	3.334500	-9.992500	26.571827	0.000137	20.854164
1975.511886	-2.989200	3.334200	-9.965400	26.517781	0.000136	20.863847
1976.513452	-3.003000	3.334200	-10.012000	26.534015	0.000137	20.864044
1977.514101	-2.996400	3.333700	-9.988100	26.586497	0.000137	20.850418
1978.511644	-2.958400	3.333500	-9.860100	26.606480	0.000134	20.860549
1979.515596	-2.988700	3.332300	-9.958800	26.571700	0.000135	20.860199
1980.518417	-3.024600	3.332000	-10.077000	26.611566	0.000137	20.861394
1981.513246	-2.996800	3.333200	-9.987900	26.658335	0.000134	20.860520
1982.515580	-3.003300	3.331100	-10.003000	26.608314	0.000134	20.890839
1983.516921	-2.991700	3.331200	-9.965300	26.622089	0.000133	20.847317
1984.512772	-3.002100	3.330800	-9.998900	26.644480	0.000136	20.860816
1985.515790	-2.981000	3.330100	-9.926600	26.678389	0.000135	20.861715
1986.516057	-3.004000	3.330000	-10.002000	26.646764	0.000133	20.874017
1987.513534	-2.978300	3.330300	-9.917600	26.663368	0.000133	20.861313
1988.517307	-3.003000	3.329200	-9.996300	26.698989	0.000134	20.867725
1989.516514	-2.985500	3.329500	-9.939500	26.700603	0.000132	20.879305
1990.515198	-2.996100	3.329300	-9.974100	26.675429	0.000130	20.870593
1991.517260	-2.998800	3.327800	-9.978600	26.696381	0.000131	20.879328
1992.520133	-3.005100	3.328300	-10.001000	26.740240	0.000130	20.888808
1993.516209	-2.994200	3.327800	-9.963400	26.719289	0.000131	20.871065
1994.514198	-3.001300	3.328600	-9.989500	26.712936	0.000131	20.877479
1995.515684	-3.000100	3.328200	-9.983600	26.690866	0.000130	20.872361
1996.515086	-2.990000	3.326900	-9.947100	26.682453	0.000132	20.876705
1997.517242	-3.000300	3.325800	-9.976800	26.708216	0.000129	20.857088
1998.518301	-2.992100	3.325600	-9.949900	26.677485	0.000130	20.902054
1999.517201	-2.982200	3.326200	-9.917900	26.673016	0.000128	20.886657
2000.515181	-2.986600	3.326600	-9.934500	26.663260	0.000129	20.884910
2001.516354	-3.021700	3.325400	-10.048000	26.698707	0.000128	20.866968
2002.519348	-2.992200	3.326000	-9.951000	26.663507	0.000129	20.896063
2003.514914	-2.978700	3.326700	-9.908400	26.601297	0.000127	20.888053
2004.516490	-2.998900	3.324500	-9.969200	26.627908	0.000127	20.874976
2005.517558	-2.998700	3.324600	-9.969000	26.630785	0.000127	20.888299
2006.517042	-2.984500	3.324900	-9.922000	26.573562	0.000126	20.894312
2007.518898	-3.008800	3.322900	-9.996600	26.578751	0.000127	20.893837
2008.521612	-3.015400	3.322300	-10.017000	26.645903	0.000125	20.895436
2009.518747	-2.990500	3.321200	-9.931300	26.698404	0.000126	20.898429
2010.518925	-2.989600	3.322500	-9.932100	26.716971	0.000126	20.890543
2011.523450	-2.984400	3.322500	-9.913900	26.718285	0.000125	20.884279
2012.526208	-2.983200	3.322900	-9.912500	26.746460	0.000125	20.888897
2013.520113	-2.981800	3.321300	-9.901700	26.799327	0.000125	20.872351
2014.522260	-3.030000	3.319100	-10.055000	26.845614	0.000122	20.895655
2015.521367	-3.024600	3.319600	-10.040000	26.865618	0.000125	20.898225
2016.519071	-3.006600	3.320000	-9.981400	26.847177	0.000123	20.889641
2017.521498	-2.994400	3.320800	-9.943200	26.844274	0.000124	20.910427
2018.521559	-3.001300	3.320300	-9.964800	26.817666	0.000123	20.896477
2019.522326	-2.982800	3.319300	-9.900200	26.812826	0.000122	20.884974
2020.524638	-3.004400	3.319800	-9.973000	26.832060	0.000121	20.888666
2021.521831	-2.984400	3.318500	-9.902700	26.842484	0.000122	20.904361
2022.521351	-2.986200	3.319000	-9.910200	26.810390	0.000120	20.903860
2023.523517	-3.000900	3.319500	-9.960900	26.794507	0.000121	20.897848
2024.523648	-2.988000	3.319500	-9.918400	26.800662	0.000119	20.906407
2025.522185	-3.002400	3.317900	-9.960700	26.837394	0.000122	20.920578
2026.529604	-3.011700	3.317900	-9.991500	26.887976	0.000118	20.902214
2027.523177	-2.986500	3.316800	-9.905200	26.862611	0.000118	20.898047
2028.523804	-3.005500	3.317200	-9.969300	26.891053	0.000118	20.901989
2029.525184	-3.018100	3.315200	-10.005000	26.918277	0.000119	20.889536
2030.524897	-2.999600	3.314800	-9.941600	26.951508	0.000117	20.890710
2031.525693	-3.013400	3.314500	-9.987600	26.910162	0.000117	20.894652
2032.528078	-3.010900	3.315000	-9.980600	26.853973	0.000117	20.893155
2033.527923	-3.025100	3.313100	-10.022000	26.840370	0.000119	20.897020
2034.524375	-2.994800	3.314500	-9.925200	26.851887	0.000117	20.908125
2035.530792	-2.991600	3.315100	-9.916500	26.834488	0.000118	20.881151
2036.525618	-3.000800	3.313900	-9.942900	26.803858	0.000115	20.891130
2037.527666	-3.007700	3.313500	-9.965400	26.837814	0.000113	20.877857
2038.528918	-2.979800	3.312800	-9.870000	26.818278	0.000114	20.890929
2039.525691	-3.008000	3.311700	-9.960700	26.850299	0.000115	20.879505
2040.526163	-3.015000	3.312300	-9.985800	26.808103	0.000113	20.892552
2041.527343	-3.007000	3.312200	-9.958500	26.774916	0.000115	20.893799
2042.528221	-3.001800	3.312300	-9.941500	26.744982	0.000114	20.858964
2043.527156	-3.002100	3.311300	-9.939800	26.786681	0.000114	20.878128
2044.529141	-3.015000	3.310400	-9.980300	26.888988	0.000113	20.871940
2045.528014	-2.997300	3.310800	-9.922900	26.884318	0.000115	20.880994
2046.531745	-2.989600	3.311200	-9.897800	26.908369	0.000112	20.872462
2047.533652	-3.005200	3.309000	-9.943000	26.850790	0.000112	20.894221
2048.528315	-3.018400	3.310100	-9.989700	26.900997	0.000112	20.870265
2049.527926	-3.006700	3.308500	-9.946600	26.867840	0.000110	20.888606
2050.529953	-3.005800	3.308100	-9.942600	26.824355	0.000111	20.865747
2051.529045	-3.011200	3.308500	-9.961900	26.854165	0.000112	20.874857
2052.529158	-2.999600	3.308500	-9.923300	26.927848	0.000111	20.870238
2053.531696	-3.029900	3.306200	-10.016000	26.919311	0.000112	20.875878
2054.528368	-3.026700	3.306500	-10.006000	26.893053	0.000111	20.880768
2055.528219	-3.008000	3.308100	-9.949800	26.856694	0.000109	20.864598
2056.529017	-3.003400	3.306900	-9.931500	26.889579	0.000108	20.878224
2057.528606	-2.997200	3.306000	-9.908700	26.902509	0.000109	20.874155
2058.534778	-2.973000	3.306400	-9.829100	26.977331	0.000109	20.884909
2059.531017	-2.987500	3.305500	-9.874400	27.023462	0.000109	20.850222
2060.529005	-3.009100	3.304500	-9.942600	26.982814	0.000108	20.859605
2061.535817	-2.987500	3.306200	-9.876300	26.905260	0.000107	20.868862
2062.531199	-3.013500	3.305200	-9.959000	26.909951	0.000107	20.873578
2063.529546	-2.959700	3.305900	-9.783300	26.881658	0.000108	20.850820
2064.532393	-2.991800	3.303200	-9.881300	26.875202	0.000106	20.877044
2065.533379	-3.003300	3.304900	-9.923800	26.886075	0.000105	20.843408
2066.532403	-2.977700	3.304000	-9.837300	26.888008	0.000106	20.857205
2067.532668	-3.000000	3.304300	-9.911300	26.889573	0.000105	20.854986
2068.533054	-3.023400	3.302700	-9.984500	26.963950	0.000103	20.864342
2069.534914	-3.005800	3.302700	-9.926300	26.992836	0.000104	20.870630
2070.534897	-3.023300	3.301000	-9.979400	27.009264	0.000104	20.864866
2071.536417	-3.000400	3.301600	-9.905500	26.950027	0.000103	20.844652
2072.533885	-3.011200	3.301100	-9.939600	26.942905	0.000103	20.849818
2073.533871	-3.009300	3.300800	-9.931500	26.994149	0.000102	20.843977
2074.533965	-3.025400	3.301200	-9.986100	27.049042	0.000102	20.860299
2075.534607	-2.990300	3.300700	-9.868700	27.004224	0.000103	20.846996
2076.535936	-2.982400	3.301200	-9.844900	27.043036	0.000101	20.840509
2077.534354	-2.988600	3.300200	-9.862000	27.073359	0.000101	20.868632
2078.535274	-3.013900	3.298600	-9.941000	27.105293	9.882575E-5	20.851437
2079.544403	-3.022400	3.298900	-9.970300	27.114376	9.806669E-5	20.851089
2080.536322	-3.016400	3.298600	-9.949000	27.077998	9.839671E-5	20.835367
2081.535914	-3.010800	3.297000	-9.926000	27.068422	9.892475E-5	20.859400
2082.536102	-3.001600	3.298400	-9.898900	27.074773	9.819870E-5	20.852512
2083.534584	-3.014700	3.296100	-9.935700	27.093906	9.654858E-5	20.870330
2084.535885	-3.013100	3.297400	-9.934700	27.059736	9.747265E-5	20.846398
2085.536374	-3.017400	3.297200	-9.948100	27.061597	9.770366E-5	20.847321
2086.539229	-2.990700	3.297500	-9.861700	27.078173	9.743965E-5	20.832698
2087.536575	-3.012700	3.295100	-9.926500	27.067527	9.582253E-5	20.831474
2088.538275	-3.002700	3.295300	-9.894200	27.093508	9.585553E-5	20.838164
2089.537318	-2.987600	3.294800	-9.842700	27.075764	9.582253E-5	20.840232
2090.536242	-3.021100	3.295400	-9.954700	27.030875	9.516248E-5	20.838236
2091.535489	-2.996200	3.294300	-9.868900	26.992186	9.374338E-5	20.840580
2092.535930	-3.013100	3.295700	-9.929400	27.087104	9.747265E-5	20.847369
2093.536389	-3.016000	3.293500	-9.932600	27.034896	9.611955E-5	20.830426
2094.535146	-2.995800	3.294200	-9.868100	27.061719	9.364437E-5	20.827056
2095.539359	-2.981500	3.292500	-9.816300	27.080378	9.338035E-5	20.841079
2096.537882	-2.989900	3.293400	-9.846400	27.148267	9.186224E-5	20.835864
2097.537054	-3.003800	3.290700	-9.882900	27.123752	9.519548E-5	20.826381
2098.539030	-3.003400	3.292900	-9.888300	27.156182	9.344635E-5	20.842876
2099.540017	-3.001300	3.291300	-9.877200	27.105837	9.305032E-5	20.833019
2100.539625	-3.023200	3.291300	-9.948700	27.125611	9.324834E-5	20.849113
2101.540461	-2.974800	3.291000	-9.788900	27.116081	9.110318E-5	20.837632
2102.539779	-2.999900	3.289300	-9.867100	27.105042	9.209325E-5	20.828901
2103.540164	-2.992200	3.291500	-9.847600	27.112905	9.110318E-5	20.834912
2104.539643	-3.011800	3.288500	-9.903200	27.132012	8.968408E-5	20.830895
2105.541149	-2.994000	3.290900	-9.851700	27.114121	9.199425E-5	20.841351
2106.542095	-3.003500	3.288900	-9.877000	27.063873	9.077316E-5	20.844394
2107.541121	-2.978800	3.289200	-9.796900	27.084393	9.103718E-5	20.831841
2108.543526	-2.959700	3.290700	-9.738200	27.067867	8.938706E-5	20.818540
2109.540563	-2.995000	3.289100	-9.849500	27.003471	8.994810E-5	20.827274
2110.544326	-2.989900	3.288900	-9.831700	26.980367	9.146621E-5	20.816368
2111.543208	-3.010900	3.287900	-9.898400	27.045061	8.889202E-5	20.823106
2112.543085	-3.008300	3.288200	-9.890900	27.077618	8.710989E-5	20.838777
2113.543370	-2.996000	3.288000	-9.849900	27.096103	8.770393E-5	20.829394
2114.542453	-2.966200	3.286600	-9.747600	27.095307	8.750592E-5	20.829067
2115.542072	-2.981100	3.286300	-9.796300	27.150516	8.737391E-5	20.812996
2116.549577	-3.003000	3.285300	-9.865200	27.199196	8.625183E-5	20.830189
2117.543536	-2.983400	3.286100	-9.803300	27.218077	8.595481E-5	20.834007
2118.543469	-2.989600	3.284600	-9.818800	27.206887	8.707689E-5	20.824649
2119.547275	-2.985700	3.286400	-9.811200	27.208103	8.582280E-5	20.814967
2120.544827	-2.996900	3.284100	-9.840700	27.192919	8.380965E-5	20.830514
2121.547663	-3.001600	3.284700	-9.857900	27.205423	8.476672E-5	20.817013
2122.548214	-2.970900	3.285300	-9.759300	27.228398	8.565778E-5	20.797923
2123.545668	-3.001200	3.283300	-9.852700	27.225469	8.417268E-5	20.820580
2124.544693	-3.023500	3.281800	-9.921300	27.244251	8.476672E-5	20.835204
2125.549640	-3.000700	3.281500	-9.846400	27.235247	8.516275E-5	20.804811
2126.544976	-3.011600	3.281700	-9.883100	27.218571	8.285258E-5	20.810797
2127.545572	-3.008500	3.280600	-9.868400	27.192197	8.318260E-5	20.817934
2128.550702	-2.988700	3.280400	-9.803100	27.204898	8.219253E-5	20.811744
2129.548679	-2.955500	3.281400	-9.697100	27.261764	8.192851E-5	20.823898
2130.548664	-2.983900	3.280900	-9.789000	27.292727	8.440369E-5	20.819955
2131.551540	-2.980800	3.281900	-9.781900	27.321629	8.136747E-5	20.819630
2132.547769	-3.006300	3.280300	-9.860800	27.344945	8.328161E-5	20.820800
2133.548243	-3.005100	3.278400	-9.851300	27.327359	8.417268E-5	20.801213
2134.549057	-2.971700	3.279400	-9.744700	27.299475	7.928832E-5	20.818682
2135.550900	-3.000000	3.277900	-9.832200	27.307286	8.050941E-5	20.813264
2136.547970	-2.982500	3.277800	-9.774500	27.313910	7.856227E-5	20.801435
2137.550223	-2.997600	3.279200	-9.829100	27.341547	7.981636E-5	20.812166
2138.548571	-2.991300	3.278900	-9.808000	27.352584	8.034440E-5	20.817105
2139.551746	-2.983300	3.277100	-9.775500	27.379028	7.948633E-5	20.806723
2140.550107	-3.000000	3.276100	-9.827700	27.343355	7.780321E-5	20.836269
2141.548442	-2.995700	3.275700	-9.811700	27.339485	7.856227E-5	20.820523
2142.548515	-3.011400	3.277400	-9.867900	27.279249	7.714316E-5	20.817778
2143.549635	-3.000200	3.275600	-9.826700	27.287261	7.691214E-5	20.824888
2144.549586	-2.983600	3.275700	-9.772600	27.242901	7.625210E-5	20.799234
2145.552098	-3.010800	3.275900	-9.862600	27.229925	7.849626E-5	20.819846
2146.552535	-2.997200	3.274500	-9.812900	27.227891	7.846326E-5	20.795516
2147.551236	-3.000900	3.274500	-9.825600	27.247838	7.503101E-5	20.818898
2148.552071	-3.021900	3.273000	-9.889600	27.262152	7.572406E-5	20.813857
2149.551094	-3.000300	3.274000	-9.822100	27.278352	7.727517E-5	20.805970
2150.552810	-3.009200	3.272800	-9.847200	27.325440	7.483299E-5	20.797860
2151.551270	-3.018200	3.273300	-9.878400	27.294204	7.704415E-5	20.815751
2152.551164	-2.993400	3.273400	-9.798100	27.277830	7.496500E-5	20.798332
2153.551989	-3.004600	3.273100	-9.833900	27.308742	7.625210E-5	20.813780
2154.551390	-2.997500	3.272600	-9.808300	27.354859	7.404093E-5	20.815126
2155.553666	-3.005200	3.271300	-9.830500	27.393931	7.347989E-5	20.806542
2156.551929	-3.002000	3.271200	-9.818700	27.415712	7.433796E-5	20.814229
2157.551057	-3.024700	3.270500	-9.890800	27.380883	7.446997E-5	20.793417
2158.552249	-3.009600	3.271200	-9.844000	27.345731	7.400793E-5	20.806892
2159.553835	-3.010000	3.271000	-9.843700	27.349154	7.433796E-5	20.801326
2160.552646	-3.018100	3.267300	-9.859700	27.363716	7.321587E-5	20.809811
2161.552877	-3.022800	3.268700	-9.879300	27.385918	7.334788E-5	20.787576
2162.552105	-3.019900	3.268200	-9.867800	27.400974	7.314987E-5	20.799403
2163.552767	-3.028900	3.267400	-9.896000	27.393383	7.136774E-5	20.795086
2164.553577	-3.007500	3.267900	-9.827600	27.357636	7.199478E-5	20.800376
2165.554095	-2.999900	3.266500	-9.798200	27.316404	7.268784E-5	20.795409
2166.554938	-2.997600	3.266500	-9.790600	27.288917	7.173077E-5	20.793363
2167.556266	-2.995900	3.267600	-9.787700	27.307100	6.984963E-5	20.780360
2168.560694	-2.993100	3.265800	-9.774400	27.317569	7.050968E-5	20.807961
2169.557514	-3.008600	3.266800	-9.827600	27.330767	7.037767E-5	20.801323
2170.557135	-2.999000	3.264500	-9.789500	27.356716	6.961861E-5	20.793761
2171.556650	-2.994500	3.263700	-9.772500	27.409604	6.971762E-5	20.778213
2172.564020	-2.975600	3.265100	-9.715400	27.471020	6.981663E-5	20.794482
2173.561060	-2.980500	3.265100	-9.731200	27.414663	6.961861E-5	20.781880
2174.559899	-2.992300	3.264500	-9.766800	27.302906	6.843052E-5	20.801745
2175.564951	-2.983000	3.264500	-9.737100	27.233191	6.701142E-5	20.788519
2176.562287	-2.991900	3.264200	-9.765600	27.215747	6.800149E-5	20.782353
2177.561891	-3.004400	3.261900	-9.799200	27.273259	6.734144E-5	20.794683
2178.561067	-3.003000	3.262000	-9.794700	27.346195	6.869454E-5	20.781280
2179.562017	-3.007800	3.263300	-9.814500	27.404144	6.720943E-5	20.790264
2180.562015	-3.001800	3.260800	-9.787100	27.395138	6.975062E-5	20.785945
2181.560989	-3.005100	3.261000	-9.798900	27.421507	6.823251E-5	20.789714
2182.560560	-3.021500	3.260100	-9.848900	27.421655	6.588934E-5	20.802191
2183.561212	-2.994400	3.259800	-9.760500	27.374373	6.859554E-5	20.783074
2184.560750	-3.000600	3.260200	-9.781000	27.328628	6.582333E-5	20.790161
2185.563298	-3.017100	3.259000	-9.832200	27.352813	6.823251E-5	20.786989
2186.563638	-2.993500	3.258100	-9.752500	27.358570	6.602135E-5	20.787091
2187.563108	-2.979300	3.260300	-9.712700	27.417931	6.579033E-5	20.787538
2188.564283	-2.985800	3.258100	-9.727500	27.403616	6.430522E-5	20.787836
2189.564031	-2.990600	3.259100	-9.745900	27.421998	6.707742E-5	20.772189
2190.563935	-3.001900	3.258100	-9.779200	27.362063	6.605435E-5	20.774009
2191.562850	-2.985100	3.256400	-9.720000	27.449900	6.456924E-5	20.781768
2192.563144	-3.010100	3.256300	-9.800800	27.489217	6.443723E-5	20.790030
2193.565780	-3.002500	3.255200	-9.772900	27.549465	6.321614E-5	20.768618
2194.564633	-2.993900	3.256000	-9.747600	27.499336	6.133500E-5	20.788357
2195.566105	-2.995700	3.256900	-9.756200	27.448361	6.496527E-5	20.769314
2196.568317	-3.004100	3.254700	-9.775600	27.410432	6.120299E-5	20.767666
2197.565692	-2.993700	3.256000	-9.746300	27.421916	6.050994E-5	20.787281
2198.564681	-2.987300	3.254700	-9.722500	27.370741	6.166503E-5	20.774205
2199.563738	-3.009900	3.254100	-9.793500	27.291750	6.183004E-5	20.785308
2200.563075	-3.011000	3.253400	-9.794000	27.318867	6.272111E-5	20.783187
2201.564588	-2.990300	3.253200	-9.726700	27.372078	5.975089E-5	20.780291
2202.563512	-2.979400	3.253800	-9.693700	27.448209	6.093898E-5	20.778644
2203.563956	-2.972700	3.252700	-9.668800	27.481793	6.166503E-5	20.791095
2204.567954	-3.004500	3.251700	-9.768800	27.453192	5.958588E-5	20.783658
2205.565057	-2.989900	3.251700	-9.720900	27.474947	5.902484E-5	20.778992
2206.565201	-2.983300	3.251200	-9.698500	27.541196	6.021292E-5	20.758875
2207.565328	-2.994800	3.251400	-9.736400	27.552928	5.668166E-5	20.785379
2208.566251	-2.989100	3.249800	-9.713100	27.552930	5.915684E-5	20.773052
2209.564384	-2.998200	3.249500	-9.742000	27.579368	5.928885E-5	20.763143
2210.568867	-2.994300	3.249100	-9.728600	27.579713	5.866181E-5	20.765387
2211.565204	-3.010200	3.249000	-9.779600	27.556075	5.714370E-5	20.763414
2212.566031	-2.980000	3.249000	-9.680800	27.561183	5.793576E-5	20.798426
2213.567420	-3.004600	3.248100	-9.758600	27.492876	5.579060E-5	20.770477
2214.566855	-2.989500	3.248900	-9.711600	27.473701	5.757273E-5	20.777739
2215.565699	-2.997100	3.248300	-9.733700	27.469063	5.668166E-5	20.765011
2216.565355	-3.000600	3.246900	-9.741000	27.449367	5.648365E-5	20.778387
2217.569377	-3.016900	3.246400	-9.793300	27.507632	5.549358E-5	20.767780
2218.567684	-3.004100	3.246400	-9.751400	27.490341	5.753973E-5	20.765082
2219.570947	-2.995500	3.245700	-9.721800	27.418208	5.433849E-5	20.780705
2220.568539	-2.990500	3.246400	-9.706700	27.493517	5.687968E-5	20.773493
2221.571079	-3.001600	3.246100	-9.741800	27.503562	5.394246E-5	20.776961
2222.571094	-2.981300	3.246400	-9.677900	27.531787	5.612062E-5	20.757943
2223.570328	-3.009900	3.244100	-9.763000	27.565221	5.318341E-5	20.758392
2224.571016	-2.994000	3.243700	-9.710800	27.599991	5.456951E-5	20.773463
2225.571792	-3.003700	3.243700	-9.742900	27.576704	5.466852E-5	20.764256
2226.573121	-3.008600	3.243400	-9.757600	27.615095	5.440450E-5	20.762582
2227.571724	-3.009900	3.242600	-9.759000	27.594756	5.252336E-5	20.778627
2228.573302	-3.011600	3.241600	-9.761400	27.605049	5.437149E-5	20.759112
2229.568543	-3.008100	3.242100	-9.751500	27.539915	5.503154E-5	20.771811
2230.570518	-3.008100	3.241700	-9.750300	27.532601	5.084024E-5	20.771090
2231.574294	-2.992600	3.241600	-9.700200	27.608073	5.318341E-5	20.765947
2232.569695	-2.995900	3.241700	-9.711300	27.622208	5.305140E-5	20.769739
2233.569487	-3.008400	3.239700	-9.745200	27.606110	5.423948E-5	20.760653
2234.573442	-3.024900	3.238300	-9.794900	27.566450	5.199532E-5	20.746826
2235.570929	-3.010700	3.238500	-9.749200	27.559704	5.027919E-5	20.773704
2236.571493	-3.013400	3.239400	-9.761100	27.587234	5.176430E-5	20.752566
2237.578473	-2.993400	3.237600	-9.690500	27.530312	5.305140E-5	20.757407
2238.569622	-2.995800	3.237500	-9.697700	27.549683	5.021319E-5	20.756034
2239.575249	-3.014100	3.236200	-9.751400	27.629421	5.047721E-5	20.776049
2240.573028	-2.986600	3.238500	-9.671500	27.677409	5.018019E-5	20.742306
2241.572146	-3.016400	3.238800	-9.768200	27.657294	4.876108E-5	20.747195
2242.571676	-2.977300	3.237100	-9.636500	27.621308	5.018019E-5	20.737064
2243.576139	-2.988000	3.237700	-9.673300	27.563591	5.001517E-5	20.748691
2244.573433	-3.006200	3.234700	-9.723200	27.562500	4.720997E-5	20.758973
2245.573713	-2.991200	3.235500	-9.676300	27.578870	5.117026E-5	20.745572
2246.576783	-3.019200	3.234000	-9.761900	27.561011	5.156629E-5	20.772174
2247.572650	-2.999100	3.237300	-9.708300	27.528070	4.985016E-5	20.749936
2248.576102	-2.997700	3.234000	-9.693600	27.536926	4.826605E-5	20.731818
2249.576966	-3.035300	3.232300	-9.810100	27.626386	5.008118E-5	20.750234
2250.585865	-2.988800	3.232800	-9.661400	27.697189	5.011418E-5	20.749409
2251.572652	-2.998700	3.233200	-9.694800	27.704530	4.975116E-5	20.746365
2252.575995	-2.986000	3.233400	-9.654300	27.699098	4.836505E-5	20.733312
2253.575549	-2.990100	3.231300	-9.660900	27.621870	4.628590E-5	20.749483
2254.575226	-2.984200	3.231400	-9.642100	27.643768	4.783702E-5	20.762984
2255.579202	-3.023100	3.231000	-9.766900	27.618074	4.813404E-5	20.734283
2256.575146	-3.009800	3.230100	-9.720800	27.551355	4.816704E-5	20.745862
2257.574545	-3.014300	3.229600	-9.733200	27.558994	4.691295E-5	20.759239
2258.577935	-3.001400	3.228100	-9.688300	27.579455	4.592287E-5	20.739996
2259.579425	-3.013800	3.228300	-9.728700	27.629976	4.661593E-5	20.747209
2260.576334	-2.997900	3.228800	-9.678700	27.694828	4.654992E-5	20.747033
2261.580120	-2.998700	3.227800	-9.677500	27.720369	4.503181E-5	20.756140
2262.574428	-3.014400	3.227500	-9.728100	27.743332	4.631890E-5	20.740366
2263.576364	-3.006300	3.225700	-9.696600	27.786082	4.730898E-5	20.741189
2264.580171	-2.993900	3.225700	-9.657000	27.800787	4.483379E-5	20.757884
2265.577587	-2.996500	3.225900	-9.665700	27.780007	4.348070E-5	20.756412
2266.575554	-2.986700	3.227000	-9.636500	27.804754	4.522982E-5	20.771834
2267.578434	-2.993700	3.225400	-9.655200	27.850327	4.351370E-5	20.754162
2268.575634	-2.992500	3.224700	-9.649300	27.826027	4.387672E-5	20.775226
2269.576253	-3.000000	3.225400	-9.676100	27.761454	4.374472E-5	20.750543
2270.577841	-3.016600	3.223300	-9.722500	27.720908	4.252363E-5	20.766165
2271.577137	-3.005500	3.222800	-9.685500	27.758277	4.186358E-5	20.744027
2272.576023	-3.009400	3.222100	-9.695500	27.784712	4.351370E-5	20.769208
2273.578861	-2.995200	3.224100	-9.655700	27.771643	4.245762E-5	20.740882
2274.576881	-3.010100	3.222500	-9.699200	27.761004	4.357970E-5	20.745348
2275.581091	-3.003900	3.223100	-9.681000	27.735014	4.143455E-5	20.752859
2276.579565	-2.995600	3.221900	-9.649300	27.712941	4.526283E-5	20.743923
2277.576640	-2.991700	3.221400	-9.636500	27.698781	4.070849E-5	20.755752
2278.576858	-3.004400	3.221200	-9.675900	27.669143	4.202859E-5	20.727350
2279.582103	-3.018200	3.219600	-9.715900	27.693520	4.186358E-5	20.740501
2280.579327	-3.005500	3.218900	-9.673200	27.683203	4.133554E-5	20.729170
2281.578136	-3.000000	3.219800	-9.658700	27.660734	4.301866E-5	20.751132
2282.582167	-2.979000	3.220900	-9.594700	27.707506	4.176457E-5	20.740350
2283.579431	-2.990400	3.218000	-9.622500	27.722062	4.001544E-5	20.734608
2284.580139	-3.011100	3.218300	-9.689200	27.702346	4.249062E-5	20.745589
2285.583671	-3.016100	3.215500	-9.697400	27.691978	3.961941E-5	20.764080
2286.581878	-2.999600	3.216600	-9.648000	27.651255	4.189658E-5	20.771940
2287.580436	-3.023600	3.215800	-9.722400	27.680866	4.209459E-5	20.744837
2288.584979	-3.009700	3.217000	-9.681600	27.707699	3.843133E-5	20.754295
2289.580962	-2.982800	3.214900	-9.588700	27.682699	3.975142E-5	20.747156
2290.580263	-3.020500	3.213600	-9.705600	27.693288	3.886036E-5	20.745009
2291.585110	-3.020700	3.216900	-9.716800	27.688103	3.810130E-5	20.750223
2292.582431	-3.006400	3.213400	-9.660400	27.761458	3.608815E-5	20.738692
2293.582817	-2.990700	3.214400	-9.612600	27.730830	3.767227E-5	20.760503
2294.584082	-3.005400	3.212000	-9.652900	27.797188	3.754026E-5	20.764220
2295.583514	-2.994900	3.213900	-9.624800	27.812164	3.846433E-5	20.768860
2296.583488	-2.974800	3.213400	-9.558200	27.811271	3.833232E-5	20.753263
2297.587676	-2.973100	3.211900	-9.548300	27.861829	3.678120E-5	20.765265
2298.583925	-3.000700	3.210900	-9.634700	27.900188	3.806830E-5	20.751714
2299.585415	-2.997200	3.211100	-9.623400	27.907897	3.628617E-5	20.772276
2300.586593	-2.989100	3.212000	-9.600300	27.917914	3.780428E-5	20.754382
2301.586629	-3.010300	3.209900	-9.662300	27.961054	3.556011E-5	20.757501
2302.585981	-3.015500	3.210200	-9.678600	27.978533	3.582413E-5	20.773198
2303.590449	-3.005400	3.210900	-9.649300	27.954831	3.793629E-5	20.766885
2304.588060	-3.001700	3.208100	-9.629500	27.903728	3.437203E-5	20.757174
2305.588595	-2.997500	3.210100	-9.621700	27.812133	3.371198E-5	20.762665
2306.591758	-2.985700	3.207300	-9.575400	27.803552	3.381099E-5	20.758771
2307.589911	-2.996100	3.207000	-9.607300	27.805287	3.539510E-5	20.760517
2308.589390	-2.979700	3.206700	-9.554300	27.837125	3.483406E-5	20.760316
2309.599851	-2.999700	3.205700	-9.614800	27.841141	3.480106E-5	20.777161
2310.589937	-3.015700	3.206600	-9.669300	27.881136	3.229287E-5	20.760514
2311.590421	-3.011800	3.204700	-9.650300	27.888523	3.460304E-5	20.769846
2312.593976	-2.969500	3.204700	-9.515400	27.865289	3.430602E-5	20.761635
2313.589939	-3.005800	3.204600	-9.632000	27.837964	3.404200E-5	20.775860
2314.589556	-3.021900	3.204100	-9.681200	27.836600	3.242488E-5	20.770219
2315.592410	-2.994900	3.203500	-9.593000	27.856633	3.295292E-5	20.783269
2316.593240	-3.002500	3.203400	-9.617600	27.935951	3.252389E-5	20.758312
2317.590685	-2.966300	3.203300	-9.501000	27.910933	3.328295E-5	20.755890
2318.592167	-2.981900	3.203700	-9.552300	27.936892	3.282091E-5	20.755466
2319.592601	-3.003300	3.201700	-9.614900	27.971256	3.321694E-5	20.774882
2320.590428	-3.014300	3.201300	-9.648500	27.939247	3.394300E-5	20.770165
2321.592343	-3.005500	3.200900	-9.620300	27.885963	3.173183E-5	20.781020
2322.590445	-3.013000	3.200100	-9.640400	27.817078	3.044474E-5	20.776177
2323.591002	-2.998600	3.198800	-9.590600	27.765797	3.255689E-5	20.786683
2324.592741	-3.011800	3.198800	-9.633800	27.746058	3.011471E-5	20.766344
2325.590764	-3.003900	3.198100	-9.605900	27.805745	3.163283E-5	20.765245
2326.590890	-3.004300	3.197800	-9.606100	27.880954	3.219387E-5	20.768391
2327.600497	-3.009600	3.197200	-9.622000	27.957615	3.024672E-5	20.769212
2328.592503	-2.984300	3.196100	-9.537100	28.019894	2.985070E-5	20.769312
2329.590895	-2.987600	3.197100	-9.550700	27.998325	2.902563E-5	20.776524
2330.595006	-2.984100	3.196800	-9.538800	27.982605	3.027973E-5	20.800530
2331.593027	-3.010600	3.194900	-9.617900	27.954142	2.938866E-5	20.769035
2332.596293	-3.008000	3.194200	-9.607400	27.919084	2.948767E-5	20.775474
2333.598522	-2.998800	3.193900	-9.576400	27.930760	3.037873E-5	20.762571
2334.595616	-2.994000	3.193000	-9.559100	27.942414	3.018072E-5	20.789000
2335.597462	-2.982900	3.192000	-9.520100	27.902645	2.843159E-5	20.785482
2336.597632	-3.001300	3.195000	-9.588200	27.888731	2.882762E-5	20.768633
2337.595035	-3.011500	3.192800	-9.613400	27.951238	2.704549E-5	20.777493
2338.596174	-3.010200	3.190700	-9.602700	27.999065	2.902563E-5	20.787700
2339.597718	-2.998000	3.190800	-9.565000	28.020236	3.117079E-5	20.781036
2340.594394	-2.994900	3.191500	-9.556200	28.021054	3.100578E-5	20.795136
2341.599093	-3.008700	3.189600	-9.595300	28.003500	2.760653E-5	20.783630
2342.598643	-2.994000	3.188800	-9.546500	27.942510	2.833258E-5	20.790519
2343.596901	-3.002200	3.189700	-9.575800	27.943673	2.829958E-5	20.794060
2344.599358	-3.001400	3.188700	-9.569300	27.958774	2.922365E-5	20.800251
2345.598598	-2.997600	3.187000	-9.552400	28.015499	3.018072E-5	20.793811
2346.597702	-3.003200	3.188000	-9.572300	28.081369	2.836559E-5	20.777140
2347.599625	-2.968800	3.188000	-9.463600	28.042894	2.961968E-5	20.766859
2348.604583	-2.980300	3.186200	-9.494500	28.038976	2.770554E-5	20.790416
2349.598619	-2.990100	3.186500	-9.526700	28.030248	2.806856E-5	20.787795
2350.602676	-3.000500	3.184500	-9.554500	27.965045	2.407527E-5	20.788545
2351.602310	-3.002800	3.184300	-9.561400	27.966805	2.833258E-5	20.789368
2352.601314	-3.007000	3.183500	-9.571700	28.028761	2.747452E-5	20.788195
2353.602641	-3.021400	3.181700	-9.612600	28.085285	2.836559E-5	20.770177
2354.605989	-3.018800	3.181900	-9.605200	28.065032	2.493333E-5	20.804792
2355.603343	-3.013200	3.181000	-9.583400	28.075617	2.559338E-5	20.781782
2356.604023	-3.009600	3.181100	-9.573000	28.059725	2.562638E-5	20.771947
2357.607429	-2.979300	3.181500	-9.477200	28.083623	2.443830E-5	20.779884
2358.604259	-3.017200	3.179900	-9.593200	28.089251	2.750752E-5	20.788868
2359.606485	-3.000500	3.179300	-9.538500	28.121700	2.618743E-5	20.796403
2360.607175	-2.973200	3.178500	-9.449900	28.090787	2.526336E-5	20.783302
2361.604657	-2.966600	3.178800	-9.429000	28.038429	2.902563E-5	20.787495
2362.604835	-3.000500	3.177900	-9.534400	28.072716	2.437229E-5	20.793560
2363.607221	-2.964900	3.178600	-9.423100	28.060989	2.414128E-5	20.784601
2364.602911	-3.007500	3.175700	-9.550000	28.040414	2.499934E-5	20.791389
2365.603010	-2.969600	3.177500	-9.435100	28.020159	2.427329E-5	20.801347
2366.605878	-3.014700	3.174400	-9.568900	28.000523	2.575839E-5	20.803867
2367.603101	-2.999200	3.173400	-9.516300	28.034440	2.549438E-5	20.809084
2368.604279	-2.995200	3.173300	-9.503600	28.108936	2.361324E-5	20.797779
2369.608832	-2.996000	3.172800	-9.504900	28.149814	2.556038E-5	20.789145
2370.606344	-3.002000	3.172100	-9.520200	28.106408	2.265617E-5	20.793337
2371.608533	-2.977200	3.174600	-9.450200	28.107176	2.265617E-5	20.786523
2372.609224	-3.009400	3.170900	-9.541800	28.102665	2.282118E-5	20.804742
2373.607637	-2.991600	3.172200	-9.489300	28.157424	2.272217E-5	20.790642
2374.609680	-2.985500	3.169700	-9.461800	28.133726	2.315120E-5	20.785277
2375.614454	-3.021500	3.169700	-9.575800	28.109978	2.351423E-5	20.798354
2376.610431	-3.006400	3.168200	-9.523900	28.112482	2.328321E-5	20.802771
2377.628343	-3.007200	3.168500	-9.527400	28.054027	2.473532E-5	20.819792
2378.613865	-3.012200	3.167100	-9.538000	28.082313	2.367924E-5	20.813178
2379.621193	-2.990100	3.167200	-9.469500	28.094832	2.288718E-5	20.785951
2380.616434	-2.968700	3.167100	-9.401500	28.092897	2.371224E-5	20.785900
2381.615390	-3.002400	3.166400	-9.505800	28.036276	2.344822E-5	20.796708
2382.613413	-3.010600	3.164300	-9.525800	28.040466	2.133607E-5	20.808512
2383.620979	-3.010300	3.164500	-9.525400	28.112482	2.212813E-5	20.815573
2384.617013	-3.031600	3.163500	-9.589800	28.178296	2.259016E-5	20.804541
2385.616264	-2.999500	3.162800	-9.486400	28.177082	2.014798E-5	20.809483
2386.618686	-2.979200	3.162400	-9.420000	28.189499	2.136907E-5	20.828148
2387.621215	-3.008400	3.160800	-9.508200	28.209601	2.094004E-5	20.805712
2388.615140	-2.997700	3.161500	-9.475800	28.215550	2.113806E-5	20.808383
2389.617388	-2.991700	3.159600	-9.450900	28.244850	2.070902E-5	20.805639
2390.618946	-3.004500	3.160200	-9.493800	28.190614	2.100605E-5	20.822632
2391.617863	-3.018300	3.158000	-9.530900	28.171551	2.226014E-5	20.797277
2392.617459	-3.019000	3.157100	-9.531100	28.136128	1.994997E-5	20.808083
2393.620458	-2.986100	3.157600	-9.428500	28.164633	2.202912E-5	20.819710
2394.617410	-2.982500	3.156300	-9.412500	28.161782	2.057701E-5	20.796452
2395.620071	-2.999500	3.155900	-9.465300	28.171770	2.176510E-5	20.800817
2396.622015	-2.970300	3.155100	-9.369200	28.259048	2.084103E-5	20.818985
2397.619155	-2.994000	3.153000	-9.439200	28.182950	1.701275E-5	20.804012
2398.621983	-3.001800	3.153800	-9.466100	28.125961	1.849786E-5	20.821081
2399.625262	-3.005300	3.152700	-9.473600	28.168472	1.895989E-5	20.808876
2400.619573	-3.019100	3.151000	-9.512000	28.210958	1.839885E-5	20.825571
2401.618058	-3.014500	3.151900	-9.500800	28.200301	1.829985E-5	20.844238
2402.622796	-2.991400	3.149900	-9.420500	28.210982	2.024699E-5	20.823698
2403.620956	-3.004600	3.149400	-9.462200	28.227366	1.958694E-5	20.828814
2404.623032	-3.009800	3.149300	-9.476700	28.279369	1.615469E-5	20.821902
2405.621016	-3.010700	3.147400	-9.475000	28.325889	1.780481E-5	20.836972
2406.622231	-3.011800	3.147700	-9.479000	28.343859	1.803583E-5	20.816660
2407.625307	-3.007300	3.147700	-9.464700	28.346163	1.648471E-5	20.827514
2408.622161	-3.026800	3.145100	-9.518300	28.350376	1.641871E-5	20.820377
2409.622958	-3.035700	3.143000	-9.539900	28.290149	1.872888E-5	20.824220
2410.621206	-3.015900	3.144600	-9.483000	28.320385	1.417454E-5	20.846603
2411.622944	-2.993900	3.144200	-9.412500	28.341452	1.750779E-5	20.818030
2412.622334	-2.985600	3.144300	-9.386800	28.356744	1.625370E-5	20.831056
2413.629887	-3.017500	3.142000	-9.479800	28.386186	1.843186E-5	20.819925
2414.625239	-2.996000	3.142700	-9.414800	28.384426	1.453757E-5	20.827162
2415.625729	-2.986400	3.141600	-9.381000	28.406903	1.595667E-5	20.839837
2416.627987	-2.994100	3.139100	-9.398100	28.449703	1.694675E-5	20.833624
2417.626835	-2.992400	3.139200	-9.391800	28.446507	1.714476E-5	20.836570
2418.626802	-3.004300	3.138800	-9.428900	28.421252	1.602268E-5	20.832475
2419.628008	-3.003700	3.137400	-9.423200	28.361227	1.628670E-5	20.830829
2420.630755	-3.017700	3.136000	-9.462400	28.379145	1.724377E-5	20.828956
2421.628035	-3.008900	3.135400	-9.433100	28.397186	1.153435E-5	20.854708
2422.629636	-2.986300	3.134500	-9.358900	28.404549	1.381152E-5	20.848846
2423.629152	-3.011900	3.134600	-9.440600	28.390521	1.556064E-5	20.830928
2424.632796	-2.976000	3.134000	-9.326100	28.401077	1.410854E-5	20.844876
2425.629648	-2.987000	3.133000	-9.357800	28.373443	1.417454E-5	20.845499
2426.629521	-2.984300	3.133000	-9.349400	28.395079	1.262343E-5	20.840259
2427.634343	-3.016700	3.130400	-9.442900	28.400705	1.513161E-5	20.840234
2428.630425	-2.989300	3.130500	-9.357800	28.365313	1.212839E-5	20.852011
2429.629316	-2.982100	3.129200	-9.330200	28.369377	1.391052E-5	20.852784
2430.633527	-2.982300	3.129600	-9.332400	28.415301	1.384452E-5	20.844500
2431.631111	-3.009500	3.127900	-9.412200	28.412028	1.189738E-5	20.823187
2432.631058	-3.035900	3.126500	-9.490800	28.414432	1.463658E-5	20.853582
2433.633875	-3.004400	3.125400	-9.388600	28.457381	1.212839E-5	20.866010
2434.632131	-2.996700	3.125600	-9.364700	28.383280	1.325048E-5	20.826481
2435.630639	-3.014900	3.124800	-9.419200	28.387988	1.232641E-5	20.860145
2436.632839	-2.998000	3.123200	-9.362800	28.363898	1.163336E-5	20.832569
2437.629658	-2.988400	3.122800	-9.331000	28.303769	1.249142E-5	20.835563
2438.628767	-2.981100	3.121400	-9.303800	28.302059	1.278844E-5	20.850436
2439.636206	-3.011900	3.119500	-9.394400	28.349869	1.255742E-5	20.829350
2440.630336	-2.996600	3.119200	-9.345500	28.317500	1.103931E-5	20.863138
2441.630642	-3.002500	3.117900	-9.360300	28.305454	1.160035E-5	20.867130
2442.633835	-2.986000	3.118600	-9.311200	28.305479	1.219440E-5	20.854353
2443.628433	-3.008900	3.117500	-9.379100	28.350042	1.090730E-5	20.860343
2444.630698	-2.980900	3.116300	-9.288500	28.291623	1.103931E-5	20.841825
2445.636570	-2.988600	3.116300	-9.312700	28.278585	1.156735E-5	20.875163
2446.630902	-3.001800	3.114600	-9.348200	28.311005	1.014825E-5	20.857546
2447.632717	-3.000800	3.113100	-9.340600	28.293184	8.663138E-6	20.870422
2448.634673	-3.017800	3.112300	-9.392000	28.256029	1.034626E-5	20.854352
2449.632102	-2.993100	3.111900	-9.313700	28.284806	1.160035E-5	20.864358
2450.633788	-3.001200	3.110700	-9.335000	28.412172	1.080830E-5	20.854151
2451.636700	-2.990600	3.108900	-9.297300	28.460250	9.818223E-6	20.878381
2452.633945	-2.982400	3.109900	-9.273100	28.464983	9.785220E-6	20.859441
2453.634913	-3.016000	3.106300	-9.367400	28.527802	1.004924E-5	20.875761
2454.637812	-3.018100	3.106000	-9.373700	28.526463	9.851225E-6	20.859241
2455.634657	-3.011600	3.104800	-9.348500	28.558158	9.917230E-6	20.837581
2456.636692	-2.984300	3.104900	-9.265200	28.565839	9.191176E-6	20.849110
2457.637558	-2.981800	3.105700	-9.259800	28.545000	9.026164E-6	20.846615
2458.642351	-2.992200	3.103400	-9.284800	28.418343	8.036092E-6	20.850408
2459.633650	-3.017400	3.102100	-9.358800	28.438715	7.970087E-6	20.871869
2460.636950	-3.001700	3.100500	-9.306400	28.449965	8.135099E-6	20.874189
2461.633678	-2.984200	3.099900	-9.249700	28.532064	1.001624E-5	20.871044
2462.634676	-3.019200	3.098700	-9.354100	28.560759	8.300111E-6	20.848261
2463.640364	-3.012900	3.096600	-9.329100	28.571637	1.008224E-5	20.867750
2464.635197	-3.018700	3.096200	-9.346000	28.559172	7.772072E-6	20.890283
2465.635603	-3.020100	3.095800	-9.348800	28.543709	7.574058E-6	20.876608
2466.640017	-2.963400	3.095100	-9.171200	28.527255	7.343041E-6	20.885167
2467.635268	-3.012500	3.094600	-9.321300	28.470507	7.838077E-6	20.858840
2468.638791	-3.008600	3.092600	-9.304000	28.408477	7.475050E-6	20.876507
2469.640084	-2.984100	3.093100	-9.228900	28.456654	5.263888E-6	20.881399
2470.634970	-2.980000	3.090800	-9.209100	28.467211	5.725922E-6	20.866426
2471.637352	-3.014300	3.088900	-9.310400	28.505744	8.564130E-6	20.895745
2472.641879	-3.005100	3.088100	-9.279500	28.483939	7.706067E-6	20.879478
2473.638601	-3.018400	3.086800	-9.316400	28.392765	5.560909E-6	20.900039
2474.640230	-3.025700	3.085800	-9.335700	28.351005	7.574058E-6	20.888811
2475.642752	-3.014400	3.085100	-9.298900	28.341956	8.432121E-6	20.883967
2476.642947	-2.975300	3.085100	-9.177500	28.355240	6.616987E-6	20.851826
2477.642123	-3.008200	3.083300	-9.274000	28.410136	6.154953E-6	20.881497
2478.644074	-2.989900	3.083000	-9.217000	28.435713	8.201104E-6	20.889708
2479.640871	-2.984700	3.080900	-9.194700	28.495312	7.343041E-6	20.907049
2480.642099	-3.013600	3.079500	-9.279700	28.583304	9.521201E-6	20.899887
2481.645112	-2.998200	3.079800	-9.231800	28.586749	8.135099E-6	20.877754
2482.641992	-2.978000	3.079300	-9.168800	28.642970	6.055946E-6	20.872263
2483.643824	-2.986600	3.077900	-9.191300	28.654565	7.805075E-6	20.882993
2484.643872	-2.956900	3.076900	-9.096900	28.589771	6.088948E-6	20.889806
2485.649095	-2.992100	3.074100	-9.196800	28.603028	6.385970E-6	20.890355
2486.645099	-2.992600	3.074100	-9.198400	28.574854	6.517980E-6	20.874783
2487.648396	-3.015800	3.072200	-9.264100	28.594751	5.164880E-6	20.886287
2488.643938	-3.007000	3.070800	-9.233300	28.607535	6.649990E-6	20.890627
2489.646900	-3.007400	3.071000	-9.235300	28.614869	6.088948E-6	20.875255
2490.650967	-3.010600	3.068800	-9.238200	28.612342	4.735849E-6	20.913010
2491.646124	-3.009600	3.067400	-9.230700	28.647204	5.395897E-6	20.886010
2492.647054	-3.004000	3.067300	-9.213200	28.646040	4.042798E-6	20.903328
2493.649109	-3.018700	3.066100	-9.253600	28.602380	5.032870E-6	20.878798
2494.646826	-2.999300	3.064100	-9.189400	28.624036	4.504832E-6	20.908667
2495.647079	-3.039200	3.062900	-9.307300	28.619551	4.900861E-6	20.904150
2496.649286	-2.988900	3.063700	-9.156000	28.580498	6.517980E-6	20.904647
2497.645876	-3.021100	3.061700	-9.249300	28.587684	5.890934E-6	20.898608
2498.649681	-2.999300	3.058500	-9.172800	28.619921	5.428900E-6	20.917324
2499.648049	-2.993900	3.059100	-9.157800	28.615607	2.425679E-6	20.915824
2500.647851	-3.026500	3.057400	-9.251900	28.566322	3.316744E-6	20.901750
2501.648230	-3.008600	3.055800	-9.193000	28.603861	4.702846E-6	20.897831
2502.652713	-3.006800	3.054700	-9.184100	28.639071	5.395897E-6	20.898680
2503.647988	-2.991400	3.053700	-9.133800	28.648337	4.735849E-6	20.912279
2504.648555	-2.987900	3.053200	-9.122400	28.583590	4.207810E-6	20.916294
2505.657542	-3.001800	3.051300	-9.158300	28.565079	1.171586E-6	20.932737
2506.648382	-2.979100	3.050300	-9.086100	28.667512	4.273815E-6	20.906462
2507.649409	-3.003100	3.049500	-9.156600	28.705419	4.999868E-6	20.920934
2508.651281	-2.989900	3.049600	-9.117000	28.647441	3.976793E-6	20.905687
2509.652107	-3.025400	3.045300	-9.212100	28.634085	3.547761E-6	20.927320
2510.660558	-2.997500	3.046500	-9.130700	28.645209	2.689698E-6	20.884475
2511.652664	-3.020200	3.043300	-9.190100	28.687925	1.336598E-6	20.915168
2512.653587	-2.993500	3.042400	-9.107000	28.692359	3.514759E-6	20.913945
2513.652695	-2.987200	3.041700	-9.085300	28.686636	4.735849E-6	20.899173
2514.653995	-3.026100	3.040800	-9.201200	28.724418	6.022943E-6	20.905459
2515.651957	-2.986500	3.038600	-9.073400	28.750728	4.339819E-6	20.924372
2516.654422	-3.001100	3.039700	-9.121700	28.776270	5.923936E-6	20.919756
2517.655368	-2.996100	3.036400	-9.096800	28.766807	3.349747E-6	20.915913
2518.654337	-3.004100	3.035800	-9.119600	28.706032	3.712773E-6	20.923448
2519.653078	-3.006600	3.034900	-9.122700	28.698450	3.547761E-6	20.916760
2520.656086	-3.005800	3.033200	-9.116500	28.697111	2.623693E-6	20.917782
2521.653231	-3.025200	3.031100	-9.167500	28.760759	3.052725E-6	20.904607
2522.655324	-2.999900	3.029400	-9.086800	28.709523	2.689698E-6	20.914638
2523.655993	-2.991700	3.030900	-9.066700	28.653678	2.623693E-6	20.918606
2524.655715	-3.015700	3.028300	-9.131800	28.636158	2.458681E-6	20.918504
2525.653808	-3.005000	3.027000	-9.094700	28.613289	3.415751E-6	20.889783
2526.656102	-2.994500	3.024800	-9.057200	28.676916	4.999868E-6	20.927311
2527.657757	-3.006800	3.024400	-9.093200	28.717846	4.471829E-6	20.918278
2528.655087	-3.012400	3.023500	-9.107300	28.702063	5.428900E-6	20.911865
2529.657356	-2.984900	3.020900	-9.016200	28.721958	4.306817E-6	20.916256
2530.658028	-2.995200	3.020200	-9.044900	28.696363	3.052725E-6	20.922244
2531.658458	-2.981900	3.019000	-9.001300	28.720346	2.194662E-6	20.898040
2532.662098	-3.004800	3.016600	-9.062500	28.836487	4.702846E-6	20.900759
2533.660277	-3.004900	3.014300	-9.057100	28.814538	2.392676E-6	20.918475
2534.657173	-2.988300	3.014400	-9.006800	28.797295	3.217737E-6	20.882617
2535.658614	-3.012700	3.012700	-9.075800	28.735333	2.293669E-6	20.895592
2536.661778	-3.029000	3.011400	-9.120800	28.754780	4.966866E-6	20.911860
2537.658026	-3.011300	3.011100	-9.067000	28.775417	2.128657E-6	20.899933
2538.661030	-3.042200	3.009100	-9.152500	28.839679	2.557688E-6	20.908715
2539.665151	-2.987400	3.009100	-8.988500	28.852561	3.514759E-6	20.890873
2540.658232	-3.010600	3.006200	-9.050100	28.834254	3.250739E-6	20.905146
2541.661292	-3.003200	3.005400	-9.024600	28.786936	3.448754E-6	20.882139
2542.661133	-3.002500	3.003300	-9.017100	28.792112	1.633620E-6	20.900154
2543.661897	-3.006900	3.001800	-9.025000	28.772691	3.415751E-6	20.884859
2544.660567	-2.992600	3.000600	-8.979500	28.835566	1.402603E-6	20.903623
2545.661697	-3.020400	3.000000	-9.059700	28.811534	1.204589E-6	20.867090
2546.662858	-3.013200	2.998500	-9.033900	28.762877	1.633620E-6	20.876397
2547.662675	-2.992900	2.997200	-8.969000	28.735477	1.501611E-6	20.896685
2548.662428	-2.984700	2.996500	-8.942600	28.770756	2.953717E-6	20.875325
2549.661957	-3.007900	2.993800	-9.004500	28.765429	1.567615E-6	20.895561
2550.662744	-3.002700	2.992300	-8.983100	28.754900	1.633620E-6	20.892068
2551.663425	-3.018200	2.991300	-9.026800	28.803928	2.920715E-6	20.893091
2552.662981	-2.994600	2.990600	-8.954300	28.904330	2.854710E-6	20.875224
2553.662885	-2.977400	2.989400	-8.899100	28.982060	2.062652E-6	20.889522
2554.662579	-2.996600	2.988000	-8.953500	29.014086	1.039577E-6	20.873901
2555.663670	-3.015900	2.984900	-9.001500	28.992710	4.785352E-7	20.868011
2556.663715	-3.004500	2.983400	-8.962100	28.936852	3.316744E-6	20.876693
2557.663502	-2.994700	2.983200	-8.931800	28.937546	3.514759E-6	20.878341
2558.680633	-3.011800	2.982400	-8.980500	28.897169	3.085727E-6	20.870855
2559.663885	-3.005700	2.981400	-8.960400	28.840936	2.656696E-6	20.880112
2560.661873	-3.007200	2.978300	-8.955600	28.870465	1.072579E-6	20.868608
2561.664791	-3.013600	2.976500	-8.968900	28.945992	-1.155085E-7	20.858876
2562.665462	-2.989300	2.975500	-8.894000	29.025253	3.052725E-6	20.877566
2563.666287	-3.002700	2.975800	-8.934300	28.944505	2.524686E-6	20.865912
2564.663810	-3.023000	2.973200	-8.986800	28.929989	3.795279E-7	20.887796
2565.666545	-2.993300	2.972200	-8.896300	28.885673	1.369601E-6	20.888195
2566.664385	-2.989900	2.969500	-8.877800	28.854213	1.633620E-6	20.854607
2567.663703	-2.992400	2.967600	-8.879600	28.897365	1.600618E-6	20.861569
2568.664852	-2.993600	2.967600	-8.882900	28.918147	2.689698E-6	20.865436
2569.664436	-2.997100	2.965400	-8.886500	28.833824	-5.115377E-7	20.866784
2570.665882	-3.026300	2.962800	-8.964700	28.811304	1.600618E-6	20.861168
2571.666326	-3.014000	2.962400	-8.928000	28.872863	7.755571E-7	20.865334
2572.668637	-2.997100	2.960400	-8.871600	28.868057	7.755571E-7	20.868080
2573.668262	-2.984000	2.959900	-8.831200	28.861393	4.455328E-7	20.880331
2574.665982	-3.006700	2.958300	-8.894000	28.908880	3.135231E-7	20.850885
2575.668410	-2.983200	2.955900	-8.817500	28.970335	1.732628E-6	20.844047
2576.669661	-3.005800	2.954800	-8.880900	29.005360	1.765630E-6	20.868428
2577.668387	-2.980400	2.953600	-8.802100	28.956835	1.039577E-6	20.856050
2578.669005	-2.970600	2.951400	-8.766400	29.005235	-1.039577E-6	20.849811
2579.669437	-2.968600	2.951900	-8.761700	29.004022	1.270594E-6	20.852382
2580.669704	-2.995700	2.949100	-8.833100	28.980516	-1.336598E-6	20.864261
2581.668665	-3.022600	2.946500	-8.904500	29.012739	-2.475182E-7	20.857371
2582.669784	-3.005100	2.944800	-8.848400	29.026635	6.105450E-7	20.849087
2583.671297	-2.962100	2.944400	-8.720300	29.007983	4.455328E-7	20.853529
2584.678282	-3.002200	2.942800	-8.833900	28.991735	7.095522E-7	20.861340
2585.672087	-2.989100	2.941000	-8.790000	29.040430	7.755571E-7	20.844021
2586.672299	-2.990200	2.939700	-8.789000	29.066783	1.930642E-6	20.859667
2587.672883	-2.984400	2.938100	-8.766800	29.073718	3.118730E-6	20.869026
2588.672623	-2.983200	2.935800	-8.757200	29.060987	-7.755571E-7	20.845293
2589.672614	-2.984300	2.934100	-8.755200	28.970110	8.250607E-8	20.853778
2590.674874	-2.986000	2.932600	-8.755500	28.912197	-4.125304E-7	20.844744
2591.672465	-2.970300	2.932300	-8.709000	28.860522	6.435474E-7	20.858118
2592.673386	-2.975500	2.929500	-8.716100	28.899564	2.145158E-7	20.855724
2593.674213	-2.987800	2.928400	-8.748800	28.940088	7.095522E-7	20.852928
2594.674686	-2.948600	2.926600	-8.627800	28.942863	2.475182E-7	20.840077
2595.672014	-3.004400	2.925000	-8.786900	28.956808	8.085595E-7	20.845118
2596.674005	-2.998700	2.922100	-8.761800	28.972685	1.501611E-6	20.853052
2597.672460	-3.054000	2.920000	-8.917200	28.952696	-1.155085E-7	20.851880
2598.672938	-3.012300	2.919700	-8.794200	29.006197	2.392676E-6	20.872591
2599.673769	-3.002500	2.918900	-8.763600	29.044588	7.425547E-7	20.852003
2600.672772	-2.990300	2.915500	-8.717800	29.049368	9.405693E-7	20.839276
2601.672793	-3.008700	2.914400	-8.767400	29.077009	4.125304E-7	20.858117
2602.684410	-2.997100	2.913300	-8.731100	29.115026	2.722700E-6	20.850431
2603.674278	-2.994200	2.911700	-8.717300	29.058557	1.237591E-6	20.838104
2604.676549	-3.020800	2.909100	-8.786600	29.082185	8.085595E-7	20.847686
2605.675496	-3.003100	2.906500	-8.727200	29.056154	1.600618E-6	20.846587
2606.675902	-2.993100	2.905400	-8.695500	29.129140	3.514759E-6	20.829093
2607.678847	-3.014400	2.903600	-8.750700	29.202966	1.468608E-6	20.847534
2608.676383	-2.970000	2.902000	-8.617000	29.162500	3.151732E-6	20.844690
2609.676268	-2.999700	2.900800	-8.701000	29.073614	2.854710E-6	20.847584
2610.677333	-3.025200	2.898000	-8.766200	29.106554	1.435606E-6	20.834783
2611.677440	-2.984200	2.895900	-8.641500	29.080053	2.590691E-6	20.826573
2612.678343	-2.975600	2.894900	-8.612000	29.150166	5.131878E-6	20.843166
2613.679331	-2.983400	2.892200	-8.627600	29.147194	1.039577E-6	20.832586
2614.677645	-2.982200	2.890800	-8.620300	29.161038	2.475182E-7	20.842742
2615.677318	-2.979900	2.889900	-8.611000	29.095828	-9.735717E-7	20.841519
2616.678361	-2.988300	2.888000	-8.628800	29.141151	-1.732628E-6	20.844988
2617.680416	-2.986000	2.885300	-8.614000	29.176987	-1.815134E-7	20.833684
2618.678575	-3.000500	2.883400	-8.650900	29.224287	2.095654E-6	20.843891
2619.680837	-2.986600	2.881200	-8.604500	29.219556	-8.415620E-7	20.830115
2620.679957	-2.978700	2.880500	-8.579200	29.126044	-5.115377E-7	20.823602
2621.678991	-3.006100	2.879700	-8.655900	29.114577	-1.897640E-6	20.843341
2622.681201	-3.020900	2.875600	-8.686300	29.140086	5.115377E-7	20.818785
2623.680834	-3.003800	2.874100	-8.632500	29.157298	1.897640E-6	20.829965
2624.681396	-3.016300	2.872700	-8.663600	29.143479	1.815134E-7	20.838800
2625.682047	-3.017400	2.870700	-8.661700	29.151826	-1.600618E-6	20.846261
2626.682980	-2.993500	2.869200	-8.588000	29.176293	1.369601E-6	20.844364
2627.681564	-3.006100	2.866800	-8.617100	29.170449	-3.465255E-7	20.835156
2628.684026	-3.026900	2.863100	-8.664800	29.152890	1.336598E-6	20.846860
2629.684828	-2.990600	2.862300	-8.558300	29.171761	2.161659E-6	20.825574
2630.685564	-3.006800	2.860500	-8.600300	29.267523	1.567615E-6	20.822504
2631.684316	-2.993900	2.859100	-8.559300	29.202816	2.805207E-7	20.822729
2632.685409	-2.995300	2.857000	-8.556800	29.139442	1.303596E-6	20.818611
2633.687206	-3.006600	2.852700	-8.575900	29.136148	1.270594E-6	20.824301
2634.684515	-3.014500	2.852500	-8.597600	29.146896	1.204589E-6	20.844138
2635.685449	-3.030300	2.849400	-8.633500	29.196425	3.795279E-7	20.828616
2636.685322	-3.027400	2.847700	-8.620200	29.202616	9.405693E-7	20.834381
2637.685399	-3.010500	2.846600	-8.568900	29.288223	2.029649E-6	20.816813
2638.682664	-3.026400	2.844100	-8.605900	29.311252	1.468608E-6	20.834331
2639.687253	-2.964000	2.843600	-8.428000	29.243080	7.095522E-7	20.829639
2640.687531	-2.987700	2.839700	-8.483600	29.206231	2.805207E-7	20.846084
2641.685426	-2.991500	2.837700	-8.488200	29.223393	1.666623E-6	20.820231
2642.685251	-2.996900	2.834900	-8.494300	29.210442	1.699625E-6	20.832310
2643.685073	-2.990100	2.834100	-8.473700	29.261529	-3.135231E-7	20.824049
2644.685798	-2.989600	2.831000	-8.463300	29.315832	1.369601E-6	20.824248
2645.684999	-2.988200	2.829000	-8.452800	29.312142	1.831635E-6	20.823849
2646.686660	-2.996600	2.827100	-8.469900	29.332545	-2.805207E-7	20.824971
2647.683820	-2.973200	2.824700	-8.397200	29.373574	-8.415620E-7	20.810373
2648.686549	-3.018000	2.821500	-8.514600	29.452656	2.128657E-6	20.831760
2649.685353	-3.019400	2.819000	-8.510800	29.479766	8.085595E-7	20.820679
2650.686996	-2.996300	2.817400	-8.440000	29.497071	-4.950365E-8	20.815364
2651.688035	-3.039900	2.814100	-8.553800	29.490412	-4.455328E-7	20.813867
2652.686188	-3.021800	2.811200	-8.493900	29.488234	-6.765498E-7	20.820206
2653.689422	-3.010600	2.809200	-8.456200	29.542029	1.815134E-7	20.836974
2654.687032	-3.014400	2.807600	-8.462200	29.552650	-1.171586E-6	20.804059
2655.687094	-3.014700	2.804000	-8.451700	29.489346	-4.125304E-7	20.799991
2656.687222	-3.018300	2.802000	-8.455400	29.478057	-6.435474E-7	20.818483
2657.687410	-2.986300	2.799500	-8.358400	29.483702	-1.155085E-7	20.799517
2658.686310	-2.982500	2.797800	-8.343500	29.537128	3.795279E-7	20.837249
2659.686727	-3.008000	2.794000	-8.403400	29.531061	1.798632E-6	20.818332
2660.690726	-2.981400	2.793100	-8.326600	29.488877	7.095522E-7	20.793828
2661.689545	-3.000000	2.788400	-8.365000	29.529998	-7.755571E-7	20.808252
2662.691451	-3.007100	2.786400	-8.378300	29.510119	-3.465255E-7	20.809076
2663.689928	-3.000800	2.782900	-8.350300	29.527819	-1.765630E-6	20.825021
2664.689524	-2.993200	2.779600	-8.319200	29.582505	-1.996647E-6	20.803809
2665.692171	-2.997800	2.777900	-8.326600	29.607111	2.590691E-6	20.814864
2666.691083	-2.994700	2.775400	-8.310400	29.606689	8.415620E-7	20.806378
2667.690798	-3.036400	2.771700	-8.415300	29.597408	7.095522E-7	20.816462
2668.694136	-2.998500	2.769100	-8.302700	29.589957	9.075668E-7	20.816062
2669.691594	-3.012700	2.765400	-8.329400	29.615429	2.475182E-7	20.816137
2670.695057	-2.997700	2.762300	-8.279600	29.566265	3.135231E-7	20.827266
2671.694546	-2.983100	2.759900	-8.232200	29.464044	-5.775425E-7	20.792504
2672.696822	-3.012700	2.755800	-8.302100	29.411653	-6.435474E-7	20.787587
2673.698451	-2.987000	2.754500	-8.226500	29.347178	1.765630E-6	20.789933
2674.695966	-3.017800	2.750100	-8.298200	29.339849	2.161659E-6	20.820005
2675.695759	-3.021000	2.747200	-8.298200	29.388527	-1.996647E-6	20.794624
2676.694924	-3.033500	2.742400	-8.318600	29.447405	-6.105450E-7	20.799915
2677.698042	-3.001000	2.740300	-8.221900	29.472039	1.699625E-6	20.789184
2678.695495	-3.017600	2.737300	-8.258700	29.493406	3.795279E-7	20.801712
2679.696929	-2.996800	2.734600	-8.193800	29.463770	7.095522E-7	20.796021
2680.700853	-2.989200	2.730200	-8.160200	29.459783	-3.135231E-7	20.823771
2681.699138	-3.004400	2.727200	-8.192700	29.535021	2.755703E-6	20.791504
2682.695412	-2.946600	2.724900	-8.028000	29.637285	2.260666E-6	20.810669
2683.698313	-2.987200	2.721000	-8.127300	29.605004	-4.785352E-7	20.803731
2684.698002	-3.012800	2.715600	-8.180500	29.570891	1.039577E-6	20.795420
2685.698848	-2.997800	2.712500	-8.130300	29.636318	9.075668E-7	20.782668
2686.700172	-2.986900	2.709700	-8.092800	29.694935	9.405693E-7	20.791503
2687.699193	-3.011500	2.704400	-8.143600	29.708920	8.745644E-7	20.791378
2688.704035	-3.041200	2.701700	-8.215000	29.616638	2.425679E-6	20.781320
2689.710130	-3.004000	2.697100	-8.100800	29.502019	-8.415620E-7	20.794273
2690.703197	-2.996100	2.692800	-8.066600	29.513828	-6.105450E-7	20.799538
2691.707146	-2.981300	2.689000	-8.015200	29.506252	5.775425E-7	20.806601
2692.701714	-3.003100	2.685500	-8.063600	29.514175	-1.138584E-6	20.796095
2693.706585	-2.996000	2.680600	-8.030300	29.546679	2.161659E-6	20.786660
2694.706407	-2.958300	2.678600	-7.923600	29.589185	5.445401E-7	20.811966
2695.705431	-2.992600	2.671300	-7.993900	29.585051	-1.006574E-6	20.779823
2696.708926	-3.010900	2.667700	-8.031400	29.642902	1.237591E-6	20.781718
2697.709330	-2.994900	2.664200	-7.978000	29.637208	1.138584E-6	20.813437
2698.706371	-2.994000	2.658500	-7.958500	29.583589	1.270594E-6	20.793997
2699.715904	-2.990700	2.654400	-7.937900	29.578737	1.633620E-6	20.801907
2700.709912	-3.021900	2.649200	-8.005000	29.642877	1.270594E-6	20.773633
2701.704885	-3.011600	2.644300	-7.962100	29.605372	9.075668E-7	20.778024
2702.711089	-3.017500	2.639100	-7.962400	29.620399	1.204589E-6	20.798387
2703.709481	-3.005200	2.636000	-7.921000	29.690501	2.656696E-6	20.785610
2704.706034	-3.014600	2.629800	-7.925100	29.763372	2.293669E-6	20.786535
2705.710046	-2.997300	2.624200	-7.864900	29.793667	2.227664E-6	20.763974
2706.707823	-2.979900	2.623000	-7.815200	29.777678	4.125304E-7	20.791475
2707.706250	-3.013100	2.613400	-7.873600	29.823811	5.775425E-7	20.770187
2708.707906	-3.001800	2.608700	-7.829700	29.759832	-1.155085E-7	20.788655
2709.710118	-3.008100	2.604600	-7.833700	29.713224	2.194662E-6	20.780544
2710.707098	-2.978100	2.600000	-7.742100	29.761638	1.039577E-6	20.774355
2711.709550	-3.001500	2.594400	-7.785700	29.761316	2.805207E-7	20.788729
2712.714299	-2.981000	2.589000	-7.716500	29.804258	1.303596E-6	20.774179
2713.709273	-3.016600	2.583100	-7.791300	29.933001	1.468608E-6	20.787830
2714.709464	-3.004500	2.577400	-7.743200	29.978633	8.250607E-8	20.785958
2715.715562	-2.971800	2.571500	-7.640600	29.933743	2.326671E-6	20.777673
2716.710655	-2.994900	2.566000	-7.684100	29.889172	1.171586E-6	20.785833
2717.712605	-3.027700	2.559000	-7.747200	29.958440	1.963645E-6	20.796888
2718.711667	-2.968300	2.554700	-7.582100	29.938147	-1.155085E-7	20.787330
2719.711856	-2.996800	2.546400	-7.629400	29.978113	1.963645E-6	20.765519
2720.711396	-2.987700	2.542100	-7.594100	29.987022	-8.745644E-7	20.783038
2721.713780	-3.018400	2.535900	-7.652900	30.001967	-1.815134E-7	20.787679
2722.713466	-3.038500	2.527800	-7.679800	29.978113	1.435606E-6	20.755561
2723.712453	-2.984600	2.522700	-7.528700	30.050148	6.105450E-7	20.786483
2724.712719	-2.999400	2.516300	-7.546900	30.113021	1.155085E-7	20.775451
2725.712635	-2.997900	2.509600	-7.522800	30.177350	1.204589E-6	20.764471
2726.712337	-2.984500	2.504700	-7.473800	30.149393	2.227664E-6	20.766144
2727.715133	-2.976400	2.497100	-7.431300	30.156890	1.204589E-6	20.762325
