LabVIEW Measurement	
Writer_Version	2
Reader_Version	2
Separator	Tab
Decimal_Separator	.
Multi_Headings	No
X_Columns	One
Time_Pref	Absolute
Operator	admin
Description	Clolumns are: time, Current, Voltage, Power, Battery Temp, and Chamber Temp
Date	2024/06/12
Time	15:38:23.361408233642578125
***End_of_Header***	
	
Channels	6						
Samples	1	1	1	1	1	1	
Date	2024/06/14	2024/06/14	2024/06/14	2024/06/14	2024/06/14	2024/06/14	
Time	22:03:21.7763013839721679688	22:03:21.7856149673461914063	22:03:21.7926049232482910156	22:03:21.757129669189453125	22:03:21.757129669189453125	22:03:21.757129669189453125	
X_Dimension	Time	Time	Time	Time	Time	Time	
X0	0.0000000000000000E+0	0.0000000000000000E+0	0.0000000000000000E+0	0.0000000000000000E+0	0.0000000000000000E+0	0.0000000000000000E+0	
Delta_X	1.000000	1.000000	1.000000	1.000000	1.000000	1.000000	
***End_of_Header***							
X_Value	Untitled	Untitled 1	Untitled 2	Untitled 3	Untitled 4	Untitled 5	Comment
0.000000	0.023491	4.140700	0.097430	20.811099	0.000152	20.789762
1.000373	-2.999300	4.043600	-12.126000	20.825045	0.000152	20.773363
1.996318	-3.004000	4.037700	-12.129000	20.804239	0.000150	20.806609
2.997046	-3.022100	4.031700	-12.184000	20.795639	0.000150	20.798010
4.000933	-3.003700	4.030200	-12.105000	20.832426	0.000149	20.804451
4.999630	-3.006900	4.025500	-12.103000	20.804522	0.000149	20.792194
6.003640	-2.989500	4.023100	-12.026000	20.825123	0.000145	20.793829
6.996304	-2.995800	4.021600	-12.047000	20.838323	0.000147	20.805607
7.999736	-3.020100	4.018700	-12.137000	20.844739	0.000147	20.792583
8.996039	-2.994800	4.016500	-12.029000	20.844744	0.000144	20.786898
9.999637	-2.974500	4.015100	-11.941000	20.837612	0.000146	20.788775
11.004395	-2.998000	4.013300	-12.032000	20.844503	0.000143	20.815580
12.004803	-2.993400	4.010200	-12.002000	20.835424	0.000141	20.801759
12.998170	-2.995600	4.008900	-12.008000	20.850773	0.000142	20.801462
14.003073	-3.003200	4.008500	-12.037000	20.852226	0.000143	20.797699
15.004433	-3.008800	4.005800	-12.052000	20.844696	0.000142	20.801549
16.003719	-3.008500	4.005000	-12.048000	20.848413	0.000141	20.828973
17.006665	-3.026700	4.003000	-12.115000	20.862395	0.000141	20.807395
18.001844	-3.008000	4.001700	-12.037000	20.863747	0.000140	20.802109
19.004790	-2.994300	4.001300	-11.980000	20.851047	0.000138	20.810271
20.008248	-3.014700	3.999700	-12.057000	20.873533	0.000140	20.817111
21.002780	-3.013800	3.998900	-12.051000	20.872337	0.000139	20.820657
22.011076	-3.010300	3.996500	-12.029000	20.875061	0.000137	20.826226
23.006780	-3.007700	3.996500	-12.019000	20.878930	0.000138	20.809232
24.004444	-3.021400	3.994700	-12.068000	20.892907	0.000139	20.808985
25.008934	-3.008700	3.993200	-12.014000	20.899322	0.000134	20.826307
26.007544	-3.012700	3.993400	-12.030000	20.887021	0.000137	20.821117
27.007872	-3.012900	3.991700	-12.026000	20.892140	0.000136	20.818176
28.008127	-2.983600	3.992000	-11.910000	20.902167	0.000138	20.809712
29.005780	-3.014000	3.990200	-12.025000	20.894758	0.000135	20.838337
30.008070	-3.000900	3.988400	-11.968000	20.905890	0.000136	20.821969
31.010792	-3.014400	3.987800	-12.019000	20.927724	0.000132	20.824839
32.007690	-2.993900	3.986900	-11.936000	20.928672	0.000135	20.828158
33.009531	-3.010200	3.986200	-11.998000	20.920834	0.000133	20.838811
34.008378	-3.007000	3.986200	-11.986000	20.946168	0.000134	20.817208
35.007751	-2.983000	3.984500	-11.885000	20.934033	0.000134	20.845373
36.008499	-2.982200	3.984200	-11.881000	20.949729	0.000132	20.820769
37.009861	-2.996100	3.982900	-11.932000	20.947958	0.000131	20.847921
38.005306	-2.989600	3.982800	-11.906000	20.948256	0.000131	20.846796
39.013492	-2.992500	3.982000	-11.915000	20.954590	0.000132	20.819467
40.006111	-2.994100	3.981400	-11.920000	20.946259	0.000131	20.828204
41.009796	-3.012900	3.978600	-11.986000	20.978895	0.000130	20.840930
42.013144	-3.007200	3.979100	-11.965000	20.987176	0.000131	20.829772
43.007710	-2.993100	3.981000	-11.914000	20.985204	0.000131	20.821162
44.010629	-2.994900	3.979400	-11.917000	20.971924	0.000129	20.837277
45.007339	-2.997700	3.978400	-11.926000	20.980957	0.000129	20.852475
46.011570	-3.003800	3.977900	-11.948000	20.988486	0.000128	20.830608
47.012890	-3.005000	3.975800	-11.946000	20.975686	0.000128	20.842936
48.012455	-2.994500	3.975800	-11.904000	20.982590	0.000127	20.842255
49.011128	-3.013700	3.975700	-11.981000	20.988304	0.000127	20.856504
50.013822	-3.020400	3.974100	-12.002000	21.010953	0.000126	20.833639
51.010411	-2.993200	3.974300	-11.895000	21.028917	0.000127	20.838330
52.012041	-3.009100	3.972900	-11.954000	21.017509	0.000127	20.844937
53.010694	-2.989400	3.973700	-11.878000	21.016631	0.000127	20.830783
54.011688	-2.980000	3.972700	-11.838000	21.019652	0.000126	20.844710
55.009996	-3.008000	3.970600	-11.943000	21.021074	0.000127	20.830012
56.010447	-3.010300	3.971800	-11.956000	21.041706	0.000124	20.846379
57.012568	-2.998800	3.972000	-11.911000	21.039109	0.000123	20.845204
58.011587	-3.000800	3.969500	-11.910000	21.046789	0.000126	20.819696
59.016987	-2.986600	3.969600	-11.854000	21.020887	0.000125	20.860169
60.012724	-3.001900	3.970500	-11.919000	21.040999	0.000123	20.856104
61.014958	-3.005100	3.967900	-11.923000	21.044685	0.000123	20.852204
62.013676	-3.007000	3.968400	-11.931000	21.046632	0.000123	20.859841
63.015855	-3.005300	3.967900	-11.924000	21.060405	0.000123	20.840901
64.013916	-2.990400	3.969200	-11.869000	21.061479	0.000122	20.852406
65.022721	-2.994500	3.967000	-11.878000	21.056758	0.000122	20.840573
66.015174	-3.002800	3.966300	-11.910000	21.076472	0.000121	20.856022
67.014522	-3.009800	3.966400	-11.937000	21.072523	0.000122	20.835952
68.019708	-3.016700	3.966200	-11.963000	21.070354	0.000120	20.845637
69.016077	-2.997800	3.965600	-11.888000	21.090314	0.000119	20.834782
70.019935	-3.004000	3.965400	-11.911000	21.092685	0.000120	20.849480
71.014708	-2.986700	3.965000	-11.841000	21.099472	0.000119	20.858640
72.015322	-2.980600	3.965800	-11.819000	21.100143	0.000119	20.822328
73.014748	-2.988200	3.963900	-11.844000	21.078463	0.000120	20.849480
74.017721	-2.993500	3.962800	-11.862000	21.087995	0.000118	20.837203
75.018548	-2.998600	3.962000	-11.879000	21.098802	0.000119	20.839952
76.019075	-2.984200	3.962600	-11.824000	21.114218	0.000119	20.836880
77.019365	-2.990700	3.962800	-11.850000	21.114344	0.000119	20.834636
78.019604	-2.987900	3.962800	-11.839000	21.117959	0.000119	20.845839
79.021792	-2.999000	3.961800	-11.880000	21.133204	0.000117	20.828845
80.021068	-2.999500	3.960700	-11.879000	21.118958	0.000119	20.824553
81.024805	-2.977900	3.961400	-11.795000	21.125493	0.000115	20.828719
82.019336	-3.007000	3.960800	-11.909000	21.133027	0.000117	20.834358
83.024426	-2.979700	3.959500	-11.797000	21.135004	0.000117	20.820689
84.028544	-3.017200	3.958400	-11.943000	21.101273	0.000117	20.858545
85.024633	-2.972200	3.958500	-11.765000	21.136149	0.000117	20.839851
86.025154	-2.969700	3.959600	-11.759000	21.153959	0.000116	20.814046
87.023773	-3.011100	3.957700	-11.916000	21.155215	0.000115	20.816251
88.026111	-3.014200	3.956600	-11.924000	21.156365	0.000116	20.847746
89.024231	-3.009100	3.958400	-11.910000	21.154722	0.000118	20.826662
90.026283	-3.006600	3.957900	-11.899000	21.164751	0.000116	20.836221
91.030312	-3.000300	3.957400	-11.873000	21.156225	0.000115	20.818683
92.029022	-3.010800	3.956800	-11.912000	21.186485	0.000116	20.845159
93.023979	-2.998800	3.956200	-11.863000	21.173662	0.000114	20.832806
94.028527	-3.015600	3.955700	-11.927000	21.163663	0.000116	20.822804
95.030351	-3.003000	3.956400	-11.880000	21.170279	0.000114	20.832267
96.028174	-2.981300	3.956700	-11.795000	21.189562	0.000117	20.832590
97.030384	-2.996400	3.955000	-11.849000	21.185528	0.000114	20.813857
98.028090	-2.999000	3.954900	-11.860000	21.181590	0.000115	20.821771
99.023932	-3.015200	3.954300	-11.922000	21.203596	0.000114	20.821499
100.029172	-3.000500	3.955100	-11.865000	21.184445	0.000116	20.821308
101.025480	-2.992400	3.953400	-11.829000	21.196940	0.000114	20.833332
102.029909	-2.998400	3.952900	-11.851000	21.214413	0.000113	20.812405
103.027184	-3.009500	3.952800	-11.895000	21.234073	0.000116	20.826383
104.026083	-3.008200	3.952500	-11.889000	21.225174	0.000112	20.804204
105.027024	-2.998200	3.952000	-11.848000	21.237895	0.000114	20.840637
106.027275	-2.998600	3.953400	-11.854000	21.232364	0.000114	20.810449
107.028942	-2.986100	3.952900	-11.802000	21.228628	0.000113	20.826152
108.031744	-2.992100	3.951600	-11.822000	21.245515	0.000114	20.804639
109.030650	-3.006600	3.951700	-11.879000	21.234897	0.000112	20.815827
110.031900	-2.994000	3.952000	-11.830000	21.240388	0.000116	20.823691
111.032691	-3.006600	3.951000	-11.878000	21.242990	0.000113	20.820605
112.031860	-2.984300	3.950900	-11.789000	21.235286	0.000112	20.817639
113.032566	-3.010100	3.951300	-11.894000	21.256126	0.000114	20.823789
114.031583	-2.989600	3.951400	-11.813000	21.275281	0.000111	20.819244
115.029843	-2.985200	3.949400	-11.789000	21.269145	0.000112	20.813579
116.032930	-2.996900	3.950100	-11.837000	21.288911	0.000112	20.815810
117.033522	-2.981400	3.951000	-11.779000	21.276613	0.000113	20.817731
118.032783	-2.990900	3.948800	-11.810000	21.282912	0.000114	20.800325
119.031701	-3.014100	3.948100	-11.899000	21.272187	0.000113	20.802398
120.032043	-2.999000	3.949400	-11.844000	21.300580	0.000111	20.815630
121.031873	-3.003400	3.948500	-11.858000	21.293501	0.000112	20.827040
122.032028	-3.021100	3.948600	-11.929000	21.296073	0.000111	20.816336
123.034363	-2.984300	3.947600	-11.780000	21.312434	0.000113	20.811842
124.039239	-2.993700	3.948200	-11.818000	21.300616	0.000113	20.812347
125.036897	-2.996700	3.947100	-11.827000	21.328836	0.000109	20.813079
126.036367	-2.976900	3.948900	-11.754000	21.338169	0.000112	20.812933
127.038779	-3.009900	3.947400	-11.880000	21.337524	0.000113	20.813710
128.036980	-3.020400	3.946400	-11.919000	21.320417	0.000112	20.809872
129.040195	-3.002000	3.946500	-11.847000	21.334288	0.000110	20.810472
130.039202	-2.983500	3.946900	-11.774000	21.334610	0.000111	20.806528
131.035547	-2.999900	3.946300	-11.837000	21.355096	0.000113	20.783875
132.037831	-3.009800	3.945100	-11.873000	21.351304	0.000112	20.795255
133.038028	-2.991900	3.945600	-11.804000	21.339905	0.000110	20.811350
134.042733	-3.030400	3.944300	-11.952000	21.352833	0.000112	20.813853
135.043517	-3.014000	3.945800	-11.891000	21.365174	0.000109	20.808183
136.040461	-2.981000	3.945700	-11.761000	21.375853	0.000111	20.812703
137.039638	-3.003300	3.944100	-11.845000	21.351733	0.000112	20.798529
138.044726	-2.979400	3.944600	-11.752000	21.363051	0.000110	20.788041
139.039432	-2.978900	3.943800	-11.747000	21.380516	0.000110	20.821162
140.041899	-3.004400	3.944100	-11.849000	21.372908	0.000112	20.806912
141.039958	-2.981500	3.943700	-11.757000	21.383733	0.000111	20.800198
142.038721	-2.978700	3.943600	-11.745000	21.395308	0.000109	20.815099
143.039514	-2.973300	3.943700	-11.725000	21.394260	0.000111	20.792713
144.041464	-2.998700	3.942300	-11.821000	21.387328	0.000110	20.774871
145.043386	-2.988800	3.943400	-11.785000	21.400092	0.000112	20.800445
146.038930	-3.018400	3.942200	-11.898000	21.403289	0.000109	20.781832
147.037904	-3.016500	3.941800	-11.889000	21.418182	0.000110	20.811906
148.042283	-3.017900	3.942400	-11.897000	21.391486	0.000111	20.797524
149.037946	-2.999800	3.942000	-11.824000	21.426908	0.000113	20.796929
150.040671	-3.002700	3.941700	-11.835000	21.423087	0.000111	20.793105
151.039261	-2.991100	3.941300	-11.788000	21.419794	0.000109	20.811148
152.043628	-2.988500	3.941100	-11.776000	21.424261	0.000109	20.810876
153.043175	-3.026700	3.940800	-11.927000	21.434138	0.000111	20.795628
154.043910	-3.035500	3.940600	-11.961000	21.428546	0.000109	20.787188
155.041792	-2.995500	3.939800	-11.801000	21.428350	0.000111	20.805484
156.041919	-3.010100	3.940300	-11.860000	21.429020	0.000110	20.794301
157.041231	-2.992100	3.940400	-11.789000	21.451545	0.000110	20.801665
158.042687	-2.999200	3.939900	-11.816000	21.447824	0.000110	20.793201
159.040616	-2.990000	3.940100	-11.780000	21.455457	0.000112	20.802734
160.042229	-2.976300	3.939400	-11.724000	21.477003	0.000111	20.791102
161.043321	-2.987500	3.939700	-11.769000	21.466376	0.000110	20.775253
162.039881	-2.980100	3.938800	-11.737000	21.481394	0.000111	20.783642
163.042357	-2.982600	3.939600	-11.749000	21.456520	0.000109	20.797160
164.043519	-2.991100	3.937700	-11.777000	21.471987	0.000109	20.792721
165.044789	-2.988600	3.938600	-11.770000	21.472511	0.000110	20.808419
166.047914	-3.006900	3.938700	-11.842000	21.462812	0.000111	20.791602
167.043303	-2.989000	3.938800	-11.772000	21.472864	0.000112	20.775581
168.042246	-3.010900	3.937500	-11.854000	21.481192	0.000110	20.777276
169.046265	-3.002000	3.937400	-11.819000	21.478178	0.000109	20.796071
170.045246	-2.989000	3.937200	-11.767000	21.509801	0.000109	20.783143
171.046852	-2.994400	3.937300	-11.789000	21.489052	0.000110	20.774235
172.044714	-3.022200	3.937100	-11.898000	21.498156	0.000109	20.788086
173.042669	-3.013300	3.936200	-11.860000	21.510502	0.000110	20.801862
174.045895	-3.004300	3.936100	-11.825000	21.508632	0.000110	20.788137
175.042914	-3.002400	3.936600	-11.819000	21.515095	0.000110	20.794604
176.046378	-3.000500	3.936300	-11.810000	21.516895	0.000110	20.783128
177.048390	-3.012800	3.936000	-11.857000	21.516169	0.000111	20.792359
178.044483	-3.007600	3.936400	-11.839000	21.529588	0.000109	20.809580
179.045527	-2.995100	3.936100	-11.788000	21.536177	0.000110	20.777293
180.049678	-2.997600	3.934900	-11.795000	21.535753	0.000111	20.789671
181.047518	-3.000900	3.936900	-11.814000	21.541022	0.000111	20.783563
182.055658	-2.993400	3.936100	-11.781000	21.547106	0.000109	20.767840
183.049391	-2.980000	3.936200	-11.729000	21.538824	0.000110	20.781838
184.047596	-3.015200	3.935200	-11.864000	21.583869	0.000112	20.760531
185.049428	-3.004300	3.937000	-11.827000	21.551124	0.000111	20.754316
186.047089	-3.001700	3.933800	-11.808000	21.568056	0.000111	20.788330
187.052474	-3.005000	3.933600	-11.819000	21.560354	0.000113	20.773036
188.049269	-2.988300	3.935100	-11.759000	21.572806	0.000112	20.771746
189.053045	-3.019600	3.933600	-11.877000	21.574146	0.000112	20.763129
190.052455	-3.014200	3.934700	-11.859000	21.566797	0.000109	20.752930
191.053391	-3.019900	3.934600	-11.881000	21.571011	0.000111	20.765208
192.053328	-3.001400	3.932600	-11.802000	21.553832	0.000110	20.758923
193.053242	-3.002500	3.933200	-11.808000	21.596079	0.000110	20.775595
194.054698	-2.989900	3.933500	-11.760000	21.578775	0.000111	20.770606
195.054667	-2.992000	3.933900	-11.770000	21.607300	0.000111	20.776866
196.054796	-2.987000	3.932900	-11.746000	21.609055	0.000112	20.767716
197.054298	-2.986500	3.933400	-11.746000	21.593822	0.000112	20.773336
198.056725	-3.005100	3.932600	-11.817000	21.611651	0.000112	20.771737
199.051533	-2.984900	3.931000	-11.733000	21.615245	0.000110	20.764428
200.053682	-2.989900	3.933600	-11.760000	21.609414	0.000113	20.769972
201.050551	-2.990400	3.931500	-11.756000	21.620735	0.000112	20.771818
202.053780	-2.996600	3.932000	-11.782000	21.632308	0.000111	20.759218
203.056839	-2.990700	3.931900	-11.758000	21.636855	0.000110	20.760924
204.061231	-3.002500	3.932400	-11.805000	21.642592	0.000111	20.763345
205.055614	-3.018700	3.931200	-11.866000	21.633715	0.000112	20.764894
206.053345	-3.009100	3.931300	-11.829000	21.640380	0.000112	20.750700
207.060884	-3.010400	3.933500	-11.841000	21.638636	0.000111	20.761283
208.053513	-2.995300	3.930600	-11.772000	21.652382	0.000111	20.762237
209.062423	-3.014800	3.930400	-11.849000	21.656444	0.000112	20.772466
210.058027	-2.995400	3.932300	-11.778000	21.649413	0.000110	20.789138
211.055272	-2.991600	3.930100	-11.756000	21.644529	0.000112	20.742998
212.056089	-3.000900	3.930000	-11.793000	21.653702	0.000111	20.750281
213.056983	-2.988900	3.930300	-11.746000	21.660417	0.000112	20.770278
214.057975	-2.997200	3.930400	-11.780000	21.677322	0.000111	20.758746
215.056633	-3.001000	3.929600	-11.792000	21.674903	0.000111	20.753954
216.057642	-2.996200	3.930400	-11.775000	21.664061	0.000113	20.761123
217.055083	-2.992300	3.929400	-11.757000	21.669595	0.000112	20.768558
218.059030	-2.982500	3.930100	-11.720000	21.683386	0.000111	20.769083
219.055755	-2.990200	3.929700	-11.750000	21.667025	0.000113	20.753183
220.059404	-3.010700	3.929000	-11.828000	21.694530	0.000113	20.759372
221.054831	-3.004400	3.928300	-11.801000	21.672528	0.000111	20.765803
222.061440	-2.999000	3.928400	-11.781000	21.688707	0.000113	20.752122
223.065833	-3.009000	3.928200	-11.820000	21.693476	0.000113	20.752627
224.059392	-3.001000	3.927700	-11.786000	21.693173	0.000114	20.743315
225.066452	-3.000600	3.927700	-11.785000	21.704190	0.000115	20.755764
226.055862	-3.017200	3.927300	-11.848000	21.688884	0.000113	20.738548
227.060751	-3.004900	3.926600	-11.799000	21.698928	0.000115	20.751920
228.060347	-3.009200	3.927700	-11.818000	21.720969	0.000111	20.749796
229.061753	-2.999100	3.928200	-11.780000	21.697084	0.000111	20.739168
230.061755	-3.019500	3.926500	-11.855000	21.719396	0.000113	20.748222
231.066604	-2.996000	3.928600	-11.769000	21.725132	0.000111	20.760601
232.058878	-3.005600	3.927300	-11.804000	21.720187	0.000115	20.751384
233.061645	-3.007300	3.926800	-11.808000	21.724955	0.000114	20.745725
234.065250	-2.998300	3.926500	-11.772000	21.736149	0.000111	20.751712
235.062342	-2.986100	3.927500	-11.727000	21.731089	0.000115	20.758502
236.064578	-2.982500	3.925900	-11.708000	21.736099	0.000113	20.729850
237.060382	-2.988300	3.926100	-11.732000	21.732182	0.000115	20.733517
238.061502	-2.984200	3.926800	-11.718000	21.753067	0.000114	20.750153
239.059894	-2.984900	3.926400	-11.719000	21.755840	0.000115	20.723054
240.061199	-2.982800	3.926600	-11.711000	21.756675	0.000115	20.726736
241.065879	-2.983400	3.926000	-11.712000	21.747155	0.000114	20.720526
242.059104	-2.972400	3.925400	-11.667000	21.769764	0.000114	20.741732
243.059770	-2.967100	3.925900	-11.648000	21.762215	0.000114	20.737970
244.059700	-2.998000	3.927000	-11.772000	21.766327	0.000116	20.743034
245.060972	-2.999200	3.924300	-11.769000	21.755975	0.000115	20.720818
246.062011	-3.012700	3.924600	-11.823000	21.766397	0.000116	20.736466
247.060935	-3.010200	3.923200	-11.808000	21.769784	0.000113	20.725156
248.059844	-3.030200	3.923100	-11.886000	21.776315	0.000115	20.744496
249.062657	-3.005500	3.924100	-11.792000	21.777686	0.000113	20.742549
250.065495	-2.969700	3.924300	-11.653000	21.791097	0.000116	20.719934
251.065114	-2.986500	3.925400	-11.723000	21.799700	0.000116	20.712423
252.067485	-3.006300	3.924500	-11.798000	21.785810	0.000115	20.734084
253.063335	-2.992100	3.924900	-11.743000	21.779006	0.000117	20.719687
254.065028	-3.001700	3.922100	-11.772000	21.775236	0.000116	20.751951
255.066943	-3.010500	3.923000	-11.809000	21.793264	0.000116	20.719258
256.065488	-3.012600	3.922900	-11.818000	21.815378	0.000117	20.739971
257.067479	-2.998400	3.923400	-11.764000	21.816326	0.000117	20.732384
258.071275	-3.009300	3.923500	-11.807000	21.810843	0.000118	20.729266
259.070903	-2.999300	3.923300	-11.767000	21.798469	0.000119	20.724469
260.071237	-2.995600	3.922600	-11.750000	21.845489	0.000119	20.723167
261.073728	-2.987300	3.923000	-11.718000	21.840803	0.000118	20.714208
262.068291	-2.995700	3.921500	-11.746000	21.847813	0.000117	20.712690
263.072030	-2.996300	3.922200	-11.752000	21.849677	0.000117	20.713133
264.068537	-2.979300	3.922700	-11.686000	21.851199	0.000118	20.734098
265.073267	-3.014500	3.922400	-11.823000	21.839084	0.000118	20.731455
266.073154	-2.992300	3.921300	-11.732000	21.854207	0.000118	20.707709
267.071601	-3.004300	3.922300	-11.782000	21.831000	0.000117	20.711509
268.073559	-3.004400	3.920600	-11.778000	21.845907	0.000117	20.729749
269.069987	-2.995200	3.921600	-11.744000	21.865929	0.000118	20.728927
270.071526	-2.996500	3.921600	-11.751000	21.866770	0.000118	20.707008
271.071811	-2.978200	3.921900	-11.679000	21.859614	0.000120	20.718338
272.074180	-3.018300	3.919700	-11.830000	21.861111	0.000120	20.716991
273.075167	-3.005100	3.920200	-11.779000	21.878986	0.000119	20.705959
274.073420	-3.016700	3.918900	-11.821000	21.885441	0.000120	20.714317
275.076128	-2.987400	3.921000	-11.712000	21.852357	0.000120	20.716290
276.077551	-3.010300	3.919600	-11.798000	21.879182	0.000118	20.715639
277.078909	-3.016400	3.919900	-11.823000	21.880674	0.000119	20.683938
278.078172	-2.991700	3.919100	-11.724000	21.870075	0.000119	20.703678
279.075844	-2.980800	3.920700	-11.685000	21.887552	0.000119	20.718801
280.078287	-3.008900	3.921200	-11.797000	21.895852	0.000121	20.708616
281.074668	-3.017900	3.918800	-11.826000	21.894299	0.000122	20.699949
282.074398	-2.991800	3.919700	-11.726000	21.915565	0.000120	20.714124
283.076423	-2.968800	3.919100	-11.635000	21.880934	0.000119	20.721661
284.079384	-3.007700	3.919600	-11.789000	21.895146	0.000120	20.693683
285.079451	-2.993100	3.917800	-11.725000	21.885470	0.000122	20.706759
286.075188	-2.979500	3.919100	-11.676000	21.898153	0.000121	20.714713
287.079125	-2.993700	3.919100	-11.731000	21.916799	0.000121	20.707298
288.077878	-3.006500	3.919400	-11.782000	21.922503	0.000122	20.702575
289.079735	-3.032200	3.917600	-11.878000	21.941223	0.000124	20.691442
290.083637	-2.998500	3.918300	-11.749000	21.933019	0.000122	20.706464
291.082536	-3.005700	3.917600	-11.774000	21.950540	0.000123	20.710253
292.081718	-3.005700	3.918800	-11.778000	21.954626	0.000123	20.721930
293.080147	-2.980000	3.917600	-11.674000	21.940859	0.000121	20.692974
294.082763	-2.989400	3.917700	-11.711000	21.949758	0.000121	20.686709
295.082581	-2.994900	3.917900	-11.732000	21.940475	0.000124	20.712980
296.084377	-2.994900	3.916400	-11.728000	21.958500	0.000124	20.703996
297.080592	-3.004600	3.915800	-11.765000	21.966603	0.000121	20.695511
298.085312	-3.009800	3.916900	-11.788000	21.944980	0.000121	20.702790
299.082731	-3.007200	3.915600	-11.774000	21.963624	0.000125	20.697745
300.083673	-2.992100	3.915600	-11.714000	21.956065	0.000124	20.698239
301.089530	-2.971100	3.916000	-11.634000	21.956135	0.000126	20.716802
302.086963	-3.004200	3.915700	-11.762000	21.966727	0.000122	20.706541
303.083695	-3.006300	3.916900	-11.775000	21.966596	0.000123	20.705461
304.087651	-3.001200	3.914900	-11.748000	21.973101	0.000124	20.686842
305.082641	-3.004600	3.915300	-11.763000	21.964323	0.000124	20.703186
306.087732	-3.015200	3.915000	-11.804000	21.993755	0.000124	20.709415
307.084486	-3.014000	3.916200	-11.803000	22.012827	0.000126	20.689625
308.081944	-2.996300	3.914500	-11.728000	22.019004	0.000124	20.682532
309.084084	-2.994700	3.914700	-11.722000	21.966005	0.000123	20.694438
310.082900	-2.997000	3.914600	-11.731000	21.972082	0.000122	20.700995
311.088023	-2.992500	3.914000	-11.712000	21.992020	0.000127	20.712421
312.090161	-3.010500	3.914300	-11.783000	22.016953	0.000124	20.685695
313.084898	-3.011100	3.913700	-11.784000	22.007500	0.000124	20.693776
314.087251	-2.993700	3.913500	-11.714000	22.005569	0.000126	20.694214
315.087698	-3.019500	3.913200	-11.814000	22.010931	0.000125	20.702427
316.088478	-3.000400	3.913900	-11.742000	22.035409	0.000128	20.677617
317.089968	-3.000400	3.913300	-11.740000	22.025337	0.000126	20.686501
318.087194	-2.998300	3.914100	-11.734000	22.033232	0.000127	20.700096
319.086380	-3.014400	3.912100	-11.792000	22.049456	0.000128	20.711123
320.086735	-2.983600	3.913400	-11.675000	22.060622	0.000129	20.703808
321.091284	-3.015200	3.912200	-11.795000	22.038381	0.000130	20.718053
322.089438	-2.981600	3.913200	-11.667000	22.042815	0.000128	20.699731
323.090954	-2.994400	3.913000	-11.716000	22.032793	0.000129	20.697285
324.090274	-2.982700	3.913600	-11.672000	22.051713	0.000128	20.696785
325.091512	-2.991800	3.912900	-11.705000	22.050962	0.000128	20.685127
326.093301	-3.027300	3.912700	-11.844000	22.062102	0.000129	20.684426
327.095056	-3.022700	3.911000	-11.820000	22.061800	0.000129	20.677010
328.090444	-3.003100	3.911200	-11.745000	22.061321	0.000130	20.671314
329.093802	-2.978900	3.912500	-11.655000	22.087017	0.000130	20.695619
330.096104	-2.981400	3.911500	-11.661000	22.089834	0.000130	20.694645
331.096020	-2.997400	3.911800	-11.724000	22.065724	0.000131	20.695164
332.095749	-3.010400	3.912000	-11.776000	22.074990	0.000129	20.699699
333.099427	-3.011900	3.910600	-11.778000	22.074491	0.000130	20.690664
334.094656	-3.008200	3.912600	-11.769000	22.084386	0.000133	20.698201
335.093857	-2.983800	3.911400	-11.670000	22.097043	0.000131	20.708976
336.095984	-3.017200	3.912000	-11.802000	22.098046	0.000133	20.712825
337.092518	-3.009900	3.910200	-11.768000	22.133082	0.000130	20.721824
338.101039	-2.993100	3.911700	-11.707000	22.098640	0.000132	20.680701
339.096553	-2.990500	3.910300	-11.693000	22.117977	0.000130	20.693897
340.096769	-2.995200	3.909800	-11.710000	22.118748	0.000132	20.692298
341.096690	-2.998100	3.910400	-11.723000	22.117801	0.000132	20.699411
342.096692	-3.026000	3.909100	-11.828000	22.106479	0.000132	20.698982
343.094502	-2.995800	3.911000	-11.716000	22.118637	0.000133	20.712102
344.097174	-3.002900	3.909200	-11.738000	22.120113	0.000135	20.703149
345.094769	-2.998500	3.908600	-11.719000	22.109517	0.000133	20.690643
346.095638	-3.018200	3.909400	-11.798000	22.104207	0.000133	20.700974
347.096684	-3.004800	3.909000	-11.745000	22.140770	0.000132	20.693008
348.098615	-2.985800	3.908900	-11.671000	22.126713	0.000134	20.690315
349.097322	-2.986400	3.909000	-11.673000	22.129897	0.000134	20.708203
350.099708	-3.004000	3.909100	-11.742000	22.114153	0.000132	20.697655
351.100154	-3.008400	3.909000	-11.760000	22.135958	0.000135	20.737032
352.100572	-3.024500	3.910000	-11.824000	22.133218	0.000134	20.709156
353.102864	-3.013200	3.907700	-11.774000	22.132225	0.000136	20.716698
354.100910	-2.998600	3.907900	-11.718000	22.130079	0.000135	20.710755
355.101424	-2.988800	3.907300	-11.677000	22.152565	0.000135	20.699128
356.103327	-3.001100	3.907700	-11.726000	22.168325	0.000137	20.699259
357.097292	-3.011400	3.906300	-11.763000	22.141425	0.000135	20.708365
358.103203	-2.988200	3.907200	-11.675000	22.151819	0.000136	20.713555
359.104603	-3.014200	3.906400	-11.773000	22.141229	0.000136	20.704375
360.103111	-3.009300	3.906100	-11.754000	22.154299	0.000139	20.711296
361.104784	-2.996400	3.905900	-11.702000	22.143899	0.000137	20.698039
362.107420	-2.985300	3.907300	-11.664000	22.145129	0.000136	20.722505
363.106628	-3.005500	3.906000	-11.739000	22.159931	0.000140	20.707926
364.105538	-3.016000	3.907200	-11.783000	22.180749	0.000139	20.714071
365.107095	-3.003200	3.906200	-11.730000	22.207244	0.000140	20.710252
366.104415	-3.003300	3.906600	-11.732000	22.182175	0.000137	20.725457
367.108090	-2.970100	3.907300	-11.605000	22.203134	0.000139	20.704713
368.104763	-3.006200	3.905400	-11.740000	22.203733	0.000137	20.729023
369.115654	-3.022300	3.905100	-11.801000	22.210469	0.000139	20.710162
370.104809	-2.985400	3.905600	-11.659000	22.199557	0.000141	20.717255
371.109364	-3.000000	3.905700	-11.716000	22.243946	0.000141	20.728983
372.104779	-2.984400	3.904800	-11.653000	22.241806	0.000141	20.718778
373.108710	-2.988900	3.904600	-11.669000	22.220294	0.000139	20.720473
374.108732	-3.018000	3.905100	-11.785000	22.254597	0.000140	20.725897
375.112049	-3.008100	3.905000	-11.746000	22.247222	0.000139	20.728944
376.109364	-3.008200	3.904800	-11.746000	22.264673	0.000141	20.733615
377.109666	-3.016600	3.904900	-11.778000	22.260038	0.000141	20.723284
378.115499	-2.973600	3.904500	-11.610000	22.289695	0.000142	20.718840
379.109225	-2.977300	3.905100	-11.626000	22.265967	0.000141	20.723531
380.114120	-3.042600	3.901900	-11.871000	22.283373	0.000142	20.730528
381.111394	-3.007100	3.903800	-11.739000	22.262834	0.000142	20.725136
382.111106	-2.991900	3.904100	-11.680000	22.249701	0.000143	20.715304
383.112650	-2.995900	3.903200	-11.693000	22.251979	0.000142	20.716636
384.111727	-3.003000	3.903900	-11.722000	22.277525	0.000142	20.737949
385.115279	-2.991100	3.903100	-11.673000	22.266084	0.000142	20.712742
386.112328	-3.001200	3.903000	-11.712000	22.271621	0.000143	20.731089
387.110634	-3.027200	3.901800	-11.811000	22.265269	0.000143	20.733737
388.109679	-3.015600	3.902000	-11.766000	22.299142	0.000144	20.725455
389.110064	-3.029600	3.900900	-11.816000	22.287304	0.000142	20.758173
390.109667	-2.991200	3.902100	-11.671000	22.284967	0.000143	20.723589
391.110732	-3.008900	3.902500	-11.741000	22.272907	0.000144	20.748972
392.109354	-2.992900	3.901100	-11.674000	22.288060	0.000143	20.719099
393.109540	-2.998800	3.902300	-11.702000	22.297531	0.000142	20.728109
394.112044	-2.988100	3.902500	-11.660000	22.311863	0.000143	20.735348
395.111283	-2.994200	3.901100	-11.680000	22.314407	0.000144	20.730782
396.115370	-2.984900	3.901300	-11.644000	22.295737	0.000144	20.713510
397.112256	-2.982800	3.901400	-11.636000	22.326447	0.000146	20.731459
398.112041	-2.979800	3.901300	-11.623000	22.309299	0.000143	20.739893
399.114975	-2.986200	3.901800	-11.650000	22.309686	0.000143	20.747393
400.114698	-2.998700	3.900100	-11.694000	22.327338	0.000146	20.748947
401.112535	-3.001200	3.901100	-11.707000	22.339226	0.000146	20.735247
402.116458	-3.000600	3.899700	-11.700000	22.336486	0.000146	20.744357
403.113844	-3.016000	3.899500	-11.760000	22.354827	0.000147	20.744705
404.112102	-2.993800	3.899100	-11.672000	22.331599	0.000147	20.730928
405.114220	-3.008500	3.899600	-11.731000	22.352927	0.000146	20.754657
406.113935	-2.996200	3.899100	-11.682000	22.373193	0.000146	20.754087
407.114232	-3.015100	3.899200	-11.755000	22.393573	0.000146	20.755530
408.113897	-2.984700	3.900100	-11.640000	22.347144	0.000148	20.741279
409.115816	-2.992400	3.898500	-11.665000	22.339190	0.000147	20.748962
410.113969	-3.030400	3.897500	-11.810000	22.351925	0.000149	20.746540
411.113967	-3.014700	3.898700	-11.753000	22.347789	0.000149	20.754727
412.117576	-2.999300	3.898600	-11.692000	22.354438	0.000147	20.758066
413.112695	-2.998900	3.898500	-11.691000	22.368568	0.000150	20.767000
414.118051	-3.037000	3.896700	-11.834000	22.371157	0.000150	20.750626
415.118316	-3.009200	3.897000	-11.726000	22.383190	0.000150	20.750822
416.118255	-2.993500	3.897400	-11.666000	22.387130	0.000149	20.753345
417.117981	-2.977500	3.898500	-11.607000	22.390570	0.000150	20.749677
418.117523	-2.993700	3.897500	-11.667000	22.408809	0.000149	20.749924
419.118410	-2.991400	3.898200	-11.660000	22.397995	0.000148	20.756164
420.120496	-3.003500	3.896900	-11.703000	22.428892	0.000150	20.761975
421.119778	-3.001900	3.896600	-11.697000	22.412370	0.000149	20.767241
422.116161	-3.003700	3.897200	-11.706000	22.410572	0.000153	20.765915
423.118266	-3.004900	3.897200	-11.710000	22.406809	0.000151	20.753137
424.119569	-2.992800	3.896400	-11.660000	22.406462	0.000151	20.745203
425.119601	-2.987400	3.896300	-11.639000	22.414405	0.000153	20.759795
426.117039	-2.979800	3.896000	-11.609000	22.430604	0.000151	20.751361
427.120743	-3.011000	3.897000	-11.733000	22.411665	0.000152	20.758474
428.119723	-3.017200	3.895300	-11.752000	22.423219	0.000154	20.761984
429.121485	-2.999400	3.894500	-11.679000	22.408667	0.000155	20.753575
430.124733	-3.007400	3.894900	-11.712000	22.409211	0.000151	20.747956
431.118676	-2.988100	3.896200	-11.642000	22.412284	0.000153	20.752930
432.125690	-3.017800	3.894700	-11.752000	22.443649	0.000152	20.746407
433.121614	-3.008500	3.895100	-11.718000	22.442828	0.000154	20.757913
434.123953	-3.014000	3.895300	-11.740000	22.469317	0.000155	20.772587
435.123368	-2.982800	3.894700	-11.617000	22.453244	0.000154	20.759336
436.122082	-2.999500	3.894100	-11.680000	22.448681	0.000154	20.750498
437.122625	-2.992200	3.894000	-11.651000	22.454085	0.000155	20.769661
438.129634	-3.003200	3.893900	-11.693000	22.457002	0.000153	20.768314
439.125891	-3.033600	3.892500	-11.808000	22.457344	0.000155	20.751587
440.121783	-2.993500	3.895200	-11.659000	22.478181	0.000155	20.761076
441.126974	-2.985900	3.894000	-11.626000	22.461635	0.000154	20.768213
442.124680	-2.988500	3.895600	-11.641000	22.476363	0.000156	20.763522
443.127038	-2.988700	3.893700	-11.636000	22.489917	0.000156	20.747224
444.125080	-3.018600	3.892900	-11.751000	22.469463	0.000155	20.766095
445.127105	-2.991900	3.893800	-11.649000	22.497669	0.000156	20.773954
446.124976	-3.007400	3.892900	-11.707000	22.501613	0.000158	20.766998
447.127423	-3.006000	3.891700	-11.698000	22.521966	0.000155	20.764622
448.130049	-3.004900	3.892500	-11.696000	22.523164	0.000157	20.769142
449.131017	-2.995600	3.892100	-11.657000	22.515670	0.000160	20.761636
450.129011	-3.019500	3.891800	-11.751000	22.476248	0.000159	20.780003
451.125133	-3.004000	3.892000	-11.690000	22.491973	0.000157	20.783423
452.128667	-3.010400	3.892300	-11.716000	22.491726	0.000159	20.780805
453.126892	-3.000900	3.891300	-11.677000	22.486045	0.000158	20.785072
454.129525	-3.007400	3.891200	-11.701000	22.479739	0.000159	20.773541
455.125881	-3.003100	3.889100	-11.678000	22.502414	0.000157	20.774439
456.130204	-3.018000	3.889700	-11.739000	22.524198	0.000161	20.777289
457.133854	-3.004400	3.890800	-11.688000	22.511309	0.000159	20.797097
458.132936	-2.990900	3.891300	-11.637000	22.543628	0.000161	20.799120
459.132570	-3.006600	3.889000	-11.692000	22.529400	0.000161	20.780603
460.131599	-3.016900	3.890400	-11.735000	22.527425	0.000162	20.761555
461.128845	-3.006000	3.889900	-11.693000	22.545567	0.000159	20.772612
462.129384	-3.000700	3.889900	-11.671000	22.516466	0.000163	20.771917
463.129800	-2.990100	3.888200	-11.625000	22.527974	0.000161	20.773959
464.130925	-3.005900	3.887800	-11.686000	22.533031	0.000160	20.776653
465.135913	-3.011600	3.889100	-11.712000	22.544116	0.000164	20.783488
466.133052	-3.018600	3.888300	-11.737000	22.527199	0.000161	20.795468
467.131495	-3.000800	3.889200	-11.669000	22.560691	0.000164	20.776855
468.132280	-2.991200	3.889000	-11.632000	22.583038	0.000162	20.775528
469.133283	-2.990200	3.888100	-11.626000	22.582796	0.000162	20.788563
470.132851	-3.005900	3.888100	-11.686000	22.594677	0.000164	20.782444
471.138055	-3.020100	3.888300	-11.743000	22.585763	0.000164	20.773516
472.136583	-3.013500	3.887400	-11.714000	22.581502	0.000164	20.776835
473.133102	-3.006000	3.887200	-11.684000	22.577312	0.000165	20.810570
474.137396	-3.016000	3.887200	-11.723000	22.578636	0.000164	20.780129
475.141315	-3.023300	3.886800	-11.750000	22.564787	0.000165	20.810354
476.134756	-3.020300	3.888200	-11.742000	22.596626	0.000164	20.777284
477.134317	-3.030600	3.886100	-11.776000	22.593192	0.000164	20.802767
478.135302	-2.999900	3.887400	-11.661000	22.598122	0.000165	20.799645
479.134301	-2.997300	3.886500	-11.648000	22.601738	0.000164	20.795680
480.138526	-3.030000	3.886100	-11.774000	22.602212	0.000168	20.810853
481.135749	-3.012200	3.884800	-11.700000	22.572090	0.000167	20.792064
482.138638	-2.974200	3.886200	-11.557000	22.598102	0.000166	20.803892
483.140156	-2.989300	3.885200	-11.613000	22.634629	0.000167	20.800649
484.138643	-3.003200	3.885000	-11.667000	22.610139	0.000167	20.802672
485.140944	-3.008800	3.886200	-11.692000	22.653515	0.000166	20.798702
486.137568	-2.996900	3.883800	-11.639000	22.636946	0.000165	20.812926
487.139728	-2.984000	3.884900	-11.591000	22.622498	0.000171	20.810309
488.144046	-2.981600	3.884900	-11.582000	22.627302	0.000167	20.799948
489.139097	-3.001600	3.883000	-11.654000	22.617940	0.000169	20.787252
490.149138	-2.999600	3.884200	-11.650000	22.641408	0.000169	20.797955
491.142390	-2.994300	3.883500	-11.628000	22.633809	0.000167	20.791292
492.142951	-2.987000	3.885000	-11.603000	22.659145	0.000168	20.810031
493.143466	-2.980600	3.883500	-11.574000	22.653792	0.000168	20.797557
494.142431	-2.979600	3.882500	-11.567000	22.648756	0.000168	20.822384
495.142936	-2.981400	3.882800	-11.576000	22.645915	0.000170	20.811953
496.146922	-2.992200	3.883000	-11.618000	22.662736	0.000168	20.799877
497.140263	-2.992500	3.882500	-11.618000	22.654739	0.000170	20.814152
498.141377	-2.999800	3.882900	-11.647000	22.657534	0.000170	20.805573
499.147795	-2.977500	3.881500	-11.556000	22.664383	0.000168	20.817174
500.141236	-2.994900	3.881300	-11.623000	22.648565	0.000171	20.798960
501.147449	-3.018200	3.881800	-11.715000	22.661074	0.000172	20.835197
502.139792	-2.998200	3.881800	-11.638000	22.666110	0.000170	20.821275
503.142335	-2.988400	3.880500	-11.595000	22.681404	0.000172	20.813835
504.143359	-2.990100	3.879800	-11.600000	22.688359	0.000170	20.812266
505.143843	-2.994700	3.881800	-11.624000	22.704705	0.000170	20.828166
506.144248	-3.003200	3.880700	-11.653000	22.694045	0.000173	20.826496
507.145236	-3.005400	3.879700	-11.658000	22.680861	0.000172	20.818032
508.145648	-3.001700	3.880900	-11.648000	22.686768	0.000170	20.822526
509.146228	-2.989200	3.879300	-11.595000	22.702092	0.000170	20.815117
510.145608	-3.004900	3.878300	-11.654000	22.712637	0.000172	20.809084
511.152071	-3.002500	3.880400	-11.650000	22.756312	0.000171	20.810633
512.147579	-2.994500	3.879700	-11.617000	22.759454	0.000174	20.828479
513.144718	-3.010400	3.877700	-11.673000	22.734739	0.000171	20.825059
514.148083	-2.993900	3.878900	-11.612000	22.752858	0.000174	20.828984
515.144884	-2.999700	3.877800	-11.631000	22.739800	0.000174	20.828232
516.149237	-3.007000	3.877200	-11.658000	22.744735	0.000174	20.859727
517.146025	-3.021400	3.876600	-11.712000	22.754051	0.000171	20.838240
518.149151	-2.993900	3.877700	-11.609000	22.756967	0.000172	20.820772
519.150091	-2.999300	3.878000	-11.630000	22.762924	0.000173	20.844283
520.150196	-2.994500	3.877800	-11.611000	22.758740	0.000174	20.844358
521.150428	-2.988000	3.878200	-11.587000	22.766610	0.000177	20.825216
522.153456	-3.015000	3.876300	-11.686000	22.774889	0.000174	20.839673
523.152227	-3.001400	3.876200	-11.633000	22.772371	0.000176	20.842366
524.150412	-2.996600	3.876100	-11.614000	22.787352	0.000174	20.843149
525.151855	-3.005800	3.876200	-11.650000	22.790438	0.000176	20.838654
526.151682	-2.998200	3.875400	-11.618000	22.788525	0.000178	20.841479
527.159363	-3.008600	3.875800	-11.659000	22.772508	0.000174	20.850564
528.151784	-3.019400	3.875600	-11.701000	22.782518	0.000176	20.851108
529.153147	-2.980800	3.875500	-11.551000	22.783767	0.000177	20.848566
530.154787	-2.990600	3.875400	-11.589000	22.791889	0.000177	20.836788
531.156047	-2.992800	3.874100	-11.593000	22.778963	0.000175	20.832849
532.154319	-3.013400	3.873400	-11.671000	22.784472	0.000178	20.853066
533.153654	-2.999200	3.875500	-11.622000	22.790152	0.000178	20.840264
534.156536	-2.998200	3.874500	-11.615000	22.773440	0.000177	20.845808
535.156874	-3.003900	3.873800	-11.636000	22.794322	0.000177	20.852976
536.156199	-2.975500	3.875300	-11.530000	22.773667	0.000179	20.843664
537.156540	-2.988600	3.873600	-11.576000	22.809942	0.000178	20.855346
538.157713	-2.984900	3.873600	-11.561000	22.829303	0.000178	20.844396
539.154914	-3.001500	3.873100	-11.624000	22.807505	0.000179	20.857173
540.154994	-2.996300	3.872100	-11.601000	22.831891	0.000180	20.851730
541.155692	-2.986700	3.873000	-11.567000	22.815773	0.000179	20.841274
542.156006	-3.017000	3.870900	-11.678000	22.817047	0.000178	20.860093
543.156005	-2.997000	3.871500	-11.603000	22.825642	0.000178	20.834566
544.157653	-2.998500	3.871600	-11.608000	22.822727	0.000177	20.847292
545.158529	-3.009500	3.869200	-11.643000	22.853920	0.000178	20.874746
546.158224	-2.991600	3.872200	-11.583000	22.852173	0.000178	20.849763
547.158462	-3.018200	3.870900	-11.682000	22.846916	0.000177	20.861092
548.159820	-3.009300	3.871200	-11.649000	22.827953	0.000177	20.860587
549.163658	-3.016100	3.870600	-11.672000	22.859253	0.000176	20.842157
550.161179	-3.016000	3.869800	-11.670000	22.853019	0.000177	20.858197
551.156697	-2.996200	3.871000	-11.598000	22.847062	0.000177	20.860764
552.162662	-3.013100	3.870400	-11.661000	22.852590	0.000177	20.853500
553.157662	-3.000400	3.869400	-11.609000	22.842102	0.000178	20.833985
554.163628	-2.997000	3.868900	-11.594000	22.853159	0.000177	20.852174
555.160521	-2.992800	3.868400	-11.576000	22.869850	0.000176	20.848033
556.159442	-2.968700	3.870500	-11.489000	22.861703	0.000177	20.827544
557.162338	-3.005900	3.867700	-11.625000	22.824237	0.000177	20.816089
558.158056	-2.992400	3.868000	-11.574000	22.847726	0.000179	20.856214
559.161280	-2.988800	3.868400	-11.561000	22.850767	0.000178	20.831286
560.156789	-2.994700	3.867100	-11.580000	22.847726	0.000177	20.822550
561.162006	-2.997000	3.867100	-11.588000	22.841971	0.000179	20.838595
562.161878	-2.977100	3.868400	-11.516000	22.877815	0.000179	20.844632
563.159838	-3.004200	3.867200	-11.617000	22.900855	0.000180	20.828835
564.161737	-2.988200	3.868100	-11.557000	22.915975	0.000177	20.832128
565.163079	-3.008200	3.866700	-11.631000	22.887824	0.000179	20.825737
566.162827	-2.997700	3.866100	-11.589000	22.858828	0.000180	20.822292
567.159985	-3.003200	3.866000	-11.608000	22.868148	0.000179	20.830206
568.164785	-3.008500	3.864600	-11.626000	22.875967	0.000180	20.824764
569.163986	-2.994600	3.866400	-11.578000	22.884587	0.000179	20.827710
570.162924	-3.000900	3.865800	-11.600000	22.914423	0.000179	20.826781
571.161231	-3.009800	3.865100	-11.631000	22.891213	0.000178	20.834822
572.164778	-3.006800	3.865100	-11.621000	22.897708	0.000180	20.815724
573.163576	-3.014600	3.863600	-11.646000	22.905949	0.000179	20.815921
574.164944	-2.992000	3.865400	-11.564000	22.948373	0.000180	20.834241
575.167089	-2.993500	3.864600	-11.567000	22.925480	0.000178	20.826004
576.161897	-2.981600	3.863300	-11.518000	22.940594	0.000180	20.816491
577.164737	-3.004800	3.863000	-11.606000	22.937880	0.000179	20.810453
578.169826	-2.987800	3.863100	-11.541000	22.936581	0.000181	20.818634
579.168036	-2.997900	3.862900	-11.580000	22.939577	0.000180	20.827800
580.172548	-3.001200	3.861500	-11.589000	22.960994	0.000182	20.823179
581.169671	-2.983000	3.862000	-11.519000	22.921542	0.000181	20.831542
582.166034	-2.995300	3.862200	-11.567000	22.931355	0.000181	20.830468
583.166169	-2.984700	3.863200	-11.529000	22.918767	0.000178	20.805529
584.169845	-3.011200	3.861400	-11.627000	22.952526	0.000179	20.823704
585.169889	-2.975300	3.861200	-11.488000	22.940568	0.000180	20.809353
586.168648	-3.009800	3.860500	-11.618000	22.943977	0.000179	20.804233
587.168121	-3.000300	3.860000	-11.580000	22.936404	0.000182	20.812768
588.169244	-3.010700	3.860500	-11.622000	22.952168	0.000179	20.827612
589.170708	-2.966700	3.859800	-11.450000	22.961834	0.000182	20.807900
590.168655	-3.002000	3.858300	-11.582000	22.960415	0.000180	20.809797
591.170568	-2.994900	3.858300	-11.554000	22.934707	0.000180	20.801585
592.170829	-2.982200	3.857900	-11.504000	22.929034	0.000180	20.808228
593.173349	-2.995600	3.857800	-11.556000	22.923425	0.000180	20.813514
594.172780	-2.975400	3.858600	-11.480000	22.949359	0.000181	20.803936
595.174281	-2.986800	3.858000	-11.523000	22.945024	0.000180	20.800541
596.173186	-2.976100	3.858300	-11.482000	22.955290	0.000180	20.809404
597.169071	-2.979600	3.857100	-11.492000	22.967413	0.000179	20.806377
598.173689	-2.994500	3.858300	-11.553000	23.004502	0.000180	20.807502
599.174241	-3.020900	3.855000	-11.645000	22.991025	0.000179	20.793050
600.173065	-3.012900	3.855600	-11.616000	22.983206	0.000179	20.799915
601.180572	-3.009600	3.857400	-11.607000	23.008786	0.000180	20.803259
602.171281	-3.013700	3.855900	-11.619000	23.027388	0.000182	20.793922
603.175244	-2.996100	3.854900	-11.549000	23.018246	0.000181	20.797564
604.179798	-2.996200	3.855800	-11.552000	23.006465	0.000183	20.800460
605.175560	-3.020400	3.854200	-11.640000	23.005709	0.000183	20.792116
606.175170	-3.037600	3.854200	-11.705000	23.018064	0.000183	20.785054
607.176844	-2.989100	3.856100	-11.525000	23.025510	0.000181	20.786824
608.174109	-3.002000	3.855500	-11.573000	23.030710	0.000182	20.803889
609.177578	-2.987000	3.854300	-11.511000	23.010507	0.000182	20.796922
610.176362	-2.990200	3.854000	-11.523000	23.009837	0.000182	20.788665
611.178826	-2.983800	3.855400	-11.503000	22.993591	0.000180	20.786138
612.178259	-2.987600	3.853300	-11.511000	22.999813	0.000182	20.796165
613.178761	-2.984500	3.853100	-11.499000	23.013461	0.000183	20.781391
614.178428	-2.984100	3.854400	-11.501000	23.022080	0.000183	20.782440
615.180583	-3.003400	3.853800	-11.574000	23.040530	0.000182	20.784331
616.178390	-3.000600	3.852400	-11.559000	23.024864	0.000184	20.774323
617.177383	-3.018800	3.851600	-11.627000	23.029646	0.000181	20.782435
618.179271	-3.021500	3.851900	-11.638000	23.017589	0.000181	20.786475
619.175665	-2.985100	3.851600	-11.496000	23.007369	0.000181	20.778131
620.181367	-3.007100	3.850400	-11.577000	22.990111	0.000183	20.784073
621.175969	-3.009200	3.850200	-11.585000	23.007469	0.000183	20.790086
622.181472	-2.985400	3.851400	-11.497000	23.036135	0.000183	20.798419
623.182335	-2.985100	3.851100	-11.495000	23.018953	0.000184	20.782626
624.181598	-2.994900	3.850000	-11.529000	23.039005	0.000182	20.778061
625.182436	-3.019900	3.849700	-11.625000	23.032898	0.000183	20.757243
626.179715	-3.003100	3.848500	-11.557000	23.039845	0.000183	20.790757
627.182874	-3.002300	3.850000	-11.558000	23.053372	0.000185	20.769223
628.185840	-3.018100	3.848900	-11.615000	23.056800	0.000185	20.762700
629.182012	-2.993500	3.849300	-11.522000	23.024027	0.000183	20.776330
630.183639	-3.003600	3.846600	-11.553000	23.040293	0.000185	20.758488
631.187294	-2.996400	3.847300	-11.527000	23.010354	0.000183	20.770216
632.180952	-3.017200	3.847400	-11.607000	23.019782	0.000184	20.778715
633.187249	-2.995200	3.847300	-11.522000	23.073886	0.000182	20.761328
634.183352	-3.005500	3.847300	-11.562000	23.078492	0.000186	20.777798
635.184503	-3.002500	3.846200	-11.548000	23.075476	0.000184	20.758180
636.182867	-3.012400	3.845400	-11.582000	23.041083	0.000184	20.761651
637.183548	-2.997000	3.846600	-11.527000	23.030742	0.000183	20.751764
638.186693	-3.018400	3.846300	-11.608000	23.030913	0.000185	20.754306
639.184827	-2.989900	3.844200	-11.492000	23.023941	0.000183	20.753009
640.184293	-3.012500	3.846000	-11.585000	23.012603	0.000185	20.760142
641.184360	-3.019300	3.845400	-11.609000	23.024036	0.000185	20.755950
642.185444	-2.996600	3.844600	-11.519000	23.072828	0.000186	20.751733
643.189881	-3.006200	3.843700	-11.554000	23.085972	0.000183	20.763481
644.188499	-3.004500	3.844200	-11.548000	23.097273	0.000183	20.761528
645.189583	-2.974000	3.843500	-11.429000	23.100344	0.000183	20.763183
646.188680	-2.983600	3.843500	-11.467000	23.106938	0.000183	20.738496
647.188508	-2.996600	3.843400	-11.516000	23.119185	0.000182	20.772580
648.190134	-3.002300	3.842600	-11.536000	23.091942	0.000183	20.751445
649.194864	-3.015800	3.841400	-11.584000	23.123217	0.000183	20.752438
650.193155	-3.011000	3.841300	-11.565000	23.136718	0.000184	20.760277
651.192182	-2.991400	3.842100	-11.492000	23.137967	0.000183	20.760106
652.194908	-3.007400	3.840200	-11.549000	23.126952	0.000183	20.752862
653.193451	-3.002500	3.840200	-11.530000	23.122669	0.000183	20.755207
654.196153	-3.004000	3.840800	-11.537000	23.136965	0.000183	20.751515
655.195849	-3.005900	3.840300	-11.542000	23.106998	0.000182	20.748987
656.198180	-3.000400	3.840800	-11.523000	23.096195	0.000181	20.740533
657.196898	-3.004500	3.838800	-11.531000	23.113925	0.000184	20.758774
658.199618	-3.004900	3.840400	-11.539000	23.124783	0.000182	20.744997
659.194113	-3.015200	3.837800	-11.571000	23.099578	0.000182	20.760045
660.196576	-3.001700	3.837200	-11.518000	23.113245	0.000182	20.741970
661.198244	-3.000500	3.838600	-11.517000	23.102089	0.000180	20.748811
662.196512	-2.980100	3.837200	-11.435000	23.109484	0.000182	20.736306
663.201353	-3.011300	3.837400	-11.555000	23.132469	0.000182	20.738949
664.198532	-3.001000	3.838600	-11.519000	23.147031	0.000184	20.730307
665.200218	-3.001300	3.837500	-11.516000	23.134533	0.000182	20.731533
666.200276	-2.992000	3.836900	-11.479000	23.130344	0.000181	20.741087
667.200596	-3.008700	3.835000	-11.537000	23.126483	0.000183	20.752866
668.200967	-2.996300	3.836200	-11.493000	23.107858	0.000184	20.732305
669.201674	-2.990700	3.836700	-11.474000	23.104565	0.000182	20.738963
670.201240	-2.990700	3.835200	-11.469000	23.133601	0.000183	20.733919
671.198251	-2.980500	3.836100	-11.432000	23.127973	0.000182	20.746298
672.202307	-3.008100	3.835200	-11.536000	23.104409	0.000182	20.739755
673.203430	-3.003500	3.834800	-11.517000	23.151078	0.000182	20.745743
674.206050	-2.992200	3.833800	-11.471000	23.158145	0.000182	20.724848
675.205065	-2.998300	3.833100	-11.492000	23.129155	0.000184	20.742267
676.205508	-3.013400	3.832800	-11.549000	23.151445	0.000180	20.716237
677.203011	-2.997900	3.833500	-11.492000	23.143466	0.000179	20.738115
678.204167	-2.997300	3.833800	-11.490000	23.112166	0.000181	20.738993
679.201747	-2.987600	3.831900	-11.447000	23.123965	0.000182	20.719521
680.202554	-3.002900	3.832700	-11.509000	23.120849	0.000181	20.736788
681.206923	-2.972000	3.832600	-11.390000	23.153272	0.000182	20.741777
682.205758	-2.992100	3.830900	-11.461000	23.162463	0.000182	20.727753
683.208046	-3.011700	3.832100	-11.540000	23.155859	0.000180	20.734886
684.213140	-3.012900	3.831500	-11.543000	23.167884	0.000180	20.709002
685.211037	-3.025500	3.828900	-11.583000	23.175354	0.000183	20.727869
686.205855	-3.021400	3.828500	-11.566000	23.198206	0.000182	20.720423
687.208290	-2.990400	3.829500	-11.451000	23.216191	0.000180	20.703831
688.206832	-3.017100	3.830600	-11.556000	23.208918	0.000180	20.728312
689.206481	-3.007900	3.828700	-11.515000	23.244222	0.000180	20.712008
690.211174	-2.995300	3.829700	-11.470000	23.218546	0.000180	20.716624
691.208233	-3.020600	3.828500	-11.564000	23.226585	0.000179	20.702867
692.208407	-3.000300	3.827700	-11.484000	23.204915	0.000180	20.731414
693.207405	-3.007800	3.827300	-11.511000	23.194753	0.000177	20.709849
694.204769	-2.995100	3.827000	-11.461000	23.169398	0.000178	20.716684
695.209498	-2.994100	3.828700	-11.462000	23.173475	0.000179	20.720770
696.205867	-2.996900	3.825200	-11.463000	23.179304	0.000178	20.707170
697.208697	-2.997000	3.826500	-11.467000	23.183779	0.000178	20.698851
698.209479	-3.001800	3.828100	-11.490000	23.213436	0.000177	20.707235
699.210484	-3.014000	3.826700	-11.533000	23.207381	0.000179	20.721082
700.211049	-3.008500	3.824600	-11.505000	23.209142	0.000179	20.711941
701.216870	-3.000000	3.825600	-11.476000	23.233273	0.000177	20.716209
702.209655	-3.006700	3.825200	-11.500000	23.220719	0.000177	20.700782
703.213154	-3.013700	3.824800	-11.526000	23.185701	0.000179	20.697932
704.213918	-3.004700	3.823500	-11.488000	23.210234	0.000178	20.709242
705.214051	-3.003200	3.823700	-11.482000	23.163759	0.000176	20.711507
706.218746	-3.000500	3.824200	-11.473000	23.189411	0.000176	20.695959
707.212003	-3.004000	3.823300	-11.484000	23.162561	0.000176	20.691338
708.209975	-3.013100	3.821800	-11.514000	23.167192	0.000176	20.704041
709.212892	-2.981000	3.823800	-11.397000	23.193065	0.000177	20.703415
710.215435	-2.981900	3.823800	-11.402000	23.198894	0.000179	20.701670
711.216568	-2.996400	3.822800	-11.453000	23.180486	0.000176	20.699818
712.216176	-3.003900	3.822000	-11.480000	23.190598	0.000175	20.691934
713.215237	-2.998200	3.821500	-11.457000	23.209550	0.000176	20.707133
714.219477	-3.001500	3.821900	-11.471000	23.192838	0.000176	20.706033
715.217216	-2.989900	3.819700	-11.420000	23.215132	0.000180	20.706089
716.218372	-2.976200	3.820800	-11.370000	23.243565	0.000177	20.691908
717.217587	-2.988900	3.820400	-11.417000	23.259209	0.000175	20.701897
718.215038	-2.991600	3.820200	-11.427000	23.287098	0.000178	20.695233
719.218508	-2.999800	3.819500	-11.457000	23.284008	0.000178	20.685023
720.217485	-2.983700	3.819100	-11.394000	23.270811	0.000176	20.706886
721.219044	-2.993200	3.817900	-11.427000	23.246309	0.000177	20.689442
722.221498	-2.996100	3.819700	-11.444000	23.188212	0.000174	20.697130
723.218507	-2.996700	3.819400	-11.444000	23.208684	0.000176	20.689669
724.221255	-3.022400	3.817200	-11.535000	23.243143	0.000174	20.682949
725.220887	-3.023900	3.816400	-11.540000	23.246555	0.000172	20.692534
726.220421	-3.016200	3.815700	-11.508000	23.229225	0.000174	20.684175
727.221087	-3.001300	3.817300	-11.456000	23.254332	0.000175	20.681835
728.219921	-3.012300	3.815700	-11.493000	23.272502	0.000174	20.701942
729.222404	-2.993900	3.815900	-11.424000	23.291205	0.000175	20.699824
730.222375	-3.023000	3.815300	-11.533000	23.305051	0.000174	20.696156
731.219351	-2.997300	3.814900	-11.434000	23.269890	0.000175	20.686995
732.223059	-2.996500	3.816400	-11.435000	23.277832	0.000175	20.671720
733.223146	-3.006600	3.813900	-11.465000	23.301236	0.000175	20.679055
734.221627	-2.995200	3.814500	-11.424000	23.313114	0.000175	20.680053
735.224527	-3.009900	3.814200	-11.479000	23.310054	0.000174	20.685996
736.222046	-2.991100	3.814500	-11.409000	23.296757	0.000174	20.672194
737.228565	-3.001100	3.812600	-11.441000	23.287219	0.000173	20.686344
738.226560	-3.013800	3.811700	-11.487000	23.288714	0.000175	20.672668
739.227580	-3.011000	3.810900	-11.474000	23.276961	0.000175	20.669899
740.229364	-3.000600	3.812100	-11.438000	23.265954	0.000176	20.679731
741.227890	-3.006600	3.812100	-11.461000	23.253355	0.000173	20.683227
742.223979	-2.999900	3.811000	-11.432000	23.261872	0.000171	20.679907
743.231102	-3.013000	3.811200	-11.483000	23.243490	0.000176	20.680926
744.225008	-3.008100	3.811400	-11.464000	23.280771	0.000174	20.683201
745.224954	-3.009900	3.810000	-11.467000	23.270186	0.000173	20.681128
746.225978	-3.010700	3.810300	-11.470000	23.282266	0.000173	20.696555
747.230368	-3.013000	3.810300	-11.478000	23.282860	0.000175	20.674388
748.226374	-3.002700	3.810100	-11.439000	23.272104	0.000172	20.674040
749.227647	-2.962600	3.811400	-11.291000	23.277328	0.000173	20.675009
750.228853	-2.993000	3.808200	-11.397000	23.280942	0.000172	20.685270
751.228728	-2.984100	3.809500	-11.367000	23.307608	0.000174	20.693502
752.231801	-2.991100	3.808000	-11.388000	23.312263	0.000173	20.680623
753.229969	-2.975400	3.808400	-11.331000	23.289353	0.000172	20.678525
754.232898	-2.994400	3.808200	-11.403000	23.281113	0.000172	20.684967
755.229697	-3.022600	3.806400	-11.505000	23.278944	0.000173	20.690380
756.231872	-3.011900	3.806500	-11.464000	23.314769	0.000175	20.659425
757.232798	-2.992700	3.807100	-11.392000	23.312429	0.000170	20.709241
758.236324	-2.988200	3.806300	-11.373000	23.327140	0.000171	20.663764
759.234066	-3.005600	3.804600	-11.434000	23.347287	0.000173	20.676845
760.229955	-3.012300	3.804900	-11.461000	23.323034	0.000173	20.684306
761.233589	-2.995000	3.804600	-11.394000	23.337624	0.000170	20.692291
762.231202	-3.005500	3.804500	-11.434000	23.378657	0.000171	20.679362
763.236962	-2.984300	3.804500	-11.353000	23.376966	0.000172	20.668183
764.234903	-3.006800	3.803400	-11.435000	23.389985	0.000169	20.678862
765.231825	-3.004300	3.803800	-11.427000	23.358883	0.000172	20.667602
766.234856	-2.998500	3.803600	-11.405000	23.326491	0.000171	20.691091
767.235455	-3.016900	3.802700	-11.471000	23.338017	0.000171	20.670397
768.237417	-2.993200	3.802500	-11.380000	23.364957	0.000170	20.668949
769.231422	-3.013000	3.801000	-11.451000	23.346975	0.000169	20.683170
770.235156	-2.976000	3.802800	-11.316000	23.363236	0.000171	20.710376
771.235170	-2.995100	3.801700	-11.386000	23.366502	0.000171	20.662911
772.235385	-3.002900	3.802000	-11.417000	23.363634	0.000171	20.676158
773.238670	-2.998300	3.800500	-11.394000	23.369361	0.000169	20.681899
774.236144	-2.984500	3.802200	-11.347000	23.341469	0.000169	20.662003
775.236992	-3.012400	3.801400	-11.451000	23.324015	0.000169	20.669166
776.236895	-2.996400	3.800900	-11.388000	23.308775	0.000168	20.676178
777.234982	-3.001700	3.799200	-11.403000	23.319435	0.000168	20.682121
778.235096	-2.989000	3.799800	-11.356000	23.328645	0.000169	20.673333
779.238363	-2.983200	3.798700	-11.331000	23.344806	0.000168	20.671512
780.235836	-3.024700	3.798600	-11.489000	23.339400	0.000168	20.690278
781.237322	-3.030800	3.797400	-11.508000	23.321151	0.000170	20.706128
782.237879	-2.983300	3.799000	-11.332000	23.342445	0.000166	20.686691
783.238393	-3.027300	3.798100	-11.497000	23.325756	0.000169	20.687034
784.239370	-3.003200	3.798200	-11.406000	23.338484	0.000167	20.671815
785.238381	-3.014800	3.798000	-11.450000	23.345214	0.000167	20.681405
786.240302	-2.997200	3.796000	-11.377000	23.353981	0.000168	20.679760
787.240400	-2.983500	3.797300	-11.329000	23.357710	0.000168	20.680179
788.242031	-2.990200	3.796800	-11.352000	23.349225	0.000167	20.694435
789.240479	-2.978900	3.797000	-11.310000	23.372557	0.000167	20.687474
790.241176	-2.986000	3.796800	-11.336000	23.338450	0.000165	20.669409
791.242172	-2.993600	3.794800	-11.358000	23.343654	0.000166	20.693593
792.245929	-2.989500	3.794900	-11.344000	23.364449	0.000169	20.700212
793.243740	-3.001200	3.794600	-11.388000	23.363081	0.000164	20.665646
794.248211	-3.013400	3.794300	-11.433000	23.354691	0.000168	20.681420
795.244955	-3.010300	3.794300	-11.422000	23.369482	0.000167	20.702411
796.242943	-2.988900	3.793800	-11.338000	23.357686	0.000167	20.698174
797.244186	-3.015700	3.792700	-11.437000	23.375139	0.000165	20.699546
798.242242	-3.006400	3.792800	-11.402000	23.388366	0.000165	20.665384
799.247458	-2.995200	3.793100	-11.361000	23.384209	0.000165	20.717172
800.244067	-3.008600	3.792000	-11.408000	23.393071	0.000165	20.666307
801.243808	-2.995700	3.792800	-11.361000	23.397631	0.000165	20.669929
802.245663	-2.981400	3.792500	-11.306000	23.397309	0.000166	20.687152
803.246232	-2.982200	3.791700	-11.306000	23.381501	0.000166	20.682213
804.249407	-3.008700	3.791700	-11.406000	23.357349	0.000166	20.709217
805.247255	-2.994700	3.791900	-11.355000	23.360660	0.000162	20.677920
806.246937	-2.969600	3.790300	-11.255000	23.350504	0.000164	20.705201
807.246618	-2.990400	3.791100	-11.336000	23.363479	0.000163	20.702084
808.248366	-3.016500	3.789400	-11.429000	23.369528	0.000163	20.699612
809.248349	-2.995400	3.788800	-11.348000	23.355437	0.000163	20.714413
810.250653	-3.002600	3.790100	-11.379000	23.373439	0.000163	20.703532
811.247685	-3.017700	3.789800	-11.435000	23.353424	0.000164	20.687263
812.247711	-2.988900	3.788500	-11.323000	23.330569	0.000164	20.693281
813.250191	-3.010500	3.789400	-11.406000	23.319537	0.000166	20.692656
814.248375	-2.997000	3.789500	-11.356000	23.314806	0.000162	20.692182
815.251772	-2.998400	3.788000	-11.357000	23.313744	0.000163	20.695859
816.246863	-2.993300	3.788100	-11.338000	23.336378	0.000163	20.705268
817.247903	-3.028800	3.786600	-11.468000	23.357692	0.000162	20.675893
818.247348	-3.001200	3.786700	-11.364000	23.317423	0.000160	20.695753
819.250376	-2.998500	3.788400	-11.359000	23.323584	0.000159	20.702877
820.249043	-2.994800	3.786800	-11.340000	23.348507	0.000162	20.703199
821.251514	-3.006400	3.786000	-11.381000	23.350102	0.000163	20.701005
822.248104	-3.036400	3.784800	-11.491000	23.353092	0.000161	20.701631
823.249465	-3.015300	3.784800	-11.412000	23.334345	0.000158	20.709394
824.250831	-3.004600	3.784000	-11.368000	23.335613	0.000160	20.704975
825.248583	-2.999000	3.783800	-11.345000	23.337404	0.000162	20.713884
826.248561	-2.983700	3.785200	-11.293000	23.404084	0.000158	20.700107
827.247979	-3.008500	3.784000	-11.383000	23.416313	0.000161	20.704304
828.249469	-2.986500	3.783000	-11.297000	23.444792	0.000159	20.708194
829.246248	-3.002300	3.782400	-11.355000	23.422342	0.000159	20.726470
830.249062	-2.989500	3.784000	-11.311000	23.420450	0.000161	20.715564
831.248378	-3.010900	3.782800	-11.389000	23.451616	0.000157	20.720724
832.248911	-2.986400	3.782200	-11.294000	23.456850	0.000159	20.716961
833.249106	-3.030900	3.780300	-11.457000	23.461278	0.000160	20.712391
834.248098	-2.999400	3.782100	-11.343000	23.449427	0.000157	20.719479
835.253295	-2.984900	3.781400	-11.286000	23.417113	0.000158	20.711745
836.253694	-3.004400	3.780900	-11.358000	23.429609	0.000158	20.725219
837.249767	-2.993700	3.781900	-11.321000	23.421270	0.000157	20.702635
838.249643	-3.002700	3.782300	-11.356000	23.450831	0.000158	20.712351
839.252289	-3.013700	3.779800	-11.390000	23.474800	0.000159	20.711246
840.251115	-3.026500	3.778800	-11.435000	23.465812	0.000155	20.700814
841.253976	-2.996600	3.780800	-11.328000	23.433373	0.000156	20.712870
842.250931	-3.017900	3.779300	-11.405000	23.431828	0.000157	20.707528
843.249964	-3.029000	3.778500	-11.444000	23.435935	0.000158	20.698367
844.253038	-3.000100	3.778900	-11.336000	23.455904	0.000156	20.718384
845.252491	-2.982000	3.778000	-11.265000	23.453287	0.000157	20.703906
846.256076	-3.002000	3.778100	-11.341000	23.456945	0.000154	20.709470
847.254369	-2.983300	3.778000	-11.270000	23.462843	0.000155	20.721547
848.251894	-2.976400	3.778200	-11.245000	23.465037	0.000159	20.700511
849.252731	-3.009800	3.776000	-11.364000	23.450493	0.000155	20.693045
850.254516	-3.016900	3.776500	-11.393000	23.405604	0.000154	20.741936
851.253677	-3.003900	3.776600	-11.344000	23.436876	0.000156	20.713062
852.255970	-2.999900	3.777300	-11.331000	23.420862	0.000157	20.719297
853.254535	-2.977000	3.777400	-11.244000	23.417948	0.000153	20.720643
854.256758	-3.003800	3.775700	-11.341000	23.416605	0.000154	20.724513
855.255471	-3.010700	3.776200	-11.368000	23.445602	0.000157	20.728447
856.255561	-2.987000	3.774300	-11.273000	23.462359	0.000154	20.700672
857.261300	-2.981800	3.775000	-11.255000	23.503513	0.000154	20.697353
858.255659	-2.979300	3.775300	-11.247000	23.483495	0.000151	20.724230
859.256018	-2.981000	3.774900	-11.252000	23.475781	0.000156	20.710806
860.258102	-2.988600	3.774000	-11.278000	23.478740	0.000157	20.725153
861.256126	-3.007000	3.774800	-11.350000	23.497515	0.000154	20.725955
862.257258	-2.997500	3.773700	-11.311000	23.492583	0.000151	20.707734
863.262100	-3.012800	3.772300	-11.365000	23.488995	0.000153	20.710302
864.256402	-3.003700	3.772700	-11.332000	23.455586	0.000152	20.724704
865.256458	-2.998500	3.773700	-11.315000	23.476873	0.000153	20.731817
866.257347	-3.003500	3.772600	-11.330000	23.480878	0.000151	20.731564
867.258631	-3.009000	3.771100	-11.346000	23.454368	0.000151	20.747192
868.261867	-3.016800	3.771700	-11.378000	23.421823	0.000152	20.722631
869.256785	-3.006300	3.770000	-11.332000	23.444524	0.000152	20.736851
870.256896	-2.995400	3.772500	-11.299000	23.437423	0.000153	20.734949
871.257413	-3.004300	3.770900	-11.328000	23.455852	0.000151	20.731135
872.256950	-3.001100	3.770500	-11.315000	23.453708	0.000148	20.733254
873.261870	-2.989500	3.769600	-11.269000	23.455797	0.000149	20.718277
874.258718	-2.986000	3.769500	-11.255000	23.471427	0.000151	20.735367
875.258435	-2.988700	3.769800	-11.266000	23.474864	0.000149	20.731700
876.258811	-3.004900	3.768900	-11.324000	23.475337	0.000150	20.725536
877.257614	-2.999800	3.768600	-11.304000	23.484123	0.000150	20.740034
878.256911	-3.013600	3.768300	-11.356000	23.478271	0.000149	20.734641
879.260915	-2.991600	3.768400	-11.272000	23.466641	0.000150	20.736260
880.259757	-3.010900	3.767800	-11.343000	23.476852	0.000151	20.740331
881.261434	-3.033000	3.767000	-11.424000	23.449914	0.000149	20.739882
882.260960	-2.994200	3.767400	-11.280000	23.447574	0.000149	20.761245
883.266136	-3.005300	3.767900	-11.323000	23.421530	0.000149	20.746521
884.268917	-3.001000	3.767200	-11.305000	23.443271	0.000150	20.735595
885.262903	-3.007700	3.765700	-11.324000	23.414812	0.000148	20.750218
886.262407	-2.993500	3.765900	-11.272000	23.444167	0.000148	20.734122
887.268968	-3.003600	3.766600	-11.313000	23.450296	0.000148	20.755439
888.263985	-2.990200	3.766300	-11.261000	23.464765	0.000147	20.726792
889.266967	-3.020700	3.765400	-11.372000	23.448560	0.000145	20.754648
890.267148	-3.006500	3.764500	-11.318000	23.456431	0.000146	20.735509
891.264138	-3.006000	3.764900	-11.316000	23.480536	0.000147	20.728851
892.271179	-3.000100	3.765000	-11.294000	23.491169	0.000149	20.739510
893.268644	-2.974400	3.763900	-11.194000	23.481442	0.000145	20.738769
894.268332	-2.992900	3.763500	-11.262000	23.497430	0.000148	20.747682
895.267758	-3.012000	3.764100	-11.337000	23.529646	0.000144	20.753897
896.269797	-2.999300	3.762500	-11.284000	23.533057	0.000146	20.758265
897.268949	-3.012200	3.763000	-11.334000	23.540681	0.000147	20.758795
898.270820	-2.997800	3.762500	-11.278000	23.558459	0.000145	20.739158
899.268726	-2.997000	3.763000	-11.277000	23.523412	0.000146	20.749070
900.272805	-3.012200	3.761600	-11.329000	23.510620	0.000145	20.757111
901.269407	-3.014600	3.761400	-11.338000	23.495685	0.000145	20.762054
902.273035	-3.018100	3.760400	-11.348000	23.507068	0.000146	20.770620
903.273038	-3.003000	3.762000	-11.296000	23.519170	0.000144	20.750508
904.271889	-2.993400	3.760900	-11.257000	23.543495	0.000143	20.761616
905.276454	-3.036700	3.760500	-11.419000	23.515064	0.000142	20.763462
906.271579	-3.023100	3.759200	-11.364000	23.531952	0.000144	20.769960
907.273930	-3.013400	3.762200	-11.336000	23.517415	0.000144	20.769138
908.271138	-3.018500	3.759300	-11.347000	23.494387	0.000144	20.763599
909.271082	-3.024500	3.759000	-11.368000	23.480151	0.000142	20.772089
910.277354	-2.992800	3.759900	-11.252000	23.495958	0.000143	20.742887
911.273996	-3.012700	3.759700	-11.326000	23.491484	0.000144	20.777285
912.273036	-2.983200	3.760500	-11.218000	23.535128	0.000143	20.775040
913.271743	-2.978000	3.760300	-11.196000	23.509314	0.000142	20.766707
914.275350	-2.992300	3.758700	-11.246000	23.467239	0.000143	20.754404
915.276618	-3.004200	3.758900	-11.292000	23.506984	0.000143	20.756311
916.274513	-3.006400	3.758200	-11.298000	23.522785	0.000143	20.758399
917.273324	-2.998200	3.757700	-11.265000	23.560032	0.000141	20.775348
918.272397	-3.002700	3.757700	-11.282000	23.587445	0.000143	20.773906
919.277818	-3.002500	3.757900	-11.283000	23.558044	0.000144	20.781891
920.273038	-2.989500	3.757200	-11.231000	23.584759	0.000141	20.769790
921.274051	-2.987900	3.757500	-11.226000	23.561436	0.000142	20.779601
922.273454	-2.989900	3.756600	-11.231000	23.575797	0.000141	20.764599
923.275761	-2.999400	3.755400	-11.263000	23.529171	0.000141	20.780448
924.275140	-2.992800	3.755600	-11.238000	23.505002	0.000143	20.779929
925.274056	-2.991700	3.756200	-11.237000	23.532915	0.000139	20.786099
926.276787	-3.015100	3.755200	-11.321000	23.537248	0.000140	20.777165
927.272966	-3.006800	3.753900	-11.285000	23.535628	0.000139	20.794033
928.276704	-3.004300	3.755500	-11.282000	23.532297	0.000140	20.787375
929.275733	-3.007100	3.754800	-11.290000	23.520849	0.000140	20.792969
930.276236	-2.998400	3.752900	-11.251000	23.561351	0.000139	20.774774
931.275019	-2.991500	3.754100	-11.229000	23.565885	0.000138	20.783113
932.278396	-3.018400	3.753200	-11.327000	23.562051	0.000139	20.788278
933.275292	-3.007200	3.753200	-11.285000	23.564044	0.000136	20.790276
934.277991	-3.010200	3.753000	-11.296000	23.567103	0.000136	20.794765
935.277694	-2.999400	3.752400	-11.255000	23.541491	0.000136	20.793746
936.279949	-3.018900	3.752600	-11.327000	23.563792	0.000138	20.789075
937.274909	-3.001900	3.751800	-11.261000	23.556753	0.000135	20.788657
938.275059	-2.987400	3.751600	-11.207000	23.552938	0.000135	20.794316
939.279265	-2.979100	3.752300	-11.178000	23.547192	0.000137	20.807048
940.277525	-3.008900	3.751000	-11.286000	23.594144	0.000136	20.800536
941.281032	-3.001400	3.750700	-11.257000	23.603704	0.000136	20.787835
942.279288	-2.989800	3.751000	-11.214000	23.587321	0.000137	20.787532
943.280135	-3.004800	3.751800	-11.273000	23.591804	0.000134	20.804354
944.280346	-3.010200	3.749500	-11.286000	23.608479	0.000137	20.790250
945.280492	-2.979700	3.750400	-11.175000	23.608952	0.000137	20.810165
946.283346	-2.992600	3.750400	-11.223000	23.621697	0.000133	20.802079
947.281205	-3.005000	3.749600	-11.267000	23.607488	0.000135	20.794473
948.277875	-2.998200	3.748600	-11.239000	23.614980	0.000133	20.802458
949.279883	-2.998000	3.749500	-11.239000	23.583361	0.000135	20.817701
950.282682	-3.010600	3.748700	-11.285000	23.559540	0.000134	20.798563
951.282586	-2.985300	3.748600	-11.189000	23.557547	0.000135	20.819799
952.279292	-3.013800	3.748400	-11.296000	23.592303	0.000134	20.797741
953.279008	-2.982300	3.748300	-11.177000	23.560884	0.000134	20.811764
954.282377	-3.006400	3.748100	-11.268000	23.585454	0.000136	20.796566
955.280744	-2.998700	3.746900	-11.235000	23.577545	0.000135	20.804284
956.283732	-3.009700	3.747700	-11.278000	23.548958	0.000133	20.787481
957.283123	-3.003400	3.746800	-11.252000	23.578188	0.000132	20.813938
958.283016	-3.010700	3.744600	-11.273000	23.598306	0.000133	20.813242
959.281089	-3.009800	3.745400	-11.272000	23.625612	0.000133	20.796521
960.283291	-2.989300	3.746300	-11.198000	23.617325	0.000131	20.803860
961.283866	-2.994700	3.747900	-11.222000	23.604731	0.000132	20.820632
962.287773	-3.016600	3.745200	-11.297000	23.601597	0.000135	20.826498
963.285252	-2.995000	3.744000	-11.213000	23.599654	0.000134	20.793732
964.286886	-3.008500	3.745200	-11.266000	23.569086	0.000134	20.840849
965.288476	-3.015300	3.745600	-11.293000	23.588439	0.000130	20.811412
966.289195	-3.006000	3.745100	-11.257000	23.580393	0.000131	20.817571
967.290489	-2.986700	3.744100	-11.181000	23.602976	0.000131	20.818872
968.285818	-3.019800	3.743900	-11.305000	23.619933	0.000133	20.821173
969.290376	-2.995600	3.743300	-11.213000	23.613759	0.000131	20.824941
970.289831	-2.972700	3.743900	-11.129000	23.623400	0.000129	20.807579
971.289412	-2.984200	3.743300	-11.169000	23.625916	0.000132	20.828593
972.286677	-3.016100	3.742700	-11.287000	23.627189	0.000130	20.818016
973.289545	-2.987600	3.743700	-11.183000	23.645590	0.000130	20.837885
974.288892	-3.005800	3.743400	-11.252000	23.637409	0.000128	20.835847
975.288417	-2.998000	3.741800	-11.217000	23.639150	0.000128	20.848023
976.291985	-2.994300	3.742800	-11.206000	23.611975	0.000129	20.821255
977.291626	-2.993700	3.742400	-11.203000	23.587677	0.000128	20.851898
978.289752	-2.993400	3.742700	-11.202000	23.589252	0.000129	20.824080
979.289572	-3.009000	3.741300	-11.257000	23.638246	0.000131	20.839531
980.289447	-3.007900	3.742300	-11.256000	23.651715	0.000130	20.829801
981.289092	-3.027200	3.740500	-11.322000	23.672511	0.000128	20.825993
982.291552	-2.999600	3.740900	-11.221000	23.683711	0.000131	20.836273
983.291605	-3.001800	3.739600	-11.224000	23.650710	0.000128	20.836853
984.290406	-3.004300	3.740200	-11.236000	23.631103	0.000128	20.848490
985.292500	-2.994700	3.739800	-11.199000	23.623289	0.000129	20.851088
986.289503	-3.012000	3.739500	-11.263000	23.675269	0.000128	20.837767
987.295057	-3.001500	3.740000	-11.225000	23.667733	0.000126	20.853919
988.292310	-3.017500	3.739700	-11.283000	23.668483	0.000125	20.840921
989.294089	-3.014400	3.737600	-11.266000	23.634978	0.000125	20.840996
990.290402	-2.990000	3.739600	-11.180000	23.641404	0.000125	20.858343
991.294586	-3.015700	3.738300	-11.273000	23.637147	0.000125	20.846015
992.294178	-2.996800	3.739400	-11.205000	23.643900	0.000125	20.867957
993.299155	-3.029900	3.737300	-11.323000	23.661556	0.000127	20.858631
994.293591	-3.022000	3.737800	-11.294000	23.670195	0.000128	20.855439
995.292120	-2.988200	3.737800	-11.169000	23.689194	0.000123	20.858365
996.296762	-2.972600	3.739200	-11.114000	23.692233	0.000126	20.845765
997.294697	-2.975200	3.737700	-11.119000	23.700379	0.000122	20.866259
998.294917	-3.010500	3.735500	-11.245000	23.707176	0.000128	20.876392
999.294034	-2.992700	3.735900	-11.180000	23.711589	0.000123	20.842886
1000.295424	-3.022400	3.735800	-11.290000	23.686403	0.000123	20.853196
1001.293744	-3.003700	3.736000	-11.221000	23.652180	0.000124	20.853973
1002.293580	-3.011800	3.736300	-11.252000	23.647279	0.000122	20.852380
1003.301049	-3.003100	3.736000	-11.219000	23.683747	0.000124	20.863335
1004.295204	-2.991200	3.735400	-11.173000	23.699139	0.000124	20.869283
1005.296942	-3.007000	3.735000	-11.230000	23.676518	0.000122	20.866519
1006.295504	-2.993000	3.734600	-11.177000	23.718943	0.000123	20.860215
1007.296778	-3.006300	3.733700	-11.223000	23.699004	0.000123	20.871518
1008.296975	-3.001200	3.734200	-11.207000	23.664787	0.000122	20.882731
1009.296094	-3.018900	3.733700	-11.270000	23.688806	0.000123	20.863191
1010.295917	-3.008600	3.733200	-11.230000	23.682140	0.000121	20.875000
1011.296228	-3.001300	3.733100	-11.203000	23.718638	0.000121	20.859435
1012.296803	-2.988300	3.733600	-11.156000	23.710004	0.000122	20.883020
1013.300521	-3.021200	3.733000	-11.277000	23.710925	0.000120	20.898641
1014.297533	-3.001100	3.733300	-11.202000	23.683033	0.000121	20.872575
1015.297251	-3.008000	3.731700	-11.224000	23.699088	0.000122	20.879188
1016.299510	-3.011500	3.731600	-11.236000	23.685800	0.000121	20.879617
1017.300532	-2.979500	3.731700	-11.117000	23.678611	0.000121	20.860083
1018.303243	-2.994800	3.732300	-11.177000	23.672961	0.000122	20.890452
1019.303598	-2.978600	3.732400	-11.115000	23.680066	0.000118	20.866283
1020.302940	-2.998900	3.732700	-11.194000	23.664710	0.000120	20.861794
1021.301797	-3.026600	3.730400	-11.289000	23.680771	0.000122	20.858455
1022.303267	-2.999700	3.731300	-11.192000	23.674421	0.000121	20.877218
1023.302563	-2.987000	3.731900	-11.146000	23.644636	0.000120	20.877229
1024.304101	-2.999400	3.731200	-11.191000	23.663681	0.000119	20.890157
1025.303404	-3.001700	3.731100	-11.199000	23.665754	0.000121	20.858099
1026.301603	-3.000700	3.729100	-11.189000	23.711232	0.000121	20.851537
1027.305904	-2.998500	3.730400	-11.185000	23.705941	0.000118	20.868041
1028.303288	-3.016600	3.729500	-11.249000	23.704155	0.000121	20.865777
1029.306595	-3.024200	3.729400	-11.278000	23.716849	0.000118	20.871865
1030.303000	-3.007100	3.729700	-11.215000	23.716326	0.000118	20.875134
1031.301268	-3.002600	3.730000	-11.199000	23.686265	0.000117	20.858747
1032.302363	-3.012700	3.727400	-11.229000	23.650496	0.000119	20.859872
1033.303813	-3.013900	3.728800	-11.237000	23.651940	0.000118	20.865587
1034.304644	-2.980700	3.728800	-11.114000	23.646668	0.000118	20.855086
1035.306043	-3.006900	3.728100	-11.209000	23.689385	0.000120	20.852867
1036.304818	-2.993800	3.728100	-11.160000	23.719944	0.000120	20.862641
1037.306003	-2.990600	3.728700	-11.150000	23.738696	0.000118	20.861527
1038.304705	-3.022700	3.726300	-11.262000	23.754207	0.000116	20.869492
1039.308439	-2.981500	3.728000	-11.114000	23.734219	0.000118	20.866047
1040.308241	-2.990100	3.727000	-11.143000	23.708112	0.000117	20.841297
1041.306321	-2.997000	3.727000	-11.169000	23.700842	0.000118	20.851077
1042.306395	-2.984500	3.726700	-11.121000	23.695097	0.000116	20.846265
1043.305292	-3.000700	3.725900	-11.179000	23.690563	0.000115	20.877280
1044.305657	-2.986300	3.724800	-11.122000	23.715282	0.000118	20.847536
1045.306423	-3.001200	3.726100	-11.182000	23.699353	0.000117	20.854800
1046.305530	-3.004800	3.725000	-11.193000	23.719589	0.000114	20.851854
1047.306312	-2.985600	3.726000	-11.124000	23.723151	0.000116	20.861115
1048.307381	-3.002700	3.726200	-11.188000	23.725169	0.000117	20.866456
1049.306888	-2.998000	3.724300	-11.164000	23.699756	0.000116	20.847617
1050.312659	-2.989500	3.724400	-11.133000	23.719639	0.000116	20.855223
1051.306064	-2.995400	3.723700	-11.153000	23.731739	0.000114	20.855501
1052.306678	-2.993700	3.723300	-11.145000	23.738083	0.000117	20.840999
1053.309960	-2.986200	3.725200	-11.124000	23.719689	0.000113	20.847213
1054.308198	-2.989800	3.724700	-11.135000	23.736116	0.000115	20.853251
1055.306825	-3.006100	3.722300	-11.189000	23.752870	0.000112	20.857246
1056.313937	-2.970000	3.724500	-11.061000	23.737283	0.000114	20.850628
1057.309742	-3.000400	3.723300	-11.170000	23.696434	0.000114	20.833856
1058.308980	-2.985700	3.722500	-11.114000	23.710200	0.000113	20.857613
1059.315499	-2.974800	3.721900	-11.071000	23.745367	0.000112	20.837871
1060.310252	-3.009100	3.722700	-11.201000	23.717118	0.000111	20.849376
1061.310331	-3.002800	3.722200	-11.176000	23.714451	0.000113	20.834849
1062.312112	-2.981100	3.721800	-11.094000	23.729951	0.000112	20.818148
1063.310990	-2.996900	3.722300	-11.154000	23.763162	0.000114	20.841013
1064.313035	-2.993100	3.721100	-11.136000	23.738861	0.000113	20.834667
1065.312358	-2.995900	3.721300	-11.148000	23.735469	0.000111	20.834112
1066.315009	-2.986100	3.721800	-11.113000	23.767054	0.000112	20.822631
1067.317556	-3.006100	3.720400	-11.184000	23.742015	0.000112	20.816493
1068.317703	-3.017200	3.719300	-11.221000	23.738749	0.000110	20.820805
1069.318116	-2.999900	3.720100	-11.158000	23.719983	0.000110	20.834706
1070.314261	-2.997100	3.719400	-11.146000	23.705689	0.000113	20.827014
1071.319085	-2.995900	3.718900	-11.141000	23.702599	0.000110	20.826761
1072.316091	-2.986600	3.719500	-11.107000	23.719871	0.000111	20.836965
1073.314828	-2.997200	3.719000	-11.146000	23.756507	0.000110	20.842876
1074.320107	-2.999800	3.718400	-11.154000	23.740921	0.000110	20.836732
1075.315829	-3.008300	3.717900	-11.184000	23.741987	0.000109	20.829741
1076.321705	-3.001100	3.718100	-11.157000	23.773566	0.000111	20.817780
1077.319465	-3.002000	3.717800	-11.160000	23.786782	0.000111	20.840988
1078.319396	-3.006500	3.718500	-11.179000	23.802931	0.000111	20.829679
1079.319202	-2.991400	3.717800	-11.120000	23.805939	0.000111	20.818471
1080.320130	-2.988200	3.717800	-11.108000	23.833405	0.000112	20.813769
1081.321204	-3.005500	3.716300	-11.169000	23.804856	0.000108	20.833506
1082.320279	-3.010400	3.715200	-11.184000	23.784516	0.000110	20.813586
1083.322886	-2.982800	3.717300	-11.087000	23.790910	0.000110	20.838963
1084.326374	-2.999800	3.717700	-11.151000	23.788766	0.000109	20.809313
1085.320659	-2.977200	3.717800	-11.068000	23.774157	0.000112	20.784708
1086.321058	-2.991600	3.716000	-11.115000	23.794416	0.000112	20.821616
1087.323262	-2.997700	3.716200	-11.139000	23.817481	0.000111	20.802069
1088.323368	-3.007500	3.715900	-11.174000	23.824449	0.000111	20.808107
1089.325046	-3.002700	3.715800	-11.157000	23.852047	0.000110	20.817287
1090.324059	-3.018800	3.713900	-11.211000	23.804562	0.000111	20.809030
1091.325930	-2.987600	3.714100	-11.096000	23.776465	0.000110	20.821636
1092.321993	-2.982000	3.715200	-11.077000	23.766699	0.000112	20.813267
1093.323647	-3.002400	3.714200	-11.150000	23.750399	0.000107	20.819683
1094.324083	-3.013500	3.712400	-11.186000	23.737902	0.000110	20.801463
1095.325353	-3.000800	3.713400	-11.142000	23.751591	0.000109	20.835577
1096.321088	-3.010600	3.712100	-11.175000	23.727265	0.000108	20.819723
1097.321853	-3.004500	3.713400	-11.155000	23.711563	0.000111	20.808722
1098.322072	-3.010400	3.712600	-11.176000	23.696323	0.000108	20.809563
1099.321718	-3.005500	3.713200	-11.159000	23.722732	0.000108	20.792418
1100.322192	-3.041200	3.711500	-11.286000	23.760440	0.000108	20.806991
1101.324497	-2.979300	3.713100	-11.062000	23.753699	0.000108	20.820146
1102.322309	-2.974200	3.711600	-11.037000	23.744431	0.000107	20.799000
1103.324441	-3.016600	3.712800	-11.199000	23.750338	0.000108	20.795914
1104.327334	-2.998600	3.712200	-11.131000	23.768720	0.000108	20.792533
1105.322898	-3.014800	3.711900	-11.190000	23.752918	0.000107	20.809406
1106.324895	-2.998500	3.711100	-11.127000	23.777031	0.000108	20.802289
1107.323889	-3.002100	3.712100	-11.143000	23.782057	0.000104	20.793103
1108.327021	-3.027500	3.709500	-11.230000	23.771527	0.000108	20.800563
1109.325284	-2.988100	3.711300	-11.089000	23.780305	0.000106	20.798933
1110.326834	-2.992100	3.712200	-11.106000	23.820678	0.000109	20.794369
1111.326802	-2.998200	3.710000	-11.122000	23.782297	0.000105	20.777697
1112.326339	-3.003500	3.710600	-11.144000	23.752272	0.000107	20.802595
1113.327766	-3.011900	3.710400	-11.174000	23.773005	0.000108	20.788295
1114.328013	-3.006000	3.710200	-11.152000	23.797747	0.000107	20.783230
1115.331200	-3.013700	3.707900	-11.174000	23.801127	0.000108	20.771446
1116.327129	-2.983400	3.709600	-11.067000	23.799527	0.000108	20.776480
1117.328973	-3.009000	3.709700	-11.162000	23.808154	0.000106	20.782285
1118.328117	-3.009000	3.708000	-11.157000	23.785676	0.000105	20.786300
1119.330510	-3.002600	3.708800	-11.136000	23.804043	0.000105	20.770577
1120.334335	-2.985600	3.707500	-11.068000	23.819668	0.000104	20.790038
1121.329385	-2.992700	3.708500	-11.098000	23.814341	0.000104	20.783747
1122.335040	-2.998800	3.706200	-11.113000	23.772317	0.000102	20.776226
1123.330846	-2.974500	3.707200	-11.026000	23.799771	0.000102	20.771983
1124.331383	-3.001300	3.707800	-11.127000	23.812679	0.000105	20.783978
1125.336089	-3.002100	3.707300	-11.129000	23.810818	0.000105	20.789698
1126.328640	-2.998400	3.706700	-11.113000	23.810158	0.000102	20.788088
1127.334464	-3.001100	3.704900	-11.118000	23.818866	0.000103	20.782595
1128.332196	-3.006000	3.706900	-11.142000	23.795518	0.000105	20.792850
1129.331658	-2.972100	3.706600	-11.015000	23.820154	0.000103	20.773928
1130.336674	-3.011400	3.705300	-11.157000	23.837273	0.000104	20.770705
1131.335020	-3.003900	3.705900	-11.131000	23.830104	0.000102	20.763042
1132.338242	-2.998400	3.705500	-11.110000	23.821290	0.000102	20.783129
1133.338521	-2.995700	3.703900	-11.095000	23.819424	0.000103	20.780309
1134.333106	-2.982700	3.703500	-11.045000	23.821556	0.000102	20.772016
1135.335058	-3.014900	3.703900	-11.165000	23.815257	0.000102	20.771390
1136.338849	-3.007600	3.703600	-11.138000	23.826003	0.000104	20.772681
1137.335372	-2.993100	3.704800	-11.088000	23.833418	0.000102	20.771581
1138.335626	-2.992000	3.703900	-11.081000	23.866091	0.000103	20.753608
1139.336683	-3.016400	3.703300	-11.170000	23.877118	0.000102	20.758975
1140.339843	-2.968000	3.704300	-10.993000	23.894936	9.905676E-5	20.746969
1141.338670	-2.991300	3.703600	-11.078000	23.873847	0.000101	20.759489
1142.339322	-2.994000	3.702200	-11.083000	23.855798	0.000101	20.770788
1143.339497	-2.995300	3.702000	-11.088000	23.822620	0.000102	20.769764
1144.337299	-3.010800	3.702200	-11.146000	23.801234	0.000100	20.753536
1145.337459	-2.991500	3.702000	-11.074000	23.781518	0.000101	20.773123
1146.337646	-3.002300	3.703400	-11.117000	23.763402	0.000101	20.765390
1147.340715	-2.992700	3.701800	-11.078000	23.805404	9.862773E-5	20.750604
1148.342382	-2.998000	3.702100	-11.099000	23.822820	0.000100	20.751471
1149.339472	-2.991100	3.701100	-11.070000	23.835955	0.000100	20.727656
1150.339756	-2.995900	3.701100	-11.087000	23.804126	0.000100	20.760702
1151.340280	-3.001800	3.700700	-11.108000	23.826895	9.978282E-5	20.740383
1152.343273	-2.994500	3.700700	-11.080000	23.825747	0.000100	20.760097
1153.342219	-3.017500	3.700300	-11.164000	23.828907	9.938679E-5	20.760894
1154.340690	-3.019000	3.700500	-11.170000	23.859890	9.905676E-5	20.745493
1155.341164	-3.009800	3.698300	-11.131000	23.868844	9.988182E-5	20.736453
1156.342544	-3.009900	3.698500	-11.131000	23.870736	0.000101	20.746885
1157.338345	-3.022900	3.698700	-11.180000	23.871012	0.000101	20.746214
1158.340250	-3.011200	3.698100	-11.135000	23.906774	9.889175E-5	20.755995
1159.342222	-2.982300	3.697800	-11.027000	23.906270	9.852872E-5	20.730833
1160.339453	-3.000600	3.697800	-11.095000	23.920430	9.856173E-5	20.739817
1161.344847	-2.992400	3.697700	-11.063000	23.893061	9.941979E-5	20.747460
1162.340953	-2.999100	3.698700	-11.092000	23.880188	9.806669E-5	20.740715
1163.344283	-3.002400	3.697100	-11.099000	23.890837	0.000100	20.746178
1164.341396	-3.004000	3.696900	-11.105000	23.889393	9.734064E-5	20.721496
1165.341918	-3.000400	3.697400	-11.092000	23.864905	9.730764E-5	20.745780
1166.341449	-2.991500	3.697400	-11.060000	23.877421	9.654858E-5	20.718973
1167.342074	-3.017000	3.696200	-11.150000	23.823462	9.912277E-5	20.737416
1168.341043	-3.006800	3.696400	-11.114000	23.828141	9.697761E-5	20.729304
1169.344182	-3.003600	3.696000	-11.100000	23.843318	9.592153E-5	20.747843
1170.340581	-2.988400	3.695200	-11.041000	23.805361	9.826471E-5	20.740604
1171.341864	-2.979600	3.695800	-11.011000	23.843318	9.856173E-5	20.750213
1172.345180	-2.989500	3.696300	-11.049000	23.794253	9.648258E-5	20.732310
1173.343335	-3.005700	3.695500	-11.107000	23.783944	9.562451E-5	20.723871
1174.344700	-2.992900	3.694200	-11.054000	23.786611	9.836371E-5	20.724648
1175.346438	-3.012900	3.694700	-11.130000	23.773364	9.866073E-5	20.733178
1176.346352	-3.017600	3.694100	-11.147000	23.818239	9.635057E-5	20.743085
1177.344811	-2.978000	3.694900	-11.003000	23.846034	9.796768E-5	20.703147
1178.344630	-2.997900	3.694200	-11.074000	23.875875	9.767066E-5	20.730226
1179.350890	-2.985400	3.693400	-11.025000	23.869098	9.951880E-5	20.734811
1180.344449	-2.997400	3.693500	-11.070000	23.884205	9.724163E-5	20.733364
1181.348704	-3.012500	3.693500	-11.126000	23.907098	9.654858E-5	20.732612
1182.349319	-3.001800	3.693600	-11.087000	23.888953	9.400739E-5	20.717261
1183.345103	-3.004500	3.693400	-11.096000	23.889250	9.734064E-5	20.721352
1184.354475	-3.005500	3.691100	-11.092000	23.887529	9.542650E-5	20.721524
1185.347240	-3.018600	3.690800	-11.139000	23.880980	9.595454E-5	20.720171
1186.350200	-3.011500	3.691100	-11.115000	23.838768	9.757165E-5	20.713407
1187.349056	-3.010900	3.691400	-11.114000	23.834361	9.595454E-5	20.726532
1188.348679	-3.007700	3.690500	-11.099000	23.832344	9.549250E-5	20.719768
1189.354032	-3.009600	3.692800	-11.113000	23.828284	9.661458E-5	20.717119
1190.352783	-2.985600	3.691700	-11.021000	23.801631	9.641657E-5	20.707938
1191.350296	-3.009100	3.691500	-11.108000	23.825125	9.605354E-5	20.729599
1192.350476	-3.004300	3.690300	-11.086000	23.824249	9.407340E-5	20.725402
1193.354030	-2.988700	3.690600	-11.029000	23.821493	9.503047E-5	20.693238
1194.354734	-3.004400	3.689900	-11.085000	23.798240	9.608655E-5	20.724928
1195.349462	-3.003300	3.689300	-11.079000	23.843240	9.410640E-5	20.714097
1196.353374	-2.977400	3.689800	-10.985000	23.845151	9.496446E-5	20.708427
1197.351048	-3.001000	3.689900	-11.072000	23.874752	9.281931E-5	20.721039
1198.353886	-2.979800	3.689800	-10.994000	23.895879	9.750565E-5	20.709033
1199.351042	-2.989200	3.688600	-11.024000	23.877307	9.413940E-5	20.718385
1200.355238	-3.024400	3.687600	-11.151000	23.886039	9.516248E-5	20.708649
1201.355303	-3.002900	3.688700	-11.076000	23.870536	9.387538E-5	20.700689
1202.351907	-3.006200	3.688100	-11.087000	23.865233	9.532749E-5	20.710072
1203.354398	-3.012000	3.687600	-11.106000	23.862170	9.338035E-5	20.721699
1204.358117	-2.982100	3.686300	-10.992000	23.843330	9.357836E-5	20.708972
1205.358470	-2.995600	3.687300	-11.044000	23.839914	9.305032E-5	20.715978
1206.355832	-3.003400	3.686200	-11.070000	23.883745	9.166422E-5	20.689277
1207.354347	-3.004000	3.687600	-11.077000	23.891779	9.222526E-5	20.697334
1208.355787	-3.006500	3.686100	-11.081000	23.891457	9.506347E-5	20.706020
1209.357854	-3.008800	3.686700	-11.091000	23.918068	9.258829E-5	20.681494
1210.363107	-2.996200	3.686600	-11.044000	23.879937	9.209325E-5	20.723868
1211.357473	-2.996800	3.685700	-11.044000	23.878941	9.272030E-5	20.707221
1212.359935	-3.021400	3.685200	-11.133000	23.847485	9.060815E-5	20.686584
1213.359282	-2.971700	3.684400	-10.948000	23.841308	9.054214E-5	20.699356
1214.359679	-2.995100	3.686200	-11.040000	23.835216	9.281931E-5	20.706051
1215.365202	-3.010800	3.684700	-11.093000	23.817045	9.239028E-5	20.718178
1216.359939	-2.996800	3.684800	-11.041000	23.839175	9.070715E-5	20.702434
1217.356159	-2.993600	3.684200	-11.028000	23.849825	9.097117E-5	20.701259
1218.357370	-3.000700	3.683300	-11.051000	23.874615	9.024512E-5	20.681070
1219.360206	-2.982800	3.684300	-10.989000	23.921201	9.133420E-5	20.689853
1220.361594	-3.007500	3.683300	-11.077000	23.903339	9.176323E-5	20.712246
1221.361721	-2.983600	3.682500	-10.986000	23.909038	9.080616E-5	20.703736
1222.358859	-2.995600	3.681900	-11.028000	23.929768	9.116919E-5	20.697021
1223.361833	-2.999300	3.683500	-11.047000	23.935151	9.037713E-5	20.695306
1224.362039	-3.022500	3.681300	-11.126000	23.915236	9.219226E-5	20.691457
1225.367467	-3.005800	3.682000	-11.067000	23.895527	9.268730E-5	20.687815
1226.364247	-2.997600	3.681500	-11.034000	23.885955	9.074016E-5	20.692916
1227.363796	-3.007000	3.681000	-11.068000	23.866270	9.027812E-5	20.709689
1228.362547	-2.992000	3.681700	-11.015000	23.865515	9.097117E-5	20.706087
1229.364625	-3.005600	3.680700	-11.062000	23.874782	8.885902E-5	20.700205
1230.368551	-3.009900	3.680400	-11.077000	23.866623	8.918904E-5	20.703404
1231.365466	-2.974600	3.679700	-10.945000	23.852386	8.984909E-5	20.685808
1232.364998	-2.989300	3.680900	-11.002000	23.862000	8.859500E-5	20.692603
1233.363524	-3.019000	3.680700	-11.111000	23.860652	9.031112E-5	20.696942
1234.367962	-2.991500	3.679800	-11.007000	23.846350	8.803396E-5	20.684023
1235.365311	-3.059400	3.678100	-11.251000	23.859244	8.942006E-5	20.694107
1236.371148	-2.982800	3.679800	-10.975000	23.840751	9.149921E-5	20.703540
1237.361906	-3.036900	3.677900	-11.169000	23.867786	8.902403E-5	20.691292
1238.363199	-3.011400	3.678100	-11.075000	23.898245	8.968408E-5	20.685799
1239.366828	-3.020900	3.677100	-11.107000	23.890237	9.041013E-5	20.695787
1240.366659	-3.015600	3.677400	-11.088000	23.888849	8.965108E-5	20.678747
1241.368231	-3.003100	3.678800	-11.047000	23.930510	8.978309E-5	20.675478
1242.365729	-2.989900	3.677900	-10.996000	23.962839	8.892502E-5	20.667593
1243.366251	-3.002800	3.677200	-11.041000	23.930369	9.060815E-5	20.692408
1244.364947	-3.006000	3.676700	-11.052000	23.904911	9.159822E-5	20.717142
1245.367498	-2.994000	3.677200	-11.009000	23.887340	8.852899E-5	20.698573
1246.368717	-2.989200	3.675800	-10.987000	23.897818	9.077316E-5	20.675413
1247.372447	-3.000000	3.676200	-11.027000	23.896727	8.776994E-5	20.682380
1248.366015	-2.993600	3.676900	-11.007000	23.857580	9.103718E-5	20.696232
1249.369638	-3.006000	3.675600	-11.047000	23.858355	8.892502E-5	20.713132
1250.371789	-2.985200	3.675400	-10.970000	23.880826	8.899103E-5	20.679237
1251.370824	-3.005700	3.675400	-11.046000	23.823538	9.080616E-5	20.698609
1252.370365	-3.006900	3.674900	-11.049000	23.818714	8.760493E-5	20.680019
1253.368437	-2.987400	3.673800	-10.974000	23.838494	8.737391E-5	20.689896
1254.372087	-2.981100	3.674700	-10.953000	23.855025	8.833098E-5	20.701257
1255.369594	-2.995800	3.674000	-11.006000	23.869407	8.895803E-5	20.684857
1256.366814	-3.004700	3.673500	-11.037000	23.895837	9.064115E-5	20.695239
1257.371344	-2.992500	3.674000	-10.994000	23.951683	8.819897E-5	20.683434
1258.371936	-3.022500	3.672700	-11.100000	23.922241	9.143321E-5	20.692318
1259.371475	-3.001600	3.673200	-11.025000	23.958232	9.027812E-5	20.676251
1260.375085	-3.000000	3.673900	-11.021000	23.966592	8.869401E-5	20.682738
1261.373699	-2.994300	3.672700	-10.996000	23.975621	8.786895E-5	20.691793
1262.371853	-2.992000	3.671600	-10.985000	23.969449	8.750592E-5	20.684181
1263.372868	-3.010300	3.670200	-11.048000	23.973780	9.037713E-5	20.703698
1264.370435	-3.029600	3.670600	-11.119000	23.990826	9.017911E-5	20.689498
1265.372515	-3.028500	3.670700	-11.115000	23.952578	8.839698E-5	20.673900
1266.370989	-3.011400	3.670400	-11.052000	23.930254	8.852899E-5	20.694189
1267.373361	-2.997200	3.670400	-11.000000	23.906511	8.859500E-5	20.707840
1268.372318	-2.981700	3.670700	-10.945000	23.902899	8.998110E-5	20.698053
1269.374768	-3.002800	3.670800	-11.022000	23.949585	8.829798E-5	20.685598
1270.375764	-2.987600	3.670100	-10.964000	23.966380	8.737391E-5	20.686319
1271.375731	-3.000700	3.669400	-11.010000	23.972647	8.882602E-5	20.698769
1272.375044	-3.011900	3.668800	-11.049000	23.986756	8.938706E-5	20.692529
1273.376388	-3.009400	3.668800	-11.040000	23.991429	8.572379E-5	20.704802
1274.374659	-3.022200	3.667800	-11.084000	23.959358	8.641684E-5	20.695399
1275.374095	-2.981400	3.669100	-10.939000	23.934564	8.595481E-5	20.678121
1276.381317	-3.025600	3.668200	-11.097000	23.908532	8.701088E-5	20.684260
1277.376589	-2.990700	3.668700	-10.971000	23.928216	8.852899E-5	20.702103
1278.379174	-3.004700	3.668000	-11.021000	23.946027	8.701088E-5	20.686298
1279.374609	-3.016900	3.667900	-11.065000	23.966756	8.628483E-5	20.685274
1280.378654	-3.006500	3.667000	-11.023000	23.960931	8.595481E-5	20.685597
1281.381539	-2.965300	3.668000	-10.875000	23.956248	8.625183E-5	20.699393
1282.375844	-3.025800	3.667100	-11.093000	23.937209	8.496473E-5	20.683619
1283.384161	-3.007400	3.665200	-11.022000	23.962541	8.641684E-5	20.686736
1284.380563	-3.023900	3.666200	-11.085000	23.963280	8.750592E-5	20.684158
1285.381597	-3.024900	3.665200	-11.086000	23.967862	8.734091E-5	20.696341
1286.378792	-3.008100	3.666600	-11.029000	23.975618	8.582280E-5	20.680884
1287.381637	-2.979400	3.665000	-10.918000	23.983978	8.592180E-5	20.703968
1288.379947	-2.994300	3.664900	-10.973000	23.943486	8.892502E-5	20.686594
1289.384507	-3.015300	3.664600	-11.049000	23.939874	8.641684E-5	20.696250
1290.379642	-2.983200	3.665200	-10.934000	23.975185	8.552577E-5	20.697047
1291.384147	-2.996700	3.665000	-10.983000	23.933274	8.417268E-5	20.699589
1292.383095	-2.977600	3.665300	-10.913000	23.945276	8.569079E-5	20.696926
1293.383547	-2.982700	3.664100	-10.928000	23.949793	8.555878E-5	20.701455
1294.388846	-2.998200	3.663400	-10.983000	23.929803	8.631783E-5	20.688520
1295.386258	-2.984900	3.664400	-10.937000	23.923284	8.503074E-5	20.706167
1296.385063	-3.014100	3.663300	-11.040000	23.880601	8.420568E-5	20.694660
1297.382955	-2.980100	3.664700	-10.921000	23.909496	8.334762E-5	20.696607
1298.386007	-2.978200	3.663300	-10.909000	23.914546	8.569079E-5	20.685549
1299.388806	-2.998700	3.662000	-10.980000	23.934501	8.559178E-5	20.688016
1300.384929	-3.002000	3.660900	-10.989000	23.938479	8.285258E-5	20.693429
1301.384954	-3.031900	3.660600	-11.098000	23.976205	8.578979E-5	20.694750
1302.388328	-3.011100	3.660500	-11.021000	23.977850	8.664786E-5	20.696874
1303.385743	-3.017300	3.660700	-11.043000	23.968710	8.354563E-5	20.701934
1304.388778	-3.001500	3.661100	-10.989000	23.936231	8.512975E-5	20.681689
1305.386767	-2.988400	3.661100	-10.939000	23.898700	8.460171E-5	20.695739
1306.387142	-2.979200	3.659800	-10.902000	23.913257	8.232454E-5	20.698483
1307.393868	-3.011300	3.660500	-11.021000	23.925320	8.305059E-5	20.696828
1308.385818	-2.986600	3.660500	-10.931000	23.947417	8.371064E-5	20.690537
1309.390042	-2.989900	3.661000	-10.945000	23.966879	8.404067E-5	20.692510
1310.389120	-3.017800	3.659600	-11.043000	23.950973	8.443669E-5	20.684620
1311.385274	-2.996100	3.660900	-10.968000	23.943086	8.499774E-5	20.676710
1312.391083	-3.002700	3.659100	-10.987000	23.936904	8.156549E-5	20.695168
1313.389777	-2.971600	3.658700	-10.872000	23.936034	8.440369E-5	20.679121
1314.395601	-3.028700	3.658200	-11.079000	23.904891	8.189551E-5	20.687247
1315.390055	-3.018200	3.657300	-11.038000	23.930329	8.390866E-5	20.694739
1316.388825	-3.002200	3.657400	-10.980000	23.940752	8.298459E-5	20.701872
1317.390732	-3.015400	3.656800	-11.027000	23.950208	8.542677E-5	20.706139
1318.389792	-2.994900	3.657400	-10.953000	23.993778	8.489873E-5	20.698623
1319.395191	-2.971900	3.655600	-10.863000	23.997234	8.453570E-5	20.674111
1320.392024	-2.997600	3.656600	-10.960000	23.990614	8.367764E-5	20.693553
1321.388893	-3.003700	3.655300	-10.979000	23.967018	8.199452E-5	20.711143
1322.391947	-3.009200	3.655700	-10.999000	23.960268	8.420568E-5	20.686828
1323.392980	-3.009200	3.655700	-11.000000	23.967461	8.509674E-5	20.693094
1324.389665	-3.022200	3.655600	-11.047000	23.991550	8.390866E-5	20.691646
1325.398123	-2.984500	3.654700	-10.906000	23.986494	8.427168E-5	20.707914
1326.392600	-2.981600	3.654500	-10.896000	23.993013	8.295159E-5	20.690268
1327.391523	-2.964000	3.655900	-10.835000	23.979769	8.519575E-5	20.691212
1328.394662	-2.988200	3.654100	-10.919000	24.005673	8.311660E-5	20.711027
1329.395303	-3.009200	3.654500	-10.996000	23.983330	8.318260E-5	20.695257
1330.400496	-3.007400	3.653800	-10.988000	23.966681	8.361163E-5	20.707486
1331.394287	-2.989800	3.654000	-10.924000	23.999200	8.658185E-5	20.702163
1332.395709	-2.986400	3.653200	-10.908000	24.006443	8.222553E-5	20.698995
1333.392066	-2.993500	3.653100	-10.934000	24.033941	8.361163E-5	20.708555
1334.396023	-3.010500	3.652000	-10.993000	23.998601	8.341362E-5	20.677853
1335.396132	-2.990500	3.652700	-10.922000	23.970333	8.387565E-5	20.705457
1336.393977	-2.998600	3.651300	-10.948000	23.989869	8.268757E-5	20.705135
1337.392884	-3.002300	3.652500	-10.965000	23.996816	8.374364E-5	20.699772
1338.394377	-2.994100	3.651800	-10.933000	23.992213	8.331461E-5	20.724082
1339.396678	-3.027700	3.650200	-11.051000	24.004406	8.159849E-5	20.709756
1340.397260	-3.003400	3.651000	-10.965000	24.023544	8.404067E-5	20.685325
1341.394434	-3.018500	3.650700	-11.019000	24.011729	8.176350E-5	20.714256
1342.396348	-3.005600	3.649600	-10.968000	24.008546	8.202752E-5	20.729081
1343.401412	-3.005700	3.649200	-10.968000	24.028479	8.202752E-5	20.717777
1344.393846	-2.976600	3.649200	-10.861000	24.035249	8.301759E-5	20.716980
1345.399399	-2.993400	3.647700	-10.918000	24.032468	8.295159E-5	20.708500
1346.396039	-3.026900	3.648300	-11.042000	24.030179	8.262156E-5	20.715214
1347.398006	-3.016700	3.648900	-11.006000	24.024284	8.116946E-5	20.718312
1348.395738	-2.989900	3.649700	-10.911000	23.988180	8.291858E-5	20.720037
1349.396813	-3.010100	3.647800	-10.980000	24.035712	8.423868E-5	20.720764
1350.399567	-3.012000	3.648500	-10.989000	24.041537	8.308360E-5	20.713802
1351.399129	-3.001800	3.647600	-10.949000	24.057536	8.169749E-5	20.717994
1352.396445	-2.981400	3.647100	-10.873000	24.051143	8.054241E-5	20.703521
1353.397338	-2.981100	3.647600	-10.872000	24.061298	8.179650E-5	20.723664
1354.399113	-3.003800	3.645700	-10.950000	24.031714	8.186251E-5	20.733824
1355.395872	-2.983900	3.647700	-10.883000	24.010015	8.097144E-5	20.720123
1356.403500	-2.996000	3.646500	-10.923000	23.980701	8.126846E-5	20.732452
1357.399686	-3.018300	3.646000	-11.002000	23.979931	7.938733E-5	20.720774
1358.401443	-2.999500	3.645600	-10.934000	23.985233	8.126846E-5	20.728936
1359.400224	-2.988100	3.644800	-10.890000	24.019351	8.156549E-5	20.730434
1360.401866	-2.995100	3.646400	-10.920000	24.014844	8.179650E-5	20.735398
1361.403500	-2.984200	3.646000	-10.879000	23.997501	8.083943E-5	20.745033
1362.406009	-3.012800	3.643400	-10.975000	23.985585	7.955234E-5	20.725022
1363.404780	-3.004100	3.643200	-10.943000	23.947135	7.899130E-5	20.728189
1364.403752	-2.997500	3.643600	-10.920000	23.961018	7.859527E-5	20.717929
1365.407916	-2.993200	3.643700	-10.906000	23.966295	7.780321E-5	20.724643
1366.404815	-2.981700	3.642800	-10.861000	23.965576	7.892529E-5	20.728189
1367.404074	-2.986700	3.642500	-10.878000	23.955048	7.806723E-5	20.714786
1368.405951	-2.997800	3.642100	-10.917000	23.999272	7.965135E-5	20.732109
1369.403097	-3.001600	3.643200	-10.935000	24.012410	8.103745E-5	20.744337
1370.407620	-3.005400	3.640900	-10.941000	24.065584	8.103745E-5	20.748826
1371.405654	-3.012300	3.640400	-10.965000	24.077806	8.021239E-5	20.738324
1372.407171	-3.012600	3.640200	-10.965000	24.091712	7.859527E-5	20.736624
1373.402939	-2.993600	3.642000	-10.902000	24.079078	7.757219E-5	20.719210
1374.403850	-2.988400	3.641800	-10.882000	24.061334	7.720917E-5	20.729864
1375.408236	-3.008400	3.639400	-10.948000	24.019235	8.017938E-5	20.742647
1376.406004	-2.982700	3.641500	-10.861000	23.980535	7.793522E-5	20.724699
1377.409368	-2.996500	3.638900	-10.903000	24.044862	7.810023E-5	20.730888
1378.405056	-3.001500	3.638700	-10.921000	24.083057	7.849626E-5	20.742642
1379.410145	-3.012900	3.638700	-10.962000	24.068898	7.948633E-5	20.734132
1380.412334	-3.002000	3.639700	-10.925000	24.069743	8.083943E-5	20.726444
1381.413720	-2.977300	3.639500	-10.834000	24.067254	7.780321E-5	20.743863
1382.411198	-2.999700	3.638800	-10.915000	24.107641	7.895829E-5	20.748332
1383.413618	-2.999600	3.638400	-10.914000	24.055258	7.684614E-5	20.714761
1384.409015	-2.976100	3.638600	-10.828000	24.026518	7.938733E-5	20.730510
1385.416459	-3.008900	3.637900	-10.945000	24.003471	7.592207E-5	20.763823
1386.410783	-3.005100	3.636800	-10.928000	24.001132	7.783621E-5	20.746778
1387.411320	-3.016100	3.636900	-10.968000	24.024300	7.579006E-5	20.756736
1388.417209	-2.976600	3.636300	-10.823000	24.039404	7.744018E-5	20.761452
1389.414936	-3.002800	3.636600	-10.919000	24.062460	7.691214E-5	20.724829
1390.414571	-2.991800	3.636600	-10.879000	24.070201	7.744018E-5	20.741128
1391.415369	-2.984900	3.635600	-10.851000	24.011323	7.767120E-5	20.733763
1392.412187	-2.989500	3.634800	-10.865000	23.990992	7.753919E-5	20.747040
1393.411050	-3.012100	3.633900	-10.944000	24.036980	8.001437E-5	20.747640
1394.414721	-2.983000	3.635100	-10.843000	24.061414	7.869428E-5	20.751282
1395.413631	-3.013900	3.634300	-10.952000	24.086768	7.724217E-5	20.755847
1396.412687	-2.985600	3.634500	-10.850000	24.044298	7.734118E-5	20.754506
1397.414088	-3.011200	3.633200	-10.939000	24.054115	7.852926E-5	20.743489
1398.415325	-3.014800	3.633000	-10.952000	24.058049	7.813323E-5	20.725147
1399.414921	-3.005600	3.633200	-10.920000	24.091596	7.803423E-5	20.747887
1400.416373	-3.024100	3.631400	-10.981000	24.095700	7.876028E-5	20.733037
1401.418954	-3.022200	3.632500	-10.977000	24.116306	7.664813E-5	20.757497
1402.417058	-2.979100	3.633100	-10.823000	24.140165	7.750619E-5	20.742545
1403.419725	-2.988500	3.633300	-10.858000	24.153402	7.704415E-5	20.760564
1404.420354	-2.991900	3.633500	-10.870000	24.179654	7.684614E-5	20.767455
1405.422613	-3.005600	3.631600	-10.914000	24.181198	7.753919E-5	20.750511
1406.419902	-3.007400	3.632000	-10.922000	24.143851	7.783621E-5	20.753356
1407.422644	-2.984600	3.630000	-10.833000	24.075351	7.664813E-5	20.751035
1408.421690	-2.979700	3.629800	-10.814000	24.081049	7.892529E-5	20.756276
1409.419851	-2.980300	3.630500	-10.819000	24.059110	7.404093E-5	20.772207
1410.422885	-3.011000	3.628300	-10.924000	24.068591	7.800122E-5	20.773180
1411.424058	-2.993800	3.629800	-10.866000	24.100267	7.668113E-5	20.756110
1412.426709	-2.997300	3.628900	-10.876000	24.129528	7.648311E-5	20.761750
1413.425309	-3.011600	3.629600	-10.930000	24.094826	7.565805E-5	20.751127
1414.423508	-2.990200	3.630600	-10.855000	24.111372	7.585607E-5	20.770567
1415.425102	-3.001200	3.628300	-10.888000	24.093337	7.562505E-5	20.760540
1416.426869	-2.992700	3.628200	-10.858000	24.067435	7.602108E-5	20.772020
1417.425767	-2.989200	3.628500	-10.846000	24.078043	7.410694E-5	20.780762
1418.424938	-2.979400	3.628500	-10.810000	24.079758	7.476699E-5	20.747394
1419.425617	-2.979500	3.627200	-10.806000	24.076101	7.605408E-5	20.764590
1420.428130	-2.987600	3.627700	-10.837000	24.077575	7.450297E-5	20.777923
1421.423722	-3.021600	3.625700	-10.955000	24.087483	7.460198E-5	20.763204
1422.430470	-3.016200	3.625600	-10.935000	24.092734	7.380992E-5	20.772263
1423.426457	-2.998000	3.627000	-10.874000	24.086770	7.328188E-5	20.774816
1424.425324	-3.013800	3.626600	-10.929000	24.124319	7.473399E-5	20.783553
1425.429807	-3.023700	3.625100	-10.960000	24.140619	7.407394E-5	20.769081
1426.429027	-2.999600	3.624800	-10.871000	24.102376	7.410694E-5	20.765338
1427.433535	-3.013000	3.624100	-10.919000	24.109940	7.344689E-5	20.808486
1428.429342	-2.984500	3.624600	-10.817000	24.089863	7.404093E-5	20.769858
1429.427722	-2.998700	3.623200	-10.864000	24.072244	7.377692E-5	20.764042
1430.428631	-3.000100	3.623900	-10.871000	24.096935	7.473399E-5	20.774579
1431.429691	-2.994900	3.623900	-10.853000	24.130898	7.489900E-5	20.788728
1432.429436	-3.021100	3.622900	-10.945000	24.169714	7.503101E-5	20.784037
1433.430347	-2.992000	3.623800	-10.841000	24.147973	7.206079E-5	20.779775
1434.429624	-3.012800	3.622300	-10.912000	24.125527	7.252282E-5	20.777177
1435.426083	-2.982800	3.622900	-10.805000	24.122268	7.318287E-5	20.775331
1436.429140	-2.992800	3.623500	-10.843000	24.124883	7.113672E-5	20.780325
1437.431479	-3.014800	3.620900	-10.916000	24.115504	7.120273E-5	20.776607
1438.427499	-2.998600	3.621400	-10.859000	24.084748	7.288585E-5	20.785591
1439.426528	-3.014600	3.620200	-10.912000	24.128494	7.044367E-5	20.777309
1440.429929	-3.006600	3.620300	-10.884000	24.154249	7.212679E-5	20.800770
1441.429684	-2.974200	3.620400	-10.767000	24.155673	7.196178E-5	20.782283
1442.428749	-2.993700	3.619300	-10.834000	24.138408	7.357890E-5	20.781087
1443.432365	-3.001600	3.619000	-10.861000	24.146942	7.146675E-5	20.813355
1444.431511	-3.008000	3.621200	-10.892000	24.112929	7.364491E-5	20.788724
1445.433218	-2.994100	3.618700	-10.834000	24.086530	7.090571E-5	20.783584
1446.431225	-3.023400	3.618600	-10.940000	24.119880	7.133474E-5	20.787635
1447.431014	-2.990200	3.617900	-10.817000	24.108182	7.206079E-5	20.783015
1448.431224	-3.009100	3.618400	-10.887000	24.087139	7.176377E-5	20.791308
1449.431396	-3.003200	3.618500	-10.866000	24.106150	7.235781E-5	20.818909
1450.435418	-2.978900	3.617800	-10.776000	24.140983	7.311687E-5	20.795999
1451.429800	-3.005000	3.616500	-10.866000	24.170540	7.285285E-5	20.805255
1452.435665	-3.013400	3.616300	-10.897000	24.181242	7.031166E-5	20.809351
1453.434801	-2.988700	3.616700	-10.808000	24.168478	7.057568E-5	20.794652
1454.434758	-3.015300	3.616200	-10.902000	24.165837	7.120273E-5	20.800064
1455.430731	-3.002800	3.615000	-10.854000	24.126750	7.041067E-5	20.802586
1456.432411	-3.008500	3.615800	-10.877000	24.074816	7.212679E-5	20.796493
1457.438582	-2.994400	3.616900	-10.829000	24.111793	7.291885E-5	20.825043
1458.433405	-3.011300	3.615600	-10.887000	24.126775	6.981663E-5	20.814939
1459.435278	-2.994500	3.616100	-10.827000	24.147773	6.955261E-5	20.802808
1460.433099	-2.983000	3.615000	-10.783000	24.162257	7.136774E-5	20.801689
1461.435419	-2.992000	3.615200	-10.815000	24.132499	7.070769E-5	20.817361
1462.434051	-3.005400	3.614300	-10.861000	24.135235	7.057568E-5	20.807303
1463.438026	-3.002200	3.613600	-10.848000	24.175468	7.166476E-5	20.813517
1464.437299	-2.993300	3.614300	-10.817000	24.212044	7.021265E-5	20.810375
1465.436090	-3.026300	3.612500	-10.931000	24.211325	6.902457E-5	20.806334
1466.440119	-2.992600	3.613600	-10.813000	24.226704	7.123573E-5	20.816544
1467.435524	-3.002200	3.612600	-10.845000	24.194755	6.899157E-5	20.792085
1468.444155	-3.023200	3.611400	-10.917000	24.203818	7.008064E-5	20.814925
1469.440369	-3.029000	3.610900	-10.936000	24.191899	6.955261E-5	20.797754
1470.443016	-2.999200	3.612100	-10.833000	24.241288	6.793549E-5	20.813154
1471.442608	-3.003200	3.610900	-10.844000	24.239402	6.846353E-5	20.836867
1472.439740	-2.995100	3.609900	-10.812000	24.267367	7.060868E-5	20.820348
1473.447486	-3.000900	3.610800	-10.835000	24.264682	6.846353E-5	20.809594
1474.443654	-3.020400	3.609200	-10.899000	24.240303	6.701142E-5	20.817856
1475.439887	-3.007400	3.609500	-10.854000	24.179649	6.717643E-5	20.841891
1476.441291	-3.021700	3.609600	-10.906000	24.195450	6.869454E-5	20.825498
1477.443724	-2.978100	3.610100	-10.750000	24.187559	6.833152E-5	20.827541
1478.445618	-2.996900	3.610000	-10.818000	24.190124	7.110372E-5	20.826794
1479.444500	-2.973700	3.610100	-10.734000	24.180082	7.064169E-5	20.833791
1480.442502	-3.000200	3.609700	-10.829000	24.184759	6.654939E-5	20.823309
1481.445161	-3.014000	3.607300	-10.872000	24.209321	6.922258E-5	20.829453
1482.445267	-3.001400	3.609000	-10.831000	24.219766	6.965161E-5	20.844197
1483.449125	-3.015900	3.607800	-10.880000	24.233133	6.780348E-5	20.819199
1484.445486	-3.033200	3.606800	-10.939000	24.259433	6.763847E-5	20.851269
1485.443331	-3.014100	3.607700	-10.872000	24.292326	6.882655E-5	20.823572
1486.450371	-3.019900	3.605200	-10.886000	24.290315	6.810050E-5	20.842417
1487.446173	-2.962900	3.607700	-10.688000	24.289098	6.790249E-5	20.837404
1488.449243	-2.989600	3.606500	-10.781000	24.268551	6.829851E-5	20.846190
1489.444954	-3.002000	3.604700	-10.821000	24.204539	6.935459E-5	20.853580
1490.446601	-2.997600	3.604600	-10.805000	24.225842	6.971762E-5	20.817102
1491.443495	-2.990500	3.605700	-10.782000	24.179269	6.892556E-5	20.830131
1492.446583	-3.031100	3.604400	-10.925000	24.153570	6.717643E-5	20.829485
1493.449470	-2.997400	3.605600	-10.806000	24.200055	7.004764E-5	20.850978
1494.444326	-2.994700	3.605800	-10.798000	24.204113	6.701142E-5	20.833713
1495.446450	-3.010000	3.604000	-10.847000	24.184863	6.882655E-5	20.871775
1496.448533	-3.011900	3.603100	-10.852000	24.205461	6.866154E-5	20.832220
1497.443581	-3.005400	3.603200	-10.829000	24.217164	6.879355E-5	20.844432
1498.453679	-2.998200	3.603000	-10.802000	24.237094	6.872755E-5	20.853991
1499.446362	-3.006600	3.602800	-10.831000	24.199956	6.608735E-5	20.856095
1500.444767	-2.999000	3.603000	-10.805000	24.224613	6.470125E-5	20.843843
1501.450260	-3.008100	3.601300	-10.832000	24.246936	6.750646E-5	20.859595
1502.447605	-3.001300	3.601300	-10.807000	24.274207	6.730844E-5	20.851863
1503.445706	-2.975500	3.603100	-10.720000	24.232036	6.582333E-5	20.853659
1504.448217	-3.024200	3.600900	-10.889000	24.193454	6.638437E-5	20.860479
1505.449183	-3.016300	3.601200	-10.862000	24.182884	6.486626E-5	20.871212
1506.446222	-3.023300	3.600800	-10.886000	24.192268	6.569132E-5	20.859289
1507.450357	-3.016900	3.600100	-10.860000	24.158332	6.770447E-5	20.868873
1508.447956	-2.998500	3.600500	-10.795000	24.144205	6.750646E-5	20.864187
1509.450685	-2.994400	3.600300	-10.780000	24.152740	6.546031E-5	20.840980
1510.450243	-2.983300	3.600200	-10.739000	24.206612	6.569132E-5	20.856132
1511.447888	-2.989700	3.598700	-10.758000	24.200220	6.582333E-5	20.860153
1512.451346	-2.996000	3.599600	-10.783000	24.221447	6.757246E-5	20.874805
1513.450380	-2.988700	3.597300	-10.750000	24.203358	6.615336E-5	20.873257
1514.451185	-3.015000	3.598400	-10.848000	24.193165	6.618636E-5	20.875361
1515.450645	-2.988300	3.598200	-10.751000	24.179386	6.684641E-5	20.855377
1516.451032	-3.002600	3.598300	-10.803000	24.164655	6.423922E-5	20.872844
1517.453044	-3.001700	3.597600	-10.797000	24.167080	6.361217E-5	20.877173
1518.452481	-3.001200	3.596500	-10.793000	24.181081	6.466825E-5	20.861818
1519.455275	-3.005200	3.596500	-10.808000	24.191391	6.407421E-5	20.871211
1520.451700	-2.993100	3.597200	-10.766000	24.153421	6.344716E-5	20.881964
1521.452003	-3.002300	3.595900	-10.795000	24.168006	6.552631E-5	20.870041
1522.452633	-3.007600	3.596100	-10.815000	24.160448	6.460224E-5	20.858667
1523.452230	-3.027200	3.595900	-10.885000	24.157088	6.232508E-5	20.868574
1524.454415	-3.005200	3.594600	-10.801000	24.198790	6.374418E-5	20.896173
1525.456728	-3.021500	3.594300	-10.860000	24.231564	6.064195E-5	20.898701
1526.452034	-2.997100	3.595200	-10.773000	24.273312	6.070796E-5	20.882258
1527.454493	-3.002700	3.594500	-10.792000	24.323688	6.196205E-5	20.883953
1528.451876	-3.012800	3.592700	-10.824000	24.309186	6.159902E-5	20.878415
1529.452049	-3.016000	3.593900	-10.838000	24.322552	6.186304E-5	20.884236
1530.455563	-2.988600	3.593800	-10.740000	24.302127	6.239108E-5	20.876549
1531.452838	-3.022800	3.592100	-10.857000	24.269215	6.077396E-5	20.871985
1532.455179	-2.982900	3.593200	-10.717000	24.254692	6.143401E-5	20.878280
1533.454166	-3.004200	3.592100	-10.791000	24.253249	6.080697E-5	20.882048
1534.456279	-2.984800	3.592100	-10.721000	24.231359	5.905784E-5	20.872893
1535.452926	-3.006000	3.591600	-10.795000	24.208674	5.984990E-5	20.874321
1536.455731	-3.016400	3.591700	-10.833000	24.221261	5.793576E-5	20.864188
1537.456230	-2.998000	3.591400	-10.766000	24.197435	5.813377E-5	20.871583
1538.458260	-2.986700	3.590600	-10.723000	24.203208	5.882682E-5	20.877373
1539.458375	-2.995200	3.590500	-10.753000	24.180537	5.918985E-5	20.883557
1540.457085	-2.986300	3.591500	-10.724000	24.216268	5.945387E-5	20.877671
1541.457096	-2.991600	3.590600	-10.740000	24.213261	5.823278E-5	20.865172
1542.457316	-2.983900	3.589700	-10.710000	24.220433	5.998191E-5	20.860038
1543.458839	-2.993900	3.589900	-10.747000	24.228936	5.955287E-5	20.873308
1544.459685	-2.986600	3.589200	-10.718000	24.205326	5.882682E-5	20.861006
1545.460544	-3.007000	3.588900	-10.791000	24.227946	5.757273E-5	20.872789
1546.460041	-3.010100	3.588800	-10.801000	24.198707	5.694568E-5	20.866222
1547.460065	-3.018200	3.588900	-10.832000	24.185742	6.047694E-5	20.851322
1548.461902	-3.006300	3.587100	-10.783000	24.173994	6.014692E-5	20.863245
1549.461817	-2.989000	3.588100	-10.725000	24.170489	5.975089E-5	20.865419
1550.463531	-3.022100	3.585900	-10.836000	24.168920	5.984990E-5	20.856259
1551.459838	-3.000400	3.586800	-10.761000	24.179969	5.793576E-5	20.863074
1552.459816	-2.977800	3.586600	-10.679000	24.158192	5.879382E-5	20.848345
1553.464411	-3.000800	3.585600	-10.759000	24.200246	5.773774E-5	20.854963
1554.461807	-3.008100	3.587100	-10.790000	24.216615	5.981689E-5	20.852890
1555.461724	-2.996400	3.586700	-10.746000	24.258107	5.654965E-5	20.851361
1556.464943	-3.028900	3.585800	-10.860000	24.289929	5.777074E-5	20.861944
1557.462563	-2.994300	3.585200	-10.735000	24.290698	5.942086E-5	20.864137
1558.464099	-2.992900	3.584700	-10.728000	24.289230	5.770474E-5	20.853656
1559.465600	-2.997600	3.584100	-10.743000	24.274998	5.961888E-5	20.846494
1560.461431	-2.996200	3.584700	-10.739000	24.261643	5.839779E-5	20.848269
1561.466828	-2.992900	3.583200	-10.723000	24.271841	5.697869E-5	20.863714
1562.461984	-2.995000	3.583400	-10.731000	24.246114	5.869481E-5	20.847391
1563.465223	-2.995900	3.583600	-10.735000	24.239652	5.615362E-5	20.850867
1564.464454	-3.004300	3.582600	-10.762000	24.250941	5.612062E-5	20.845596
1565.466905	-3.009700	3.583400	-10.784000	24.241588	5.592261E-5	20.849016
1566.469664	-3.015700	3.582700	-10.803000	24.271815	5.763873E-5	20.850887
1567.469383	-2.996300	3.582300	-10.733000	24.264901	5.783675E-5	20.843952
1568.464363	-3.011300	3.581500	-10.784000	24.238928	5.668166E-5	20.829279
1569.469338	-2.985300	3.582600	-10.694000	24.220814	5.516355E-5	20.859472
1570.469827	-3.001000	3.581100	-10.746000	24.253512	5.354643E-5	20.832053
1571.466367	-3.003400	3.580200	-10.752000	24.259033	5.707769E-5	20.842807
1572.469102	-2.995200	3.580800	-10.724000	24.268014	5.555958E-5	20.851816
1573.469025	-2.998600	3.580300	-10.735000	24.292001	5.681367E-5	20.841738
1574.471193	-2.966700	3.580800	-10.622000	24.309289	5.328241E-5	20.839640
1575.473301	-3.006000	3.580300	-10.762000	24.282120	5.489953E-5	20.837516
1576.471790	-2.992400	3.577900	-10.706000	24.317596	5.625263E-5	20.834222
1577.478962	-2.993600	3.578800	-10.713000	24.291900	5.734171E-5	20.843060
1578.474556	-2.986800	3.579300	-10.690000	24.275628	5.390946E-5	20.838590
1579.469903	-3.005600	3.579500	-10.757000	24.302294	5.407447E-5	20.843054
1580.470366	-3.011600	3.578000	-10.775000	24.342572	5.506455E-5	20.845052
1581.470364	-3.008200	3.577100	-10.760000	24.352844	5.503154E-5	20.839236
1582.471025	-3.007300	3.578800	-10.761000	24.327497	5.546057E-5	20.828033
1583.474224	-3.025500	3.576900	-10.821000	24.352226	5.549358E-5	20.824391
1584.473252	-3.007100	3.576300	-10.753000	24.371284	5.324941E-5	20.826439
1585.473207	-3.002700	3.576600	-10.738000	24.326154	5.136827E-5	20.823367
1586.474747	-3.000800	3.576600	-10.731000	24.323872	5.199532E-5	20.818233
1587.473288	-3.005800	3.575000	-10.745000	24.303768	5.390946E-5	20.821774
1588.476029	-2.989600	3.576200	-10.690000	24.304145	5.539457E-5	20.832109
1589.474652	-3.008200	3.576100	-10.757000	24.306307	5.334842E-5	20.819106
1590.472327	-3.005200	3.574900	-10.742000	24.266274	5.222634E-5	20.823993
1591.472603	-2.997400	3.575000	-10.714000	24.252558	5.123626E-5	20.827303
1592.476107	-3.002400	3.575000	-10.732000	24.245019	5.499854E-5	20.829699
1593.474317	-2.987000	3.575200	-10.678000	24.242902	4.971815E-5	20.832791
1594.475375	-3.001900	3.574700	-10.730000	24.255349	5.252336E-5	20.834370
1595.476067	-3.029600	3.573000	-10.824000	24.224724	5.410747E-5	20.813135
1596.475086	-2.996800	3.574300	-10.711000	24.236838	5.123626E-5	20.818648
1597.481267	-3.007500	3.574200	-10.748000	24.231895	5.255636E-5	20.844984
1598.475435	-2.966600	3.572700	-10.598000	24.216472	5.054321E-5	20.819083
1599.473834	-2.979200	3.572600	-10.643000	24.253665	5.311740E-5	20.825095
1600.475026	-2.963200	3.572900	-10.587000	24.262154	5.216033E-5	20.827446
1601.474215	-2.994200	3.572100	-10.695000	24.270542	5.229234E-5	20.816894
1602.473017	-2.993000	3.572600	-10.691000	24.308237	5.202832E-5	20.807765
1603.477964	-2.984900	3.571300	-10.659000	24.330080	5.060922E-5	20.825409
1604.477638	-2.999000	3.571000	-10.709000	24.322271	5.064222E-5	20.803826
1605.478744	-3.013700	3.570200	-10.758000	24.331403	5.107125E-5	20.820572
1606.480150	-2.990400	3.570600	-10.677000	24.300584	5.159929E-5	20.809571
1607.479724	-2.993800	3.569800	-10.686000	24.286826	5.176430E-5	20.831806
1608.479688	-2.984400	3.570700	-10.655000	24.290392	5.090624E-5	20.821633
1609.481204	-2.998300	3.570100	-10.703000	24.268844	4.803503E-5	20.803337
1610.479263	-2.996300	3.569400	-10.694000	24.264092	5.031220E-5	20.806157
1611.484254	-2.994600	3.567100	-10.680000	24.249911	5.001517E-5	20.826545
1612.478884	-2.992200	3.568300	-10.676000	24.279716	4.853007E-5	20.813769
1613.481508	-2.999300	3.567300	-10.699000	24.271686	4.889309E-5	20.803817
1614.483866	-2.983400	3.568300	-10.644000	24.293625	4.948714E-5	20.800220
1615.482977	-2.980300	3.567400	-10.631000	24.325421	4.816704E-5	20.811252
1616.483911	-3.019800	3.567100	-10.771000	24.314916	4.971815E-5	20.812568
1617.484530	-3.009500	3.566800	-10.733000	24.301062	4.645091E-5	20.804361
1618.488316	-3.012400	3.566700	-10.744000	24.289195	4.889309E-5	20.794828
1619.482384	-2.981800	3.567600	-10.637000	24.291438	4.938813E-5	20.822682
1620.484807	-3.008000	3.565500	-10.725000	24.271957	4.793602E-5	20.801718
1621.480186	-3.006500	3.565200	-10.717000	24.293374	4.872808E-5	20.800916
1622.481819	-3.015200	3.565400	-10.749000	24.295214	4.876108E-5	20.800866
1623.482018	-3.007300	3.566800	-10.726000	24.310586	4.773801E-5	20.806802
1624.487489	-2.998500	3.564500	-10.687000	24.328251	4.876108E-5	20.810772
1625.484814	-2.986300	3.566000	-10.648000	24.343024	4.856307E-5	20.807100
1626.485371	-2.984000	3.564000	-10.634000	24.321774	4.727597E-5	20.807594
1627.490029	-2.974000	3.565600	-10.603000	24.299754	4.803503E-5	20.801152
1628.484127	-2.980300	3.563900	-10.621000	24.253757	4.582387E-5	20.810015
1629.490260	-2.987300	3.563100	-10.643000	24.285844	4.899210E-5	20.798105
1630.488053	-2.987100	3.563600	-10.643000	24.321969	4.473479E-5	20.794040
1631.489697	-3.022500	3.561600	-10.764000	24.328777	4.621990E-5	20.801343
1632.486239	-3.005900	3.563500	-10.711000	24.303725	4.882709E-5	20.797075
1633.486506	-3.004400	3.561500	-10.699000	24.324045	4.608789E-5	20.803234
1634.490416	-2.996700	3.562400	-10.675000	24.342283	4.714396E-5	20.810624
1635.491123	-3.021500	3.560900	-10.759000	24.352380	4.701195E-5	20.786613
1636.492985	-2.969000	3.561900	-10.574000	24.363869	4.417375E-5	20.809519
1637.491471	-3.009000	3.561000	-10.714000	24.353496	4.407474E-5	20.768766
1638.493924	-3.011200	3.559000	-10.716000	24.341055	4.767200E-5	20.808444
1639.490185	-3.017100	3.560100	-10.740000	24.328685	4.605488E-5	20.789397
1640.495664	-2.973200	3.559900	-10.583000	24.343785	4.770501E-5	20.796484
1641.491890	-3.015000	3.558600	-10.729000	24.343061	4.536183E-5	20.782481
1642.492169	-2.982300	3.559800	-10.615000	24.320448	4.612089E-5	20.792514
1643.492872	-2.996800	3.558400	-10.663000	24.332934	4.348070E-5	20.787020
1644.490660	-2.984900	3.559800	-10.625000	24.296387	4.400873E-5	20.786395
1645.497726	-3.013300	3.557400	-10.719000	24.276830	4.450377E-5	20.787640
1646.491545	-3.015000	3.558300	-10.728000	24.266255	4.348070E-5	20.785567
1647.497718	-3.019900	3.556100	-10.738000	24.223510	4.222660E-5	20.792003
1648.497466	-2.984400	3.557400	-10.616000	24.265379	4.265564E-5	20.781370
1649.497530	-2.998300	3.556900	-10.664000	24.285901	4.288665E-5	20.776351
1650.495287	-2.997400	3.557600	-10.663000	24.271620	4.351370E-5	20.776250
1651.499350	-2.993200	3.556300	-10.644000	24.283110	4.381072E-5	20.772602
1652.497262	-3.007700	3.556800	-10.697000	24.297984	4.509781E-5	20.766660
1653.495189	-2.995900	3.555900	-10.652000	24.320868	4.245762E-5	20.777288
1654.497774	-3.018400	3.555200	-10.731000	24.343134	4.466878E-5	20.773071
1655.494796	-3.004500	3.555000	-10.680000	24.377311	4.150055E-5	20.765156
1656.498575	-2.967900	3.556900	-10.556000	24.346538	4.169856E-5	20.767476
1657.496808	-2.998900	3.554500	-10.659000	24.331558	4.159956E-5	20.776157
1658.496363	-2.989600	3.555700	-10.629000	24.274932	4.179757E-5	20.779098
1659.497292	-3.013600	3.552600	-10.705000	24.290827	4.064249E-5	20.777973
1660.497581	-2.975300	3.553900	-10.572000	24.287065	4.222660E-5	20.775148
1661.499847	-3.025400	3.552500	-10.746000	24.340894	4.202859E-5	20.778411
1662.498949	-2.999400	3.553500	-10.658000	24.354974	4.090651E-5	20.752705
1663.499512	-3.004100	3.552800	-10.672000	24.339717	4.229261E-5	20.773437
1664.498754	-2.990000	3.551700	-10.618000	24.326206	4.087350E-5	20.766046
1665.498980	-3.006400	3.551400	-10.676000	24.343910	4.011445E-5	20.767211
1666.502532	-3.004800	3.550800	-10.668000	24.326195	4.183057E-5	20.760820
1667.502065	-3.004500	3.551100	-10.668000	24.328830	4.001544E-5	20.756350
1668.499683	-3.003700	3.550500	-10.664000	24.337382	4.123653E-5	20.770620
1669.502200	-3.006200	3.551200	-10.675000	24.350170	3.985043E-5	20.765430
1670.500271	-3.000500	3.549600	-10.650000	24.331378	4.074149E-5	20.761752
1671.506092	-2.982200	3.550700	-10.587000	24.324363	3.935539E-5	20.770836
1672.507802	-2.990400	3.550100	-10.616000	24.337095	3.958641E-5	20.783134
1673.505161	-2.985300	3.550700	-10.598000	24.313531	4.189658E-5	20.760919
1674.502527	-2.973400	3.549500	-10.553000	24.284541	3.998244E-5	20.759339
1675.503306	-3.007900	3.547700	-10.670000	24.290359	3.783728E-5	20.743363
1676.502118	-3.014800	3.549100	-10.699000	24.305334	3.895936E-5	20.756963
1677.510326	-2.990400	3.548300	-10.610000	24.317573	3.988343E-5	20.747903
1678.506382	-3.004700	3.548400	-10.661000	24.307591	3.800229E-5	20.745951
1679.502706	-2.987200	3.548800	-10.601000	24.314550	3.994944E-5	20.765734
1680.504473	-3.000000	3.547900	-10.643000	24.329676	3.658319E-5	20.759570
1681.511662	-2.957600	3.548000	-10.493000	24.347411	3.912438E-5	20.746540
1682.501303	-3.001600	3.546800	-10.646000	24.302230	3.909137E-5	20.741047
1683.504440	-2.982200	3.548000	-10.580000	24.284610	3.740825E-5	20.744234
1684.503399	-2.992600	3.546800	-10.613000	24.237038	3.961941E-5	20.766692
1685.505667	-2.975300	3.547100	-10.553000	24.249177	3.803530E-5	20.735245
1686.506276	-3.002300	3.545300	-10.643000	24.246683	3.886036E-5	20.737484
1687.509846	-3.021800	3.544200	-10.709000	24.289642	4.031246E-5	20.740273
1688.507157	-2.997700	3.545200	-10.626000	24.287203	3.671520E-5	20.741620
1689.507737	-3.010400	3.544200	-10.668000	24.304044	3.836532E-5	20.742392
1690.516144	-2.998500	3.544500	-10.627000	24.316750	3.694622E-5	20.723369
1691.511141	-3.014600	3.542900	-10.680000	24.352402	3.744125E-5	20.743012
1692.515371	-2.999000	3.543100	-10.624000	24.361830	3.509808E-5	20.727813
1693.510148	-3.019200	3.541700	-10.693000	24.315780	3.882735E-5	20.737569
1694.512879	-2.984900	3.543500	-10.576000	24.308559	3.744125E-5	20.732696
1695.510459	-2.969100	3.543900	-10.521000	24.269200	3.721024E-5	20.713128
1696.510513	-2.993300	3.542600	-10.602000	24.260686	3.793629E-5	20.725451
1697.512916	-2.991700	3.541700	-10.595000	24.246354	3.641818E-5	20.728145
1698.514775	-3.003200	3.542600	-10.638000	24.253324	3.744125E-5	20.726127
1699.512451	-2.994400	3.540200	-10.600000	24.243095	3.721024E-5	20.731515
1700.514862	-3.006000	3.539900	-10.640000	24.276109	3.800229E-5	20.737603
1701.514629	-2.988800	3.541600	-10.585000	24.316558	3.740825E-5	20.721753
1702.515908	-3.002100	3.540200	-10.627000	24.312581	3.645118E-5	20.725825
1703.517268	-3.002300	3.540200	-10.628000	24.323573	3.655019E-5	20.744438
1704.515916	-2.972000	3.541000	-10.523000	24.285286	3.717723E-5	20.711720
1705.517201	-3.012300	3.540000	-10.663000	24.269189	3.595614E-5	20.707427
1706.516742	-2.982900	3.539900	-10.559000	24.255059	3.585714E-5	20.730712
1707.517875	-3.000500	3.539600	-10.620000	24.254163	3.684721E-5	20.725073
1708.517106	-2.996100	3.539100	-10.603000	24.303223	3.605515E-5	20.709798
1709.518376	-2.981800	3.538700	-10.551000	24.366661	3.546111E-5	20.706580
1710.519367	-3.002700	3.537400	-10.621000	24.347975	3.595614E-5	20.724820
1711.515596	-2.974800	3.538000	-10.524000	24.333152	3.526309E-5	20.708527
1712.518257	-2.984600	3.538200	-10.559000	24.315216	3.747425E-5	20.741745
1713.521103	-3.015000	3.535700	-10.660000	24.312405	3.496607E-5	20.699568
1714.518863	-2.995500	3.536400	-10.593000	24.273575	3.608815E-5	20.699971
1715.518577	-3.005100	3.536100	-10.625000	24.287207	3.394300E-5	20.727873
1716.516734	-2.973200	3.535900	-10.511000	24.304641	3.602215E-5	20.722127
1717.515336	-2.971300	3.535600	-10.504000	24.304677	3.615416E-5	20.685176
1718.518718	-2.996100	3.535900	-10.593000	24.312561	3.579113E-5	20.718218
1719.519505	-2.993600	3.535700	-10.584000	24.344356	3.509808E-5	20.713128
1720.519566	-3.004800	3.535400	-10.623000	24.318384	3.608815E-5	20.721688
1721.519433	-2.988000	3.536000	-10.564000	24.327415	3.361297E-5	20.717945
1722.517845	-2.995800	3.534300	-10.587000	24.261712	3.400900E-5	20.695659
1723.520913	-2.984800	3.534400	-10.548000	24.272685	3.397600E-5	20.725633
1724.521768	-2.990800	3.533300	-10.567000	24.305874	3.367898E-5	20.719096
1725.522776	-2.992500	3.534200	-10.575000	24.317816	3.424002E-5	20.708790
1726.522666	-2.983900	3.532200	-10.538000	24.313568	3.371198E-5	20.703105
1727.519089	-3.010300	3.532400	-10.632000	24.292493	3.070876E-5	20.727485
1728.520703	-3.010700	3.532200	-10.634000	24.302148	3.357997E-5	20.709668
1729.521021	-2.977100	3.532400	-10.515000	24.309736	3.301893E-5	20.715858
1730.523818	-2.988600	3.531100	-10.552000	24.338569	3.255689E-5	20.722022
1731.521810	-3.004900	3.532100	-10.612000	24.317475	3.258990E-5	20.716034
1732.523865	-3.014500	3.531500	-10.645000	24.331906	3.315094E-5	20.717235
1733.523720	-2.985200	3.531800	-10.542000	24.318621	3.176484E-5	20.708649
1734.524544	-3.000600	3.530400	-10.592000	24.336060	3.150082E-5	20.704331
1735.526038	-3.009300	3.529700	-10.621000	24.308041	2.955367E-5	20.700880
1736.522431	-2.997100	3.530000	-10.579000	24.319883	3.107178E-5	20.704225
1737.524262	-3.018100	3.528800	-10.649000	24.320034	3.384399E-5	20.713386
1738.524718	-3.024300	3.527900	-10.668000	24.344361	3.117079E-5	20.704598
1739.524520	-3.005400	3.528700	-10.604000	24.332670	3.047774E-5	20.712311
1740.525384	-2.982600	3.529800	-10.527000	24.367547	3.018072E-5	20.720745
1741.526739	-3.006200	3.528300	-10.606000	24.349108	3.060975E-5	20.695134
1742.525198	-2.993600	3.528600	-10.562000	24.285719	3.067576E-5	20.722112
1743.522416	-2.994100	3.526700	-10.558000	24.312380	2.876162E-5	20.716613
1744.527869	-3.011800	3.525900	-10.619000	24.331784	3.021372E-5	20.708577
1745.526913	-2.992900	3.527500	-10.556000	24.296681	2.889362E-5	20.707977
1746.527050	-2.983400	3.526700	-10.520000	24.314517	3.077476E-5	20.704057
1747.523416	-2.993100	3.526500	-10.554000	24.308422	2.899263E-5	20.708850
1748.523922	-2.998300	3.525500	-10.570000	24.276299	2.803556E-5	20.715034
1749.527028	-2.998200	3.525500	-10.570000	24.271396	2.961968E-5	20.698735
1750.526663	-3.005700	3.525300	-10.595000	24.281871	3.064275E-5	20.714459
1751.529423	-2.999200	3.526100	-10.575000	24.296373	2.905864E-5	20.710988
1752.536926	-3.006700	3.525300	-10.598000	24.294226	3.041174E-5	20.717369
1753.528858	-3.009700	3.524700	-10.607000	24.297867	2.826658E-5	20.702054
1754.533894	-3.003800	3.524000	-10.584000	24.312811	2.991670E-5	20.706614
1755.530004	-2.966700	3.525600	-10.459000	24.334630	3.011471E-5	20.714751
1756.529531	-2.997800	3.524000	-10.564000	24.341126	2.955367E-5	20.706095
1757.528365	-2.998900	3.523100	-10.564000	24.327646	3.054375E-5	20.712486
1758.528715	-3.007700	3.521800	-10.591000	24.342102	2.912464E-5	20.705651
1759.534480	-3.033000	3.522000	-10.682000	24.376455	2.820057E-5	20.706448
1760.531060	-3.010600	3.521900	-10.603000	24.353496	2.994970E-5	20.704279
1761.530939	-3.013300	3.522600	-10.613000	24.354568	2.899263E-5	20.701086
1762.530012	-2.993100	3.522000	-10.541000	24.339020	2.760653E-5	20.704456
1763.533481	-2.999600	3.520900	-10.560000	24.336707	2.965268E-5	20.692177
1764.530117	-3.027700	3.518700	-10.652000	24.329250	2.783755E-5	20.709354
1765.532177	-3.002500	3.519200	-10.565000	24.350073	2.895963E-5	20.699896
1766.532716	-2.994700	3.520500	-10.542000	24.330020	2.800256E-5	20.711074
1767.530894	-3.023000	3.520300	-10.640000	24.332679	3.008171E-5	20.704733
1768.534457	-2.991900	3.519900	-10.530000	24.287358	2.869561E-5	20.704789
1769.529862	-3.000100	3.519700	-10.559000	24.298029	2.714450E-5	20.704587
1770.533084	-3.026900	3.518100	-10.647000	24.290023	2.876162E-5	20.704144
1771.531709	-3.009400	3.518400	-10.588000	24.324288	2.879462E-5	20.703902
1772.531893	-2.996900	3.517800	-10.542000	24.344336	2.645145E-5	20.688924
1773.532227	-3.027900	3.516900	-10.647000	24.361251	2.925665E-5	20.712059
1774.534061	-2.975200	3.518000	-10.465000	24.345659	2.945467E-5	20.722970
1775.533848	-2.981900	3.517500	-10.488000	24.344492	2.922365E-5	20.712791
1776.533305	-2.988800	3.516200	-10.508000	24.338454	2.767254E-5	20.700094
1777.542812	-3.009500	3.516500	-10.582000	24.342487	2.826658E-5	20.732117
1778.536221	-2.991700	3.517300	-10.522000	24.362464	2.783755E-5	20.715172
1779.536808	-3.012300	3.515200	-10.587000	24.323756	2.625343E-5	20.727077
1780.533963	-3.016800	3.516600	-10.608000	24.340355	2.513135E-5	20.711011
1781.533924	-3.009000	3.516300	-10.580000	24.290654	2.638544E-5	20.701931
1782.536152	-3.001700	3.515500	-10.552000	24.311483	2.546137E-5	20.727568
1783.536453	-3.008000	3.515300	-10.573000	24.307847	2.523036E-5	20.713962
1784.543713	-2.999800	3.515300	-10.544000	24.356517	2.740852E-5	20.721535
1785.536472	-2.986700	3.514700	-10.496000	24.358553	2.579140E-5	20.725949
1786.536705	-2.984200	3.514000	-10.485000	24.367841	2.443830E-5	20.728154
1787.537268	-2.986700	3.513000	-10.492000	24.350056	2.622043E-5	20.706044
1788.536391	-2.979200	3.514100	-10.468000	24.348151	2.569239E-5	20.721203
1789.537897	-3.003900	3.511300	-10.546000	24.351983	2.265617E-5	20.729315
1790.536495	-3.004100	3.511800	-10.549000	24.391143	2.397626E-5	20.721658
1791.536925	-3.002500	3.513100	-10.547000	24.392731	2.457031E-5	20.715190
1792.540112	-2.965000	3.512400	-10.413000	24.373585	2.658346E-5	20.726329
1793.535964	-2.990700	3.511500	-10.501000	24.353241	2.645145E-5	20.720619
1794.542161	-2.990800	3.511900	-10.502000	24.380781	2.546137E-5	20.723116
1795.538729	-2.974300	3.511000	-10.442000	24.340037	2.671546E-5	20.721598
1796.539420	-2.996400	3.510600	-10.518000	24.311260	2.450430E-5	20.721654
1797.543265	-3.036700	3.509200	-10.654000	24.298120	2.288718E-5	20.718430
1798.542840	-3.020600	3.509100	-10.598000	24.301711	2.499934E-5	20.721084
1799.539118	-2.999100	3.510000	-10.525000	24.311019	2.513135E-5	20.721887
1800.547395	-2.986300	3.509200	-10.479000	24.340803	2.344822E-5	20.728531
1801.538737	-2.989600	3.509900	-10.492000	24.331058	2.552738E-5	20.737722
1802.540603	-3.007200	3.508800	-10.551000	24.298695	2.400927E-5	20.730388
1803.543056	-2.997200	3.507600	-10.512000	24.338722	2.493333E-5	20.716959
1804.539279	-3.031900	3.507900	-10.634000	24.350745	2.391026E-5	20.737082
1805.541812	-2.975900	3.508600	-10.440000	24.358061	2.262316E-5	20.725929
1806.544837	-3.034900	3.505800	-10.638000	24.337174	2.391026E-5	20.730581
1807.544396	-3.016000	3.506800	-10.576000	24.334389	2.103905E-5	20.720674
1808.544674	-3.045200	3.506700	-10.677000	24.350364	2.358023E-5	20.737174
1809.547359	-2.989300	3.506200	-10.480000	24.379378	2.420728E-5	20.735934
1810.542491	-3.010900	3.506400	-10.556000	24.378538	2.542837E-5	20.752637
1811.541877	-3.023200	3.506100	-10.599000	24.417351	2.453730E-5	20.740838
1812.546472	-2.981400	3.506100	-10.452000	24.405213	2.546137E-5	20.728661
1813.546096	-2.997100	3.505500	-10.505000	24.425100	2.371224E-5	20.732965
1814.541696	-2.980900	3.504600	-10.446000	24.408437	2.371224E-5	20.750863
1815.547351	-2.989200	3.505200	-10.477000	24.426946	2.179810E-5	20.732446
1816.545563	-2.991600	3.505100	-10.485000	24.361732	2.328321E-5	20.747156
1817.544366	-3.012300	3.503600	-10.552000	24.357011	2.301919E-5	20.731040
1818.547001	-3.009300	3.504000	-10.544000	24.412311	2.318421E-5	20.728195
1819.544971	-3.012900	3.503700	-10.556000	24.431895	2.186411E-5	20.739309
1820.549064	-2.989600	3.503100	-10.472000	24.418617	1.998297E-5	20.739738
1821.547443	-3.000700	3.502100	-10.508000	24.383496	2.480132E-5	20.751920
1822.544314	-2.993000	3.503300	-10.484000	24.391114	2.156709E-5	20.749131
1823.548201	-3.025300	3.502300	-10.595000	24.425175	2.387726E-5	20.739679
1824.547720	-3.027400	3.501000	-10.598000	24.422968	2.354723E-5	20.729878
1825.553929	-3.026000	3.500500	-10.591000	24.427404	2.315120E-5	20.742389
1826.548095	-3.005100	3.501200	-10.521000	24.412179	2.354723E-5	20.771212
1827.550564	-3.000900	3.501000	-10.504000	24.421793	2.212813E-5	20.759995
1828.554369	-2.975800	3.500600	-10.416000	24.379748	2.249115E-5	20.737254
1829.551779	-3.025200	3.499800	-10.586000	24.387889	2.344822E-5	20.746370
1830.551845	-2.999900	3.499700	-10.498000	24.440931	2.133607E-5	20.742209
1831.549295	-2.999800	3.499900	-10.498000	24.442449	2.113806E-5	20.762226
1832.553775	-2.985900	3.499900	-10.450000	24.434943	2.113806E-5	20.771291
1833.550172	-2.991300	3.500500	-10.471000	24.406837	2.176510E-5	20.763957
1834.553512	-3.012900	3.498500	-10.539000	24.406143	2.070902E-5	20.773218
1835.561336	-3.004800	3.499500	-10.515000	24.392361	2.107205E-5	20.764133
1836.554764	-2.971900	3.499900	-10.401000	24.398436	2.143508E-5	20.738458
1837.553455	-3.005400	3.497000	-10.508000	24.410579	2.103905E-5	20.749692
1838.552896	-2.976300	3.497200	-10.407000	24.410081	1.932292E-5	20.761995
1839.553633	-2.998500	3.497000	-10.485000	24.410881	1.935592E-5	20.741460
1840.552961	-3.002600	3.497100	-10.500000	24.421606	2.051101E-5	20.756962
1841.551392	-3.025600	3.495800	-10.576000	24.454936	2.037900E-5	20.773805
1842.555078	-2.992900	3.497600	-10.467000	24.439521	2.166609E-5	20.767823
1843.553889	-3.009700	3.497400	-10.525000	24.398623	1.971895E-5	20.763777
1844.554481	-2.979500	3.495500	-10.414000	24.413823	2.061002E-5	20.755792
1845.555495	-2.995800	3.495300	-10.471000	24.405914	2.094004E-5	20.769195
1846.558288	-3.023100	3.494600	-10.564000	24.379969	2.084103E-5	20.761185
1847.554696	-3.006900	3.494100	-10.506000	24.341192	2.070902E-5	20.760691
1848.554658	-3.015500	3.493300	-10.534000	24.355567	1.965295E-5	20.755671
1849.554072	-2.978500	3.495700	-10.410000	24.360445	1.889389E-5	20.763884
1850.558162	-2.999000	3.493600	-10.477000	24.356966	1.965295E-5	20.763713
1851.560648	-2.976900	3.495200	-10.405000	24.350872	1.816784E-5	20.771824
1852.553592	-2.997700	3.492600	-10.469000	24.366690	1.796982E-5	20.793383
1853.553074	-2.967000	3.494700	-10.368000	24.347191	2.150108E-5	20.783305
1854.556125	-3.001800	3.492900	-10.484000	24.352264	2.034600E-5	20.779385
1855.552877	-2.989200	3.492600	-10.440000	24.450352	1.909190E-5	20.768732
1856.556746	-2.957400	3.493200	-10.329000	24.407897	1.879488E-5	20.784935
1857.556863	-2.980900	3.492200	-10.408000	24.370457	1.813483E-5	20.765867
1858.556299	-3.003500	3.491200	-10.485000	24.363538	1.833285E-5	20.752762
1859.555443	-2.997200	3.492100	-10.466000	24.381398	1.826684E-5	20.789646
1860.557847	-3.008700	3.490600	-10.502000	24.355257	1.846486E-5	20.779068
1861.554510	-3.008000	3.490200	-10.497000	24.382047	1.856387E-5	20.785555
1862.555729	-2.996500	3.490700	-10.459000	24.383314	2.008198E-5	20.757428
1863.557025	-2.997200	3.490700	-10.461000	24.443565	1.886089E-5	20.760026
1864.554971	-2.990100	3.490200	-10.435000	24.418988	1.981796E-5	20.795114
1865.557364	-2.971100	3.489400	-10.367000	24.448171	1.773881E-5	20.785510
1866.556468	-2.990300	3.489600	-10.434000	24.430986	1.780481E-5	20.777752
1867.558823	-2.972100	3.489100	-10.369000	24.414192	1.615469E-5	20.791250
1868.558418	-3.003400	3.487700	-10.473000	24.427224	1.787081E-5	20.786781
1869.559306	-3.001600	3.487800	-10.468000	24.412976	1.760680E-5	20.778176
1870.556817	-2.988900	3.487800	-10.424000	24.422725	1.800282E-5	20.760929
1871.558633	-3.000100	3.486600	-10.458000	24.418723	1.688074E-5	20.768294
1872.558032	-2.997900	3.486400	-10.451000	24.449021	1.529663E-5	20.756017
1873.558986	-3.001000	3.487200	-10.464000	24.433481	1.638571E-5	20.781203
1874.561448	-3.009700	3.486200	-10.492000	24.471486	1.780481E-5	20.782822
1875.558774	-3.027800	3.485800	-10.554000	24.477957	1.744178E-5	20.768452
1876.561918	-2.980700	3.486400	-10.390000	24.480767	1.361350E-5	20.783125
1877.565116	-3.006500	3.485100	-10.477000	24.488253	1.661672E-5	20.783998
1878.566558	-2.995400	3.486500	-10.443000	24.520798	1.579166E-5	20.791046
1879.563569	-3.025000	3.484900	-10.541000	24.503111	1.529663E-5	20.788947
1880.562655	-2.990400	3.485000	-10.420000	24.501623	1.499960E-5	20.781765
1881.562997	-2.997900	3.485200	-10.448000	24.476052	1.889389E-5	20.782188
1882.564489	-2.991000	3.484300	-10.421000	24.475756	1.579166E-5	20.777149
1883.564027	-3.000500	3.483100	-10.450000	24.428444	1.476859E-5	20.806022
1884.566074	-3.004300	3.485100	-10.468000	24.434367	1.655072E-5	20.784464
1885.568717	-2.997000	3.482700	-10.437000	24.435368	1.638571E-5	20.786891
1886.565662	-3.033800	3.481500	-10.561000	24.435092	1.542864E-5	20.781871
1887.568206	-3.002600	3.482600	-10.456000	24.464022	1.202939E-5	20.793352
1888.569921	-3.009800	3.481900	-10.479000	24.451513	1.473558E-5	20.791234
1889.568686	-2.995700	3.483200	-10.433000	24.465540	1.628670E-5	20.783022
1890.568518	-2.987500	3.482700	-10.404000	24.472409	1.476859E-5	20.800818
1891.569367	-3.011300	3.481000	-10.481000	24.440352	1.526362E-5	20.791890
1892.567519	-2.976400	3.482500	-10.365000	24.391268	1.391052E-5	20.805711
1893.569279	-2.977100	3.482500	-10.366000	24.406865	1.189738E-5	20.804763
1894.574816	-2.985700	3.481200	-10.393000	24.391993	1.506561E-5	20.777040
1895.568286	-2.992600	3.481700	-10.418000	24.374857	1.344849E-5	20.802998
1896.571028	-2.977200	3.480400	-10.361000	24.372097	1.526362E-5	20.808289
1897.577952	-2.998100	3.480300	-10.434000	24.384260	1.341549E-5	20.805318
1898.572425	-3.006300	3.480500	-10.463000	24.401426	1.602268E-5	20.818746
1899.574435	-2.994600	3.479500	-10.419000	24.425455	1.189738E-5	20.811558
1900.571950	-2.972200	3.480500	-10.343000	24.426224	1.506561E-5	20.815649
1901.569617	-2.996300	3.480000	-10.426000	24.452917	1.189738E-5	20.813979
1902.574944	-3.015100	3.479700	-10.491000	24.460957	1.255742E-5	20.815407
1903.575496	-2.985600	3.478900	-10.386000	24.426601	1.509861E-5	20.814605
1904.575417	-3.012200	3.478000	-10.475000	24.393195	1.410854E-5	20.815705
1905.569550	-2.993400	3.478000	-10.410000	24.382009	1.424055E-5	20.814914
1906.568128	-2.977400	3.479000	-10.357000	24.410884	1.245842E-5	20.818277
1907.569039	-2.989500	3.476900	-10.392000	24.407184	1.381152E-5	20.819781
1908.568822	-2.976700	3.477900	-10.352000	24.394669	1.420755E-5	20.812916
1909.569080	-2.969000	3.477200	-10.323000	24.413952	1.338248E-5	20.796225
1910.568927	-2.979400	3.476400	-10.357000	24.425024	1.463658E-5	20.833411
1911.569309	-2.993900	3.475800	-10.405000	24.423411	1.476859E-5	20.785326
1912.568478	-2.976600	3.476100	-10.346000	24.428906	1.311847E-5	20.817865
1913.571116	-2.974100	3.477300	-10.341000	24.410359	1.212839E-5	20.812535
1914.570536	-2.968800	3.477500	-10.323000	24.431898	1.549464E-5	20.817074
1915.570863	-2.987300	3.475600	-10.382000	24.428098	1.476859E-5	20.799037
1916.570130	-2.992300	3.474100	-10.395000	24.446259	1.410854E-5	20.805877
1917.569620	-3.002100	3.474700	-10.430000	24.461167	1.199638E-5	20.798549
1918.569442	-3.006600	3.474200	-10.445000	24.485435	1.265643E-5	20.817206
1919.571143	-2.975400	3.475300	-10.339000	24.515592	1.186437E-5	20.825177
1920.580884	-2.979000	3.474300	-10.348000	24.528377	1.278844E-5	20.818090
1921.570972	-2.995200	3.473100	-10.402000	24.525195	1.292045E-5	20.823906
1922.573213	-2.987500	3.472900	-10.375000	24.532762	1.457057E-5	20.839084
1923.573568	-2.979700	3.474700	-10.353000	24.572105	1.358050E-5	20.820239
1924.573683	-2.992800	3.472800	-10.391000	24.559774	1.351449E-5	20.816401
1925.574772	-3.005200	3.472400	-10.434000	24.605171	1.295345E-5	20.813587
1926.573766	-3.002100	3.472000	-10.422000	24.588581	1.427355E-5	20.820175
1927.573728	-2.992100	3.471700	-10.387000	24.517329	1.206239E-5	20.807006
1928.571807	-2.982400	3.472900	-10.357000	24.481960	1.272244E-5	20.831737
1929.574811	-2.997100	3.472500	-10.406000	24.482337	1.315147E-5	20.826900
1930.572703	-3.001400	3.469700	-10.414000	24.466490	1.156735E-5	20.847984
1931.576751	-3.023800	3.470200	-10.493000	24.491443	1.447156E-5	20.827501
1932.573888	-3.011100	3.470500	-10.449000	24.445801	1.113832E-5	20.851409
1933.578074	-2.993800	3.469300	-10.386000	24.438762	1.100631E-5	20.818744
1934.574758	-2.992800	3.469000	-10.381000	24.425831	1.252442E-5	20.833746
1935.576961	-2.981900	3.470700	-10.348000	24.429864	1.222740E-5	20.825464
1936.581336	-3.013800	3.468500	-10.452000	24.408897	1.331648E-5	20.841888
1937.579574	-3.021100	3.467800	-10.475000	24.419245	1.443856E-5	20.847527
1938.579512	-2.991300	3.470100	-10.379000	24.457326	1.391052E-5	20.834049
1939.577469	-3.005900	3.469700	-10.428000	24.460324	1.318447E-5	20.829471
1940.579062	-3.006500	3.467400	-10.423000	24.431791	1.239241E-5	20.833561
1941.580821	-2.998600	3.468300	-10.399000	24.407245	9.257181E-6	20.844971
1942.584434	-3.022000	3.467600	-10.478000	24.409986	1.202939E-5	20.847247
1943.577730	-2.999700	3.468300	-10.402000	24.409488	1.097331E-5	20.857178
1944.579368	-3.029900	3.466700	-10.503000	24.415903	1.334948E-5	20.841804
1945.582390	-2.989300	3.467200	-10.363000	24.410635	1.407554E-5	20.849794
1946.589202	-2.997000	3.466800	-10.389000	24.453227	1.265643E-5	20.834204
1947.583465	-2.996700	3.466400	-10.387000	24.448022	1.242541E-5	20.842733
1948.583636	-2.994600	3.466200	-10.379000	24.468445	1.367951E-5	20.852316
1949.588868	-3.006000	3.465200	-10.414000	24.469989	1.397653E-5	20.845331
1950.579184	-3.003000	3.465500	-10.407000	24.478572	1.037926E-5	20.846355
1951.586695	-2.979900	3.466700	-10.330000	24.514886	1.117132E-5	20.857184
1952.582071	-3.028700	3.463500	-10.489000	24.513418	1.186437E-5	20.836272
1953.583627	-3.014800	3.462500	-10.438000	24.496405	1.288745E-5	20.853815
1954.582915	-2.991200	3.463700	-10.360000	24.480954	1.226040E-5	20.868184
1955.582968	-2.991000	3.463900	-10.360000	24.448584	9.620208E-6	20.867477
1956.586537	-2.990300	3.463300	-10.356000	24.454633	1.084130E-5	20.844149
1957.593077	-3.004300	3.463600	-10.405000	24.455226	1.084130E-5	20.859442
1958.588018	-2.985400	3.464100	-10.341000	24.469858	1.235941E-5	20.846621
1959.588964	-3.036500	3.462000	-10.511000	24.504402	1.057728E-5	20.866579
1960.587433	-3.006500	3.463200	-10.411000	24.536633	1.024725E-5	20.846287
1961.585647	-2.980600	3.463700	-10.323000	24.509078	1.272244E-5	20.846615
1962.587595	-2.996800	3.463400	-10.379000	24.515663	1.193038E-5	20.847058
1963.585327	-2.990400	3.460500	-10.347000	24.508675	1.193038E-5	20.843841
1964.588245	-3.011900	3.460800	-10.423000	24.548699	1.212839E-5	20.869298
1965.586561	-2.998600	3.461800	-10.380000	24.585584	9.818223E-6	20.859366
1966.589666	-2.987300	3.462200	-10.342000	24.573267	1.041227E-5	20.867870
1967.591361	-2.981700	3.461100	-10.320000	24.551957	1.110532E-5	20.872566
1968.590816	-2.996800	3.459900	-10.367000	24.561036	1.051127E-5	20.875512
1969.590632	-2.992400	3.461200	-10.356000	24.552882	9.653210E-6	20.862590
1970.588726	-3.000000	3.459300	-10.377000	24.517061	1.262343E-5	20.866478
1971.587222	-2.987100	3.460000	-10.334000	24.537282	9.620208E-6	20.861636
1972.595326	-2.996000	3.458800	-10.362000	24.591079	1.067629E-5	20.863931
1973.590827	-2.999400	3.459100	-10.375000	24.590738	1.160035E-5	20.869278
1974.588745	-2.988700	3.460900	-10.342000	24.554868	1.127033E-5	20.869323
1975.588928	-2.982700	3.458900	-10.316000	24.554269	1.143534E-5	20.878205
1976.594756	-3.005900	3.458000	-10.394000	24.560494	1.080830E-5	20.866434
1977.592407	-3.012100	3.457800	-10.414000	24.535422	1.193038E-5	20.880158
1978.602521	-2.998300	3.458200	-10.368000	24.553361	9.818223E-6	20.862596
1979.593863	-3.013200	3.457000	-10.415000	24.529625	1.193038E-5	20.898996
1980.592693	-3.013700	3.456800	-10.417000	24.526348	9.521201E-6	20.878640
1981.595954	-3.041600	3.456600	-10.512000	24.526360	9.983235E-6	20.857790
1982.596006	-3.005400	3.457600	-10.389000	24.509889	1.130333E-5	20.873981
1983.596821	-2.987700	3.457200	-10.328000	24.501313	1.061028E-5	20.873911
1984.593073	-2.995100	3.456600	-10.352000	24.485471	1.094031E-5	20.870345
1985.593367	-2.999100	3.456200	-10.365000	24.492963	1.255742E-5	20.881654
1986.592625	-3.015100	3.456400	-10.420000	24.529699	1.341549E-5	20.886743
1987.595973	-3.019300	3.454900	-10.431000	24.552187	9.752218E-6	20.885124
1988.597187	-3.004800	3.456300	-10.385000	24.541720	1.064328E-5	20.884106
1989.594662	-3.010900	3.454900	-10.402000	24.522974	1.146834E-5	20.870988
1990.595055	-3.020700	3.453900	-10.432000	24.527208	9.455196E-6	20.898467
1991.596719	-3.023300	3.454200	-10.442000	24.506238	9.653210E-6	20.878378
1992.595495	-3.017400	3.453000	-10.417000	24.480396	9.917230E-6	20.898442
1993.597473	-2.962100	3.454100	-10.230000	24.486420	9.455196E-6	20.900692
1994.597089	-2.993600	3.452700	-10.336000	24.528783	1.051127E-5	20.898151
1995.595944	-3.014700	3.454000	-10.412000	24.529331	1.179837E-5	20.902967
1996.595944	-3.027400	3.453300	-10.454000	24.547496	8.663138E-6	20.903649
1997.597972	-3.021400	3.452300	-10.430000	24.587639	1.008224E-5	20.868065
1998.595104	-3.000800	3.454200	-10.365000	24.622658	9.488198E-6	20.898934
1999.595975	-2.980100	3.450900	-10.284000	24.606421	9.224179E-6	20.906822
2000.597412	-2.972000	3.451800	-10.257000	24.589289	1.028026E-5	20.878255
2001.597147	-3.018800	3.451100	-10.416000	24.566908	1.140234E-5	20.913643
2002.597640	-2.985100	3.452400	-10.304000	24.565541	1.103931E-5	20.907056
2003.598529	-3.012300	3.450300	-10.392000	24.593100	9.356189E-6	20.897251
2004.599487	-2.987200	3.451400	-10.309000	24.614214	8.234106E-6	20.901840
2005.599409	-2.990900	3.450700	-10.320000	24.597971	9.389191E-6	20.891233
2006.601326	-3.008300	3.450000	-10.378000	24.599666	9.158174E-6	20.895778
2007.601594	-3.001400	3.449900	-10.353000	24.618246	7.574058E-6	20.887870
2008.610465	-3.002300	3.448700	-10.353000	24.606458	8.663138E-6	20.904489
2009.603058	-2.992500	3.450600	-10.325000	24.611706	8.069094E-6	20.910703
2010.602481	-2.986000	3.450200	-10.302000	24.573032	9.290184E-6	20.890866
2011.601162	-2.994800	3.448700	-10.327000	24.628497	8.894155E-6	20.892465
2012.599158	-2.977700	3.449200	-10.270000	24.627174	7.145026E-6	20.901094
2013.604311	-2.980000	3.449600	-10.278000	24.629089	9.224179E-6	20.867457
2014.611351	-2.983300	3.449200	-10.289000	24.626626	8.300111E-6	20.892484
2015.600428	-2.999000	3.447000	-10.337000	24.585016	9.356189E-6	20.882029
2016.604882	-2.989800	3.448700	-10.310000	24.583277	7.739070E-6	20.867008
2017.609638	-3.013400	3.448200	-10.390000	24.580934	8.267109E-6	20.886467
2018.605254	-2.995200	3.446500	-10.322000	24.629430	8.564130E-6	20.885816
2019.607379	-2.997900	3.447400	-10.334000	24.615973	7.277036E-6	20.868994
2020.605438	-2.999100	3.445700	-10.333000	24.597644	8.069094E-6	20.890905
2021.603191	-2.985400	3.447300	-10.291000	24.573020	7.277036E-6	20.879475
2022.608632	-2.999600	3.446900	-10.338000	24.568938	8.234106E-6	20.873483
2023.606891	-3.029100	3.444900	-10.434000	24.614681	6.980014E-6	20.899938
2024.611250	-2.985900	3.446000	-10.288000	24.595471	9.224179E-6	20.862648
2025.607203	-3.020900	3.444300	-10.403000	24.635442	7.541055E-6	20.879520
2026.605850	-3.003300	3.444400	-10.343000	24.673912	9.389191E-6	20.879716
2027.606452	-2.998200	3.444400	-10.326000	24.626810	8.498126E-6	20.889350
2028.606494	-3.004900	3.443900	-10.348000	24.609843	8.531128E-6	20.881809
2029.610151	-3.017700	3.443800	-10.392000	24.592730	8.498126E-6	20.874596
2030.612462	-2.994900	3.443900	-10.314000	24.557515	8.036092E-6	20.860600
2031.608646	-3.008300	3.443700	-10.359000	24.551044	6.815002E-6	20.890141
2032.611106	-3.006300	3.442600	-10.349000	24.576222	9.356189E-6	20.875576
2033.609787	-3.005500	3.443300	-10.348000	24.575372	9.455196E-6	20.882308
2034.615362	-3.021500	3.443000	-10.402000	24.579845	4.636841E-6	20.876841
2035.620855	-3.007200	3.442000	-10.350000	24.598798	7.112024E-6	20.851288
2036.609941	-3.011100	3.443800	-10.368000	24.619861	9.026164E-6	20.875267
2037.610548	-3.018600	3.441000	-10.386000	24.593474	6.781999E-6	20.886247
2038.619870	-2.994400	3.442100	-10.306000	24.549129	6.947011E-6	20.878737
2039.611086	-3.017200	3.439800	-10.377000	24.546212	6.055946E-6	20.876759
2040.614645	-2.994600	3.440700	-10.303000	24.584344	8.135099E-6	20.862390
2041.611322	-3.007100	3.440800	-10.346000	24.654773	7.046019E-6	20.866202
2042.613262	-3.001800	3.441100	-10.329000	24.648705	8.069094E-6	20.883820
2043.610982	-2.972200	3.441400	-10.228000	24.659196	6.484977E-6	20.847882
2044.612457	-3.001000	3.440900	-10.326000	24.607192	7.013016E-6	20.855917
2045.614937	-3.004700	3.439700	-10.334000	24.593236	5.494905E-6	20.850923
2046.613887	-3.008300	3.439700	-10.347000	24.620146	5.890934E-6	20.869389
2047.609443	-3.001500	3.439400	-10.322000	24.568953	6.781999E-6	20.863542
2048.612209	-3.004100	3.440000	-10.334000	24.629119	9.059167E-6	20.855159
2049.613519	-3.010700	3.438900	-10.353000	24.648291	6.815002E-6	20.852112
2050.621731	-2.984900	3.440200	-10.268000	24.637196	5.296890E-6	20.864212
2051.613639	-3.001200	3.438600	-10.318000	24.626971	4.405824E-6	20.853952
2052.616205	-3.005200	3.438000	-10.331000	24.614660	6.914009E-6	20.859617
2053.615081	-2.990700	3.439000	-10.283000	24.581505	8.069094E-6	20.862386
2054.615907	-3.017600	3.438100	-10.374000	24.566101	4.471829E-6	20.853568
2055.614775	-3.013700	3.437800	-10.360000	24.578488	3.646768E-6	20.848928
2056.613685	-2.995100	3.437100	-10.293000	24.589899	5.824929E-6	20.854213
2057.619122	-2.996900	3.437100	-10.300000	24.653617	4.273815E-6	20.849870
2058.614517	-2.993700	3.437400	-10.289000	24.657070	5.032870E-6	20.855705
2059.614573	-3.005900	3.437000	-10.330000	24.642145	4.009795E-6	20.849264
2060.615083	-3.005900	3.436500	-10.328000	24.636379	5.824929E-6	20.839686
2061.617346	-3.001400	3.435500	-10.311000	24.633021	2.095654E-6	20.859075
2062.616053	-2.955700	3.435800	-10.155000	24.606874	3.019722E-6	20.837107
2063.618029	-2.993900	3.435400	-10.284000	24.596397	2.755703E-6	20.820431
2064.625822	-3.013600	3.435800	-10.353000	24.633658	3.613766E-6	20.836008
2065.622447	-3.009700	3.433000	-10.331000	24.669836	3.184734E-6	20.838645
2066.625582	-2.980700	3.434300	-10.236000	24.690853	4.372822E-6	20.831760
2067.620218	-2.986900	3.433000	-10.253000	24.646033	3.118730E-6	20.835149
2068.621827	-2.974400	3.435000	-10.216000	24.617952	5.131878E-6	20.833524
2069.623228	-2.998300	3.434800	-10.298000	24.634340	1.666623E-6	20.854235
2070.623483	-3.002800	3.434800	-10.313000	24.653809	2.260666E-6	20.847692
2071.629645	-3.006000	3.434600	-10.324000	24.646425	2.161659E-6	20.833171
2072.621978	-3.008300	3.432300	-10.324000	24.602990	4.834856E-6	20.836529
2073.621758	-2.999100	3.431700	-10.291000	24.592971	2.095654E-6	20.819839
2074.622687	-3.022700	3.432500	-10.375000	24.591226	3.976793E-6	20.826622
2075.620465	-3.006200	3.432100	-10.317000	24.586148	3.448754E-6	20.827691
2076.631923	-3.003800	3.431400	-10.307000	24.591044	3.448754E-6	20.826440
2077.623550	-3.011600	3.431700	-10.333000	24.612158	4.900861E-6	20.830081
2078.624642	-3.001200	3.432200	-10.300000	24.632427	3.646768E-6	20.812013
2079.628763	-2.986000	3.431600	-10.246000	24.630808	4.339819E-6	20.819872
2080.624662	-2.994100	3.430900	-10.271000	24.667791	3.316744E-6	20.855558
2081.626389	-2.979200	3.430300	-10.219000	24.681886	2.557688E-6	20.818968
2082.623746	-3.000900	3.430400	-10.293000	24.697523	2.227664E-6	20.815694
2083.625018	-2.997100	3.429800	-10.279000	24.686580	3.646768E-6	20.829843
2084.628039	-3.005300	3.430800	-10.310000	24.680935	4.636841E-6	20.800945
2085.628034	-3.018800	3.428500	-10.349000	24.667182	2.656696E-6	20.809429
2086.628720	-3.005200	3.429200	-10.305000	24.660069	2.161659E-6	20.824577
2087.626439	-3.018000	3.428300	-10.346000	24.629147	3.151732E-6	20.811567
2088.626326	-3.003000	3.429400	-10.298000	24.620949	4.174807E-6	20.829893
2089.630976	-2.995400	3.429500	-10.272000	24.635145	5.989941E-6	20.809524
2090.625209	-3.030700	3.428200	-10.389000	24.639026	3.514759E-6	20.813893
2091.630132	-3.011800	3.426900	-10.320000	24.674938	2.194662E-6	20.817212
2092.627998	-2.979000	3.427500	-10.210000	24.704555	2.887713E-6	20.804732
2093.628382	-2.975900	3.429300	-10.204000	24.694342	2.128657E-6	20.830045
2094.628079	-2.997800	3.427700	-10.275000	24.641212	-1.815134E-7	20.819406
2095.625415	-3.016500	3.426400	-10.335000	24.633803	5.115377E-7	20.808652
2096.635714	-2.989200	3.427500	-10.244000	24.643455	1.072579E-6	20.802216
2097.635700	-3.013300	3.426400	-10.324000	24.622386	1.435606E-6	20.807154
2098.630394	-3.012000	3.425700	-10.317000	24.660510	1.468608E-6	20.822649
2099.627079	-3.017900	3.423700	-10.331000	24.650537	5.775425E-7	20.788934
2100.629640	-3.002500	3.425700	-10.285000	24.658047	1.699625E-6	20.810694
2101.630047	-3.002000	3.425700	-10.283000	24.620314	1.171586E-6	20.798911
2102.631840	-2.978200	3.425000	-10.199000	24.682115	1.798632E-6	20.813034
2103.631186	-3.001700	3.424300	-10.278000	24.669955	7.755571E-7	20.827385
2104.628900	-3.023000	3.423300	-10.348000	24.692454	2.425679E-6	20.821513
2105.629629	-3.017200	3.422900	-10.326000	24.683381	-6.435474E-7	20.815727
2106.629012	-3.001100	3.425000	-10.278000	24.696827	1.897640E-6	20.802193
2107.632203	-2.988800	3.423700	-10.232000	24.711147	3.547761E-6	20.811822
2108.627524	-2.996600	3.424100	-10.260000	24.739441	1.303596E-6	20.798489
2109.630099	-3.001200	3.423400	-10.273000	24.726885	-1.336598E-6	20.793476
2110.636250	-2.999800	3.423500	-10.269000	24.738289	3.316744E-6	20.809187
2111.629857	-3.025600	3.421800	-10.352000	24.757661	7.755571E-7	20.796385
2112.631851	-3.014300	3.422600	-10.316000	24.766703	-4.950365E-8	20.797398
2113.630454	-2.987900	3.421700	-10.223000	24.750216	1.435606E-6	20.804087
2114.629564	-2.998400	3.421600	-10.259000	24.779554	7.755571E-7	20.809821
2115.628877	-3.014200	3.422400	-10.315000	24.686814	-1.468608E-6	20.792620
2116.629438	-3.014900	3.420700	-10.312000	24.678756	3.349747E-6	20.793069
2117.633947	-3.009600	3.420800	-10.294000	24.654481	8.415620E-7	20.800004
2118.629739	-3.000500	3.421700	-10.265000	24.625701	-1.006574E-6	20.800523
2119.629869	-2.992000	3.420900	-10.235000	24.577722	1.237591E-6	20.801693
2120.630919	-2.976800	3.421100	-10.183000	24.607121	2.145158E-7	20.788992
2121.630312	-2.990400	3.421300	-10.230000	24.600821	4.455328E-7	20.806378
2122.632609	-3.003300	3.420100	-10.271000	24.618949	-1.072579E-6	20.786635
2123.629993	-3.003100	3.420700	-10.272000	24.702510	6.105450E-7	20.792723
2124.630322	-3.004300	3.419100	-10.272000	24.727830	6.105450E-7	20.779251
2125.631603	-2.997900	3.419600	-10.251000	24.759481	-8.250608E-8	20.783987
2126.630316	-3.006100	3.417700	-10.273000	24.722702	1.815134E-7	20.803503
2127.633839	-2.994500	3.418300	-10.235000	24.698107	-6.105450E-7	20.782615
2128.630447	-3.009200	3.417900	-10.284000	24.667835	-2.095654E-6	20.794912
2129.630356	-2.992200	3.417900	-10.226000	24.655807	1.650122E-8	20.789006
2130.639687	-3.009500	3.417700	-10.283000	24.700740	-1.567615E-6	20.789525
2131.630813	-2.989400	3.418100	-10.217000	24.724240	-3.415752E-6	20.805520
2132.635149	-3.002700	3.417200	-10.260000	24.737243	-2.920715E-6	20.780637
2133.631159	-3.005700	3.416400	-10.268000	24.761743	-3.283742E-6	20.780092
2134.635020	-2.987900	3.417900	-10.212000	24.717801	-2.260666E-6	20.788153
2135.636488	-3.030300	3.415800	-10.350000	24.688083	-2.920715E-6	20.771608
2136.636255	-2.979200	3.416500	-10.177000	24.684650	-3.646769E-6	20.766266
2137.636783	-2.981200	3.416800	-10.185000	24.667941	-3.613766E-6	20.787432
2138.634476	-2.983800	3.416000	-10.192000	24.691863	-4.735849E-6	20.762125
2139.637050	-2.986500	3.416400	-10.202000	24.687913	-3.382749E-6	20.771437
2140.639825	-2.992400	3.415500	-10.220000	24.712911	-3.910788E-6	20.784668
2141.634526	-2.993400	3.414600	-10.220000	24.745035	-3.316744E-6	20.768541
2142.642738	-2.960100	3.415700	-10.109000	24.791042	-4.504832E-6	20.777253
2143.637588	-2.979100	3.414600	-10.172000	24.833588	-6.881007E-6	20.768269
2144.638700	-2.994600	3.414400	-10.224000	24.828618	-1.501611E-6	20.789834
2145.639388	-3.011800	3.414000	-10.281000	24.838483	-4.141805E-6	20.774130
2146.638137	-2.993100	3.413500	-10.217000	24.842213	-3.415752E-6	20.775028
2147.639208	-2.981800	3.414100	-10.179000	24.866956	-4.471829E-6	20.771886
2148.638686	-2.977800	3.413500	-10.164000	24.848902	-4.009795E-6	20.771785
2149.638243	-2.981400	3.413100	-10.175000	24.846691	-2.953718E-6	20.759608
2150.634947	-3.004600	3.412700	-10.253000	24.777214	-5.989941E-6	20.764324
2151.639879	-2.995500	3.412300	-10.219000	24.739938	-5.197883E-6	20.776703
2152.640297	-3.016500	3.411900	-10.291000	24.717656	-3.250739E-6	20.769515
2153.638904	-2.993700	3.412300	-10.215000	24.780340	-6.484978E-6	20.778367
2154.639433	-3.000300	3.410800	-10.233000	24.748608	-4.405824E-6	20.772127
2155.637383	-2.997200	3.411000	-10.223000	24.727869	-5.593912E-6	20.772177
2156.639646	-3.007600	3.410400	-10.256000	24.680291	-6.947012E-6	20.787496
2157.640125	-2.994400	3.411000	-10.213000	24.671187	-3.811781E-6	20.755127
2158.640656	-2.985900	3.410300	-10.182000	24.666311	-4.669844E-6	20.763036
2159.635628	-2.987900	3.409700	-10.187000	24.681054	-3.712773E-6	20.765977
2160.639791	-3.001300	3.409700	-10.232000	24.702658	-6.220958E-6	20.763474
2161.638134	-2.980800	3.410100	-10.164000	24.701135	-7.838077E-6	20.769532
2162.638482	-2.993200	3.409200	-10.202000	24.713540	-7.046019E-6	20.765385
2163.641972	-3.007200	3.408800	-10.250000	24.689512	-7.178029E-6	20.774938
2164.640763	-3.030900	3.408000	-10.329000	24.670441	-7.442048E-6	20.767655
2165.642933	-3.004400	3.408100	-10.239000	24.716565	-6.980014E-6	20.740919
2166.639224	-2.994000	3.408700	-10.205000	24.752525	-7.145026E-6	20.737650
2167.641171	-2.985200	3.408600	-10.175000	24.782808	-6.947012E-6	20.748127
2168.642979	-2.979700	3.408800	-10.156000	24.786085	-9.356189E-6	20.757105
2169.641050	-3.019900	3.406500	-10.287000	24.792347	-8.201104E-6	20.747742
2170.640736	-2.995900	3.407700	-10.209000	24.749472	-8.630136E-6	20.745018
2171.643773	-3.004900	3.408200	-10.240000	24.792311	-7.739070E-6	20.748180
2172.642208	-3.002700	3.407800	-10.231000	24.775769	-7.508053E-6	20.742959
2173.642423	-2.996700	3.406100	-10.206000	24.784746	-7.970087E-6	20.760029
2174.638834	-2.980000	3.406000	-10.148000	24.775990	-8.894155E-6	20.744129
2175.643968	-2.984800	3.405800	-10.165000	24.826779	-8.201104E-6	20.758590
2176.643713	-2.988700	3.406800	-10.181000	24.820385	-6.715995E-6	20.730835
2177.641525	-2.980800	3.406300	-10.152000	24.812720	-7.046019E-6	20.748273
2178.642525	-2.998800	3.405500	-10.212000	24.793715	-7.739070E-6	20.743899
2179.643865	-2.999900	3.405300	-10.215000	24.792896	-9.257182E-6	20.732645
2180.643212	-2.998300	3.405200	-10.208000	24.754569	-9.752218E-6	20.745866
2181.639984	-3.008200	3.404000	-10.239000	24.793785	-8.762145E-6	20.745866
2182.641639	-3.019200	3.403000	-10.273000	24.829384	-7.211031E-6	20.755515
2183.644598	-3.000500	3.404400	-10.215000	24.840326	-9.290184E-6	20.744685
2184.644362	-3.000200	3.402500	-10.208000	24.832641	-1.024725E-5	20.733652
2185.641868	-2.986700	3.403400	-10.164000	24.824352	-8.531128E-6	20.725807
2186.644439	-2.968200	3.404400	-10.104000	24.868787	-1.107232E-5	20.735316
2187.640939	-2.999800	3.402400	-10.206000	24.882337	-1.077529E-5	20.753183
2188.647822	-2.982300	3.403600	-10.150000	24.864782	-8.366116E-6	20.741253
2189.648079	-3.000200	3.403000	-10.209000	24.894092	-1.090730E-5	20.741273
2190.643765	-3.011000	3.400400	-10.238000	24.905631	-1.014825E-5	20.728198
2191.646008	-3.002700	3.401400	-10.213000	24.879396	-1.169936E-5	20.705659
2192.646519	-3.015600	3.400600	-10.253000	24.914803	-1.041227E-5	20.721756
2193.649955	-3.008200	3.399400	-10.225000	24.910154	-9.356189E-6	20.724203
2194.648429	-3.005100	3.400500	-10.217000	24.899610	-1.160035E-5	20.725000
2195.646768	-2.992300	3.401200	-10.176000	24.867661	-1.084130E-5	20.726599
2196.646238	-2.996900	3.399800	-10.187000	24.832253	-8.696141E-6	20.735633
2197.646040	-3.008000	3.400100	-10.226000	24.808952	-1.226040E-5	20.718411
2198.648254	-3.025700	3.399000	-10.284000	24.818350	-1.041227E-5	20.706980
2199.649173	-3.004800	3.399400	-10.214000	24.818306	-1.186437E-5	20.729222
2200.649379	-2.969800	3.400800	-10.098000	24.832952	-1.097331E-5	20.718790
2201.650457	-2.990500	3.399400	-10.165000	24.873140	-1.272244E-5	20.711234
2202.649062	-3.015400	3.397900	-10.245000	24.908471	-1.242542E-5	20.711607
2203.648418	-3.007400	3.397400	-10.216000	24.922700	-1.344849E-5	20.715457
2204.653847	-2.990000	3.398700	-10.161000	24.860711	-1.311847E-5	20.705398
2205.650942	-2.995700	3.398500	-10.180000	24.799619	-1.120433E-5	20.718055
2206.650872	-3.007200	3.397500	-10.215000	24.814738	-1.219440E-5	20.733703
2207.647592	-3.025600	3.396700	-10.276000	24.853901	-1.364651E-5	20.717530
2208.650208	-3.007500	3.398200	-10.219000	24.847488	-1.229341E-5	20.719629
2209.654501	-3.013700	3.397300	-10.237000	24.845750	-1.338249E-5	20.707926
2210.651804	-3.023600	3.395800	-10.266000	24.797061	-1.338249E-5	20.721178
2211.650695	-3.004100	3.397100	-10.205000	24.807883	-1.315147E-5	20.725400
2212.648951	-3.028800	3.394700	-10.281000	24.817201	-1.516462E-5	20.723846
2213.651788	-2.998900	3.397100	-10.187000	24.866291	-1.318447E-5	20.720008
2214.649875	-2.985700	3.395300	-10.137000	24.867658	-1.440556E-5	20.702412
2215.649089	-2.984700	3.396400	-10.136000	24.837195	-1.457057E-5	20.722101
2216.650794	-3.016100	3.393800	-10.236000	24.869894	-1.344849E-5	20.714141
2217.650796	-3.004300	3.393700	-10.195000	24.841920	-1.424055E-5	20.724472
2218.650213	-2.999800	3.394100	-10.181000	24.824691	-1.374551E-5	20.722353
2219.651091	-3.008600	3.394000	-10.211000	24.809888	-1.473559E-5	20.721248
2220.652801	-2.986900	3.395500	-10.141000	24.809511	-1.371251E-5	20.700953
2221.653861	-2.986200	3.393700	-10.133000	24.812295	-1.341549E-5	20.708490
2222.651454	-2.992300	3.393700	-10.154000	24.797498	-1.450457E-5	20.720193
2223.653553	-2.995700	3.393900	-10.166000	24.786128	-1.417454E-5	20.731068
2224.652886	-3.023400	3.391800	-10.254000	24.843119	-1.265643E-5	20.696276
2225.658579	-2.979900	3.392500	-10.109000	24.839390	-1.407554E-5	20.712449
2226.653170	-3.000100	3.393300	-10.180000	24.851347	-1.315147E-5	20.708327
2227.651609	-2.988200	3.392100	-10.135000	24.904158	-1.562665E-5	20.708700
2228.654183	-2.983800	3.392000	-10.120000	24.885709	-1.430655E-5	20.712469
2229.655120	-3.010400	3.391800	-10.210000	24.921235	-1.499961E-5	20.720151
2230.653481	-2.989500	3.390400	-10.134000	24.925084	-1.391052E-5	20.722118
2231.657844	-2.996200	3.391800	-10.162000	24.937613	-1.298646E-5	20.707665
2232.654090	-2.997600	3.390400	-10.162000	24.892281	-1.476859E-5	20.710056
2233.654331	-3.006800	3.390100	-10.192000	24.910901	-1.381152E-5	20.703614
2234.657303	-2.994400	3.390400	-10.151000	24.970323	-1.196338E-5	20.700194
2235.654030	-2.989700	3.390100	-10.134000	24.930893	-1.503261E-5	20.722733
2236.660233	-3.023100	3.389500	-10.246000	24.924380	-1.595668E-5	20.721885
2237.655178	-3.009700	3.390100	-10.202000	24.889692	-1.681474E-5	20.713622
2238.653492	-2.987200	3.391000	-10.129000	24.895778	-1.595668E-5	20.686063
2239.653788	-3.005300	3.389500	-10.185000	24.921535	-1.760680E-5	20.714288
2240.658070	-2.997200	3.390200	-10.159000	24.947442	-1.833285E-5	20.702357
2241.658091	-2.994700	3.388900	-10.148000	24.957287	-1.480159E-5	20.724568
2242.656092	-2.996500	3.388500	-10.153000	24.980333	-1.744179E-5	20.714035
2243.655279	-2.993600	3.386600	-10.137000	24.957879	-1.625370E-5	20.748872
2244.659020	-3.017000	3.386100	-10.214000	24.955467	-1.671573E-5	20.719422
2245.658267	-2.998600	3.387500	-10.156000	24.984409	-1.760680E-5	20.701055
2246.659116	-2.995400	3.386500	-10.142000	24.978785	-1.717777E-5	20.700626
2247.656921	-3.001200	3.387000	-10.164000	24.971951	-1.704576E-5	20.689024
2248.658271	-3.007200	3.385400	-10.180000	24.985499	-1.777181E-5	20.698830
2249.660428	-2.985700	3.385300	-10.106000	24.955190	-1.912491E-5	20.702548
2250.661584	-2.985200	3.385500	-10.105000	24.936345	-1.882789E-5	20.723463
2251.659071	-2.994600	3.386200	-10.139000	24.962517	-1.787082E-5	20.710377
2252.659965	-2.989800	3.386000	-10.122000	24.953270	-1.767280E-5	20.705837
2253.660010	-3.016600	3.385100	-10.211000	24.921946	-1.833285E-5	20.697629
2254.659929	-2.994400	3.384900	-10.134000	24.896435	-1.754079E-5	20.696681
2255.663491	-3.013900	3.384000	-10.198000	24.884152	-1.681474E-5	20.703794
2256.663660	-2.982100	3.384700	-10.092000	24.892284	-1.846486E-5	20.724759
2257.665823	-3.003900	3.383400	-10.163000	24.927816	-1.872888E-5	20.728179
2258.662308	-2.994900	3.385300	-10.138000	24.932741	-1.826685E-5	20.708940
2259.665915	-3.006600	3.382500	-10.169000	24.920635	-1.638571E-5	20.706271
2260.663138	-2.998600	3.384000	-10.146000	24.988610	-1.895990E-5	20.708592
2261.668085	-3.001400	3.382100	-10.150000	24.976051	-1.539563E-5	20.718272
2262.667488	-3.032700	3.382100	-10.257000	24.987344	-1.902590E-5	20.704476
2263.666388	-3.006900	3.382200	-10.169000	24.989560	-1.862987E-5	20.725194
2264.674508	-3.014600	3.381100	-10.192000	24.955548	-1.833285E-5	20.721400
2265.666514	-3.013100	3.382800	-10.192000	24.988967	-2.044501E-5	20.702312
2266.671655	-3.008400	3.381100	-10.171000	24.972157	-2.202912E-5	20.722899
2267.668301	-2.980800	3.382100	-10.081000	24.965423	-1.942193E-5	20.706655
2268.667600	-3.015200	3.380500	-10.192000	24.944216	-1.892689E-5	20.724251
2269.664884	-3.009500	3.380000	-10.172000	24.950835	-1.816784E-5	20.724256
2270.666109	-3.014900	3.380500	-10.191000	25.016899	-2.047801E-5	20.713280
2271.669608	-2.996700	3.380200	-10.129000	25.001190	-2.061002E-5	20.709366
2272.671262	-2.981600	3.381000	-10.079000	24.997638	-1.912491E-5	20.726189
2273.668837	-3.004700	3.379500	-10.153000	25.037121	-2.001598E-5	20.718406
2274.669402	-3.007100	3.379800	-10.162000	25.025689	-1.975196E-5	20.703136
2275.670148	-2.973000	3.379800	-10.047000	25.000131	-2.163309E-5	20.733908
2276.670487	-2.999700	3.378600	-10.134000	25.046423	-2.090704E-5	20.717786
2277.676351	-3.012200	3.378200	-10.175000	25.103325	-2.183111E-5	20.731759
2278.672441	-2.972100	3.377800	-10.039000	25.118948	-2.209513E-5	20.722311
2279.671526	-2.992600	3.378200	-10.108000	25.119943	-2.041200E-5	20.729475
2280.673216	-2.977700	3.379200	-10.062000	25.150473	-2.037900E-5	20.727407
2281.676587	-2.985200	3.377200	-10.081000	25.116587	-2.242515E-5	20.757875
2282.669462	-2.987600	3.378000	-10.091000	25.047705	-2.153409E-5	20.738989
2283.671299	-2.983700	3.376700	-10.074000	25.016756	-2.173210E-5	20.729258
2284.670819	-2.992900	3.376500	-10.105000	24.993168	-2.272217E-5	20.727867
2285.669238	-2.989600	3.375500	-10.091000	25.004329	-2.268917E-5	20.710619
2286.673339	-2.982100	3.374900	-10.064000	25.020862	-2.051101E-5	20.722000
2287.673523	-3.015900	3.375400	-10.179000	25.004977	-2.179811E-5	20.731186
2288.671572	-2.999300	3.375200	-10.122000	24.991901	-2.090704E-5	20.741295
2289.671958	-2.972300	3.374400	-10.029000	24.990786	-2.127007E-5	20.743495
2290.673028	-3.008100	3.374400	-10.150000	24.967237	-2.061002E-5	20.745462
2291.671332	-3.012300	3.375100	-10.166000	24.998325	-2.153409E-5	20.733043
2292.671354	-2.990400	3.374200	-10.089000	25.018209	-2.460331E-5	20.733562
2293.672688	-2.984400	3.374600	-10.070000	24.982118	-2.348123E-5	20.714878
2294.672219	-3.005600	3.373400	-10.139000	24.996340	-2.229314E-5	20.743380
2295.673796	-2.996300	3.373500	-10.106000	25.014888	-2.275518E-5	20.743032
2296.677591	-3.020600	3.371000	-10.182000	25.027648	-2.282118E-5	20.729286
2297.682862	-2.967900	3.372400	-10.007000	25.005894	-2.136907E-5	20.728787
2298.677263	-2.984200	3.371900	-10.062000	25.070783	-2.292019E-5	20.760259
2299.676079	-3.016300	3.371800	-10.169000	25.114389	-2.427329E-5	20.734331
2300.678827	-2.987900	3.373400	-10.078000	25.173007	-2.179811E-5	20.735330
2301.685624	-3.004800	3.370400	-10.126000	25.185186	-2.282118E-5	20.744712
2302.680653	-3.018900	3.372300	-10.180000	25.166501	-2.529636E-5	20.763413
2303.677884	-3.032900	3.370600	-10.221000	25.182187	-2.212813E-5	20.758772
2304.680116	-3.003700	3.369500	-10.121000	25.206305	-2.328322E-5	20.761174
2305.675690	-3.008100	3.371400	-10.141000	25.210229	-2.420728E-5	20.723385
2306.678836	-2.991100	3.371000	-10.082000	25.191790	-2.486733E-5	20.730004
2307.683204	-2.975800	3.371200	-10.031000	25.167677	-2.424029E-5	20.752265
2308.679919	-2.982500	3.369500	-10.049000	25.119727	-2.486733E-5	20.728784
2309.681346	-2.994600	3.369400	-10.089000	25.103095	-2.503235E-5	20.744805
2310.679474	-2.997700	3.367300	-10.094000	25.104462	-2.453731E-5	20.743806
2311.677919	-3.000600	3.368100	-10.105000	25.085890	-2.595641E-5	20.743654
2312.682890	-3.021200	3.368800	-10.176000	25.084875	-2.450431E-5	20.761603
2313.684951	-3.019900	3.367900	-10.170000	25.047383	-2.427329E-5	20.756684
2314.679355	-3.000900	3.368400	-10.108000	25.086443	-2.457031E-5	20.748477
2315.682955	-3.000200	3.367500	-10.103000	25.126018	-2.664946E-5	20.745531
2316.679844	-2.982800	3.367300	-10.043000	25.121522	-2.608842E-5	20.747655
2317.680698	-3.011000	3.366100	-10.135000	25.101633	-2.407527E-5	20.764675
2318.687239	-3.007000	3.366200	-10.122000	25.145610	-2.473532E-5	20.759984
2319.681608	-3.007300	3.366100	-10.122000	25.163935	-2.589041E-5	20.757043
2320.681087	-3.023100	3.365200	-10.172000	25.207613	-2.767254E-5	20.737355
2321.683300	-2.989200	3.364900	-10.058000	25.232146	-2.783755E-5	20.750607
2322.679879	-2.997600	3.365100	-10.087000	25.189993	-2.754053E-5	20.761392
2323.685586	-2.999000	3.364700	-10.090000	25.192796	-2.516435E-5	20.761361
2324.682168	-2.980800	3.365200	-10.030000	25.191460	-2.536237E-5	20.772349
2325.680204	-2.983900	3.364700	-10.039000	25.154941	-2.608842E-5	20.754179
2326.686359	-2.997100	3.363500	-10.080000	25.118559	-2.661646E-5	20.764122
2327.685611	-2.984500	3.365800	-10.044000	25.091384	-2.549438E-5	20.794216
2328.688865	-2.990400	3.363300	-10.057000	25.063893	-2.697949E-5	20.748601
2329.684899	-3.006400	3.364300	-10.113000	25.087460	-2.839859E-5	20.762775
2330.685750	-3.002600	3.363900	-10.099000	25.101315	-2.829959E-5	20.763881
2331.683175	-2.991200	3.362700	-10.058000	25.137186	-2.892663E-5	20.762907
2332.689245	-2.987800	3.362000	-10.045000	25.128805	-2.648445E-5	20.783891
2333.685889	-2.994100	3.363000	-10.068000	25.153396	-2.882763E-5	20.773965
2334.687498	-2.999100	3.361000	-10.079000	25.149100	-2.872862E-5	20.759695
2335.684852	-3.012500	3.362300	-10.128000	25.142960	-2.763954E-5	20.777239
2336.689749	-2.999600	3.361000	-10.081000	25.160310	-2.886063E-5	20.762413
2337.686969	-2.992400	3.361200	-10.057000	25.197476	-2.889363E-5	20.773648
2338.690036	-3.020400	3.361000	-10.150000	25.172425	-2.790356E-5	20.770309
2339.686343	-3.002400	3.359800	-10.086000	25.203099	-2.754053E-5	20.773603
2340.688651	-2.978100	3.361100	-10.009000	25.197823	-2.813457E-5	20.758822
2341.689640	-2.987000	3.360200	-10.036000	25.222589	-3.031273E-5	20.769936
2342.685442	-3.016000	3.360100	-10.133000	25.240988	-3.021373E-5	20.761381
2343.696028	-2.997800	3.361100	-10.075000	25.274639	-2.978470E-5	20.775727
2344.690722	-3.033500	3.358700	-10.187000	25.257090	-2.826658E-5	20.775177
2345.689464	-3.022100	3.358800	-10.149000	25.264646	-2.981770E-5	20.760478
2346.693991	-2.989700	3.359100	-10.042000	25.248796	-2.810157E-5	20.752150
2347.697689	-3.001200	3.358100	-10.077000	25.255458	-3.067576E-5	20.757416
2348.696347	-2.987100	3.358600	-10.032000	25.243324	-3.011472E-5	20.764675
2349.695123	-3.006400	3.357800	-10.094000	25.236643	-2.829959E-5	20.778356
2350.698282	-3.005900	3.357700	-10.091000	25.240516	-2.971869E-5	20.787460
2351.701212	-3.002800	3.357000	-10.079000	25.246655	-3.047775E-5	20.752846
2352.699173	-2.979700	3.357900	-10.005000	25.237512	-3.222688E-5	20.779228
2353.695691	-3.007000	3.355600	-10.090000	25.216801	-3.080777E-5	20.784040
2354.699425	-2.977300	3.355800	-9.990200	25.241857	-3.212787E-5	20.777901
2355.694922	-2.992900	3.356000	-10.044000	25.252096	-3.252390E-5	20.775853
2356.696890	-2.983400	3.356400	-10.012000	25.253809	-3.156683E-5	20.780892
2357.698579	-2.995100	3.355200	-10.048000	25.346420	-3.169884E-5	20.774778
2358.695032	-2.998900	3.355100	-10.061000	25.338342	-3.146782E-5	20.769986
2359.701280	-2.992400	3.355500	-10.040000	25.324837	-2.981770E-5	20.759745
2360.702608	-2.996600	3.353900	-10.050000	25.284224	-3.242489E-5	20.746943
2361.701962	-3.016000	3.353400	-10.113000	25.249151	-3.169884E-5	20.789017
2362.698077	-3.016100	3.352600	-10.111000	25.280049	-3.133581E-5	20.765985
2363.697306	-2.996500	3.353300	-10.047000	25.315406	-3.420702E-5	20.773510
2364.697430	-3.016200	3.353200	-10.112000	25.271386	-3.338196E-5	20.778625
2365.701957	-2.997300	3.352700	-10.048000	25.262760	-3.631918E-5	20.801732
2366.703705	-2.980100	3.352300	-9.988900	25.294994	-3.235889E-5	20.780042
2367.695522	-3.004900	3.351400	-10.070000	25.325136	-3.470206E-5	20.779486
2368.703523	-3.002700	3.353400	-10.068000	25.282483	-3.427303E-5	20.790715
2369.700268	-3.006900	3.351000	-10.075000	25.294465	-3.447104E-5	20.783305
2370.700398	-2.986100	3.351900	-10.009000	25.255192	-3.598915E-5	20.779910
2371.695915	-2.997500	3.351700	-10.046000	25.263844	-3.602216E-5	20.783855
2372.697566	-2.995800	3.350800	-10.038000	25.248424	-3.641819E-5	20.798719
2373.695985	-2.990500	3.349900	-10.017000	25.313263	-3.509809E-5	20.788428
2374.703072	-2.997600	3.349600	-10.040000	25.327386	-3.496608E-5	20.784590
2375.701696	-2.983500	3.349700	-9.993700	25.342201	-3.351397E-5	20.798043
2376.697145	-3.002700	3.348500	-10.053000	25.337629	-3.589015E-5	20.796298
2377.700176	-3.027300	3.348100	-10.135000	25.346074	-3.810131E-5	20.801457
2378.700396	-3.008700	3.349000	-10.076000	25.340759	-3.641819E-5	20.783319
2379.700008	-3.005300	3.348200	-10.062000	25.303150	-3.589015E-5	20.795344
2380.701652	-3.017500	3.347200	-10.100000	25.313660	-3.694622E-5	20.785507
2381.700988	-2.998900	3.348000	-10.040000	25.332499	-3.457005E-5	20.786405
2382.699115	-3.005700	3.347300	-10.061000	25.327355	-3.612116E-5	20.792146
2383.704927	-3.009900	3.347800	-10.076000	25.327581	-3.552712E-5	20.790950
2384.699229	-2.992800	3.346900	-10.016000	25.347214	-3.806831E-5	20.798335
2385.708395	-3.020300	3.345700	-10.104000	25.332896	-3.572513E-5	20.793916
2386.701900	-3.000900	3.346500	-10.042000	25.345803	-3.625317E-5	20.802608
2387.702176	-2.987500	3.346600	-9.997600	25.354227	-3.730925E-5	20.806799
2388.703691	-2.995500	3.345800	-10.022000	25.354669	-3.886037E-5	20.786380
2389.701854	-3.018700	3.345600	-10.099000	25.363445	-3.721024E-5	20.807046
2390.704094	-2.997100	3.344800	-10.024000	25.346540	-3.681421E-5	20.789598
2391.714109	-2.990800	3.345500	-10.005000	25.355663	-3.549412E-5	20.818673
2392.704618	-2.999800	3.344300	-10.032000	25.322015	-3.780429E-5	20.816181
2393.703849	-2.994500	3.343700	-10.012000	25.323015	-3.707823E-5	20.810073
2394.708351	-2.989000	3.344200	-9.994700	25.297162	-3.628618E-5	20.805453
2395.700953	-2.967500	3.343900	-9.921700	25.305065	-3.655020E-5	20.822870
2396.703057	-2.988200	3.343200	-9.989500	25.311651	-3.912439E-5	20.820948
2397.706853	-3.000500	3.343900	-10.033000	25.366209	-3.641819E-5	20.835425
2398.705179	-3.012200	3.343000	-10.069000	25.404111	-3.935540E-5	20.799990
2399.705663	-2.989000	3.343200	-9.992100	25.427741	-3.783729E-5	20.793846
2400.706810	-2.980200	3.342900	-9.961400	25.478566	-3.859635E-5	20.812641
2401.712863	-3.009600	3.341900	-10.057000	25.459282	-3.612116E-5	20.795647
2402.706102	-3.010900	3.340800	-10.057000	25.432890	-3.922339E-5	20.817982
2403.706063	-2.993600	3.342600	-10.005000	25.396084	-3.592315E-5	20.811370
2404.701228	-2.997400	3.341100	-10.014000	25.397682	-3.836533E-5	20.818190
2405.705756	-2.998200	3.340600	-10.015000	25.380180	-3.994945E-5	20.811047
2406.703520	-3.013700	3.339300	-10.063000	25.409853	-3.988344E-5	20.823299
2407.705611	-3.014000	3.339800	-10.065000	25.465596	-3.968543E-5	20.781125
2408.707994	-3.001300	3.339600	-10.022000	25.462909	-3.902538E-5	20.822048
2409.706524	-3.009900	3.339400	-10.051000	25.501953	-3.915739E-5	20.790608
2410.707077	-3.004900	3.338600	-10.031000	25.512115	-4.047749E-5	20.811718
2411.710623	-2.982600	3.338700	-9.957400	25.486095	-4.113753E-5	20.811193
2412.710705	-3.004900	3.339800	-10.035000	25.514526	-3.899238E-5	20.824570
2413.709939	-2.985600	3.337300	-9.963000	25.465094	-3.902538E-5	20.822819
2414.711627	-2.977700	3.339200	-9.941900	25.415835	-3.915739E-5	20.823616
2415.713384	-3.034200	3.337300	-10.124000	25.367896	-3.820032E-5	20.785911
2416.716963	-3.015400	3.335800	-10.058000	25.349128	-3.836533E-5	20.824912
2417.711631	-2.988600	3.337100	-9.972300	25.351810	-4.113753E-5	20.828080
2418.717204	-2.995400	3.336500	-9.992900	25.408330	-4.222661E-5	20.798537
2419.717778	-2.980900	3.336200	-9.944400	25.467278	-4.166557E-5	20.816005
2420.710333	-3.005500	3.335000	-10.023000	25.480298	-4.084051E-5	20.813432
2421.713431	-2.986000	3.335700	-9.960100	25.489892	-4.159957E-5	20.825911
2422.712852	-3.016200	3.334500	-10.057000	25.469072	-3.935540E-5	20.813538
2423.720588	-2.981000	3.335200	-9.941100	25.459377	-4.074151E-5	20.836993
2424.714435	-3.001000	3.333400	-10.003000	25.474341	-4.054349E-5	20.819304
2425.714442	-3.006200	3.334500	-10.023000	25.475437	-4.196260E-5	20.841740
2426.715527	-3.009400	3.332300	-10.027000	25.518700	-4.120354E-5	20.832080
2427.715143	-2.983700	3.334200	-9.947800	25.531548	-4.341470E-5	20.839768
2428.716544	-3.003200	3.333900	-10.012000	25.538605	-4.199560E-5	20.837372
2429.711574	-2.992600	3.333200	-9.973900	25.537661	-4.364572E-5	20.833579
2430.714381	-3.000400	3.332200	-9.997200	25.570389	-4.258964E-5	20.829463
2431.719707	-3.024400	3.331000	-10.072000	25.543522	-4.410775E-5	20.825241
2432.716691	-2.999200	3.330100	-9.986200	25.492359	-4.361272E-5	20.820328
2433.724788	-2.999300	3.331500	-9.991300	25.446910	-4.341470E-5	20.827794
2434.719027	-2.994600	3.331100	-9.974500	25.485573	-4.410775E-5	20.829634
2435.717881	-3.003500	3.330300	-10.002000	25.532713	-4.410775E-5	20.821972
2436.718569	-3.001300	3.329300	-9.991300	25.565606	-4.311768E-5	20.857375
2437.715683	-3.019700	3.329800	-10.054000	25.579625	-4.252364E-5	20.834471
2438.719874	-2.997000	3.330200	-9.979800	25.570705	-4.437177E-5	20.851116
2439.719220	-2.981500	3.329700	-9.925600	25.532587	-4.486681E-5	20.832751
2440.716933	-2.996500	3.328200	-9.972100	25.513626	-4.235862E-5	20.855434
2441.719983	-2.996500	3.328500	-9.972900	25.538845	-4.351371E-5	20.843777
2442.718119	-2.989100	3.328200	-9.947300	25.553934	-4.499882E-5	20.858929
2443.722011	-3.016600	3.328400	-10.039000	25.537479	-4.476780E-5	20.855206
2444.720724	-3.013000	3.327300	-10.024000	25.587992	-4.305168E-5	20.841925
2445.717075	-3.005300	3.326300	-9.995900	25.595666	-4.450378E-5	20.848210
2446.718059	-2.975100	3.328800	-9.902100	25.595792	-4.757301E-5	20.850232
2447.718023	-3.005600	3.325400	-9.993900	25.599921	-4.519683E-5	20.845370
2448.717899	-3.025800	3.325500	-10.061000	25.621166	-4.569187E-5	20.861965
2449.718379	-2.999900	3.325700	-9.975800	25.554018	-4.513083E-5	20.849057
2450.717433	-3.003700	3.324600	-9.985700	25.495070	-4.450378E-5	20.849127
2451.717931	-3.000400	3.325400	-9.977100	25.521315	-4.341470E-5	20.849879
2452.718683	-3.008400	3.324200	-9.999800	25.603807	-4.499882E-5	20.857807
2453.717686	-2.996600	3.325300	-9.963700	25.611140	-4.684696E-5	20.839569
2454.719302	-3.005400	3.325400	-9.993100	25.644282	-4.724299E-5	20.862897
2455.721138	-3.024500	3.323200	-10.050000	25.685203	-4.856308E-5	20.853737
2456.716996	-2.998300	3.324100	-9.965600	25.654065	-4.499882E-5	20.834317
2457.721679	-2.987300	3.324100	-9.929000	25.603902	-4.800204E-5	20.857429
2458.723256	-3.021200	3.322000	-10.035000	25.626261	-4.833207E-5	20.854281
2459.732675	-3.021100	3.321800	-10.035000	25.618909	-4.800204E-5	20.846897
2460.722919	-3.009000	3.322200	-9.996000	25.575600	-4.727599E-5	20.854135
2461.724762	-2.981500	3.323500	-9.908200	25.591180	-4.645093E-5	20.853661
2462.721286	-2.985600	3.321200	-9.914700	25.573013	-4.829906E-5	20.851063
2463.724967	-3.004700	3.320700	-9.976100	25.588448	-4.859609E-5	20.855184
2464.727170	-3.009300	3.319700	-9.989500	25.596222	-4.707797E-5	20.873897
2465.730355	-2.992300	3.321400	-9.937500	25.552200	-4.777102E-5	20.867144
2466.726798	-3.017600	3.320300	-10.018000	25.542058	-5.024621E-5	20.855064
2467.728439	-2.997200	3.318600	-9.945300	25.603139	-4.889311E-5	20.850973
2468.729095	-2.997400	3.318800	-9.947300	25.624635	-4.813405E-5	20.842217
2469.726428	-2.972100	3.319300	-9.864500	25.594465	-5.117028E-5	20.863124
2470.735370	-3.004500	3.318300	-9.968600	25.574541	-4.645093E-5	20.870140
2471.727891	-2.984400	3.319000	-9.903800	25.590247	-5.117028E-5	20.852250
2472.727927	-3.008300	3.318500	-9.982500	25.557921	-5.117028E-5	20.866726
2473.723059	-3.004300	3.318400	-9.968600	25.508497	-4.991618E-5	20.878730
2474.726015	-3.017200	3.317900	-10.010000	25.526810	-5.216035E-5	20.848759
2475.728022	-2.997000	3.317600	-9.942200	25.541150	-4.998219E-5	20.865531
2476.729432	-3.000900	3.315800	-9.949400	25.548207	-5.186333E-5	20.865505
2477.726731	-2.976300	3.317000	-9.871100	25.527679	-4.925613E-5	20.864330
2478.730352	-3.006600	3.315700	-9.968500	25.558424	-4.899211E-5	20.862015
2479.725951	-3.004000	3.315500	-9.959200	25.557474	-5.070824E-5	20.879552
2480.728882	-3.004100	3.315300	-9.958600	25.609729	-4.895911E-5	20.868022
2481.729002	-3.016300	3.315600	-9.999600	25.614802	-5.272139E-5	20.864108
2482.727240	-3.010700	3.314000	-9.976600	25.570644	-5.146730E-5	20.865278
2483.731368	-2.996900	3.314900	-9.933500	25.610402	-5.156631E-5	20.863957
2484.725884	-3.013300	3.312900	-9.982200	25.620638	-5.206134E-5	20.877555
2485.735424	-3.000700	3.313300	-9.941800	25.659029	-5.212735E-5	20.834561
2486.731685	-2.991200	3.314100	-9.911600	25.660093	-5.024621E-5	20.863129
2487.730678	-3.008600	3.312000	-9.963200	25.661800	-5.041122E-5	20.850146
2488.729308	-2.998000	3.311900	-9.928700	25.657998	-5.344744E-5	20.835422
2489.733086	-2.990600	3.311400	-9.902200	25.632896	-5.034521E-5	20.860944
2490.732872	-2.994000	3.311600	-9.914200	25.589051	-5.367846E-5	20.868117
2491.736566	-2.978900	3.312700	-9.866800	25.543249	-5.041122E-5	20.850095
2492.731192	-2.971600	3.312000	-9.841300	25.547763	-5.249037E-5	20.835189
2493.729236	-2.969700	3.310600	-9.831000	25.542475	-5.044422E-5	20.842206
2494.736936	-3.003400	3.310000	-9.940600	25.605840	-5.186333E-5	20.838040
2495.732122	-2.995500	3.309700	-9.912700	25.657671	-5.173132E-5	20.839835
2496.740923	-2.974500	3.310100	-9.845300	25.680155	-5.371146E-5	20.844400
2497.731764	-2.992400	3.308100	-9.898300	25.663803	-5.321643E-5	20.848364
2498.732579	-3.011400	3.308600	-9.962700	25.667138	-5.348045E-5	20.839861
2499.731239	-2.983900	3.308400	-9.871000	25.646732	-5.387648E-5	20.856349
2500.733639	-3.017600	3.308600	-9.983100	25.638706	-5.176432E-5	20.834538
2501.738900	-2.990200	3.308200	-9.890600	25.652598	-5.450352E-5	20.840430
2502.734955	-3.010100	3.307900	-9.956500	25.719307	-5.519657E-5	20.862860
2503.734205	-2.991700	3.307900	-9.895900	25.731877	-5.084025E-5	20.840399
2504.733872	-2.967900	3.307000	-9.814200	25.694161	-5.463553E-5	20.845665
2505.736935	-3.014600	3.307300	-9.969500	25.695622	-5.377747E-5	20.834331
2506.740619	-3.010500	3.306200	-9.952500	25.676066	-5.384347E-5	20.844560
2507.738665	-3.006000	3.305800	-9.936400	25.670451	-5.278740E-5	20.835128
2508.736357	-2.976100	3.304900	-9.835000	25.674418	-5.595563E-5	20.842431
2509.738929	-2.980200	3.305700	-9.851800	25.719863	-5.476754E-5	20.851091
2510.737839	-2.998500	3.304600	-9.908000	25.780009	-5.235836E-5	20.838960
2511.744636	-2.995400	3.303700	-9.894500	25.758139	-5.377747E-5	20.833114
2512.746023	-3.003700	3.302700	-9.918300	25.739528	-5.239137E-5	20.832438
2513.745501	-3.013900	3.302700	-9.953300	25.731899	-5.384347E-5	20.832362
2514.742587	-3.012600	3.301200	-9.944700	25.685329	-5.526258E-5	20.834424
2515.741195	-3.006900	3.301800	-9.927700	25.631958	-5.522958E-5	20.844830
2516.745841	-3.007600	3.302700	-9.932500	25.694193	-5.341444E-5	20.831947
2517.747196	-2.972700	3.301300	-9.812400	25.707556	-5.615364E-5	20.829722
2518.746238	-2.973300	3.301800	-9.816600	25.729668	-5.509757E-5	20.819215
2519.746454	-3.001600	3.301200	-9.908600	25.732520	-5.549360E-5	20.829192
2520.744811	-2.988100	3.301000	-9.862900	25.804737	-5.522958E-5	20.822074
2521.743238	-3.014300	3.300400	-9.947000	25.859360	-5.463553E-5	20.819572
2522.751096	-2.996200	3.300300	-9.887400	25.888648	-5.404149E-5	20.823390
2523.747353	-2.983700	3.300100	-9.846100	25.885088	-5.503156E-5	20.798003
2524.746879	-2.987200	3.299900	-9.856600	25.841904	-5.354645E-5	20.810572
2525.743146	-3.021600	3.298800	-9.966600	25.797414	-5.420650E-5	20.818038
2526.747274	-3.004700	3.298600	-9.910600	25.800461	-5.674769E-5	20.824418
2527.747927	-3.015100	3.297400	-9.940800	25.828054	-5.506456E-5	20.803772
2528.751166	-2.992400	3.298700	-9.869100	25.852749	-5.687970E-5	20.798233
2529.749721	-2.971300	3.299100	-9.801600	25.837193	-5.509757E-5	20.821012
2530.746119	-2.988900	3.297600	-9.855700	25.871393	-5.569161E-5	20.801314
2531.753704	-3.019700	3.297500	-9.956300	25.804613	-5.532858E-5	20.808199
2532.748278	-2.998900	3.297900	-9.889400	25.800957	-5.493255E-5	20.803104
2533.748178	-3.014600	3.296400	-9.937000	25.746446	-5.598863E-5	20.799084
2534.745304	-2.998500	3.296900	-9.885300	25.762666	-5.892585E-5	20.806368
2535.745812	-2.998300	3.295500	-9.880900	25.785243	-5.496556E-5	20.807235
2536.746761	-3.001700	3.296400	-9.894200	25.813861	-5.522958E-5	20.798997
2537.749057	-3.000300	3.295600	-9.886600	25.837909	-5.539459E-5	20.801817
2538.747587	-3.001700	3.294400	-9.887100	25.790028	-5.321643E-5	20.780747
2539.749986	-3.003600	3.295500	-9.897400	25.776414	-5.549360E-5	20.796944
2540.751459	-2.981500	3.293800	-9.819900	25.767460	-5.552660E-5	20.792691
2541.750079	-3.008300	3.292000	-9.902700	25.787953	-5.539459E-5	20.806164
2542.750051	-2.978400	3.293700	-9.809300	25.826037	-5.546059E-5	20.797004
2543.751634	-2.993000	3.292900	-9.854500	25.835125	-5.740774E-5	20.801392
2544.750785	-2.985500	3.292700	-9.829600	25.818850	-5.806779E-5	20.785517
2545.752016	-3.003300	3.292400	-9.887200	25.780359	-5.793578E-5	20.812760
2546.756208	-3.021400	3.292000	-9.945600	25.805372	-5.582362E-5	20.808014
2547.752534	-2.996700	3.290200	-9.859000	25.868842	-5.744074E-5	20.783579
2548.755312	-3.001300	3.290700	-9.876000	25.871448	-5.684670E-5	20.784301
2549.760254	-3.003400	3.291700	-9.885100	25.848661	-5.638466E-5	20.775634
2550.752346	-3.010100	3.289900	-9.901700	25.875881	-5.588962E-5	20.784961
2551.754761	-2.970200	3.290500	-9.772700	25.832658	-5.810079E-5	20.797965
2552.753615	-2.982300	3.290100	-9.810900	25.788724	-5.915687E-5	20.781807
2553.752094	-3.003500	3.288600	-9.876700	25.814534	-5.674769E-5	20.779759
2554.759492	-3.011900	3.287200	-9.899200	25.875373	-5.770476E-5	20.770700
2555.750958	-2.988900	3.288600	-9.828300	25.873430	-5.740774E-5	20.781075
2556.752792	-2.976900	3.288100	-9.787700	25.883588	-5.806779E-5	20.788909
2557.756191	-3.007600	3.287200	-9.885600	25.859787	-5.951989E-5	20.774482
2558.751833	-2.999400	3.287000	-9.857300	25.898158	-5.876084E-5	20.770356
2559.757580	-2.989600	3.286100	-9.823500	25.929811	-6.027895E-5	20.788878
2560.757131	-3.002600	3.287300	-9.868700	25.907813	-6.044396E-5	20.783374
2561.754985	-2.986200	3.285900	-9.810700	25.927913	-6.087299E-5	20.788394
2562.759658	-3.001200	3.285100	-9.858000	25.936629	-6.173106E-5	20.752105
2563.758238	-3.000600	3.284900	-9.855600	25.963109	-6.070798E-5	20.777760
2564.756195	-2.984100	3.285400	-9.803300	25.959499	-6.156604E-5	20.762753
2565.761379	-3.005100	3.283600	-9.866500	25.938336	-6.153304E-5	20.769941
2566.753788	-3.001200	3.283900	-9.854700	25.909375	-6.107101E-5	20.766451
2567.757930	-3.006400	3.281600	-9.864800	25.901768	-6.169805E-5	20.772559
2568.760308	-3.001700	3.281100	-9.847600	25.931678	-6.173106E-5	20.750450
2569.759608	-3.001400	3.282000	-9.848800	25.892252	-5.948689E-5	20.763000
2570.761884	-2.995100	3.280700	-9.825300	25.922490	-6.120302E-5	20.780100
2571.759427	-2.983700	3.281100	-9.788300	25.903977	-6.443726E-5	20.773356
2572.756799	-3.002900	3.279600	-9.847500	25.925934	-6.235810E-5	20.762223
2573.762497	-2.974400	3.281200	-9.758700	25.922705	-6.031195E-5	20.768937
2574.760603	-2.972100	3.279800	-9.747100	25.903776	-6.192907E-5	20.766042
2575.761990	-3.018000	3.279800	-9.896800	25.918156	-6.371120E-5	20.770057
2576.758422	-2.979000	3.280000	-9.769700	25.939816	-6.146704E-5	20.764316
2577.755849	-3.008000	3.277900	-9.858800	25.873418	-6.275413E-5	20.752613
2578.756601	-3.010900	3.278100	-9.869400	25.854317	-6.282014E-5	20.767091
2579.761242	-2.979700	3.278900	-9.769100	25.853764	-6.093900E-5	20.765587
2580.756294	-3.016400	3.279100	-9.889700	25.899749	-6.443726E-5	20.759625
2581.761924	-3.008400	3.277600	-9.859700	25.911970	-6.288614E-5	20.765739
2582.755891	-3.013700	3.277000	-9.874700	25.895425	-6.156604E-5	20.764765
2583.756232	-3.008200	3.275700	-9.852800	25.878132	-6.245711E-5	20.770152
2584.756708	-2.994200	3.276600	-9.809300	25.856672	-6.255612E-5	20.773250
2585.757778	-2.991200	3.275700	-9.797600	25.839363	-6.450326E-5	20.767716
2586.756002	-3.020200	3.274600	-9.889200	25.878981	-6.354619E-5	20.756306
2587.759247	-3.006900	3.274800	-9.846800	25.894878	-6.536133E-5	20.741929
2588.756468	-3.011200	3.274600	-9.860100	25.919522	-6.513031E-5	20.747720
2589.757387	-2.998300	3.274800	-9.817900	25.947790	-6.592237E-5	20.768533
2590.763951	-2.994100	3.273600	-9.800900	25.963234	-6.278714E-5	20.758444
2591.757808	-2.997500	3.273700	-9.812100	25.914576	-6.278714E-5	20.755080
2592.757544	-2.990500	3.272200	-9.784300	25.928911	-6.173106E-5	20.740557
2593.759290	-3.025700	3.272000	-9.899400	25.907270	-6.493229E-5	20.765285
2594.760616	-3.027100	3.271500	-9.902400	25.854583	-6.453626E-5	20.746494
2595.755315	-3.019500	3.271300	-9.876400	25.831996	-6.569135E-5	20.765532
2596.759802	-2.988200	3.271900	-9.775700	25.876063	-6.506430E-5	20.741994
2597.759895	-3.017100	3.269500	-9.863400	25.943185	-6.625239E-5	20.740673
2598.760469	-3.002300	3.270900	-9.818900	25.956249	-6.334818E-5	20.731986
2599.766781	-2.997500	3.269100	-9.798700	25.938038	-6.192907E-5	20.756840
2600.766238	-3.022400	3.268900	-9.878300	25.929914	-6.232510E-5	20.742040
2601.760738	-2.987500	3.269500	-9.766900	25.959106	-6.658242E-5	20.765678
2602.761127	-3.005800	3.268900	-9.824800	25.891880	-6.338118E-5	20.734649
2603.763231	-3.006800	3.268200	-9.825900	25.915750	-6.420624E-5	20.737767
2604.761960	-2.984300	3.268000	-9.752000	25.905492	-6.394222E-5	20.765395
2605.762653	-2.996300	3.268300	-9.791600	25.891327	-6.447026E-5	20.745000
2606.759511	-2.996000	3.267100	-9.787500	25.857840	-6.602137E-5	20.754983
2607.764696	-3.015700	3.264800	-9.845100	25.871699	-6.430525E-5	20.747568
2608.760883	-2.999000	3.266200	-9.794500	25.915443	-6.400823E-5	20.737459
2609.762835	-3.030300	3.266600	-9.897800	25.969619	-6.552634E-5	20.734513
2610.762730	-3.034500	3.264700	-9.905400	25.904261	-6.348019E-5	20.753252
2611.763692	-3.012800	3.264300	-9.833400	25.890021	-6.536133E-5	20.757439
2612.759717	-2.983200	3.264600	-9.738200	25.902985	-6.668142E-5	20.741065
2613.763412	-3.004500	3.263800	-9.804700	25.917541	-6.532832E-5	20.736721
2614.759848	-2.979100	3.263400	-9.721500	25.908343	-6.777050E-5	20.733644
2615.762938	-3.010700	3.261900	-9.819800	25.975442	-6.595537E-5	20.747476
2616.759654	-2.994900	3.262900	-9.770600	26.018825	-6.615338E-5	20.744595
2617.759745	-2.976300	3.263600	-9.712300	25.970020	-6.697845E-5	20.725432
2618.761322	-3.008400	3.261700	-9.811700	25.948776	-6.470128E-5	20.733487
2619.759301	-3.027500	3.262200	-9.875700	25.923435	-6.740748E-5	20.742169
2620.762878	-2.991800	3.261000	-9.755400	25.920031	-6.645041E-5	20.725946
2621.762912	-2.993800	3.259800	-9.758000	25.941616	-6.730847E-5	20.722500
2622.764203	-2.999500	3.260100	-9.777800	25.918735	-6.793552E-5	20.736973
2623.764122	-3.011100	3.259100	-9.812700	25.930580	-6.476728E-5	20.737966
2624.763752	-3.039300	3.257800	-9.900000	25.966846	-6.605438E-5	20.713707
2625.761411	-2.989200	3.259100	-9.740900	25.939341	-6.437125E-5	20.739656
2626.762256	-3.032600	3.258100	-9.879500	25.921823	-6.750648E-5	20.741971
2627.763273	-2.994700	3.257600	-9.754700	25.946460	-6.852956E-5	20.729264
2628.763544	-3.006100	3.257200	-9.790600	25.938537	-6.687944E-5	20.729365
2629.763201	-2.996600	3.257700	-9.761500	25.984142	-6.902460E-5	20.729188
2630.761020	-3.006500	3.256000	-9.787900	26.039805	-6.635140E-5	20.728689
2631.764155	-2.994000	3.254800	-9.743700	26.073476	-6.641740E-5	20.742606
2632.765144	-2.991300	3.255000	-9.735600	26.050799	-6.687944E-5	20.726933
2633.766716	-3.014400	3.255100	-9.811200	26.050227	-6.813353E-5	20.731100
2634.762270	-2.997700	3.256500	-9.760800	26.038002	-6.852956E-5	20.720713
2635.766030	-2.994600	3.255700	-9.749200	26.037003	-6.800152E-5	20.729667
2636.764905	-3.000000	3.254100	-9.761200	26.019943	-6.945363E-5	20.719639
2637.761107	-3.005700	3.252100	-9.774000	25.990748	-6.796852E-5	20.717807
2638.766095	-2.988600	3.251800	-9.717500	26.022513	-7.041070E-5	20.715108
2639.764933	-2.994100	3.253600	-9.740700	26.070669	-6.819954E-5	20.719870
2640.767058	-3.008200	3.253300	-9.786000	26.087934	-6.763849E-5	20.711138
2641.765252	-3.009300	3.251800	-9.785100	26.039317	-7.001467E-5	20.717766
2642.765700	-3.001800	3.250800	-9.758000	26.010007	-6.833155E-5	20.734312
2643.767111	-3.009400	3.251600	-9.783300	26.002677	-6.951963E-5	20.707506
2644.768611	-3.015600	3.252000	-9.806000	26.038172	-6.938762E-5	20.719935
2645.763276	-2.990400	3.251300	-9.721700	26.061939	-6.885958E-5	20.695923
2646.765861	-2.996200	3.249400	-9.734900	26.034467	-6.849656E-5	20.707677
2647.766044	-3.012600	3.249100	-9.787300	26.061733	-6.958564E-5	20.712313
2648.764276	-3.000800	3.250300	-9.752900	26.071472	-6.803452E-5	20.705977
2649.770320	-3.010300	3.250300	-9.782500	26.085278	-6.991566E-5	20.710366
2650.767949	-2.986900	3.247800	-9.699700	26.096799	-6.882658E-5	20.707243
2651.765526	-3.002800	3.246500	-9.748100	26.059920	-7.017968E-5	20.706698
2652.765251	-3.017700	3.247300	-9.798600	26.063866	-6.932162E-5	20.707344
2653.766614	-3.026000	3.245800	-9.821100	26.074790	-6.951963E-5	20.706466
2654.765244	-2.984000	3.245800	-9.684800	26.043097	-6.909060E-5	20.693113
2655.768373	-2.994000	3.244800	-9.714000	26.021117	-7.169780E-5	20.718447
2656.764205	-3.016700	3.243600	-9.784200	26.048835	-6.935462E-5	20.704569
2657.767956	-3.021300	3.245200	-9.803700	26.080132	-7.064172E-5	20.706143
2658.770159	-2.996800	3.243600	-9.719700	26.103275	-7.103775E-5	20.699050
2659.767352	-3.010000	3.243000	-9.760700	26.136357	-7.212683E-5	20.696256
2660.766450	-3.003400	3.242200	-9.736600	26.114530	-7.314990E-5	20.710360
2661.768908	-2.989200	3.241100	-9.687400	26.093044	-7.110375E-5	20.697779
2662.768703	-3.030500	3.240800	-9.819300	26.111132	-7.097174E-5	20.691297
2663.768769	-2.999700	3.243200	-9.727400	26.090885	-7.179680E-5	20.700352
2664.769726	-2.999000	3.240800	-9.718700	26.053579	-7.295189E-5	20.713130
2665.767199	-2.994300	3.240300	-9.701200	26.057430	-7.143378E-5	20.697083
2666.771049	-3.006800	3.240100	-9.741400	26.086292	-7.149978E-5	20.700478
2667.768799	-2.997600	3.239200	-9.708600	26.046972	-7.027869E-5	20.707440
2668.772406	-3.003300	3.238300	-9.724400	26.094138	-7.357893E-5	20.690818
2669.773873	-3.024700	3.237700	-9.792100	26.082662	-7.169780E-5	20.708211
2670.769531	-3.013400	3.239100	-9.760100	26.071537	-7.133477E-5	20.690394
2671.775603	-3.006700	3.238100	-9.735400	26.067245	-7.083973E-5	20.693194
2672.772939	-3.002400	3.236600	-9.716500	26.078912	-7.404097E-5	20.695433
2673.772347	-3.008300	3.236500	-9.735200	26.083932	-7.361194E-5	20.712807
2674.772213	-3.020600	3.236200	-9.774400	26.099921	-7.357893E-5	20.689042
2675.770468	-2.974900	3.237600	-9.630700	26.164449	-7.268787E-5	20.702198
2676.772624	-3.018700	3.235300	-9.765500	26.182430	-7.364494E-5	20.697981
2677.778027	-3.001700	3.233900	-9.706200	26.201008	-7.252286E-5	20.695787
2678.774141	-2.989700	3.234200	-9.668300	26.208628	-7.579010E-5	20.701547
2679.772261	-2.992400	3.235900	-9.682400	26.176291	-7.344692E-5	20.701769
2680.772793	-2.994100	3.232200	-9.676400	26.199091	-7.067472E-5	20.701447
2681.777695	-2.990400	3.234400	-9.671700	26.206344	-7.235784E-5	20.708262
2682.778105	-3.010300	3.233000	-9.732200	26.237385	-7.275387E-5	20.696780
2683.777486	-2.982100	3.232300	-9.637800	26.234258	-7.367794E-5	20.704544
2684.778378	-3.014200	3.231000	-9.738200	26.162009	-7.272087E-5	20.693108
2685.777005	-2.995500	3.231500	-9.679300	26.200110	-7.215983E-5	20.698203
2686.778736	-3.002900	3.230500	-9.699400	26.224796	-6.948663E-5	20.703096
2687.776283	-3.012600	3.231100	-9.733300	26.260058	-7.351293E-5	20.684476
2688.779057	-3.000000	3.227700	-9.682600	26.207780	-7.169780E-5	20.676985
2689.778979	-3.015900	3.228700	-9.736700	26.193052	-7.334792E-5	20.686842
2690.775656	-2.971500	3.229600	-9.595700	26.170774	-7.298489E-5	20.702390
2691.779069	-2.975900	3.229000	-9.609000	26.148973	-7.305090E-5	20.698026
2692.783522	-3.014100	3.226800	-9.725600	26.130690	-7.529506E-5	20.688663
2693.777348	-2.990900	3.227400	-9.652100	26.085242	-7.354593E-5	20.699898
2694.777951	-3.006400	3.226700	-9.699900	26.113406	-7.255586E-5	20.693108
2695.780581	-3.001300	3.225500	-9.679600	26.106548	-7.031169E-5	20.694278
2696.776009	-2.997000	3.225400	-9.666200	26.084494	-7.374395E-5	20.698672
2697.778244	-2.978700	3.226500	-9.610200	26.126864	-7.222583E-5	20.690035
2698.776126	-3.001900	3.224600	-9.679400	26.203182	-7.258886E-5	20.685642
2699.779972	-3.008700	3.222900	-9.695700	26.236833	-7.268787E-5	20.706657
2700.781078	-3.030700	3.221000	-9.760500	26.199954	-7.328191E-5	20.692356
2701.779383	-3.008800	3.222600	-9.695800	26.162802	-7.291889E-5	20.710976
2702.783019	-2.996300	3.221700	-9.652200	26.208051	-7.275387E-5	20.691009
2703.784959	-2.997700	3.221300	-9.655900	26.278505	-7.295189E-5	20.721509
2704.783790	-3.010800	3.220800	-9.697100	26.279654	-7.397496E-5	20.688048
2705.780984	-2.977000	3.223600	-9.596000	26.184709	-7.450300E-5	20.682252
2706.783869	-3.009000	3.221100	-9.691100	26.202248	-7.255586E-5	20.688023
2707.780883	-3.005500	3.219500	-9.675500	26.150097	-7.529506E-5	20.691569
2708.784519	-2.993600	3.219000	-9.635600	26.070277	-7.390896E-5	20.688179
2709.785059	-3.006400	3.217000	-9.671000	26.040943	-7.305090E-5	20.680042
2710.783234	-3.021000	3.219400	-9.724300	26.044246	-7.334792E-5	20.711339
2711.784136	-3.000500	3.219300	-9.659900	26.114395	-7.202782E-5	20.685566
2712.780371	-3.000100	3.215800	-9.647200	26.223547	-7.443700E-5	20.687615
2713.788996	-3.005900	3.216000	-9.666100	26.282425	-7.338092E-5	20.693204
2714.786067	-3.015900	3.216100	-9.698100	26.250894	-7.338092E-5	20.698975
2715.786584	-3.015400	3.213800	-9.690500	26.301007	-7.496504E-5	20.708086
2716.785306	-3.008400	3.214500	-9.669500	26.264456	-7.215983E-5	20.694587
2717.781465	-2.990600	3.214600	-9.612000	26.215963	-7.456901E-5	20.712238
2718.782772	-2.987900	3.213400	-9.600200	26.196642	-7.437099E-5	20.699934
2719.790214	-3.006400	3.214600	-9.663200	26.209066	-7.417298E-5	20.707678
2720.787439	-3.006000	3.211600	-9.653400	26.236458	-7.212683E-5	20.706755
2721.785105	-2.988800	3.212900	-9.602200	26.302518	-7.407397E-5	20.708182
2722.788800	-3.010500	3.211200	-9.666200	26.352484	-7.371094E-5	20.707663
2723.789504	-2.988100	3.210600	-9.592700	26.364831	-7.506404E-5	20.708692
2724.792408	-3.021200	3.208400	-9.692400	26.308662	-7.628514E-5	20.714357
2725.788342	-3.017500	3.209700	-9.684100	26.321406	-7.476702E-5	20.689230
2726.790827	-2.984200	3.208700	-9.574400	26.290523	-7.476702E-5	20.704662
2727.790195	-3.007000	3.208800	-9.647500	26.273638	-7.562509E-5	20.709505
2728.790920	-2.982800	3.206400	-9.563600	26.259313	-7.476702E-5	20.712653
2729.791256	-2.999600	3.207200	-9.619400	26.231329	-7.450300E-5	20.703023
2730.793369	-2.997000	3.205800	-9.607100	26.244420	-7.724221E-5	20.691521
2731.792949	-3.003300	3.204400	-9.622200	26.257888	-7.684618E-5	20.709798
2732.789662	-3.024700	3.205200	-9.694100	26.290971	-7.750623E-5	20.725502
2733.791902	-3.010700	3.205100	-9.648600	26.305200	-7.879332E-5	20.714671
2734.790211	-2.974600	3.206600	-9.537700	26.301135	-7.691218E-5	20.712482
2735.792734	-3.039500	3.204200	-9.737400	26.338287	-7.628514E-5	20.722794
2736.791603	-3.001500	3.203800	-9.616000	26.376758	-7.612012E-5	20.736328
2737.793043	-3.007900	3.201200	-9.627700	26.385099	-7.605412E-5	20.714364
2738.791854	0.000000	0.000000	0.000000	26.339141	-7.631814E-5	20.716539
