LabVIEW Measurement	
Writer_Version	2
Reader_Version	2
Separator	Tab
Decimal_Separator	.
Multi_Headings	No
X_Columns	One
Time_Pref	Absolute
Operator	admin
Description	Clolumns are: time, Current, Voltage, Power, Battery Temp, and Chamber Temp
Date	2024/08/16
Time	13:07:17.8513970375061035156
***End_of_Header***	
	
Channels	6						
Samples	1	1	1	1	1	1	
Date	2024/09/05	2024/09/05	2024/09/05	2024/09/05	2024/09/05	2024/09/05	
Time	00:33:20.3642497062683105469	00:33:20.3702263832092285156	00:33:20.3782210350036621094	00:33:20.3482503890991210937	00:33:20.3482503890991210937	00:33:20.3482503890991210937	
X_Dimension	Time	Time	Time	Time	Time	Time	
X0	0.0000000000000000E+0	0.0000000000000000E+0	0.0000000000000000E+0	0.0000000000000000E+0	0.0000000000000000E+0	0.0000000000000000E+0	
Delta_X	1.000000	1.000000	1.000000	1.000000	1.000000	1.000000	
***End_of_Header***							
X_Value	Untitled	Untitled 1	Untitled 2	Untitled 3	Untitled 4	Untitled 5	Comment
0.000000	0.022926	4.089500	0.093763	20.789623	0.000461	20.787727
1.002784	-2.996200	3.923400	-11.755000	20.783086	0.000458	20.782138
2.000531	-2.985500	3.918200	-11.696000	20.786230	0.000458	20.785282
3.002269	-2.995000	3.912200	-11.715000	20.787778	0.000459	20.776872
4.004981	-3.008500	3.909800	-11.761000	20.798060	0.000456	20.781939
5.002699	-3.016700	3.904800	-11.779000	20.803101	0.000459	20.788876
6.006718	-3.010600	3.904100	-11.752000	20.800880	0.000457	20.813682
7.001622	-2.994400	3.900700	-11.679000	20.812534	0.000454	20.777920
8.005670	-3.014800	3.898300	-11.752000	20.802277	0.000455	20.783785
9.004466	-3.007900	3.897700	-11.722000	20.815854	0.000456	20.778395
10.008218	-2.990400	3.897100	-11.653000	20.820970	0.000455	20.788728
11.004673	-3.006300	3.893600	-11.704000	20.831600	0.000452	20.786082
12.003930	-2.996300	3.893400	-11.665000	20.822317	0.000452	20.787704
13.004115	-2.995000	3.892500	-11.656000	20.844900	0.000453	20.759553
14.006191	-2.989200	3.891200	-11.631000	20.843304	0.000451	20.775026
15.004481	-2.981600	3.889600	-11.596000	20.854932	0.000452	20.779543
16.008588	-3.006000	3.888300	-11.688000	20.851039	0.000452	20.782288
17.006562	-2.999100	3.887400	-11.658000	20.865089	0.000449	20.776898
18.005204	-3.012200	3.885800	-11.704000	20.899076	0.000449	20.780068
19.008719	-2.995200	3.887000	-11.641000	20.893186	0.000450	20.780341
20.005536	-2.972500	3.885300	-11.547000	20.876842	0.000448	20.775850
21.006129	-2.997700	3.884900	-11.645000	20.884603	0.000447	20.745204
22.006814	-2.997500	3.883100	-11.639000	20.897528	0.000449	20.771881
23.006308	-3.003100	3.882700	-11.659000	20.907260	0.000447	20.758855
24.005037	-3.009000	3.882400	-11.681000	20.922331	0.000447	20.772980
25.007666	-2.993200	3.882300	-11.619000	20.918763	0.000447	20.781739
26.006889	-3.000400	3.880100	-11.641000	20.940945	0.000447	20.754137
27.007419	-3.022000	3.879900	-11.724000	20.946860	0.000445	20.747250
28.013686	-2.984400	3.880500	-11.580000	20.955318	0.000447	20.744804
29.007764	-3.008800	3.878200	-11.669000	20.955342	0.000445	20.768536
30.009192	-3.001600	3.880000	-11.644000	20.957289	0.000445	20.767165
31.010583	-2.978500	3.879200	-11.552000	20.976527	0.000446	20.772655
32.009694	-2.996000	3.877600	-11.616000	20.975329	0.000445	20.755809
33.008879	-3.002000	3.877100	-11.638000	20.991122	0.000446	20.765441
34.008653	-2.976500	3.877900	-11.541000	21.001627	0.000445	20.747972
35.008327	-2.994200	3.877300	-11.609000	20.996886	0.000443	20.767413
36.008130	-3.002600	3.875300	-11.635000	21.014976	0.000444	20.772229
37.010216	-3.012000	3.876500	-11.676000	20.998308	0.000443	20.760774
38.008629	-3.008000	3.874900	-11.655000	21.016522	0.000443	20.741532
39.012283	-3.009400	3.875200	-11.661000	21.062432	0.000443	20.747149
40.010334	-3.013000	3.874800	-11.674000	21.052825	0.000443	20.743230
41.011240	-2.999300	3.875500	-11.623000	21.077526	0.000444	20.779317
42.010345	-2.980700	3.874800	-11.549000	21.080770	0.000443	20.739887
43.010743	-2.999100	3.873600	-11.616000	21.096089	0.000441	20.762797
44.011589	-3.009400	3.873000	-11.655000	21.094890	0.000443	20.758278
45.012206	-2.983900	3.874800	-11.561000	21.089202	0.000441	20.765865
46.013445	-2.996600	3.873400	-11.606000	21.100280	0.000445	20.766990
47.012014	-3.005500	3.872400	-11.637000	21.105445	0.000441	20.749869
48.012972	-2.996000	3.871300	-11.597000	21.107865	0.000442	20.749919
49.013522	-3.027400	3.872500	-11.723000	21.114550	0.000442	20.760400
50.013680	-3.017900	3.869800	-11.678000	21.130394	0.000441	20.768662
51.014956	-3.007300	3.870600	-11.640000	21.149877	0.000442	20.747374
52.014593	-2.995700	3.870900	-11.596000	21.154992	0.000441	20.768612
53.015943	-3.008700	3.870700	-11.645000	21.159631	0.000441	20.738164
54.015725	-3.007400	3.871000	-11.640000	21.174776	0.000441	20.748572
55.015073	-3.014700	3.869100	-11.664000	21.166119	0.000440	20.742283
56.014807	-3.005800	3.870400	-11.633000	21.202042	0.000441	20.734122
57.013024	-2.992500	3.870100	-11.580000	21.210075	0.000441	20.761599
58.016386	-3.011700	3.869800	-11.654000	21.219181	0.000441	20.739887
59.018384	-3.008300	3.869600	-11.640000	21.234972	0.000439	20.759478
60.018103	-3.013100	3.868800	-11.657000	21.224319	0.000441	20.740286
61.019041	-2.985100	3.869700	-11.550000	21.258794	0.000441	20.738738
62.021112	-3.004500	3.868900	-11.624000	21.239911	0.000442	20.722691
63.019113	-3.000800	3.868000	-11.606000	21.240834	0.000441	20.742582
64.020726	-2.995000	3.868200	-11.584000	21.246621	0.000441	20.747898
65.023006	-3.002000	3.869600	-11.616000	21.266553	0.000442	20.745078
66.017551	-2.991600	3.867800	-11.570000	21.236218	0.000440	20.756457
67.023709	-3.014300	3.867000	-11.656000	21.251959	0.000440	20.748496
68.023912	-3.003200	3.867900	-11.616000	21.278077	0.000443	20.736692
69.020662	-3.011700	3.867200	-11.646000	21.301749	0.000440	20.747098
70.024748	-3.010100	3.866200	-11.637000	21.285386	0.000442	20.736417
71.025308	-2.978700	3.867000	-11.518000	21.315843	0.000441	20.751241
72.021276	-3.005300	3.867000	-11.621000	21.333528	0.000440	20.737640
73.027089	-2.997100	3.867100	-11.589000	21.334101	0.000441	20.733471
74.028603	-2.996300	3.867200	-11.587000	21.316043	0.000440	20.723939
75.026356	-3.003600	3.866900	-11.614000	21.343979	0.000439	20.723439
76.025855	-3.018700	3.865600	-11.668000	21.343930	0.000441	20.717225
77.027792	-3.002300	3.865400	-11.605000	21.371741	0.000441	20.738413
78.025829	-2.990300	3.866800	-11.562000	21.370220	0.000441	20.759177
79.028537	-2.997600	3.867200	-11.591000	21.374535	0.000440	20.733621
80.028539	-2.985600	3.866500	-11.543000	21.396534	0.000443	20.747572
81.026157	-3.010100	3.864000	-11.631000	21.389076	0.000442	20.740110
82.025507	-2.997900	3.865400	-11.588000	21.382117	0.000441	20.751165
83.028563	-2.989900	3.864800	-11.555000	21.379648	0.000443	20.733521
84.025958	-3.015300	3.864700	-11.652000	21.415365	0.000442	20.740808
85.029745	-2.989800	3.864600	-11.554000	21.409828	0.000442	20.756606
86.030216	-2.991900	3.863800	-11.560000	21.423097	0.000441	20.738113
87.028739	-2.987500	3.863300	-11.541000	21.452030	0.000441	20.746199
88.031543	-3.019100	3.861700	-11.658000	21.445994	0.000441	20.742531
89.031017	-2.998600	3.862800	-11.581000	21.451032	0.000441	20.746149
90.028601	-2.997200	3.862800	-11.577000	21.478891	0.000441	20.746997
91.028849	-2.985700	3.864100	-11.536000	21.495203	0.000442	20.763319
92.031899	-3.027200	3.863100	-11.693000	21.510516	0.000442	20.736916
93.028994	-3.026500	3.862800	-11.689000	21.498270	0.000443	20.748370
94.029585	-3.005100	3.864200	-11.611000	21.500414	0.000442	20.752412
95.032942	-2.994400	3.863500	-11.568000	21.508222	0.000444	20.740310
96.030770	-3.012000	3.862700	-11.633000	21.543985	0.000444	20.733421
97.030992	-2.996200	3.863600	-11.575000	21.522063	0.000444	20.741832
98.032712	-2.999200	3.862900	-11.585000	21.562017	0.000444	20.743405
99.035735	-3.009300	3.862600	-11.622000	21.553413	0.000443	20.736217
100.031321	-2.994400	3.861700	-11.563000	21.546978	0.000445	20.734994
101.032377	-2.983600	3.861500	-11.520000	21.557329	0.000444	20.747723
102.030822	-3.009000	3.860400	-11.615000	21.562690	0.000443	20.745501
103.032102	-2.984000	3.862600	-11.524000	21.544410	0.000445	20.763719
104.032036	-3.005900	3.861000	-11.605000	21.563363	0.000443	20.727682
105.031595	-3.004600	3.861400	-11.599000	21.591145	0.000442	20.737939
106.034615	-2.988900	3.861300	-11.539000	21.595385	0.000443	20.751666
107.041008	-3.006200	3.859100	-11.601000	21.616058	0.000444	20.750543
108.035573	-3.004300	3.860600	-11.597000	21.644387	0.000444	20.738114
109.036757	-3.000800	3.859300	-11.581000	21.632618	0.000445	20.757631
110.039353	-3.012500	3.859200	-11.624000	21.645810	0.000447	20.749495
111.036152	-2.991100	3.859400	-11.544000	21.665385	0.000445	20.753913
112.036876	-3.014100	3.859500	-11.632000	21.665036	0.000444	20.733173
113.037760	-2.989500	3.859100	-11.535000	21.673066	0.000446	20.747375
114.037543	-2.995700	3.859000	-11.559000	21.689000	0.000445	20.772330
115.035507	-3.004100	3.860000	-11.595000	21.703164	0.000445	20.750469
116.037611	-3.001100	3.860300	-11.584000	21.706778	0.000445	20.738438
117.037016	-2.993400	3.860200	-11.555000	21.696879	0.000446	20.756982
118.035374	-2.996300	3.858000	-11.559000	21.720145	0.000446	20.743755
119.037385	-3.006300	3.859400	-11.601000	21.702590	0.000448	20.758904
120.037609	-3.014000	3.858800	-11.629000	21.721367	0.000448	20.760152
121.037886	-2.989700	3.860000	-11.539000	21.733037	0.000447	20.741011
122.039790	-3.003800	3.857900	-11.587000	21.727950	0.000448	20.747300
123.038509	-2.988400	3.858600	-11.530000	21.740992	0.000447	20.764146
124.039413	-3.013000	3.857100	-11.620000	21.740942	0.000447	20.753190
125.040282	-3.003700	3.857300	-11.585000	21.759767	0.000448	20.755435
126.046596	-3.007800	3.858000	-11.603000	21.756951	0.000448	20.738391
127.040458	-2.977600	3.857600	-11.485000	21.762037	0.000447	20.749646
128.041935	-2.984900	3.858100	-11.515000	21.758920	0.000446	20.757432
129.042962	-2.988600	3.857900	-11.529000	21.778245	0.000450	20.731728
130.043865	-2.979400	3.857900	-11.494000	21.767747	0.000450	20.746826
131.040862	-2.976800	3.858100	-11.484000	21.780064	0.000450	20.752041
132.042161	-3.010200	3.856300	-11.608000	21.792606	0.000448	20.749895
133.041513	-2.996400	3.857100	-11.556000	21.807641	0.000448	20.776324
134.041778	-2.980200	3.856100	-11.491000	21.831028	0.000451	20.758955
135.042540	-2.981600	3.856400	-11.497000	21.841178	0.000450	20.748250
136.041733	-2.983400	3.856900	-11.506000	21.845265	0.000450	20.758980
137.041897	-2.980000	3.856100	-11.491000	21.835092	0.000450	20.754487
138.041873	-3.001200	3.855100	-11.568000	21.836488	0.000450	20.755885
139.042659	-3.013700	3.855200	-11.618000	21.865835	0.000450	20.732152
140.043428	-3.017600	3.853400	-11.626000	21.858579	0.000451	20.769461
141.043997	-3.033800	3.852800	-11.687000	21.877179	0.000451	20.749197
142.043213	-3.014100	3.855100	-11.618000	21.904404	0.000451	20.757482
143.044546	-3.026300	3.854500	-11.663000	21.914902	0.000453	20.763249
144.046370	-2.996200	3.854400	-11.548000	21.917569	0.000451	20.748848
145.046534	-3.015100	3.854000	-11.619000	21.931854	0.000454	20.773106
146.043823	-2.991000	3.855200	-11.530000	21.904505	0.000451	20.770860
147.044768	-3.008600	3.855100	-11.598000	21.916621	0.000453	20.764496
148.044280	-2.993000	3.854900	-11.537000	21.956586	0.000452	20.775577
149.045860	-2.984700	3.855200	-11.505000	21.956761	0.000454	20.762475
150.044973	-3.006400	3.853900	-11.585000	21.956685	0.000454	20.771408
151.045428	-3.007100	3.853800	-11.587000	21.949730	0.000455	20.760653
152.043916	-3.012200	3.853100	-11.605000	21.971370	0.000454	20.763823
153.045690	-3.016700	3.853100	-11.622000	21.981293	0.000456	20.766169
154.045460	-3.013600	3.851800	-11.607000	21.994481	0.000454	20.769889
155.044211	-3.010700	3.853600	-11.601000	22.021728	0.000454	20.757335
156.046482	-2.993400	3.853700	-11.535000	22.014723	0.000456	20.765496
157.044349	-3.027300	3.851800	-11.660000	22.024745	0.000456	20.766045
158.045703	-2.999000	3.853000	-11.555000	22.045137	0.000453	20.777924
159.049974	-2.990100	3.852600	-11.519000	22.067024	0.000454	20.760480
160.046726	-2.970400	3.852600	-11.443000	22.069990	0.000459	20.756337
161.046121	-2.990600	3.852800	-11.521000	22.072034	0.000456	20.756961
162.048437	-2.993200	3.851700	-11.528000	22.052366	0.000458	20.791800
163.047649	-2.995100	3.851100	-11.534000	22.057426	0.000458	20.772209
164.048563	-3.019800	3.852200	-11.632000	22.060168	0.000458	20.767368
165.047986	-2.990100	3.851000	-11.514000	22.091054	0.000456	20.773158
166.046276	-2.986400	3.850900	-11.499000	22.084498	0.000458	20.759008
167.048227	-2.995000	3.850000	-11.530000	22.078690	0.000458	20.797290
168.047966	-2.994900	3.851100	-11.533000	22.075149	0.000459	20.762925
169.048010	-2.985700	3.851200	-11.497000	22.105536	0.000458	20.770587
170.048613	-2.996500	3.850200	-11.536000	22.127747	0.000459	20.772435
171.048112	-3.001200	3.849000	-11.551000	22.138465	0.000460	20.772734
172.049573	-2.986500	3.850000	-11.496000	22.134103	0.000460	20.780220
173.052400	-2.982000	3.848800	-11.475000	22.163540	0.000460	20.769864
174.048843	-3.014000	3.848200	-11.597000	22.174583	0.000461	20.770014
175.048152	-2.995800	3.849600	-11.533000	22.154468	0.000460	20.787334
176.050274	-3.011700	3.849100	-11.591000	22.177748	0.000459	20.789304
177.049668	-2.982600	3.849800	-11.480000	22.188540	0.000461	20.777350
178.049381	-3.006400	3.848400	-11.570000	22.201926	0.000464	20.774630
179.047925	-3.011600	3.848000	-11.588000	22.185175	0.000463	20.793896
180.051070	-3.000200	3.847700	-11.543000	22.191333	0.000463	20.778724
181.051654	-2.985800	3.848800	-11.491000	22.192654	0.000464	20.772934
182.049613	-3.010500	3.848200	-11.585000	22.200481	0.000464	20.785038
183.051396	-2.978400	3.848800	-11.462000	22.233108	0.000462	20.785937
184.051399	-3.010600	3.847500	-11.581000	22.225954	0.000465	20.785412
185.052759	-3.016000	3.846400	-11.600000	22.230141	0.000465	20.791027
186.050000	-2.967800	3.849100	-11.422000	22.245743	0.000464	20.796217
187.051786	-2.991600	3.848000	-11.511000	22.264462	0.000464	20.801209
188.060008	-2.975200	3.848000	-11.447000	22.248984	0.000465	20.809894
189.051893	-3.015600	3.847100	-11.599000	22.247987	0.000464	20.807947
190.052594	-2.999600	3.847200	-11.539000	22.254268	0.000466	20.779149
191.051709	-3.025700	3.846200	-11.637000	22.283429	0.000467	20.798390
192.052025	-3.015000	3.846300	-11.594000	22.299679	0.000467	20.792850
193.051302	-3.011400	3.846400	-11.582000	22.282857	0.000468	20.792127
194.051050	-3.003700	3.846800	-11.554000	22.303144	0.000467	20.787785
195.052444	-2.986800	3.846000	-11.486000	22.277872	0.000466	20.812266
196.053547	-2.987300	3.845500	-11.487000	22.316778	0.000467	20.800962
197.050568	-3.005700	3.844700	-11.554000	22.305163	0.000469	20.794074
198.052645	-2.991000	3.846300	-11.504000	22.307482	0.000467	20.823896
199.052795	-2.989400	3.844800	-11.493000	22.316279	0.000469	20.786238
200.052269	-2.993400	3.845400	-11.510000	22.361089	0.000471	20.812617
201.053905	-3.007500	3.845000	-11.563000	22.352965	0.000469	20.804007
202.056677	-2.985200	3.845700	-11.479000	22.387730	0.000470	20.809897
203.054401	-2.983800	3.844600	-11.470000	22.375893	0.000468	20.802311
204.053805	-3.003700	3.844300	-11.546000	22.394285	0.000471	20.807452
205.054804	-3.004100	3.844000	-11.546000	22.379182	0.000471	20.816510
206.053838	-2.994200	3.843800	-11.507000	22.403430	0.000471	20.817084
207.054565	-3.014400	3.843400	-11.584000	22.401636	0.000472	20.815288
208.055723	-2.992600	3.844700	-11.505000	22.420502	0.000472	20.804782
209.054164	-3.009600	3.843300	-11.566000	22.430021	0.000474	20.829013
210.054845	-2.989700	3.844400	-11.492000	22.432040	0.000471	20.814915
211.056791	-2.998900	3.844200	-11.527000	22.435155	0.000472	20.815663
212.055143	-2.965600	3.843800	-11.397000	22.436078	0.000474	20.808527
213.055085	-2.994500	3.842100	-11.504000	22.464088	0.000473	20.812869
214.055086	-3.003700	3.842800	-11.541000	22.468622	0.000474	20.816462
215.056234	-3.012900	3.842400	-11.575000	22.467277	0.000471	20.813692
216.055930	-2.994200	3.841800	-11.502000	22.480510	0.000474	20.815091
217.057146	-3.002600	3.842500	-11.537000	22.496160	0.000473	20.839298
218.057685	-3.004400	3.841900	-11.542000	22.516642	0.000476	20.812870
219.058554	-3.004000	3.841900	-11.540000	22.502165	0.000476	20.825872
220.059121	-2.978400	3.840100	-11.437000	22.487788	0.000474	20.847508
221.059081	-2.990800	3.841700	-11.488000	22.499923	0.000474	20.834532
222.058272	-2.984100	3.840800	-11.461000	22.501842	0.000475	20.832661
223.058739	-2.982900	3.841200	-11.457000	22.479440	0.000477	20.804537
224.057609	-2.975500	3.841200	-11.429000	22.516993	0.000475	20.829816
225.060327	-2.993400	3.839200	-11.490000	22.497083	0.000478	20.844015
226.058289	-2.993500	3.840200	-11.494000	22.518936	0.000475	20.828444
227.058142	-2.994200	3.838900	-11.494000	22.503164	0.000479	20.835407
228.060670	-2.989400	3.839800	-11.478000	22.520881	0.000481	20.826124
229.064822	-2.994700	3.839200	-11.497000	22.534886	0.000480	20.815968
230.060382	-2.988700	3.838800	-11.472000	22.560923	0.000479	20.827821
231.060105	-2.984400	3.840200	-11.458000	22.550682	0.000478	20.832737
232.059995	-3.013100	3.838600	-11.565000	22.539993	0.000478	20.830567
233.059542	-2.987000	3.839200	-11.466000	22.549935	0.000481	20.844317
234.059419	-3.028600	3.837100	-11.620000	22.590825	0.000481	20.818415
235.059756	-3.003600	3.838200	-11.528000	22.590077	0.000479	20.842795
236.061952	-3.014600	3.837600	-11.567000	22.618133	0.000481	20.859515
237.060368	-2.989800	3.839200	-11.478000	22.628074	0.000481	20.838653
238.060800	-3.017600	3.837600	-11.579000	22.645440	0.000482	20.831865
239.060635	-2.994500	3.837100	-11.490000	22.635724	0.000483	20.830194
240.058976	-2.985400	3.838300	-11.458000	22.669757	0.000484	20.843894
241.061699	-3.000500	3.836000	-11.508000	22.642849	0.000482	20.821684
242.061330	-3.006300	3.835800	-11.530000	22.687472	0.000483	20.860688
243.062779	-3.014000	3.837000	-11.564000	22.689964	0.000483	20.829520
244.062257	-3.011500	3.835400	-11.549000	22.683585	0.000485	20.834511
245.060819	-3.010900	3.836000	-11.549000	22.685455	0.000483	20.861038
246.061802	-3.004900	3.835100	-11.524000	22.700900	0.000484	20.834785
247.060639	-3.003400	3.836200	-11.521000	22.713731	0.000484	20.833413
248.059797	-2.984900	3.834800	-11.445000	22.694374	0.000485	20.842472
249.061094	-2.996700	3.834800	-11.490000	22.729801	0.000486	20.832440
250.062595	-3.009800	3.834800	-11.541000	22.738545	0.000485	20.853052
251.062145	-3.027000	3.834000	-11.604000	22.722799	0.000486	20.845341
252.062805	-3.003900	3.833900	-11.516000	22.732815	0.000488	20.861062
253.061181	-3.020600	3.833200	-11.577000	22.743752	0.000487	20.831242
254.062331	-3.002700	3.834000	-11.512000	22.767144	0.000486	20.865104
255.071197	-3.005300	3.833500	-11.520000	22.760170	0.000486	20.832515
256.063436	-2.996700	3.833400	-11.486000	22.782043	0.000487	20.852055
257.063702	-3.021700	3.832000	-11.578000	22.761266	0.000487	20.843571
258.064788	-2.974100	3.833900	-11.401000	22.771405	0.000489	20.856571
259.064080	-2.996900	3.833500	-11.488000	22.777958	0.000488	20.863609
260.063831	-2.999700	3.834500	-11.501000	22.767496	0.000490	20.838905
261.064719	-3.000200	3.831700	-11.494000	22.765203	0.000488	20.841824
262.063594	-2.993900	3.831700	-11.471000	22.763982	0.000491	20.866678
263.068922	-3.013400	3.832800	-11.547000	22.800304	0.000489	20.860390
264.066150	-3.004900	3.833100	-11.517000	22.797042	0.000490	20.848114
265.063287	-2.983900	3.833000	-11.437000	22.832541	0.000490	20.877036
266.065821	-2.992500	3.831800	-11.465000	22.846740	0.000489	20.868976
267.066238	-3.007900	3.830600	-11.521000	22.842208	0.000489	20.853531
268.063017	-2.991800	3.830700	-11.460000	22.853716	0.000493	20.863636
269.071456	-3.006600	3.830300	-11.515000	22.865376	0.000492	20.844972
270.066403	-2.985700	3.829800	-11.433000	22.846244	0.000492	20.875116
271.063380	-2.979100	3.831400	-11.413000	22.853493	0.000493	20.876689
272.070231	-2.996000	3.830200	-11.474000	22.838797	0.000492	20.854855
273.065447	-2.972100	3.831000	-11.385000	22.865402	0.000492	20.866334
274.063859	-3.001800	3.830300	-11.497000	22.839470	0.000493	20.876865
275.065385	-2.993000	3.830300	-11.463000	22.868266	0.000492	20.886272
276.066758	-2.973700	3.830600	-11.389000	22.887821	0.000493	20.894957
277.063341	-2.982300	3.830700	-11.423000	22.869090	0.000490	20.880460
278.067192	-2.988900	3.829900	-11.446000	22.879403	0.000494	20.877041
279.067950	-3.019400	3.827900	-11.557000	22.898808	0.000495	20.888894
280.064923	-3.017300	3.827400	-11.547000	22.903765	0.000495	20.874422
281.072184	-3.015900	3.828300	-11.545000	22.899132	0.000493	20.883056
282.068223	-3.014100	3.828100	-11.538000	22.912062	0.000494	20.884155
283.065562	-3.014300	3.828000	-11.538000	22.931938	0.000495	20.875146
284.066810	-2.992500	3.828900	-11.457000	22.980635	0.000497	20.880786
285.071189	-2.991300	3.828100	-11.450000	22.981605	0.000498	20.891715
286.066634	-2.997700	3.828100	-11.475000	23.003947	0.000497	20.904616
287.067880	-3.003500	3.826400	-11.492000	22.990498	0.000496	20.906788
288.066864	-3.012000	3.827400	-11.527000	22.968653	0.000497	20.887274
289.067857	-2.998200	3.826700	-11.471000	22.959613	0.000497	20.875846
290.068092	-3.020800	3.825700	-11.555000	22.974306	0.000499	20.879188
291.067691	-3.001900	3.828000	-11.490000	22.988306	0.000497	20.897955
292.070598	-3.029900	3.826000	-11.591000	22.967608	0.000497	20.883856
293.071645	-2.975700	3.826500	-11.386000	22.970473	0.000498	20.878192
294.073458	-3.000600	3.824600	-11.474000	22.987434	0.000498	20.900399
295.071438	-2.988600	3.826900	-11.436000	23.029328	0.000498	20.892589
296.075512	-2.986700	3.825000	-11.424000	23.043574	0.000499	20.901648
297.071958	-2.992400	3.825200	-11.446000	23.062578	0.000499	20.901248
298.071733	-2.984000	3.825800	-11.415000	23.043400	0.000499	20.873025
299.072437	-2.990800	3.824400	-11.436000	23.033612	0.000499	20.901623
300.071528	-2.993700	3.825400	-11.450000	23.010573	0.000503	20.903195
301.070119	-2.997100	3.824800	-11.462000	23.003625	0.000498	20.901923
302.072189	-2.978100	3.824400	-11.389000	23.015506	0.000500	20.897706
303.073453	-2.995000	3.824400	-11.454000	23.030425	0.000500	20.905068
304.074421	-2.979100	3.823800	-11.391000	23.044322	0.000500	20.902397
305.074481	-3.007600	3.823200	-11.497000	23.044372	0.000500	20.925678
306.075109	-2.997800	3.822400	-11.458000	23.062056	0.000502	20.910208
307.074823	-3.000200	3.823600	-11.470000	23.063774	0.000503	20.903395
308.075607	-3.003300	3.822900	-11.479000	23.092416	0.000503	20.887051
309.075817	-3.005800	3.822400	-11.489000	23.142674	0.000503	20.902323
310.075092	-3.031100	3.822300	-11.585000	23.147131	0.000504	20.894462
311.075067	-3.012600	3.822400	-11.515000	23.121281	0.000504	20.887525
312.077614	-3.018900	3.821700	-11.536000	23.134430	0.000505	20.911131
313.082141	-2.988700	3.822300	-11.423000	23.113410	0.000502	20.896707
314.078388	-2.986200	3.820500	-11.408000	23.131891	0.000506	20.919491
315.077995	-3.001500	3.821400	-11.469000	23.122302	0.000506	20.904194
316.082609	-3.007400	3.820500	-11.489000	23.119463	0.000505	20.883333
317.080935	-2.977700	3.821000	-11.376000	23.151539	0.000507	20.907413
318.078466	-3.002200	3.820400	-11.469000	23.179929	0.000508	20.904094
319.082580	-3.008600	3.818500	-11.488000	23.175919	0.000507	20.889646
320.079095	-3.012400	3.819500	-11.504000	23.213325	0.000507	20.887301
321.080108	-3.012300	3.820700	-11.508000	23.209888	0.000506	20.891917
322.083284	-2.996300	3.819900	-11.444000	23.199678	0.000508	20.902074
323.079698	-3.024400	3.817700	-11.545000	23.200525	0.000509	20.885380
324.080198	-3.023000	3.818200	-11.541000	23.182670	0.000507	20.905892
325.083635	-3.014900	3.818600	-11.511000	23.194499	0.000507	20.884083
326.079733	-2.991900	3.818700	-11.424000	23.216214	0.000507	20.882610
327.087571	-2.980300	3.818400	-11.379000	23.215840	0.000506	20.885081
328.084722	-3.000100	3.817600	-11.452000	23.210239	0.000510	20.895588
329.081731	-3.017500	3.818800	-11.522000	23.204161	0.000508	20.901351
330.082586	-2.983900	3.818300	-11.392000	23.183145	0.000506	20.878870
331.083463	-3.014500	3.817300	-11.506000	23.169247	0.000509	20.880590
332.082977	-3.022900	3.815800	-11.534000	23.200525	0.000508	20.873053
333.082953	-3.023900	3.816800	-11.540000	23.198410	0.000508	20.892269
334.086878	-2.978200	3.816000	-11.364000	23.233324	0.000509	20.887903
335.082736	-2.970700	3.817100	-11.338000	23.245301	0.000513	20.881888
336.087269	-2.974800	3.816200	-11.352000	23.278719	0.000509	20.875551
337.087113	-2.984300	3.815800	-11.386000	23.304964	0.000511	20.874352
338.084421	-2.991800	3.816300	-11.416000	23.298640	0.000512	20.886031
339.084982	-2.987900	3.815700	-11.400000	23.309148	0.000511	20.855788
340.086435	-2.981500	3.817000	-11.379000	23.286066	0.000512	20.881490
341.084039	-2.994000	3.815000	-11.420000	23.305240	0.000512	20.873680
342.085201	-3.020800	3.812700	-11.516000	23.309673	0.000511	20.886183
343.086240	-3.013800	3.814500	-11.496000	23.350856	0.000513	20.876250
344.085545	-3.002600	3.814600	-11.453000	23.360642	0.000511	20.884635
345.085991	-2.991500	3.814500	-11.410000	23.327302	0.000511	20.861179
346.092877	-2.974700	3.814400	-11.346000	23.293961	0.000513	20.890351
347.087072	-2.968400	3.813700	-11.319000	23.288482	0.000515	20.859258
348.089063	-2.999800	3.813400	-11.439000	23.297498	0.000514	20.873034
349.091182	-2.991700	3.814400	-11.410000	23.324340	0.000512	20.859633
350.087895	-3.007000	3.812800	-11.464000	23.320930	0.000514	20.867120
351.089818	-3.020200	3.813000	-11.515000	23.328872	0.000513	20.848055
352.090837	-3.006500	3.813800	-11.466000	23.299117	0.000514	20.868492
353.087928	-2.997800	3.812300	-11.427000	23.321801	0.000514	20.868941
354.091964	-3.012300	3.811400	-11.480000	23.336019	0.000516	20.867544
355.089101	-2.990000	3.812700	-11.399000	23.336741	0.000517	20.850726
356.089080	-2.965000	3.812700	-11.304000	23.389079	0.000516	20.853869
357.093899	-2.979700	3.811000	-11.355000	23.386739	0.000515	20.851998
358.094347	-3.005000	3.812500	-11.455000	23.381361	0.000513	20.846134
359.091480	-3.013200	3.811800	-11.485000	23.389229	0.000516	20.854968
360.091000	-3.014200	3.811400	-11.487000	23.384623	0.000517	20.852722
361.092707	-3.013600	3.809700	-11.480000	23.430485	0.000516	20.861232
362.090691	-2.998700	3.810600	-11.426000	23.424933	0.000518	20.876529
363.094466	-2.981900	3.810100	-11.359000	23.426727	0.000516	20.855094
364.094473	-2.987000	3.809300	-11.377000	23.424835	0.000517	20.863628
365.092343	-2.978400	3.809000	-11.344000	23.425556	0.000517	20.845860
366.093146	-3.013600	3.808700	-11.477000	23.439723	0.000517	20.860533
367.094982	-2.994000	3.809500	-11.405000	23.431383	0.000518	20.862131
368.092204	-2.983000	3.809600	-11.362000	23.428470	0.000519	20.857790
369.094129	-3.002400	3.807700	-11.431000	23.452098	0.000519	20.844963
370.094233	-2.999100	3.808700	-11.422000	23.456057	0.000518	20.841345
371.092173	-2.996300	3.808600	-11.410000	23.427774	0.000520	20.848558
372.095774	-2.986100	3.808800	-11.372000	23.425334	0.000519	20.846112
373.097847	-3.010500	3.806500	-11.459000	23.447219	0.000518	20.863780
374.095722	-2.983200	3.807800	-11.357000	23.463726	0.000519	20.856144
375.092140	-2.997200	3.807800	-11.412000	23.482024	0.000519	20.835606
376.092901	-2.999800	3.806500	-11.418000	23.483020	0.000519	20.848457
377.092765	-2.984600	3.807100	-11.362000	23.487850	0.000521	20.832437
378.097598	-2.990000	3.806000	-11.379000	23.456182	0.000524	20.846212
379.097346	-2.994300	3.807300	-11.399000	23.460739	0.000522	20.844141
380.094672	-2.999900	3.806400	-11.418000	23.454041	0.000520	20.826049
381.096265	-2.993000	3.806500	-11.392000	23.462283	0.000521	20.834310
382.097022	-3.026100	3.804000	-11.510000	23.476923	0.000522	20.849458
383.095982	-3.011700	3.804800	-11.458000	23.512499	0.000523	20.838652
384.096769	-2.982200	3.804300	-11.344000	23.491737	0.000525	20.841548
385.097664	-2.993900	3.804600	-11.390000	23.500675	0.000522	20.823955
386.099832	-3.014100	3.803700	-11.463000	23.529007	0.000523	20.823906
387.100724	-2.997700	3.804300	-11.403000	23.533389	0.000522	20.856272
388.100169	-3.011000	3.803700	-11.452000	23.574788	0.000524	20.843720
389.100596	-3.009800	3.804200	-11.449000	23.550367	0.000526	20.846740
390.099442	-2.977200	3.803800	-11.324000	23.570085	0.000522	20.856547
391.099622	-2.995400	3.803800	-11.393000	23.551937	0.000523	20.835986
392.100723	-3.002100	3.804000	-11.419000	23.545762	0.000523	20.828373
393.099268	-3.018200	3.802000	-11.474000	23.529084	0.000523	20.827302
394.100848	-2.992400	3.802200	-11.377000	23.552210	0.000522	20.837682
395.101039	-2.994000	3.802200	-11.382000	23.555896	0.000523	20.815773
396.101711	-2.990700	3.803700	-11.374000	23.589528	0.000525	20.833840
397.102688	-2.989600	3.802400	-11.366000	23.611113	0.000520	20.820392
398.102971	-2.985100	3.802500	-11.350000	23.634288	0.000525	20.859744
399.103670	-2.998100	3.801300	-11.395000	23.665230	0.000524	20.837660
400.101755	-3.004900	3.801000	-11.420000	23.662269	0.000526	20.834691
401.104095	-2.983200	3.801400	-11.339000	23.646735	0.000524	20.833342
402.104402	-3.001900	3.800600	-11.408000	23.636554	0.000524	20.816498
403.102039	-2.992300	3.800000	-11.370000	23.632197	0.000522	20.821614
404.103088	-2.968600	3.800500	-11.281000	23.651017	0.000526	20.836213
405.103990	-3.001900	3.799200	-11.404000	23.660576	0.000526	20.837736
406.103564	-2.988200	3.799200	-11.352000	23.681611	0.000526	20.830375
407.104184	-2.979300	3.800200	-11.321000	23.696670	0.000525	20.836938
408.104745	-2.998500	3.799000	-11.390000	23.694107	0.000527	20.839584
409.104092	-3.015900	3.797800	-11.453000	23.681363	0.000526	20.830126
410.104589	-2.986900	3.798000	-11.343000	23.695177	0.000527	20.836388
411.105392	-2.998400	3.796900	-11.384000	23.684425	0.000527	20.828929
412.107358	-2.989900	3.797600	-11.352000	23.674243	0.000526	20.825834
413.105011	-3.020400	3.796600	-11.466000	23.657989	0.000528	20.836565
414.107200	-3.015500	3.797700	-11.450000	23.674095	0.000525	20.835167
415.107215	-3.002200	3.797900	-11.401000	23.685968	0.000527	20.821942
416.106413	-3.000700	3.796700	-11.392000	23.673797	0.000526	20.818748
417.106704	-3.001300	3.797200	-11.396000	23.696050	0.000527	20.814031
418.106462	-2.992700	3.797500	-11.363000	23.723430	0.000525	20.820145
419.107074	-3.015000	3.795400	-11.441000	23.763429	0.000527	20.843178
420.106830	-2.990200	3.795300	-11.346000	23.754270	0.000529	20.822616
421.107946	-2.992900	3.796900	-11.362000	23.742546	0.000527	20.807542
422.107895	-3.000300	3.794900	-11.385000	23.716461	0.000527	20.828805
423.106219	-2.990400	3.795700	-11.350000	23.722311	0.000525	20.822342
424.107681	-3.007200	3.794400	-11.410000	23.737421	0.000529	20.804300
425.109414	-2.995700	3.795200	-11.369000	23.734732	0.000527	20.819148
426.112693	-2.990000	3.794900	-11.345000	23.737520	0.000528	20.822891
427.109416	-2.995900	3.794500	-11.367000	23.748521	0.000528	20.825861
428.111487	-2.996400	3.795100	-11.371000	23.765074	0.000530	20.838663
429.108101	-3.022600	3.794100	-11.467000	23.786331	0.000529	20.845277
430.110094	-3.011300	3.792300	-11.418000	23.811966	0.000529	20.815031
431.109700	-2.994900	3.794100	-11.361000	23.813832	0.000533	20.833971
432.112867	-3.014300	3.793000	-11.433000	23.817192	0.000528	20.826435
433.114363	-2.998600	3.792400	-11.370000	23.796460	0.000529	20.830303
434.113055	-3.024200	3.791900	-11.467000	23.801886	0.000529	20.803502
435.112630	-3.013700	3.791600	-11.425000	23.798028	0.000530	20.800108
436.113962	-2.993400	3.793100	-11.353000	23.817118	0.000530	20.833946
437.112482	-3.011500	3.791500	-11.417000	23.777146	0.000531	20.803352
438.112911	-2.989400	3.791100	-11.332000	23.789267	0.000531	20.809341
439.114230	-3.005600	3.790700	-11.392000	23.799222	0.000532	20.825961
440.120107	-3.005300	3.790400	-11.390000	23.810224	0.000529	20.808069
441.116501	-3.006800	3.790300	-11.396000	23.805495	0.000530	20.804750
442.116240	-2.992900	3.790700	-11.344000	23.795166	0.000531	20.814308
443.117403	-3.014900	3.788900	-11.423000	23.839120	0.000531	20.804326
444.116798	-2.996600	3.790300	-11.356000	23.798003	0.000531	20.825213
445.118319	-2.998200	3.790000	-11.362000	23.812290	0.000530	20.811563
446.115964	-3.008300	3.789400	-11.399000	23.833944	0.000532	20.809093
447.120794	-3.004400	3.788900	-11.383000	23.839792	0.000532	20.816379
448.118996	-2.991900	3.788500	-11.334000	23.827447	0.000533	20.818226
449.118956	-2.979600	3.789500	-11.291000	23.846711	0.000530	20.800083
450.119075	-2.984400	3.789000	-11.307000	23.838623	0.000532	20.804776
451.119283	-2.994400	3.787700	-11.340000	23.874760	0.000532	20.817303
452.121000	-3.001800	3.787700	-11.370000	23.836705	0.000532	20.806172
453.123298	-2.999900	3.787600	-11.361000	23.847981	0.000533	20.811788
454.122149	-2.989600	3.787700	-11.323000	23.829913	0.000531	20.805999
455.121602	-2.983200	3.786500	-11.294000	23.826453	0.000533	20.811065
456.122299	-2.976900	3.787900	-11.276000	23.847160	0.000533	20.784886
457.123049	-2.993700	3.786500	-11.335000	23.899947	0.000534	20.808420
458.123063	-2.978800	3.787700	-11.281000	23.918090	0.000533	20.797690
459.122653	-2.988600	3.785900	-11.313000	23.903607	0.000533	20.827736
460.130818	-2.998300	3.786400	-11.352000	23.916946	0.000533	20.813138
461.125094	-2.980100	3.785800	-11.281000	23.882801	0.000535	20.798339
462.124767	-2.999500	3.786200	-11.356000	23.918490	0.000533	20.770589
463.126910	-2.998800	3.784500	-11.348000	23.944322	0.000534	20.800761
464.125849	-2.998000	3.783800	-11.343000	23.930361	0.000535	20.794347
465.127869	-3.017500	3.783700	-11.416000	23.917993	0.000534	20.783368
466.126647	-3.019100	3.782700	-11.419000	23.945193	0.000534	20.798790
467.129879	-3.023300	3.782700	-11.434000	23.929914	0.000534	20.778726
468.128297	-3.004900	3.783400	-11.368000	23.918765	0.000534	20.812591
469.127901	-3.011200	3.782500	-11.388000	23.907640	0.000536	20.785314
470.129951	-2.988800	3.782700	-11.304000	23.930089	0.000535	20.790755
471.129963	-3.010300	3.783300	-11.388000	23.974087	0.000536	20.787935
472.131709	-2.998200	3.782300	-11.339000	23.980706	0.000535	20.801686
473.131137	-2.994900	3.781300	-11.323000	24.010494	0.000535	20.829660
474.130499	-2.986400	3.782000	-11.293000	24.038439	0.000534	20.780399
475.133627	-3.009700	3.782000	-11.382000	24.024877	0.000536	20.776281
476.130692	-2.993900	3.781300	-11.320000	24.033537	0.000536	20.788760
477.129985	-2.994400	3.781900	-11.324000	24.039459	0.000536	20.798492
478.130626	-2.994200	3.779200	-11.315000	24.051404	0.000533	20.787711
479.134566	-3.014900	3.780200	-11.396000	24.057102	0.000536	20.789633
480.132476	-2.991900	3.779300	-11.307000	24.049513	0.000537	20.788185
481.133053	-2.999200	3.780700	-11.338000	24.047596	0.000537	20.778677
482.136930	-3.009500	3.780300	-11.377000	24.060983	0.000534	20.787835
483.131641	-3.005200	3.779400	-11.357000	24.047945	0.000535	20.796096
484.135503	-2.987700	3.779700	-11.292000	24.067155	0.000536	20.785017
485.137061	-3.012700	3.779600	-11.385000	24.054813	0.000535	20.791605
486.136364	-2.999800	3.778600	-11.334000	24.046303	0.000539	20.775483
487.136723	-2.991400	3.778100	-11.301000	24.061830	0.000535	20.788211
488.139768	-2.971600	3.779000	-11.229000	24.025277	0.000535	20.791855
489.139795	-2.982600	3.778400	-11.268000	24.041277	0.000536	20.772339
490.138524	-2.972600	3.777600	-11.228000	24.083826	0.000537	20.805055
491.139551	-2.980300	3.778800	-11.261000	24.088132	0.000537	20.808899
492.137545	-2.984400	3.778000	-11.274000	24.069942	0.000536	20.782596
493.137433	-3.020300	3.777000	-11.407000	24.095149	0.000537	20.781797
494.143275	-2.999700	3.776800	-11.329000	24.110377	0.000538	20.791381
495.139247	-2.999900	3.775900	-11.327000	24.123092	0.000535	20.787537
496.143757	-2.999300	3.775900	-11.323000	24.086564	0.000538	20.779826
497.142670	-2.990600	3.775800	-11.290000	24.084498	0.000537	20.775857
498.141526	-2.997000	3.775100	-11.313000	24.082683	0.000538	20.765502
499.144385	-2.991800	3.775800	-11.295000	24.120006	0.000537	20.765002
500.145868	-2.996800	3.775600	-11.314000	24.114208	0.000536	20.777205
501.143705	-2.988700	3.775300	-11.282000	24.107939	0.000537	20.778503
502.146263	-3.004200	3.773600	-11.337000	24.104431	0.000537	20.761709
503.146849	-3.022400	3.773300	-11.404000	24.095498	0.000539	20.775984
504.145243	-2.992100	3.774500	-11.293000	24.085645	0.000536	20.777481
505.149244	-3.026400	3.773200	-11.418000	24.057776	0.000537	20.782722
506.147078	-2.993700	3.774200	-11.298000	24.033688	0.000538	20.777531
507.145313	-3.013800	3.774700	-11.374000	24.058050	0.000537	20.763082
508.146333	-3.014600	3.772800	-11.372000	24.063973	0.000537	20.771393
509.146039	-3.002100	3.773400	-11.327000	24.073827	0.000538	20.795026
510.146878	-2.992400	3.772700	-11.289000	24.082760	0.000538	20.775062
511.151333	-2.997800	3.772100	-11.307000	24.061909	0.000538	20.777384
512.149903	-3.000900	3.772600	-11.320000	24.076913	0.000538	20.757818
513.147106	-3.005900	3.772700	-11.340000	24.089554	0.000537	20.765281
514.147982	-3.030100	3.770700	-11.425000	24.078656	0.000539	20.774265
515.151546	-2.980600	3.772600	-11.244000	24.113144	0.000538	20.772344
516.149392	-3.001200	3.771700	-11.319000	24.171242	0.000539	20.779881
517.149702	-3.015400	3.768900	-11.364000	24.151114	0.000539	20.794306
518.154201	-2.989900	3.769700	-11.270000	24.148253	0.000538	20.780056
519.148415	-2.994700	3.770600	-11.290000	24.107298	0.000538	20.755575
520.148405	-3.012300	3.769600	-11.355000	24.140690	0.000540	20.766307
521.152445	-3.005800	3.768800	-11.328000	24.147433	0.000539	20.774967
522.149806	-2.996900	3.771000	-11.300000	24.141712	0.000537	20.757848
523.150857	-3.000300	3.769300	-11.308000	24.171245	0.000540	20.775142
524.153793	-2.982300	3.768200	-11.237000	24.132157	0.000536	20.777189
525.150777	-2.998700	3.769600	-11.303000	24.128799	0.000536	20.779985
526.154329	-2.983600	3.769400	-11.245000	24.163931	0.000538	20.754529
527.155200	-3.017400	3.766000	-11.363000	24.151018	0.000538	20.763389
528.152461	-3.000600	3.767500	-11.304000	24.198168	0.000539	20.762317
529.157160	-2.996900	3.767800	-11.291000	24.170625	0.000539	20.756502
530.154948	-2.998000	3.766800	-11.291000	24.193666	0.000539	20.758275
531.150874	-2.988300	3.767700	-11.257000	24.207376	0.000539	20.757802
532.150746	-3.011900	3.765800	-11.342000	24.176450	0.000538	20.749542
533.156506	-2.984700	3.766500	-11.241000	24.163835	0.000540	20.749217
534.152059	-2.984100	3.766600	-11.239000	24.163636	0.000538	20.750440
535.154147	-3.000500	3.764700	-11.295000	24.159084	0.000540	20.764841
536.157405	-2.978500	3.766200	-11.216000	24.166449	0.000537	20.776970
537.155696	-2.986900	3.765700	-11.246000	24.161526	0.000538	20.764920
538.154982	-2.988900	3.765100	-11.252000	24.194765	0.000538	20.760800
539.157601	-2.981400	3.764800	-11.224000	24.190485	0.000539	20.755085
540.156124	-3.002700	3.763500	-11.300000	24.161774	0.000538	20.760427
541.160720	-3.000800	3.764000	-11.294000	24.184367	0.000541	20.764596
542.159153	-3.008100	3.763800	-11.321000	24.232237	0.000539	20.759505
543.156816	-2.983300	3.764800	-11.231000	24.221265	0.000538	20.757982
544.160948	-3.002100	3.763200	-11.296000	24.231516	0.000539	20.741237
545.163248	-2.986300	3.764200	-11.240000	24.246669	0.000539	20.764972
546.161072	-3.017700	3.763300	-11.355000	24.265129	0.000538	20.750772
547.160009	-3.013700	3.761400	-11.335000	24.320956	0.000538	20.763151
548.162933	-3.004200	3.762800	-11.303000	24.329614	0.000537	20.755714
549.157661	-3.012100	3.763300	-11.335000	24.333445	0.000539	20.758135
550.163387	-2.990500	3.762300	-11.249000	24.280829	0.000538	20.755615
551.162526	-2.985100	3.762700	-11.231000	24.261449	0.000537	20.754667
552.159515	-2.980400	3.762400	-11.211000	24.212087	0.000537	20.748777
553.163693	-2.991500	3.762000	-11.253000	24.213781	0.000538	20.761382
554.163462	-2.991300	3.760700	-11.249000	24.266525	0.000541	20.760233
555.159956	-2.993600	3.761100	-11.258000	24.279015	0.000536	20.741941
556.161183	-3.016600	3.760600	-11.343000	24.284139	0.000538	20.752298
557.161363	-2.978600	3.762100	-11.204000	24.278219	0.000538	20.748255
558.162509	-3.011300	3.759300	-11.320000	24.312078	0.000538	20.749028
559.163757	-2.985900	3.760600	-11.228000	24.292053	0.000537	20.760710
560.162970	-3.014400	3.758400	-11.329000	24.320563	0.000536	20.758015
561.163880	-2.993200	3.758600	-11.249000	24.292599	0.000539	20.761732
562.163785	-3.004800	3.757700	-11.289000	24.295212	0.000537	20.740171
563.165369	-2.990900	3.758600	-11.241000	24.314865	0.000539	20.767946
564.166280	-3.002700	3.757000	-11.280000	24.351733	0.000537	20.745661
565.164410	-3.003600	3.758100	-11.287000	24.394497	0.000537	20.760112
566.164269	-3.004400	3.756600	-11.285000	24.396959	0.000538	20.736977
567.165747	-2.996500	3.757500	-11.259000	24.385442	0.000537	20.756244
568.166008	-3.004000	3.756400	-11.283000	24.348179	0.000537	20.767226
569.165148	-3.005100	3.756200	-11.287000	24.311036	0.000536	20.744665
570.166066	-2.994700	3.757100	-11.250000	24.298921	0.000538	20.769023
571.170412	-2.999800	3.755300	-11.264000	24.280585	0.000536	20.769596
572.171038	-2.999800	3.756500	-11.268000	24.298896	0.000536	20.761885
573.169867	-3.010900	3.755700	-11.307000	24.296358	0.000538	20.774987
574.169539	-2.988000	3.756600	-11.224000	24.315292	0.000538	20.757943
575.167374	-2.997600	3.754700	-11.254000	24.346140	0.000537	20.757120
576.170152	-3.012700	3.754700	-11.311000	24.362831	0.000539	20.772916
577.171478	-2.989500	3.754200	-11.222000	24.360194	0.000538	20.754148
578.169909	-2.991300	3.755900	-11.233000	24.369498	0.000539	20.761112
579.171733	-3.016600	3.754400	-11.325000	24.370394	0.000538	20.757743
580.168512	-2.995300	3.754400	-11.245000	24.375843	0.000538	20.769847
581.169991	-3.016700	3.753400	-11.323000	24.381042	0.000536	20.763209
582.178099	-2.982500	3.754800	-11.198000	24.368232	0.000537	20.778808
583.171525	-2.973800	3.754100	-11.163000	24.350296	0.000537	20.773617
584.172259	-3.008300	3.753400	-11.290000	24.334498	0.000536	20.753976
585.171852	-3.008500	3.752600	-11.289000	24.310939	0.000537	20.773018
586.170221	-3.011500	3.751700	-11.297000	24.322856	0.000535	20.770273
587.171706	-3.001400	3.753500	-11.264000	24.310070	0.000536	20.752705
588.172030	-2.988600	3.752300	-11.213000	24.306512	0.000540	20.775215
589.171422	-2.991300	3.752700	-11.224000	24.312507	0.000537	20.765581
590.173550	-3.009200	3.750300	-11.284000	24.315941	0.000537	20.759542
591.172178	-3.012100	3.750900	-11.297000	24.324375	0.000540	20.785547
592.170943	-2.980800	3.751100	-11.181000	24.345845	0.000538	20.766781
593.173562	-2.975400	3.750900	-11.160000	24.368930	0.000537	20.761490
594.171903	-2.976300	3.750400	-11.161000	24.377064	0.000538	20.766331
595.172171	-2.985100	3.751000	-11.196000	24.386468	0.000537	20.751108
596.173268	-3.003400	3.749100	-11.259000	24.382762	0.000536	20.773944
597.173823	-2.990900	3.749800	-11.214000	24.382462	0.000536	20.767953
598.173315	-2.992200	3.749500	-11.218000	24.427935	0.000537	20.769476
599.178348	-2.989400	3.749700	-11.209000	24.438508	0.000536	20.770599
600.174210	-3.007500	3.748200	-11.272000	24.426121	0.000537	20.759595
601.174598	-3.021000	3.748500	-11.323000	24.451717	0.000536	20.766782
602.178079	-3.001600	3.747800	-11.249000	24.456694	0.000535	20.778888
603.177265	-2.998400	3.748100	-11.237000	24.448460	0.000537	20.788171
604.175558	-2.965400	3.749600	-11.118000	24.456620	0.000535	20.781184
605.175159	-2.970800	3.748100	-11.134000	24.520372	0.000538	20.780187
606.176767	-2.989900	3.747600	-11.204000	24.519998	0.000538	20.776492
607.180342	-3.019400	3.747200	-11.314000	24.513110	0.000536	20.764840
608.180532	-2.990700	3.746800	-11.204000	24.504728	0.000536	20.788673
609.177809	-3.023800	3.746100	-11.326000	24.528955	0.000536	20.778841
610.183355	-3.000700	3.747100	-11.243000	24.543531	0.000533	20.794414
611.183007	-2.996400	3.745300	-11.221000	24.514429	0.000534	20.772328
612.178792	-2.996900	3.745600	-11.224000	24.463962	0.000536	20.795189
613.178613	-2.997700	3.745400	-11.227000	24.450132	0.000535	20.780839
614.181819	-3.005300	3.745500	-11.255000	24.455256	0.000535	20.780764
615.178986	-3.014700	3.744100	-11.286000	24.472569	0.000536	20.758779
616.182743	-2.994900	3.744600	-11.214000	24.453192	0.000534	20.780590
617.183942	-3.007200	3.744200	-11.259000	24.491300	0.000536	20.779468
618.179866	-3.010100	3.744400	-11.269000	24.499011	0.000536	20.760178
619.179429	-3.016200	3.743800	-11.292000	24.480032	0.000536	20.771482
620.179790	-3.013100	3.744000	-11.280000	24.485158	0.000533	20.776625
621.181058	-3.007000	3.744800	-11.260000	24.502992	0.000534	20.788828
622.178889	-3.006300	3.742700	-11.251000	24.539256	0.000535	20.788228
623.179515	-3.009900	3.742400	-11.263000	24.547415	0.000535	20.783612
624.183311	-2.997500	3.742600	-11.218000	24.543462	0.000535	20.779172
625.181548	-3.012400	3.741600	-11.270000	24.557664	0.000534	20.791525
626.180920	-2.997400	3.742100	-11.216000	24.522294	0.000536	20.787806
627.182350	-3.002300	3.742100	-11.234000	24.514783	0.000534	20.784062
628.181393	-3.011500	3.741000	-11.265000	24.513540	0.000535	20.774280
629.180893	-2.989900	3.741500	-11.186000	24.516350	0.000532	20.770936
630.189097	-2.975300	3.741200	-11.130000	24.506874	0.000533	20.790352
631.180753	-3.003500	3.741800	-11.238000	24.557839	0.000533	20.782691
632.182096	-3.007500	3.741100	-11.251000	24.561546	0.000533	20.773134
633.180866	-3.000600	3.741600	-11.226000	24.582138	0.000536	20.781942
634.183533	-3.016600	3.739800	-11.280000	24.613674	0.000533	20.796041
635.181262	-3.005200	3.739700	-11.238000	24.631283	0.000534	20.792848
636.184026	-2.987300	3.740900	-11.174000	24.638993	0.000532	20.769290
637.185949	-2.977000	3.740100	-11.133000	24.643171	0.000534	20.800509
638.183650	-2.985600	3.740600	-11.167000	24.596639	0.000532	20.790328
639.185432	-3.007100	3.738300	-11.241000	24.578457	0.000533	20.797689
640.190219	-2.991700	3.739200	-11.186000	24.558385	0.000534	20.798412
641.186430	-3.000700	3.737800	-11.216000	24.562365	0.000532	20.812837
642.191321	-2.998700	3.737900	-11.208000	24.548411	0.000533	20.790302
643.185596	-3.000100	3.737300	-11.212000	24.511849	0.000531	20.796766
644.191422	-3.006300	3.738600	-11.239000	24.559555	0.000534	20.775404
645.186570	-3.016900	3.736900	-11.272000	24.558533	0.000532	20.770586
646.185423	-2.992000	3.737700	-11.182000	24.514708	0.000532	20.808169
647.186418	-2.995700	3.737600	-11.196000	24.508963	0.000530	20.799561
648.185555	-2.984500	3.737400	-11.154000	24.504585	0.000533	20.782366
649.185863	-3.011300	3.736300	-11.251000	24.530180	0.000532	20.818951
650.191142	-3.004100	3.735900	-11.222000	24.593702	0.000531	20.802554
651.188165	-3.001600	3.736000	-11.213000	24.592411	0.000531	20.769016
652.187749	-3.011500	3.736200	-11.251000	24.584997	0.000531	20.801880
653.194609	-2.994100	3.736900	-11.187000	24.622230	0.000532	20.797514
654.189707	-2.984300	3.736300	-11.149000	24.634667	0.000531	20.799562
655.192327	-2.993500	3.735100	-11.179000	24.627228	0.000531	20.809167
656.189814	-3.009200	3.735600	-11.241000	24.639589	0.000532	20.806398
657.190157	-3.010300	3.734500	-11.240000	24.616062	0.000530	20.800808
658.192019	-3.015500	3.734200	-11.259000	24.619145	0.000532	20.800109
659.192368	-3.021500	3.733200	-11.278000	24.636854	0.000530	20.811713
660.191005	-3.008200	3.734500	-11.233000	24.648442	0.000531	20.796315
661.193242	-3.020800	3.733100	-11.276000	24.663439	0.000530	20.822268
662.192719	-2.985200	3.732800	-11.143000	24.697883	0.000530	20.809891
663.195435	-2.991700	3.732500	-11.165000	24.697560	0.000530	20.790600
664.191134	-2.991200	3.732400	-11.163000	24.679779	0.000530	20.814009
665.191801	-3.002500	3.733700	-11.209000	24.711361	0.000529	20.794492
666.194487	-3.016700	3.732200	-11.258000	24.724419	0.000530	20.789104
667.195787	-3.001600	3.731700	-11.200000	24.756820	0.000529	20.800282
668.195763	-3.019300	3.731100	-11.264000	24.719047	0.000528	20.812163
669.198837	-3.012300	3.729600	-11.234000	24.700095	0.000529	20.810214
670.199229	-3.001900	3.731300	-11.200000	24.691193	0.000529	20.815031
671.197091	-3.023200	3.730700	-11.278000	24.683086	0.000530	20.829656
672.199861	-3.005500	3.730400	-11.210000	24.680075	0.000531	20.806246
673.196439	-2.998000	3.730100	-11.182000	24.669184	0.000530	20.803378
674.196967	-2.972300	3.731900	-11.091000	24.663836	0.000529	20.808443
675.203973	-2.978000	3.731000	-11.109000	24.647497	0.000529	20.822868
676.199837	-2.986900	3.730300	-11.141000	24.682315	0.000528	20.828407
677.198701	-3.001400	3.729200	-11.192000	24.682190	0.000529	20.800307
678.201362	-3.004500	3.729600	-11.204000	24.683210	0.000531	20.807021
679.202559	-2.996700	3.730200	-11.178000	24.694600	0.000528	20.814183
680.200905	-2.985800	3.729400	-11.135000	24.720464	0.000526	20.818326
681.199398	-3.004800	3.728300	-11.202000	24.700220	0.000529	20.817926
682.199591	-2.990200	3.728500	-11.148000	24.699897	0.000529	20.816654
683.199368	-2.995100	3.728900	-11.168000	24.693432	0.000529	20.830554
684.199286	-2.982100	3.728800	-11.119000	24.684654	0.000531	20.841185
685.200440	-2.996400	3.727700	-11.169000	24.726805	0.000531	20.816155
686.200037	-3.019300	3.725800	-11.248000	24.713799	0.000528	20.847673
687.203893	-2.997900	3.727800	-11.174000	24.705792	0.000529	20.824939
688.201605	-3.019100	3.726500	-11.250000	24.700172	0.000525	20.823567
689.200873	-2.996600	3.727000	-11.168000	24.735609	0.000528	20.840636
690.203333	-3.006800	3.726100	-11.202000	24.774377	0.000528	20.819323
691.202789	-3.024900	3.725500	-11.268000	24.767540	0.000527	20.827636
692.204066	-3.001600	3.726400	-11.184000	24.782087	0.000529	20.832277
693.201243	-2.981800	3.726000	-11.109000	24.740409	0.000528	20.825539
694.202258	-3.024000	3.723500	-11.259000	24.722032	0.000529	20.842658
695.201965	-2.985500	3.725400	-11.122000	24.695896	0.000524	20.844406
696.203421	-2.999400	3.726700	-11.177000	24.697115	0.000526	20.836621
697.202978	-3.001600	3.725600	-11.182000	24.722880	0.000526	20.849198
698.205378	-3.003400	3.724400	-11.185000	24.753143	0.000525	20.840213
699.202367	-3.016200	3.724200	-11.232000	24.754387	0.000525	20.839565
700.203624	-3.004900	3.723700	-11.189000	24.780398	0.000526	20.845280
701.203517	-2.987600	3.723900	-11.124000	24.795020	0.000526	20.846203
702.203701	-3.000700	3.724300	-11.175000	24.783283	0.000524	20.847701
703.205920	-3.001200	3.724300	-11.176000	24.769010	0.000527	20.843809
704.204149	-2.980300	3.723800	-11.097000	24.801510	0.000526	20.841337
705.204666	-2.970600	3.723300	-11.060000	24.793629	0.000526	20.841963
706.204625	-2.984900	3.723000	-11.112000	24.771795	0.000526	20.850397
707.209382	-2.989900	3.722800	-11.129000	24.722931	0.000524	20.844509
708.205953	-2.972300	3.722600	-11.064000	24.727456	0.000524	20.833403
709.208279	-2.996400	3.721600	-11.150000	24.706866	0.000526	20.841664
710.203761	-3.004900	3.721800	-11.182000	24.647329	0.000525	20.837396
711.204800	-2.993300	3.721900	-11.140000	24.665384	0.000525	20.864522
712.206288	-2.997600	3.721100	-11.154000	24.695005	0.000525	20.839719
713.206172	-3.010000	3.721300	-11.200000	24.725072	0.000522	20.845234
714.208129	-3.024600	3.721100	-11.254000	24.756679	0.000523	20.866994
715.206294	-3.024400	3.719200	-11.248000	24.768043	0.000524	20.863226
716.207563	-2.982600	3.721400	-11.098000	24.793731	0.000525	20.854393
717.205352	-2.998100	3.719300	-11.150000	24.859153	0.000521	20.849401
718.206286	-3.006500	3.719400	-11.182000	24.864623	0.000525	20.855839
719.205204	-2.984700	3.719800	-11.102000	24.846971	0.000524	20.859934
720.211160	-2.998100	3.719000	-11.149000	24.854231	0.000524	20.848729
721.205710	-2.976200	3.720700	-11.072000	24.843987	0.000523	20.867844
722.212358	-2.984600	3.718500	-11.097000	24.845504	0.000522	20.868892
723.210352	-2.970500	3.719100	-11.047000	24.850230	0.000521	20.869368
724.207285	-3.017900	3.717600	-11.218000	24.841054	0.000524	20.862056
725.207610	-2.989000	3.718700	-11.113000	24.834912	0.000522	20.848780
726.210345	-2.992700	3.718000	-11.126000	24.865769	0.000522	20.869790
727.210209	-3.011500	3.717700	-11.195000	24.862934	0.000522	20.859360
728.209013	-3.020800	3.716900	-11.227000	24.896031	0.000522	20.873136
729.209955	-2.984500	3.717500	-11.094000	24.903515	0.000522	20.871638
730.208627	-3.002400	3.716900	-11.159000	24.902347	0.000522	20.857191
731.208549	-2.999900	3.716500	-11.149000	24.840409	0.000522	20.869469
732.209555	-3.000100	3.716700	-11.150000	24.843442	0.000520	20.871565
733.209779	-2.988000	3.715000	-11.099000	24.853513	0.000520	20.856069
734.209880	-2.999300	3.716400	-11.145000	24.820613	0.000521	20.872361
735.211429	-3.001000	3.715300	-11.149000	24.818949	0.000520	20.874485
736.209184	-3.008800	3.713800	-11.173000	24.869726	0.000521	20.859538
737.210358	-2.990500	3.716000	-11.111000	24.894142	0.000520	20.857491
738.216428	-2.989300	3.716000	-11.107000	24.863037	0.000519	20.881746
739.212119	-3.019100	3.714100	-11.212000	24.876937	0.000520	20.867249
740.212211	-3.004100	3.715100	-11.160000	24.886484	0.000520	20.862132
741.210261	-2.994200	3.714700	-11.121000	24.898371	0.000521	20.874062
742.212873	-2.985900	3.714400	-11.090000	24.895709	0.000518	20.875658
743.212638	-2.995600	3.715100	-11.128000	24.867117	0.000518	20.877781
744.211156	-3.004700	3.714200	-11.158000	24.850780	0.000520	20.891729
745.214022	-2.992800	3.714000	-11.114000	24.871742	0.000516	20.881948
746.211008	-3.027100	3.712200	-11.236000	24.866197	0.000519	20.897245
747.211756	-3.003100	3.712800	-11.148000	24.819027	0.000521	20.869821
748.213598	-3.007100	3.713300	-11.166000	24.839642	0.000520	20.872966
749.212354	-3.001300	3.713500	-11.144000	24.849412	0.000518	20.873763
750.212638	-3.010100	3.712100	-11.173000	24.864133	0.000517	20.888062
751.211205	-3.034900	3.711700	-11.264000	24.872015	0.000518	20.869895
752.213142	-3.006400	3.711900	-11.157000	24.867987	0.000517	20.892878
753.213354	-3.008400	3.711300	-11.163000	24.864582	0.000518	20.883771
754.213552	-2.990400	3.710800	-11.096000	24.847101	0.000518	20.894202
755.213110	-3.005400	3.710500	-11.151000	24.806595	0.000518	20.908076
756.212645	-2.987200	3.711300	-11.085000	24.832306	0.000516	20.893103
757.214781	-2.993800	3.711300	-11.110000	24.889125	0.000517	20.901764
758.214768	-3.015300	3.709800	-11.185000	24.914411	0.000516	20.902013
759.214045	-3.011100	3.711100	-11.174000	24.964311	0.000516	20.903260
760.214511	-3.023500	3.709100	-11.213000	24.979353	0.000517	20.901288
761.217672	-2.991500	3.708900	-11.095000	24.999268	0.000515	20.882873
762.214310	-2.990800	3.709400	-11.093000	24.984724	0.000516	20.890559
763.214151	-2.995400	3.709600	-11.110000	25.010705	0.000515	20.890085
764.213978	-2.964900	3.710500	-11.001000	25.017368	0.000516	20.909099
765.214402	-2.989800	3.708000	-11.086000	24.965780	0.000515	20.897148
766.215224	-2.991500	3.708400	-11.093000	24.945690	0.000516	20.902113
767.216218	-2.991700	3.707900	-11.092000	24.915505	0.000514	20.896948
768.217746	-3.028600	3.706500	-11.225000	24.887137	0.000513	20.921104
769.216385	-3.000700	3.708600	-11.127000	24.892731	0.000515	20.890211
770.215233	-2.991900	3.709100	-11.096000	24.890617	0.000513	20.899468
771.220283	-3.004400	3.707700	-11.138000	24.895789	0.000516	20.909400
772.217782	-3.014700	3.707800	-11.178000	24.923415	0.000513	20.915316
773.215892	-2.996500	3.707300	-11.109000	24.940270	0.000514	20.906630
774.222971	-3.009000	3.707300	-11.153000	24.949520	0.000514	20.906905
775.219507	-3.008400	3.705300	-11.145000	24.926747	0.000514	20.911548
776.216578	-2.994400	3.706700	-11.098000	24.947010	0.000513	20.898223
777.218727	-3.010900	3.706100	-11.158000	24.937239	0.000516	20.914493
778.218597	-3.012100	3.707000	-11.164000	24.923117	0.000512	20.917861
779.220614	-2.978000	3.705600	-11.035000	24.903848	0.000512	20.920806
780.222633	-2.982300	3.706200	-11.052000	24.906805	0.000515	20.898647
781.221773	-2.999600	3.705500	-11.114000	24.898724	0.000514	20.895752
782.220970	-3.007300	3.704000	-11.138000	24.887088	0.000510	20.933382
783.220872	-2.988200	3.704800	-11.070000	24.901437	0.000513	20.925499
784.224469	-3.005700	3.704700	-11.134000	24.873438	0.000513	20.909727
785.220758	-3.006800	3.702400	-11.132000	24.945842	0.000512	20.925497
786.221863	-3.012700	3.703500	-11.156000	24.955813	0.000510	20.911798
787.222273	-2.999400	3.703400	-11.106000	24.947309	0.000514	20.914169
788.219374	-2.999200	3.702800	-11.105000	24.958945	0.000511	20.897874
789.221134	-2.998300	3.703500	-11.103000	24.933362	0.000511	20.913446
790.221992	-3.012900	3.701500	-11.151000	24.959244	0.000510	20.931362
791.233815	-2.992700	3.702700	-11.081000	24.963271	0.000510	20.907905
792.221533	-3.011000	3.701800	-11.146000	24.967125	0.000511	20.912247
793.223437	-3.018100	3.701700	-11.171000	24.970557	0.000509	20.926121
794.222489	-2.989200	3.702600	-11.067000	24.985523	0.000507	20.906059
795.222929	-3.008100	3.702100	-11.135000	25.017472	0.000508	20.909204
796.222644	-2.979500	3.703000	-11.033000	25.029531	0.000509	20.910402
797.226136	-3.005500	3.701200	-11.123000	24.980029	0.000509	20.915242
798.223990	-2.997300	3.701500	-11.094000	24.974485	0.000508	20.924375
799.224136	-2.995100	3.701000	-11.084000	25.012475	0.000506	20.897077
800.226034	-3.023300	3.699000	-11.182000	25.016627	0.000507	20.896029
801.224751	-2.986500	3.701100	-11.053000	25.011233	0.000509	20.904364
802.223351	-3.000700	3.700200	-11.102000	24.977170	0.000508	20.905735
803.231358	-3.005700	3.699300	-11.118000	24.996315	0.000508	20.908830
804.224706	-2.986500	3.699200	-11.046000	24.993655	0.000508	20.906635
805.226393	-3.020100	3.699300	-11.171000	24.998950	0.000506	20.896777
806.230857	-2.994700	3.698900	-11.076000	25.019586	0.000506	20.886672
807.226016	-2.999100	3.698800	-11.092000	25.012946	0.000505	20.889964
808.226487	-3.010100	3.697800	-11.129000	25.029803	0.000507	20.880807
809.226741	-2.983700	3.700700	-11.041000	25.042356	0.000507	20.884872
810.227178	-3.009000	3.698000	-11.126000	25.073533	0.000504	20.887719
811.227738	-3.009600	3.698100	-11.129000	25.083179	0.000505	20.879859
812.227133	-3.005000	3.697900	-11.111000	25.058466	0.000506	20.908154
813.230692	-2.995100	3.697300	-11.073000	25.057596	0.000503	20.889739
814.230869	-3.019500	3.696700	-11.162000	25.013543	0.000503	20.889141
815.232305	-2.985600	3.697500	-11.038000	24.994821	0.000502	20.885048
816.228429	-2.996200	3.697200	-11.076000	24.989924	0.000503	20.883926
817.227566	-2.981800	3.697300	-11.024000	25.003797	0.000501	20.882203
818.229234	-2.987800	3.696800	-11.045000	25.043327	0.000505	20.895329
819.229516	-3.010500	3.696100	-11.126000	25.081438	0.000506	20.880482
820.228591	-3.002600	3.696000	-11.096000	25.121512	0.000505	20.889889
821.230912	-3.007100	3.695500	-11.112000	25.105802	0.000504	20.897825
822.230088	-2.994200	3.696900	-11.068000	25.080744	0.000502	20.902069
823.231145	-3.000500	3.695700	-11.089000	25.083875	0.000504	20.874393
824.227380	-2.991500	3.695400	-11.054000	25.103814	0.000503	20.874969
825.229242	-3.005700	3.695500	-11.107000	25.100632	0.000502	20.871775
826.227187	-3.003600	3.695700	-11.100000	25.093918	0.000502	20.878785
827.231421	-3.022600	3.694500	-11.167000	25.121563	0.000502	20.869079
828.229073	-2.999900	3.694000	-11.081000	25.094765	0.000503	20.884376
829.228057	-3.027000	3.694000	-11.181000	25.076146	0.000503	20.877540
830.228798	-3.010900	3.693400	-11.120000	25.083429	0.000500	20.899074
831.228961	-2.986300	3.694400	-11.031000	25.070178	0.000503	20.881981
832.232323	-2.970800	3.694500	-10.975000	25.067966	0.000503	20.858899
833.230748	-2.996200	3.693000	-11.065000	25.062125	0.000502	20.851139
834.232282	-3.002500	3.691700	-11.083000	25.046214	0.000503	20.865987
835.231820	-2.974400	3.693200	-10.984000	25.073687	0.000503	20.884080
836.230658	-2.987100	3.692100	-11.028000	25.108466	0.000501	20.852613
837.232759	-2.984600	3.692900	-11.021000	25.122188	0.000501	20.871129
838.232263	-2.984300	3.691300	-11.015000	25.105929	0.000499	20.867610
839.228161	-2.986600	3.692200	-11.025000	25.079778	0.000499	20.869807
840.232424	-2.994900	3.692100	-11.057000	25.064390	0.000498	20.882334
841.233533	-2.990300	3.691900	-11.039000	25.062201	0.000498	20.859750
842.230828	-2.998800	3.690300	-11.066000	25.087659	0.000498	20.884830
843.231313	-2.982000	3.692300	-11.010000	25.059791	0.000499	20.850219
844.238681	-2.993200	3.690900	-11.046000	25.059518	0.000499	20.885978
845.228501	-2.990200	3.692000	-11.038000	25.022849	0.000498	20.846801
846.230589	-3.002500	3.690400	-11.079000	25.023221	0.000496	20.866614
847.230148	-2.990200	3.690800	-11.036000	25.044153	0.000497	20.864393
848.235408	-3.009900	3.689600	-11.105000	25.088581	0.000495	20.872953
849.228630	-3.010900	3.689200	-11.106000	25.061606	0.000496	20.868161
850.231555	-3.011200	3.689300	-11.108000	25.095143	0.000496	20.850145
851.232856	-3.017700	3.688700	-11.131000	25.115130	0.000494	20.873052
852.231557	-3.012400	3.688900	-11.112000	25.088828	0.000495	20.870357
853.233108	-2.999400	3.687800	-11.061000	25.072445	0.000494	20.876196
854.234664	-2.989700	3.688300	-11.027000	25.048330	0.000497	20.855783
855.232799	-2.995400	3.687300	-11.043000	25.084428	0.000495	20.853139
856.233735	-2.999100	3.688200	-11.060000	25.068568	0.000497	20.838641
857.235162	-2.996900	3.686600	-11.048000	25.093577	0.000494	20.846202
858.233976	-3.014900	3.686100	-11.113000	25.104292	0.000495	20.858381
859.234816	-3.003200	3.685600	-11.066000	25.076947	0.000493	20.869810
860.243117	-3.015900	3.685400	-11.114000	25.072024	0.000494	20.851593
861.237323	-3.001100	3.686700	-11.063000	25.072446	0.000493	20.859129
862.234953	-3.022900	3.685100	-11.138000	25.098052	0.000492	20.842160
863.234595	-3.014700	3.684400	-11.106000	25.063520	0.000493	20.857281
864.238047	-3.004400	3.686600	-11.075000	25.027597	0.000490	20.859628
865.236383	-2.987300	3.684500	-11.006000	25.026503	0.000492	20.847150
866.237825	-3.010700	3.685100	-11.094000	25.022874	0.000492	20.843033
867.239986	-3.001900	3.684400	-11.060000	25.072694	0.000492	20.867912
868.235985	-3.016000	3.684200	-11.111000	25.058946	0.000490	20.839414
869.236562	-3.005800	3.684300	-11.073000	25.042540	0.000490	20.852816
870.244502	-3.031900	3.683200	-11.166000	25.040971	0.000491	20.851242
871.237774	-3.007700	3.683100	-11.077000	25.094299	0.000493	20.833176
872.238912	-2.998700	3.683800	-11.046000	25.134571	0.000492	20.854163
873.239600	-2.975700	3.683700	-10.960000	25.113167	0.000491	20.832203
874.238717	-2.987400	3.684000	-11.005000	25.104168	0.000491	20.855885
875.240160	-3.004300	3.683900	-11.067000	25.135192	0.000494	20.836769
876.239760	-2.986400	3.683300	-10.999000	25.147473	0.000489	20.835348
877.238175	-2.992500	3.682900	-11.020000	25.110112	0.000491	20.834352
878.237847	-2.986500	3.682900	-10.998000	25.112274	0.000489	20.839841
879.239072	-2.997800	3.683500	-11.041000	25.101087	0.000488	20.828138
880.239457	-3.028200	3.680400	-11.144000	25.066232	0.000489	20.845779
881.239131	-3.025500	3.681400	-11.137000	25.083436	0.000487	20.843135
882.240893	-3.004600	3.682000	-11.062000	25.047065	0.000487	20.825118
883.242026	-2.992700	3.680600	-11.014000	25.069514	0.000487	20.849547
884.247077	-3.014800	3.682100	-11.100000	25.018178	0.000488	20.850647
885.244251	-3.002400	3.680700	-11.050000	25.059025	0.000487	20.840442
886.247161	-3.001300	3.680300	-11.045000	25.092040	0.000488	20.835176
887.241653	-3.017100	3.679300	-11.099000	25.109765	0.000485	20.831633
888.243318	-2.997600	3.680300	-11.032000	25.080306	0.000486	20.844734
889.247838	-2.996600	3.679000	-11.023000	25.089653	0.000484	20.842263
890.243842	-3.000500	3.680700	-11.042000	25.051295	0.000488	20.843587
891.252245	-2.982700	3.679300	-10.973000	25.048883	0.000485	20.824571
892.248217	-3.013800	3.678300	-11.085000	25.047117	0.000483	20.829911
893.244418	-3.011500	3.678100	-11.076000	25.081103	0.000486	20.818982
894.247000	-2.989500	3.679500	-10.998000	25.091594	0.000484	20.845634
895.246590	-3.000500	3.679400	-11.039000	25.095845	0.000484	20.838996
896.249573	-3.021600	3.678400	-11.114000	25.119809	0.000484	20.808051
897.248203	-3.010900	3.678300	-11.074000	25.143872	0.000484	20.829363
898.247827	-3.034600	3.677000	-11.157000	25.116652	0.000485	20.823848
899.248449	-2.995800	3.677700	-11.016000	25.122320	0.000483	20.820529
900.254238	-2.995800	3.677500	-11.016000	25.107728	0.000481	20.819157
901.248578	-3.002600	3.677100	-11.040000	25.079685	0.000484	20.821827
902.250751	-2.992000	3.677000	-11.001000	25.078990	0.000482	20.840094
903.248428	-3.005400	3.676700	-11.049000	25.043289	0.000480	20.836026
904.249521	-2.980700	3.677100	-10.960000	25.022629	0.000480	20.848003
905.249623	-2.998200	3.674700	-11.016000	25.096613	0.000481	20.829810
906.248416	-3.001900	3.674600	-11.030000	25.086694	0.000481	20.820328
907.249765	-2.995400	3.675300	-11.008000	25.109368	0.000483	20.826967
908.250420	-3.026800	3.674200	-11.120000	25.141883	0.000481	20.837797
909.251092	-3.004900	3.675100	-11.043000	25.184241	0.000480	20.815836
910.253166	-2.994800	3.674300	-11.003000	25.181582	0.000481	20.827391
911.253182	-3.015000	3.674600	-11.078000	25.121524	0.000479	20.826842
912.252209	-2.983600	3.673000	-10.958000	25.139818	0.000480	20.824344
913.252162	-3.004400	3.673200	-11.035000	25.105240	0.000480	20.824246
914.254819	-3.014100	3.673600	-11.072000	25.081846	0.000481	20.820202
915.256150	-3.019300	3.672700	-11.089000	25.135269	0.000479	20.827839
916.254700	-2.987000	3.673100	-10.971000	25.141982	0.000477	20.828413
917.257870	-3.010200	3.672000	-11.053000	25.160575	0.000476	20.828113
918.255756	-3.007400	3.673300	-11.047000	25.173527	0.000478	20.845382
919.252816	-3.005100	3.672700	-11.036000	25.191574	0.000475	20.817034
920.259437	-2.986200	3.673000	-10.967000	25.146780	0.000480	20.830385
921.258491	-3.006400	3.671900	-11.039000	25.119460	0.000477	20.801537
922.258687	-2.983700	3.672200	-10.955000	25.146680	0.000477	20.814164
923.255361	-3.009700	3.670700	-11.047000	25.179194	0.000479	20.824520
924.256758	-3.011600	3.670700	-11.054000	25.159284	0.000475	20.798368
925.258412	-2.997500	3.669900	-11.000000	25.206562	0.000474	20.814064
926.258290	-3.003400	3.671000	-11.025000	25.228909	0.000475	20.818007
927.256802	-3.007300	3.669500	-11.035000	25.220109	0.000476	20.810120
928.262288	-3.006400	3.670100	-11.033000	25.237932	0.000475	20.810945
929.258807	-2.997800	3.669400	-10.999000	25.231618	0.000473	20.821675
930.258920	-2.996900	3.669400	-10.996000	25.202535	0.000474	20.817132
931.258124	-2.984400	3.669100	-10.949000	25.214516	0.000474	20.801186
932.256688	-2.987500	3.668900	-10.960000	25.238428	0.000475	20.812865
933.259044	-2.972100	3.670200	-10.908000	25.262913	0.000474	20.804731
934.261266	-2.999200	3.669600	-11.005000	25.264155	0.000472	20.819728
935.258169	-2.990200	3.668600	-10.969000	25.283170	0.000473	20.811319
936.261481	-2.986700	3.668900	-10.957000	25.270444	0.000473	20.807551
937.264959	-2.983300	3.667300	-10.940000	25.255182	0.000472	20.808823
938.263477	-2.991800	3.666700	-10.970000	25.262763	0.000474	20.812167
939.263074	-3.000500	3.666300	-11.000000	25.245512	0.000470	20.796744
940.259748	-2.994600	3.668400	-10.984000	25.239798	0.000470	20.797645
941.260553	-3.001000	3.666700	-11.003000	25.202087	0.000472	20.804355
942.262682	-2.985800	3.668400	-10.953000	25.123661	0.000471	20.789633
943.262594	-2.986700	3.666900	-10.951000	25.095669	0.000470	20.811793
944.266907	-3.000700	3.665100	-10.997000	25.115533	0.000471	20.792379
945.266083	-3.010600	3.666400	-11.037000	25.149216	0.000470	20.801063
946.265465	-2.996800	3.666400	-10.987000	25.195898	0.000472	20.798141
947.266506	-2.995200	3.666000	-10.980000	25.232365	0.000470	20.800614
948.266599	-3.013500	3.664800	-11.043000	25.207557	0.000468	20.792777
949.265942	-3.018500	3.664000	-11.059000	25.157867	0.000466	20.799316
950.269197	-3.003700	3.664200	-11.005000	25.144641	0.000469	20.800263
951.266405	-2.995800	3.665300	-10.980000	25.179119	0.000468	20.790780
952.266726	-2.997200	3.664200	-10.981000	25.158812	0.000468	20.803110
953.269258	-2.964900	3.664300	-10.863000	25.185608	0.000467	20.779751
954.266872	-3.008900	3.663200	-11.021000	25.211684	0.000469	20.806404
955.268425	-3.010800	3.663500	-11.029000	25.212852	0.000468	20.808998
956.270917	-2.986000	3.662900	-10.937000	25.239722	0.000468	20.801362
957.268170	-3.005600	3.662700	-11.008000	25.213896	0.000464	20.797719
958.268719	-3.014000	3.663300	-11.041000	25.169550	0.000466	20.791605
959.267547	-3.000800	3.662100	-10.988000	25.167784	0.000465	20.785564
960.266899	-3.026500	3.661000	-11.079000	25.169725	0.000466	20.806479
961.271004	-3.001700	3.661800	-10.990000	25.220458	0.000465	20.783918
962.270657	-2.993700	3.662300	-10.962000	25.217947	0.000465	20.798467
963.270796	-2.988900	3.662000	-10.944000	25.188939	0.000465	20.786414
964.267901	-2.980700	3.661500	-10.913000	25.155157	0.000463	20.778103
965.267116	-2.992300	3.660100	-10.952000	25.207409	0.000465	20.793102
966.266469	-3.003100	3.660200	-10.991000	25.244892	0.000464	20.792328
967.267529	-3.005500	3.660300	-11.000000	25.214891	0.000464	20.802984
968.269382	-2.994500	3.660500	-10.960000	25.244122	0.000463	20.789658
969.271020	-2.996700	3.660300	-10.968000	25.220358	0.000463	20.795672
970.271462	-3.005200	3.660200	-10.999000	25.245065	0.000463	20.800562
971.270177	-2.999700	3.659700	-10.977000	25.220259	0.000462	20.783244
972.275321	-3.012400	3.658400	-11.020000	25.169748	0.000461	20.807450
973.275541	-2.984300	3.659000	-10.919000	25.211882	0.000459	20.790007
974.272110	-3.033900	3.658000	-11.097000	25.188740	0.000460	20.780524
975.276137	-2.989000	3.659400	-10.937000	25.216605	0.000460	20.774360
976.277022	-2.981100	3.658100	-10.903000	25.190729	0.000459	20.772563
977.274086	-2.985700	3.658100	-10.920000	25.184987	0.000462	20.800463
978.278627	-2.995400	3.657900	-10.956000	25.222321	0.000462	20.786262
979.275652	-2.983500	3.656900	-10.910000	25.238081	0.000460	20.801136
980.275267	-2.972700	3.657400	-10.871000	25.213846	0.000460	20.783444
981.276299	-3.022000	3.655600	-11.046000	25.228537	0.000459	20.788710
982.279316	-3.002900	3.656900	-10.980000	25.214318	0.000457	20.756417
983.276456	-3.010400	3.656700	-11.007000	25.241337	0.000459	20.785439
984.277824	-2.983400	3.657300	-10.910000	25.226348	0.000459	20.773236
985.277393	-2.991000	3.655300	-10.932000	25.268853	0.000458	20.779874
986.281269	-3.003900	3.654800	-10.977000	25.258513	0.000459	20.794623
987.281655	-2.987200	3.654600	-10.917000	25.265000	0.000457	20.757514
988.279858	-3.035300	3.654400	-11.090000	25.281381	0.000457	20.764477
989.281511	-2.986200	3.655600	-10.916000	25.271016	0.000457	20.765451
990.277229	-3.012900	3.653900	-11.007000	25.247178	0.000458	20.780873
991.283488	-3.002900	3.654200	-10.972000	25.258165	0.000456	20.767247
992.280093	-3.003500	3.654400	-10.974000	25.269400	0.000456	20.791803
993.281317	-2.977300	3.653300	-10.876000	25.280260	0.000456	20.763352
994.283797	-2.978100	3.654300	-10.882000	25.270296	0.000456	20.791281
995.280790	-2.992400	3.653800	-10.933000	25.240914	0.000454	20.770316
996.284445	-2.998600	3.652500	-10.951000	25.261149	0.000455	20.762182
997.281136	-2.996800	3.653800	-10.949000	25.303800	0.000453	20.768020
998.284021	-2.997500	3.652200	-10.947000	25.280859	0.000454	20.757789
999.291877	-2.988700	3.652400	-10.914000	25.217129	0.000455	20.777256
1000.281323	-3.002000	3.652600	-10.964000	25.161521	0.000454	20.780225
1001.282538	-3.007900	3.652100	-10.983000	25.202811	0.000453	20.753398
1002.287867	-3.001400	3.651500	-10.959000	25.254513	0.000453	20.782073
1003.281165	-2.984900	3.651300	-10.897000	25.257966	0.000450	20.778901
1004.282800	-3.029300	3.649400	-11.053000	25.320528	0.000454	20.766324
1005.287612	-3.001500	3.650100	-10.955000	25.316824	0.000451	20.767347
1006.283117	-3.005300	3.650400	-10.969000	25.318639	0.000452	20.755418
1007.282757	-2.990600	3.651100	-10.918000	25.287743	0.000450	20.776081
1008.287003	-2.997400	3.649400	-10.938000	25.276185	0.000451	20.750251
1009.283526	-2.987000	3.649500	-10.900000	25.287371	0.000452	20.764327
1010.283489	-2.996200	3.648200	-10.929000	25.320029	0.000452	20.755392
1011.288857	-2.990600	3.650500	-10.916000	25.365215	0.000453	20.770416
1012.285701	-3.012200	3.647700	-10.987000	25.357807	0.000448	20.760607
1013.285841	-2.987000	3.649200	-10.899000	25.309540	0.000447	20.758136
1014.286314	-3.007700	3.648400	-10.972000	25.255182	0.000448	20.755243
1015.286646	-3.001900	3.647400	-10.948000	25.260923	0.000448	20.761006
1016.285031	-2.995100	3.646800	-10.921000	25.267411	0.000451	20.750451
1017.286683	-3.024100	3.646800	-11.027000	25.238950	0.000449	20.754593
1018.288525	-2.998300	3.646600	-10.932000	25.246059	0.000449	20.740393
1019.286616	-3.011600	3.645500	-10.978000	25.224707	0.000447	20.758312
1020.293894	-3.023800	3.645000	-11.020000	25.225752	0.000446	20.759834
1021.294568	-2.996200	3.646000	-10.923000	25.259655	0.000447	20.761157
1022.288527	-2.993400	3.646300	-10.914000	25.275365	0.000447	20.767446
1023.289785	-3.009800	3.644800	-10.970000	25.282696	0.000446	20.754892
1024.292267	-3.013800	3.645500	-10.986000	25.291172	0.000447	20.760557
1025.287898	-2.989200	3.645600	-10.897000	25.295274	0.000447	20.764202
1026.290401	-2.992800	3.645400	-10.909000	25.284338	0.000446	20.753695
1027.290648	-2.981900	3.645100	-10.868000	25.288538	0.000445	20.758387
1028.290312	-3.018200	3.643400	-10.996000	25.288215	0.000445	20.755218
1029.290909	-2.979400	3.643800	-10.855000	25.258786	0.000444	20.739894
1030.289785	-2.996200	3.642800	-10.913000	25.313742	0.000444	20.766149
1031.292875	-2.983100	3.644400	-10.871000	25.316873	0.000443	20.760758
1032.289809	-2.991800	3.644000	-10.901000	25.310710	0.000444	20.749828
1033.296019	-3.004400	3.642800	-10.944000	25.360915	0.000443	20.764676
1034.295837	-3.006500	3.643100	-10.952000	25.404360	0.000444	20.757565
1035.291955	-2.997200	3.642500	-10.916000	25.369268	0.000444	20.755994
1036.294465	-3.016500	3.642100	-10.986000	25.344886	0.000442	20.758064
1037.294546	-3.004500	3.642200	-10.942000	25.327511	0.000444	20.764327
1038.291185	-3.005300	3.640000	-10.938000	25.377121	0.000441	20.752499
1039.296690	-2.996600	3.641400	-10.911000	25.369145	0.000441	20.752551
1040.295067	-3.027900	3.640300	-11.022000	25.361513	0.000440	20.750104
1041.296589	-3.011500	3.640300	-10.962000	25.338028	0.000438	20.760188
1042.294720	-2.983000	3.640800	-10.860000	25.326469	0.000439	20.759013
1043.293260	-3.001900	3.639800	-10.924000	25.355773	0.000441	20.773264
1044.295848	-3.008200	3.640500	-10.950000	25.369940	0.000439	20.753349
1045.292371	-3.009000	3.639900	-10.951000	25.396731	0.000438	20.769820
1046.295083	-2.995400	3.638500	-10.898000	25.409283	0.000439	20.741171
1047.296231	-2.980400	3.639300	-10.845000	25.424021	0.000438	20.758815
1048.294337	-3.001700	3.637500	-10.918000	25.415721	0.000438	20.758067
1049.293760	-2.998900	3.637600	-10.908000	25.399318	0.000436	20.769573
1050.296842	-2.994800	3.637500	-10.892000	25.394497	0.000437	20.767102
1051.293913	-2.993200	3.639000	-10.892000	25.353414	0.000439	20.755247
1052.295165	-2.996700	3.637800	-10.899000	25.340364	0.000437	20.776284
1053.299374	-3.020200	3.636000	-10.980000	25.358312	0.000439	20.751631
1054.298421	-2.995100	3.636600	-10.890000	25.327416	0.000437	20.767551
1055.295753	-2.991500	3.637600	-10.881000	25.344915	0.000437	20.734385
1056.297427	-2.985900	3.636000	-10.856000	25.386620	0.000436	20.788591
1057.297348	-2.969900	3.637800	-10.803000	25.406501	0.000437	20.761138
1058.300533	-2.997200	3.636100	-10.898000	25.432448	0.000437	20.765382
1059.300462	-3.009000	3.636000	-10.940000	25.410925	0.000434	20.772693
1060.299483	-3.010600	3.634800	-10.941000	25.422955	0.000434	20.765806
1061.304637	-3.009200	3.634500	-10.936000	25.383190	0.000434	20.755274
1062.301087	-3.000800	3.634200	-10.905000	25.390498	0.000433	20.775414
1063.303577	-3.001900	3.636200	-10.914000	25.369446	0.000434	20.771346
1064.303409	-2.996800	3.634000	-10.890000	25.334553	0.000433	20.749111
1065.303324	-3.002200	3.632400	-10.905000	25.352571	0.000434	20.754875
1066.305336	-2.996500	3.633700	-10.887000	25.355133	0.000432	20.770724
1067.306890	-3.006000	3.632700	-10.919000	25.369772	0.000435	20.750809
1068.306551	-2.997200	3.632900	-10.887000	25.369673	0.000432	20.764936
1069.306481	-3.002000	3.631300	-10.900000	25.369647	0.000432	20.753529
1070.307739	-3.007900	3.632800	-10.926000	25.391793	0.000433	20.777663
1071.306550	-2.991800	3.632900	-10.868000	25.374570	0.000434	20.766533
1072.307220	-3.016700	3.631100	-10.953000	25.349468	0.000430	20.759820
1073.309342	-3.001500	3.632300	-10.901000	25.366642	0.000429	20.774694
1074.312085	-3.012800	3.630100	-10.936000	25.398729	0.000430	20.786999
1075.309371	-3.005800	3.631500	-10.914000	25.398729	0.000430	20.797431
1076.308594	-3.009700	3.630700	-10.927000	25.357921	0.000430	20.764041
1077.310584	-3.011000	3.630400	-10.930000	25.358022	0.000429	20.770306
1078.310850	-3.016300	3.629500	-10.946000	25.388665	0.000430	20.765987
1079.310289	-2.986200	3.630500	-10.840000	25.395425	0.000430	20.784630
1080.311028	-2.998200	3.628400	-10.877000	25.427560	0.000428	20.779439
1081.309949	-2.977700	3.628800	-10.804000	25.424108	0.000428	20.777870
1082.309494	-2.970000	3.630300	-10.782000	25.384940	0.000429	20.784059
1083.316312	-3.005900	3.630300	-10.911000	25.346915	0.000428	20.766266
1084.311991	-2.990300	3.628200	-10.849000	25.342244	0.000425	20.775801
1085.311288	-3.004600	3.627900	-10.900000	25.364016	0.000426	20.769213
1086.312283	-2.981200	3.628100	-10.816000	25.355169	0.000428	20.801581
1087.315770	-3.024000	3.626300	-10.965000	25.353554	0.000428	20.781941
1088.312159	-3.004600	3.626900	-10.897000	25.380198	0.000426	20.787358
1089.314621	-2.971500	3.627800	-10.780000	25.384000	0.000427	20.784538
1090.315949	-2.981900	3.627000	-10.815000	25.383629	0.000425	20.778001
1091.315665	-3.005700	3.627300	-10.901000	25.396703	0.000423	20.790655
1092.317681	-2.996500	3.626000	-10.864000	25.396801	0.000423	20.777003
1093.315257	-3.009300	3.623400	-10.903000	25.389125	0.000424	20.775458
1094.315368	-3.017800	3.624300	-10.937000	25.391163	0.000422	20.789833
1095.316522	-3.004100	3.624700	-10.888000	25.404260	0.000424	20.761258
1096.316427	-3.007200	3.624700	-10.899000	25.437563	0.000423	20.782372
1097.313974	-2.990500	3.625200	-10.841000	25.430903	0.000424	20.790857
1098.314240	-2.997700	3.624000	-10.863000	25.456849	0.000422	20.801739
1099.317435	-2.994300	3.623700	-10.849000	25.471487	0.000422	20.795101
1100.315149	-2.975700	3.623800	-10.782000	25.474149	0.000419	20.782601
1101.316901	-2.995400	3.623200	-10.852000	25.516691	0.000420	20.794029
1102.318151	-3.023200	3.622000	-10.949000	25.544201	0.000420	20.782300
1103.317502	-3.003000	3.623400	-10.880000	25.500266	0.000419	20.800293
1104.322873	-3.015300	3.621500	-10.920000	25.466768	0.000419	20.799845
1105.318185	-3.026800	3.621100	-10.959000	25.456530	0.000418	20.802841
1106.318583	-3.003000	3.622000	-10.876000	25.462221	0.000421	20.774890
1107.316156	-2.980400	3.622200	-10.795000	25.448180	0.000420	20.801094
1108.317235	-3.002600	3.620000	-10.868000	25.437245	0.000419	20.792484
1109.315802	-2.990300	3.620700	-10.826000	25.431556	0.000418	20.795306
1110.318683	-3.011900	3.620700	-10.905000	25.434836	0.000419	20.796703
1111.318289	-3.010900	3.620000	-10.898000	25.425492	0.000417	20.801071
1112.318565	-3.006100	3.620300	-10.882000	25.436030	0.000417	20.775617
1113.317577	-2.990100	3.619800	-10.823000	25.473731	0.000416	20.798777
1114.319016	-3.039200	3.619400	-10.999000	25.485013	0.000418	20.786873
1115.324371	-2.986000	3.620200	-10.809000	25.518213	0.000415	20.805039
1116.322634	-2.989600	3.618200	-10.816000	25.513890	0.000414	20.776516
1117.318985	-2.987400	3.618800	-10.810000	25.518189	0.000415	20.814025
1118.324380	-3.026600	3.618200	-10.949000	25.537100	0.000416	20.798403
1119.319567	-2.992900	3.617800	-10.827000	25.494433	0.000413	20.801074
1120.320368	-3.022600	3.616900	-10.931000	25.428949	0.000417	20.807861
1121.325497	-2.978500	3.617800	-10.774000	25.440183	0.000414	20.800176
1122.322047	-2.980500	3.616300	-10.777000	25.377580	0.000413	20.822187
1123.322320	-2.995500	3.615400	-10.829000	25.395872	0.000412	20.800251
1124.322541	-3.014100	3.616100	-10.898000	25.441202	0.000411	20.796932
1125.325990	-3.020700	3.616400	-10.923000	25.455692	0.000412	20.795835
1126.323380	-3.021000	3.616200	-10.923000	25.459147	0.000412	20.778441
1127.326974	-2.983500	3.616500	-10.788000	25.494708	0.000414	20.817945
1128.328174	-3.009600	3.614100	-10.875000	25.514713	0.000410	20.804370
1129.325676	-2.992400	3.614100	-10.814000	25.529150	0.000412	20.818868
1130.330408	-3.009600	3.614600	-10.877000	25.496249	0.000408	20.824234
1131.328264	-3.030100	3.613000	-10.946000	25.463644	0.000411	20.817571
1132.328753	-2.995900	3.613700	-10.825000	25.502661	0.000410	20.804121
1133.328984	-2.970200	3.613700	-10.733000	25.508325	0.000408	20.819292
1134.329700	-2.992000	3.612500	-10.807000	25.508201	0.000410	20.831020
1135.328253	-2.983100	3.612700	-10.776000	25.506562	0.000407	20.810883
1136.336321	-3.009900	3.613600	-10.876000	25.509842	0.000408	20.815125
1137.332644	-3.004600	3.611500	-10.850000	25.500473	0.000408	20.821364
1138.330969	-3.005200	3.611500	-10.853000	25.448834	0.000407	20.816449
1139.335968	-3.006600	3.610500	-10.855000	25.440457	0.000407	20.808512
1140.332310	-2.994800	3.612200	-10.817000	25.440457	0.000407	20.820840
1141.335691	-3.010000	3.611400	-10.869000	25.462028	0.000406	20.830646
1142.331662	-3.014200	3.611700	-10.886000	25.523310	0.000407	20.826753
1143.332893	-3.002000	3.610200	-10.837000	25.496497	0.000404	20.812155
1144.332170	-3.020100	3.611200	-10.905000	25.483427	0.000404	20.805194
1145.333183	-2.996900	3.611000	-10.821000	25.520354	0.000405	20.817621
1146.332740	-2.996500	3.609600	-10.815000	25.521025	0.000404	20.829675
1147.332043	-3.020100	3.610100	-10.902000	25.491851	0.000405	20.842577
1148.332410	-3.007200	3.609100	-10.853000	25.462652	0.000404	20.813255
1149.333633	-2.978000	3.609800	-10.748000	25.489291	0.000405	20.812031
1150.335320	-2.984200	3.609200	-10.769000	25.499953	0.000404	20.815626
1151.332814	-2.983100	3.609100	-10.765000	25.497517	0.000405	20.816025
1152.332487	-3.005900	3.606400	-10.839000	25.530196	0.000403	20.843625
1153.335248	-2.988700	3.607800	-10.781000	25.578428	0.000404	20.825683
1154.337867	-3.004500	3.607900	-10.839000	25.522816	0.000401	20.822938
1155.338891	-3.022100	3.606200	-10.898000	25.495431	0.000403	20.808240
1156.334906	-2.988100	3.606500	-10.775000	25.483055	0.000400	20.815252
1157.334787	-2.971900	3.607500	-10.720000	25.475972	0.000403	20.823312
1158.335443	-2.996700	3.605900	-10.805000	25.445680	0.000401	20.855006
1159.336037	-2.995700	3.606600	-10.803000	25.471201	0.000402	20.837012
1160.337644	-3.002800	3.604500	-10.823000	25.499482	0.000400	20.848817
1161.336058	-3.006400	3.604800	-10.837000	25.465162	0.000402	20.828104
1162.339216	-3.011700	3.604100	-10.853000	25.503931	0.000399	20.820569
1163.339306	-3.015000	3.603300	-10.863000	25.501571	0.000400	20.860871
1164.337458	-3.017800	3.603800	-10.875000	25.499135	0.000397	20.822391
1165.340190	-2.997700	3.604000	-10.802000	25.502365	0.000398	20.834169
1166.339448	-3.017200	3.602500	-10.868000	25.539540	0.000397	20.842578
1167.337321	-2.982600	3.603400	-10.747000	25.541605	0.000396	20.846548
1168.341553	-2.996300	3.603200	-10.795000	25.575325	0.000397	20.855755
1169.340374	-2.999500	3.602700	-10.805000	25.601665	0.000397	20.848545
1170.338338	-3.006300	3.601900	-10.828000	25.623680	0.000397	20.819921
1171.338714	-2.993100	3.602900	-10.784000	25.613219	0.000394	20.844027
1172.339428	-3.012000	3.602400	-10.850000	25.560640	0.000396	20.840535
1173.341887	-3.003000	3.601700	-10.815000	25.580295	0.000397	20.852687
1174.340089	-3.008200	3.601300	-10.833000	25.551372	0.000395	20.843555
1175.340705	-2.988300	3.601400	-10.761000	25.492129	0.000393	20.850916
1176.342710	-3.005500	3.599900	-10.819000	25.456119	0.000394	20.851739
1177.338657	-2.992500	3.602100	-10.778000	25.447472	0.000395	20.854435
1178.340185	-3.020200	3.600400	-10.873000	25.487904	0.000393	20.847148
1179.345126	-2.984300	3.599800	-10.742000	25.490490	0.000395	20.843580
1180.342834	-3.011400	3.600600	-10.842000	25.475083	0.000397	20.851815
1181.343722	-3.010900	3.599200	-10.836000	25.496107	0.000392	20.862023
1182.343974	-2.996500	3.598400	-10.782000	25.477046	0.000394	20.841934
1183.343674	-3.039400	3.597600	-10.933000	25.515341	0.000394	20.862846
1184.344006	-3.006100	3.598300	-10.816000	25.528536	0.000392	20.859028
1185.344355	-2.994900	3.597600	-10.774000	25.505203	0.000390	20.847924
1186.342387	-2.996400	3.598700	-10.782000	25.538826	0.000392	20.855610
1187.345310	-2.992200	3.597500	-10.763000	25.559748	0.000390	20.851017
1188.343860	-3.004200	3.597500	-10.807000	25.541136	0.000390	20.848448
1189.346626	-2.997700	3.596200	-10.780000	25.515616	0.000390	20.873552
1190.346686	-2.990400	3.597200	-10.755000	25.516709	0.000388	20.870383
1191.344532	-2.972100	3.596800	-10.689000	25.540194	0.000390	20.854613
1192.349478	-2.998000	3.595500	-10.778000	25.531522	0.000389	20.847802
1193.346194	-3.012400	3.594800	-10.828000	25.522054	0.000388	20.871009
1194.347266	-3.022300	3.594700	-10.863000	25.532540	0.000387	20.881064
1195.351361	-2.964500	3.596400	-10.660000	25.576448	0.000388	20.869685
1196.346406	-3.026900	3.593700	-10.877000	25.625525	0.000389	20.865395
1197.349535	-2.995900	3.593700	-10.765000	25.659292	0.000388	20.855687
1198.351502	-3.000300	3.593800	-10.782000	25.622595	0.000385	20.878098
1199.347861	-3.006900	3.594400	-10.807000	25.637900	0.000387	20.867866
1200.349284	-2.987900	3.594200	-10.738000	25.650199	0.000386	20.869787
1201.352746	-2.972900	3.593000	-10.681000	25.619165	0.000387	20.865645
1202.350399	-3.007500	3.593500	-10.806000	25.596454	0.000385	20.877448
1203.349866	-2.971400	3.593400	-10.676000	25.591907	0.000385	20.874779
1204.350576	-2.989800	3.592900	-10.740000	25.610717	0.000385	20.872333
1205.350122	-2.982600	3.593100	-10.716000	25.622495	0.000385	20.865670
1206.356406	-2.994400	3.591300	-10.752000	25.588353	0.000383	20.872158
1207.351231	-3.007700	3.591700	-10.801000	25.565443	0.000383	20.890400
1208.354321	-2.995300	3.590400	-10.753000	25.599240	0.000382	20.855592
1209.350271	-2.997800	3.591900	-10.767000	25.588381	0.000382	20.882143
1210.350516	-2.987400	3.592000	-10.730000	25.582491	0.000383	20.891874
1211.353313	-2.995900	3.590600	-10.756000	25.571185	0.000381	20.876727
1212.351737	-2.993500	3.591000	-10.749000	25.600384	0.000383	20.876654
1213.351178	-2.955800	3.590800	-10.612000	25.598866	0.000381	20.877974
1214.349529	-3.015400	3.588000	-10.818000	25.598269	0.000381	20.886383
1215.350426	-3.004000	3.589600	-10.782000	25.610993	0.000381	20.888256
1216.351811	-2.975100	3.589800	-10.679000	25.608755	0.000381	20.875579
1217.352449	-2.987500	3.588900	-10.719000	25.623540	0.000379	20.887108
1218.353440	-2.998500	3.589100	-10.761000	25.601601	0.000378	20.883565
1219.352620	-3.017600	3.587500	-10.825000	25.571237	0.000379	20.892899
1220.353907	-3.025100	3.585600	-10.846000	25.558812	0.000379	20.882318
1221.360232	-3.002600	3.586100	-10.767000	25.552772	0.000380	20.882417
1222.351000	-3.021200	3.585700	-10.832000	25.542709	0.000378	20.882742
1223.355946	-2.974400	3.586500	-10.667000	25.573621	0.000379	20.882492
1224.357017	-2.999100	3.586300	-10.755000	25.577995	0.000378	20.884039
1225.352548	-2.995100	3.586100	-10.740000	25.590544	0.000377	20.906598
1226.353035	-3.011300	3.585300	-10.796000	25.604880	0.000376	20.892548
1227.352649	-3.009800	3.585200	-10.790000	25.614969	0.000376	20.890353
1228.353068	-2.996500	3.584900	-10.741000	25.600831	0.000376	20.912661
1229.353305	-2.996100	3.584600	-10.739000	25.583810	0.000378	20.894620
1230.354012	-3.026400	3.583600	-10.845000	25.591339	0.000375	20.896491
1231.356446	-3.008400	3.583800	-10.781000	25.558142	0.000374	20.874533
1232.353227	-2.976600	3.583800	-10.666000	25.630474	0.000374	20.881270
1233.353489	-2.992000	3.582300	-10.717000	25.647272	0.000377	20.933697
1234.353910	-2.994300	3.583000	-10.728000	25.651446	0.000374	20.892849
1235.356671	-3.017900	3.582700	-10.811000	25.613904	0.000374	20.896395
1236.356470	-3.015900	3.582300	-10.802000	25.600858	0.000373	20.916007
1237.356311	-3.012700	3.581100	-10.788000	25.579042	0.000375	20.908797
1238.357955	-2.987300	3.581100	-10.697000	25.578445	0.000373	20.920998
1239.357897	-3.008200	3.581300	-10.773000	25.602324	0.000371	20.902308
1240.358179	-2.983700	3.582100	-10.686000	25.636665	0.000372	20.892228
1241.360312	-3.006200	3.579900	-10.761000	25.663252	0.000372	20.909920
1242.358806	-2.999200	3.579800	-10.735000	25.728670	0.000372	20.901660
1243.359379	-2.994800	3.581200	-10.723000	25.738088	0.000371	20.907800
1244.359139	-3.011800	3.579200	-10.778000	25.689939	0.000372	20.892630
1245.357590	-3.007800	3.578700	-10.763000	25.688523	0.000370	20.910646
1246.358376	-2.993500	3.579500	-10.715000	25.675205	0.000371	20.903435
1247.356818	-2.987700	3.578700	-10.691000	25.684648	0.000369	20.904859
1248.359435	-3.013900	3.577500	-10.781000	25.696899	0.000370	20.917636
1249.360412	-2.986500	3.578400	-10.685000	25.696650	0.000371	20.935402
1250.362321	-2.993300	3.577900	-10.709000	25.641840	0.000368	20.908329
1251.362954	-3.015500	3.576200	-10.783000	25.657219	0.000369	20.904810
1252.361958	-2.982000	3.578500	-10.669000	25.693222	0.000366	20.922477
1253.364454	-2.993400	3.578100	-10.709000	25.689545	0.000365	20.918311
1254.362816	-3.008800	3.576300	-10.759000	25.677920	0.000368	20.934133
1255.360729	-2.991500	3.577200	-10.700000	25.643357	0.000365	20.929766
1256.364671	-3.016100	3.576200	-10.785000	25.627183	0.000365	20.910678
1257.364428	-3.002900	3.575900	-10.737000	25.588345	0.000366	20.901071
1258.363830	-2.979400	3.576100	-10.654000	25.579822	0.000366	20.926648
1259.365469	-2.962300	3.576200	-10.593000	25.581562	0.000366	20.889519
1260.364380	-2.996800	3.575300	-10.713000	25.591452	0.000364	20.913673
1261.364374	-3.019400	3.573700	-10.790000	25.592646	0.000363	20.904441
1262.365523	-3.015500	3.574900	-10.780000	25.570531	0.000362	20.923481
1263.365852	-3.002500	3.574400	-10.731000	25.607851	0.000366	20.906436
1264.365663	-3.005900	3.572700	-10.739000	25.659859	0.000362	20.884230
1265.364303	-3.030700	3.573300	-10.829000	25.666146	0.000362	20.898130
1266.368157	-3.007700	3.572500	-10.743000	25.667735	0.000362	20.887398
1267.365370	-2.984200	3.573000	-10.662000	25.672828	0.000362	20.904366
1268.365586	-3.003000	3.572500	-10.727000	25.676532	0.000362	20.900974
1269.369117	-3.004400	3.572000	-10.731000	25.659212	0.000362	20.904916
1270.370828	-2.994600	3.571400	-10.693000	25.666541	0.000362	20.899475
1271.370615	-2.984000	3.572300	-10.659000	25.671414	0.000360	20.888722
1272.367650	-2.998100	3.570500	-10.703000	25.639883	0.000360	20.897831
1273.368169	-2.987800	3.571300	-10.670000	25.581242	0.000360	20.915273
1274.373662	-3.004700	3.569400	-10.723000	25.613543	0.000360	20.888921
1275.369405	-3.014400	3.569300	-10.758000	25.635982	0.000357	20.880637
1276.365856	-2.988900	3.569800	-10.669000	25.616526	0.000360	20.877218
1277.369237	-2.990900	3.570100	-10.677000	25.565040	0.000359	20.896632
1278.369963	-3.029900	3.569300	-10.812000	25.590636	0.000358	20.885355
1279.372198	-2.991700	3.570100	-10.680000	25.600996	0.000358	20.890070
1280.371167	-2.993300	3.568400	-10.680000	25.624254	0.000358	20.887824
1281.372022	-3.003600	3.568300	-10.717000	25.650492	0.000358	20.883831
1282.376127	-2.993200	3.569400	-10.683000	25.703340	0.000357	20.904667
1283.373115	-3.022000	3.566300	-10.777000	25.709625	0.000355	20.886799
1284.373564	-2.999500	3.567900	-10.701000	25.680431	0.000356	20.880711
1285.373612	-3.011900	3.567800	-10.745000	25.634564	0.000355	20.874946
1286.372838	-2.998600	3.566800	-10.694000	25.601293	0.000356	20.881360
1287.375332	-2.996900	3.566800	-10.689000	25.593340	0.000354	20.889494
1288.378689	-2.992000	3.566500	-10.670000	25.588819	0.000356	20.872626
1289.376346	-3.002900	3.565400	-10.706000	25.596994	0.000354	20.856181
1290.377203	-3.020000	3.565900	-10.768000	25.628102	0.000353	20.876517
1291.376926	-3.002900	3.565400	-10.706000	25.629768	0.000353	20.872975
1292.377928	-2.986000	3.566300	-10.648000	25.638861	0.000353	20.865512
1293.377234	-2.994800	3.565300	-10.676000	25.656752	0.000353	20.866886
1294.376583	-3.014700	3.563200	-10.740000	25.644202	0.000352	20.877514
1295.375115	-3.001800	3.563800	-10.697000	25.649544	0.000351	20.879086
1296.385877	-3.010700	3.564000	-10.729000	25.681547	0.000353	20.878038
1297.380575	-2.978900	3.564000	-10.616000	25.699783	0.000353	20.865535
1298.380289	-3.004400	3.563700	-10.706000	25.709424	0.000350	20.883752
1299.378977	-2.992700	3.563000	-10.661000	25.671531	0.000348	20.846169
1300.376382	-3.007800	3.563200	-10.716000	25.690714	0.000352	20.849789
1301.378110	-3.019300	3.561800	-10.753000	25.724404	0.000349	20.850911
1302.377896	-2.955100	3.562300	-10.525000	25.695757	0.000349	20.876664
1303.378280	-2.980700	3.562300	-10.617000	25.709148	0.000351	20.855502
1304.378971	-3.002900	3.561700	-10.694000	25.708653	0.000348	20.871125
1305.379066	-2.995500	3.560300	-10.664000	25.670488	0.000348	20.847492
1306.378592	-3.006200	3.561000	-10.704000	25.655206	0.000347	20.868178
1307.379889	-3.018000	3.559900	-10.743000	25.642807	0.000348	20.836286
1308.382458	-2.987900	3.559400	-10.635000	25.674934	0.000346	20.857173
1309.379475	-3.018400	3.560200	-10.744000	25.686638	0.000347	20.865609
1310.379134	-2.999700	3.559200	-10.675000	25.661938	0.000345	20.854552
1311.379920	-2.999700	3.558900	-10.674000	25.636173	0.000345	20.853804
1312.383306	-3.022200	3.557300	-10.750000	25.629912	0.000347	20.850836
1313.381633	-2.989900	3.559500	-10.642000	25.629488	0.000345	20.842824
1314.383056	-3.005900	3.558000	-10.694000	25.686212	0.000347	20.861388
1315.383096	-3.010800	3.558500	-10.713000	25.644941	0.000345	20.847438
1316.379519	-3.010400	3.557200	-10.707000	25.613287	0.000344	20.854053
1317.384651	-3.017000	3.557000	-10.731000	25.551786	0.000344	20.845867
1318.381201	-3.016000	3.556200	-10.724000	25.613013	0.000345	20.842872
1319.381038	-3.004700	3.555300	-10.682000	25.607273	0.000343	20.839478
1320.381341	-3.023200	3.555700	-10.749000	25.644147	0.000344	20.857071
1321.381236	-3.023700	3.556500	-10.752000	25.601582	0.000344	20.859841
1322.381930	-2.998200	3.555400	-10.659000	25.657761	0.000341	20.847986
1323.381269	-2.981200	3.557400	-10.605000	25.689143	0.000341	20.843470
1324.387521	-3.024400	3.554200	-10.748000	25.669962	0.000343	20.836059
1325.380513	-3.009100	3.553900	-10.693000	25.633682	0.000341	20.841346
1326.381011	-2.994200	3.554900	-10.643000	25.635077	0.000342	20.857445
1327.380709	-3.000900	3.553500	-10.663000	25.591764	0.000340	20.837653
1328.385274	-3.020400	3.554500	-10.735000	25.536054	0.000342	20.837655
1329.381758	-2.993700	3.553100	-10.636000	25.551485	0.000340	20.845091
1330.384537	-3.017700	3.553400	-10.722000	25.570866	0.000339	20.856967
1331.384321	-2.992700	3.553200	-10.632000	25.601481	0.000340	20.836980
1332.383942	-2.994800	3.552700	-10.639000	25.655773	0.000338	20.829868
1333.388822	-2.980100	3.553000	-10.588000	25.614898	0.000339	20.827696
1334.389501	-2.998700	3.551900	-10.650000	25.659673	0.000339	20.813397
1335.385153	-3.005200	3.551800	-10.673000	25.678333	0.000339	20.801794
1336.383610	-2.990000	3.551300	-10.616000	25.669809	0.000339	20.840647
1337.385163	-2.980200	3.551100	-10.582000	25.719452	0.000339	20.831239
1338.386608	-3.020200	3.550100	-10.721000	25.751999	0.000340	20.833111
1339.387739	-2.967400	3.551200	-10.536000	25.722459	0.000338	20.843268
1340.390217	-2.996900	3.549800	-10.638000	25.663350	0.000335	20.848383
1341.388813	-2.983700	3.550800	-10.593000	25.693016	0.000337	20.829817
1342.389184	-2.999900	3.550100	-10.649000	25.726383	0.000335	20.839623
1343.388673	-3.001700	3.549400	-10.653000	25.761388	0.000335	20.832585
1344.388445	-2.996400	3.548600	-10.633000	25.808097	0.000336	20.841096
1345.386820	-3.003900	3.549000	-10.660000	25.773763	0.000335	20.827945
1346.389122	-2.974400	3.550100	-10.558000	25.789737	0.000334	20.843516
1347.388338	-2.990400	3.547700	-10.609000	25.740866	0.000332	20.838049
1348.389266	-2.980100	3.547900	-10.572000	25.705438	0.000335	20.823327
1349.390620	-3.023700	3.547000	-10.724000	25.698207	0.000334	20.827444
1350.392290	-3.000900	3.546500	-10.642000	25.720295	0.000333	20.818335
1351.392330	-2.979500	3.547300	-10.568000	25.712840	0.000333	20.809899
1352.392151	-3.009400	3.547100	-10.674000	25.761885	0.000332	20.840196
1353.391613	-3.005600	3.545700	-10.656000	25.733213	0.000333	20.830362
1354.393988	-3.007400	3.545400	-10.661000	25.711922	0.000332	20.819409
1355.391771	-3.006700	3.544500	-10.657000	25.712865	0.000331	20.834580
1356.392600	-3.008200	3.544800	-10.662000	25.662826	0.000330	20.811348
1357.397989	-3.017000	3.543200	-10.688000	25.653331	0.000330	20.833105
1358.393363	-2.989800	3.544100	-10.596000	25.702727	0.000330	20.822501
1359.397461	-2.991400	3.543300	-10.598000	25.719026	0.000329	20.842665
1360.397645	-2.990100	3.543100	-10.594000	25.770006	0.000331	20.822749
1361.395859	-2.999500	3.543800	-10.628000	25.782851	0.000330	20.813841
1362.398885	-3.006800	3.543000	-10.652000	25.813161	0.000329	20.822950
1363.398906	-3.006500	3.542500	-10.649000	25.775721	0.000327	20.826119
1364.396275	-2.991800	3.542900	-10.599000	25.766255	0.000330	20.820404
1365.397497	-2.979300	3.542500	-10.552000	25.744689	0.000330	20.817708
1366.401363	-2.990200	3.541600	-10.589000	25.730082	0.000327	20.825321
1367.418367	-3.007900	3.542600	-10.654000	25.711171	0.000326	20.827663
1368.398135	-3.004900	3.541600	-10.641000	25.751622	0.000325	20.807128
1369.397538	-3.037200	3.539400	-10.749000	25.760439	0.000328	20.815510
1370.398864	-2.988700	3.540600	-10.581000	25.771098	0.000326	20.814838
1371.398844	-2.986300	3.540000	-10.571000	25.806203	0.000328	20.815013
1372.402189	-3.009600	3.540200	-10.654000	25.761805	0.000327	20.813090
1373.400169	-2.992700	3.540200	-10.594000	25.711543	0.000325	20.829933
1374.400236	-3.006800	3.537800	-10.636000	25.688486	0.000325	20.793973
1375.400828	-3.016000	3.538500	-10.671000	25.719023	0.000325	20.822748
1376.401711	-2.988800	3.538200	-10.574000	25.723197	0.000328	20.817931
1377.403224	-3.001400	3.538000	-10.617000	25.730078	0.000324	20.803506
1378.400721	-3.008800	3.537200	-10.641000	25.708215	0.000327	20.822798
1379.401670	-2.988900	3.538100	-10.574000	25.674921	0.000322	20.816858
1380.400365	-2.993900	3.535900	-10.585000	25.698799	0.000322	20.824720
1381.401633	-3.000600	3.537100	-10.613000	25.660733	0.000322	20.808772
1382.405340	-3.009600	3.535900	-10.641000	25.628283	0.000323	20.803208
1383.404015	-2.992800	3.536500	-10.583000	25.635910	0.000323	20.786212
1384.405754	-2.983300	3.536500	-10.549000	25.673829	0.000322	20.815761
1385.406062	-3.008100	3.536400	-10.637000	25.713533	0.000322	20.789733
1386.404107	-2.988600	3.536100	-10.567000	25.736042	0.000322	20.823721
1387.404490	-2.994200	3.535400	-10.584000	25.707469	0.000321	20.808772
1388.405684	-3.014500	3.534400	-10.654000	25.713903	0.000320	20.803855
1389.407016	-2.987600	3.535200	-10.561000	25.711718	0.000321	20.808298
1390.405729	-3.007700	3.534100	-10.628000	25.698947	0.000318	20.823920
1391.405687	-2.999300	3.533700	-10.597000	25.709332	0.000319	20.793574
1392.412734	-2.995000	3.533800	-10.582000	25.765010	0.000319	20.795446
1393.409080	-3.019600	3.532100	-10.664000	25.817778	0.000321	20.799613
1394.415530	-3.004000	3.533800	-10.615000	25.823816	0.000318	20.797144
1395.409347	-3.040000	3.532300	-10.736000	25.833009	0.000319	20.808749
1396.407917	-3.003900	3.531900	-10.607000	25.794104	0.000315	20.803333
1397.408165	-2.980200	3.533100	-10.529000	25.752340	0.000317	20.805004
1398.407419	-2.985300	3.531500	-10.542000	25.718079	0.000318	20.805679
1399.409408	-3.013800	3.530100	-10.638000	25.686922	0.000317	20.786712
1400.410550	-2.996000	3.530800	-10.578000	25.725830	0.000316	20.780273
1401.409299	-2.982300	3.531700	-10.532000	25.745757	0.000316	20.802660
1402.410405	-3.004300	3.529200	-10.602000	25.683368	0.000315	20.794523
1403.408010	-2.991600	3.531500	-10.565000	25.676287	0.000315	20.804006
1404.408748	-3.023800	3.529700	-10.672000	25.700735	0.000315	20.783517
1405.417143	-2.999300	3.528800	-10.583000	25.704239	0.000316	20.788933
1406.407784	-3.000600	3.528000	-10.586000	25.707521	0.000313	20.801712
1407.410419	-2.979600	3.528200	-10.512000	25.706450	0.000315	20.786886
1408.414135	-3.002800	3.527200	-10.590000	25.724191	0.000314	20.796170
1409.409456	-3.007100	3.526500	-10.604000	25.771918	0.000315	20.783892
1410.413119	-2.988500	3.527400	-10.541000	25.773061	0.000314	20.786938
1411.414039	-3.015500	3.525400	-10.630000	25.715916	0.000311	20.791178
1412.412845	-2.994000	3.526100	-10.556000	25.689557	0.000312	20.780350
1413.413486	-2.994300	3.527700	-10.562000	25.727223	0.000315	20.783094
1414.412207	-3.005800	3.526600	-10.599000	25.690451	0.000310	20.780774
1415.416620	-3.001300	3.526300	-10.583000	25.657106	0.000313	20.806552
1416.412910	-2.989700	3.525400	-10.539000	25.669852	0.000313	20.803233
1417.413822	-3.015000	3.525300	-10.628000	25.740216	0.000311	20.793300
1418.418082	-2.992600	3.525600	-10.549000	25.770179	0.000313	20.775508
1419.414412	-2.991700	3.526000	-10.548000	25.819940	0.000308	20.795147
1420.414570	-3.008300	3.524300	-10.601000	25.797532	0.000310	20.771215
1421.416478	-3.013700	3.523500	-10.618000	25.765557	0.000311	20.775606
1422.413960	-3.015100	3.522600	-10.619000	25.746080	0.000309	20.792078
1423.416598	-2.993300	3.522500	-10.543000	25.743148	0.000309	20.778702
1424.420397	-3.015000	3.522600	-10.620000	25.746329	0.000308	20.785216
1425.415912	-2.988200	3.523200	-10.527000	25.722974	0.000308	20.775982
1426.417193	-3.005800	3.522000	-10.585000	25.717733	0.000308	20.785891
1427.416195	-3.005200	3.521200	-10.581000	25.758328	0.000307	20.780674
1428.417907	-2.997900	3.523000	-10.561000	25.791348	0.000308	20.775434
1429.415218	-3.018000	3.521100	-10.625000	25.761584	0.000304	20.782996
1430.415684	-3.012200	3.519600	-10.601000	25.749110	0.000306	20.769043
1431.422273	-3.006000	3.520500	-10.582000	25.773334	0.000305	20.781996
1432.419397	-3.009200	3.518300	-10.585000	25.824313	0.000306	20.791005
1433.419218	-2.992500	3.520500	-10.534000	25.778703	0.000307	20.776009
1434.419720	-3.001700	3.517400	-10.556000	25.768268	0.000304	20.766001
1435.416821	-3.017400	3.517300	-10.612000	25.755546	0.000305	20.769344
1436.419301	-2.992900	3.518100	-10.528000	25.726131	0.000304	20.775833
1437.421409	-3.001400	3.517700	-10.556000	25.686128	0.000304	20.798242
1438.417330	-3.011600	3.518400	-10.595000	25.690004	0.000304	20.785066
1439.417467	-3.007500	3.518400	-10.580000	25.762824	0.000302	20.794673
1440.422498	-2.988800	3.517900	-10.514000	25.793608	0.000303	20.793352
1441.420704	-2.986000	3.517200	-10.501000	25.797707	0.000304	20.777555
1442.420386	-3.020700	3.515900	-10.620000	25.826005	0.000306	20.778954
1443.423053	-2.987400	3.517300	-10.507000	25.830973	0.000305	20.770668
1444.423089	-3.004900	3.516700	-10.566000	25.834279	0.000305	20.773514
1445.421113	-3.010700	3.516400	-10.586000	25.826949	0.000303	20.789860
1446.428102	-3.006900	3.514100	-10.565000	25.826725	0.000300	20.774461
1447.421486	-2.996400	3.513900	-10.529000	25.824739	0.000303	20.773414
1448.421013	-3.027200	3.513200	-10.634000	25.783225	0.000300	20.772491
1449.422035	-2.999300	3.515000	-10.542000	25.758679	0.000299	20.752102
1450.421966	-2.975900	3.515700	-10.462000	25.746853	0.000301	20.756818
1451.428149	-3.001700	3.514500	-10.549000	25.715499	0.000300	20.759939
1452.421676	-3.022900	3.512900	-10.618000	25.689957	0.000301	20.762260
1453.421929	-2.982700	3.512700	-10.476000	25.743155	0.000301	20.758794
1454.424838	-3.036900	3.511700	-10.663000	25.775950	0.000299	20.773718
1455.423173	-2.994700	3.511400	-10.515000	25.822829	0.000300	20.765332
1456.423327	-2.996100	3.510400	-10.517000	25.805936	0.000298	20.764958
1457.427102	-2.982100	3.513400	-10.476000	25.793066	0.000300	20.771471
1458.423597	-3.028900	3.510400	-10.631000	25.815750	0.000299	20.776713
1459.424209	-3.003300	3.511100	-10.544000	25.803927	0.000297	20.770526
1460.429281	-2.989600	3.511500	-10.497000	25.812373	0.000299	20.755777
1461.426751	-2.995200	3.510100	-10.512000	25.770115	0.000296	20.758847
1462.427891	-3.004800	3.509400	-10.544000	25.726189	0.000295	20.772573
1463.432819	-3.011900	3.507200	-10.563000	25.748203	0.000294	20.762916
1464.427280	-2.996800	3.509300	-10.516000	25.714166	0.000295	20.773773
1465.427183	-3.023800	3.508600	-10.608000	25.713769	0.000299	20.761994
1466.429679	-2.999100	3.508200	-10.520000	25.705024	0.000295	20.774548
1467.426774	-2.989900	3.506800	-10.484000	25.686291	0.000295	20.771853
1468.429835	-2.990900	3.508200	-10.492000	25.703383	0.000297	20.761520
1469.431360	-3.015700	3.506700	-10.575000	25.715784	0.000294	20.751690
1470.429203	-2.996800	3.508000	-10.512000	25.687311	0.000297	20.757705
1471.427795	-3.001800	3.508000	-10.529000	25.693847	0.000292	20.761425
1472.428117	-3.004500	3.505900	-10.532000	25.726148	0.000294	20.753090
1473.429080	-3.022000	3.505100	-10.591000	25.685227	0.000294	20.763672
1474.429990	-2.989600	3.506700	-10.483000	25.726124	0.000294	20.761602
1475.428729	-2.986600	3.504700	-10.467000	25.706472	0.000297	20.759407
1476.428704	-2.989700	3.506200	-10.482000	25.710101	0.000294	20.769690
1477.430121	-3.021700	3.504100	-10.588000	25.722649	0.000293	20.752895
1478.429154	-3.010700	3.505300	-10.552000	25.722177	0.000292	20.750524
1479.430634	-3.007100	3.504500	-10.538000	25.725556	0.000293	20.758660
1480.429567	-3.023000	3.503900	-10.591000	25.798824	0.000290	20.758288
1481.432434	-2.987500	3.504000	-10.467000	25.812588	0.000289	20.739396
1482.434542	-3.017100	3.502500	-10.566000	25.813459	0.000292	20.745487
1483.432094	-2.987300	3.502900	-10.463000	25.802430	0.000290	20.765703
1484.433861	-3.008300	3.501300	-10.531000	25.827621	0.000290	20.753550
1485.436588	-2.981500	3.502600	-10.441000	25.832765	0.000290	20.739277
1486.433313	-2.995200	3.502600	-10.490000	25.863594	0.000289	20.762659
1487.431881	-3.025000	3.499900	-10.586000	25.877955	0.000290	20.765707
1488.432994	-2.978500	3.501600	-10.428000	25.856788	0.000290	20.774789
1489.431412	-3.000600	3.501000	-10.504000	25.808593	0.000291	20.774739
1490.433045	-2.980100	3.500300	-10.430000	25.846728	0.000288	20.758993
1491.432347	-2.988300	3.499600	-10.457000	25.832792	0.000287	20.747838
1492.439255	-3.003800	3.500700	-10.514000	25.778732	0.000289	20.769874
1493.435309	-3.014000	3.498800	-10.544000	25.818085	0.000288	20.761988
1494.433831	-3.017600	3.499300	-10.558000	25.795752	0.000288	20.774642
1495.441689	-2.969600	3.499700	-10.392000	25.745119	0.000287	20.765508
1496.434160	-3.003300	3.497800	-10.504000	25.737316	0.000287	20.756248
1497.436587	-2.996200	3.498300	-10.481000	25.747678	0.000287	20.768553
1498.445605	-2.974300	3.499300	-10.406000	25.732275	0.000287	20.748814
1499.435614	-2.991500	3.499100	-10.466000	25.729047	0.000285	20.758848
1500.435822	-2.990000	3.499100	-10.461000	25.772376	0.000285	20.745945
1501.438178	-3.008000	3.497200	-10.518000	25.763008	0.000284	20.743648
1502.435583	-3.001300	3.497700	-10.498000	25.775980	0.000284	20.756204
1503.435135	-3.008000	3.496600	-10.517000	25.766986	0.000286	20.766136
1504.435078	-3.010600	3.495600	-10.523000	25.760552	0.000283	20.750190
1505.436213	-3.000300	3.494800	-10.485000	25.709372	0.000284	20.760423
1506.437135	-2.977500	3.496600	-10.410000	25.700974	0.000283	20.760523
1507.436397	-3.008100	3.494300	-10.510000	25.710988	0.000281	20.739285
1508.440670	-3.009200	3.494200	-10.514000	25.735683	0.000281	20.774997
1509.440875	-3.024900	3.493800	-10.566000	25.776179	0.000282	20.765413
1510.437627	-2.997300	3.493500	-10.470000	25.761597	0.000283	20.756456
1511.439864	-3.020700	3.492400	-10.549000	25.760181	0.000281	20.764991
1512.438029	-2.968700	3.494900	-10.373000	25.753672	0.000280	20.766039
1513.439823	-3.010800	3.493400	-10.517000	25.764877	0.000277	20.741731
1514.438145	-2.990900	3.494000	-10.449000	25.725151	0.000280	20.755883
1515.440446	-3.000900	3.492900	-10.481000	25.731513	0.000279	20.753264
1516.440403	-3.011000	3.490600	-10.509000	25.701153	0.000279	20.772082
1517.441438	-2.986100	3.492100	-10.427000	25.739862	0.000280	20.777772
1518.440339	-2.973100	3.492000	-10.381000	25.721327	0.000281	20.751567
1519.442305	-2.983100	3.491000	-10.413000	25.705077	0.000279	20.761799
1520.440713	-3.000300	3.491700	-10.475000	25.720905	0.000281	20.757308
1521.444909	-2.990700	3.491400	-10.441000	25.788433	0.000278	20.775351
1522.446397	-3.004200	3.489300	-10.481000	25.842765	0.000275	20.766392
1523.446710	-2.983400	3.489200	-10.409000	25.855210	0.000278	20.771307
1524.447586	-2.988200	3.490100	-10.428000	25.839536	0.000277	20.762200
1525.445576	-2.992900	3.489900	-10.443000	25.857075	0.000277	20.755162
1526.448236	-3.003900	3.488600	-10.479000	25.889593	0.000277	20.781191
1527.448166	-3.006000	3.489400	-10.488000	25.880502	0.000276	20.765420
1528.447330	-2.994200	3.487800	-10.442000	25.888675	0.000277	20.761777
1529.447773	-2.986700	3.487300	-10.414000	25.879980	0.000275	20.762525
1530.449870	-2.990600	3.487000	-10.427000	25.866392	0.000274	20.774005
1531.448455	-2.974100	3.488700	-10.375000	25.858665	0.000274	20.754389
1532.450902	-3.014400	3.487100	-10.510000	25.897294	0.000275	20.782290
1533.455805	-2.998700	3.487400	-10.457000	25.890287	0.000275	20.771932
1534.448786	-3.021700	3.484300	-10.529000	25.931848	0.000275	20.785235
1535.451233	-2.988000	3.486200	-10.416000	25.943300	0.000274	20.768765
1536.456043	-2.968600	3.486400	-10.349000	25.892252	0.000273	20.798561
1537.451037	-2.994700	3.485600	-10.437000	25.898363	0.000273	20.777199
1538.450377	-2.983300	3.485600	-10.397000	25.906436	0.000275	20.758283
1539.457518	-3.003700	3.484500	-10.465000	25.892451	0.000273	20.776951
1540.452045	-2.992800	3.484200	-10.427000	25.879905	0.000271	20.747277
1541.451138	-2.997500	3.485100	-10.445000	25.872303	0.000274	20.757658
1542.456092	-3.006000	3.483100	-10.469000	25.890090	0.000272	20.765569
1543.453107	-3.009700	3.482200	-10.479000	25.928667	0.000272	20.763073
1544.452642	-2.986900	3.483200	-10.403000	25.944419	0.000271	20.782216
1545.456366	-3.004500	3.482200	-10.462000	25.905914	0.000272	20.776251
1546.455552	-2.995000	3.482500	-10.429000	25.880028	0.000269	20.772057
1547.453747	-3.012400	3.481600	-10.487000	25.890164	0.000270	20.763273
1548.454323	-2.996600	3.481400	-10.431000	25.899207	0.000270	20.782789
1549.454415	-3.021000	3.482100	-10.518000	25.899205	0.000269	20.765717
1550.453693	-3.027000	3.479900	-10.533000	25.919303	0.000272	20.770260
1551.453909	-3.019500	3.480200	-10.507000	25.974597	0.000270	20.774603
1552.456949	-2.986100	3.481200	-10.394000	25.959050	0.000270	20.770837
1553.454292	-3.012300	3.478700	-10.478000	25.979242	0.000271	20.781640
1554.454941	-2.990900	3.480000	-10.406000	25.951771	0.000268	20.782016
1555.454966	-3.001600	3.478200	-10.440000	25.885941	0.000268	20.790325
1556.456309	-3.018700	3.477600	-10.496000	25.887085	0.000267	20.774404
1557.458133	-3.033900	3.477000	-10.548000	25.856033	0.000268	20.780195
1558.458848	-3.003400	3.478800	-10.447000	25.824159	0.000268	20.768090
1559.458149	-3.003500	3.478500	-10.447000	25.792383	0.000266	20.796389
1560.457795	-2.993000	3.477100	-10.406000	25.781503	0.000270	20.792099
1561.458199	-2.974700	3.477600	-10.344000	25.772510	0.000265	20.796815
1562.458702	-2.985400	3.478000	-10.382000	25.809898	0.000266	20.779370
1563.458601	-2.970800	3.477600	-10.330000	25.837151	0.000266	20.788728
1564.457894	-2.996400	3.476300	-10.416000	25.804806	0.000264	20.787531
1565.459242	-2.985000	3.476200	-10.376000	25.842842	0.000266	20.794918
1566.459581	-2.991300	3.476200	-10.397000	25.837922	0.000264	20.790925
1567.459469	-3.003600	3.474300	-10.435000	25.787440	0.000265	20.780993
1568.459949	-3.014300	3.475400	-10.475000	25.872255	0.000263	20.760455
1569.460660	-2.997000	3.474300	-10.412000	25.872428	0.000264	20.779595
1570.462693	-3.014000	3.473700	-10.469000	25.887432	0.000264	20.788978
1571.460811	-2.991100	3.475600	-10.394000	25.807540	0.000262	20.789329
1572.464953	-3.006200	3.473500	-10.441000	25.759615	0.000263	20.781966
1573.462613	-3.019400	3.473800	-10.487000	25.802645	0.000261	20.797688
1574.463813	-3.005900	3.471800	-10.435000	25.788386	0.000262	20.783365
1575.470798	-3.006800	3.472500	-10.440000	25.779765	0.000261	20.779447
1576.465134	-3.001400	3.471700	-10.419000	25.809629	0.000261	20.793798
1577.464196	-2.999000	3.471400	-10.409000	25.819638	0.000263	20.781567
1578.472961	-3.016600	3.471000	-10.470000	25.812485	0.000262	20.787658
1579.464963	-3.002000	3.471600	-10.421000	25.851040	0.000261	20.802206
1580.464491	-3.004100	3.471100	-10.427000	25.861549	0.000260	20.795219
1581.466152	-3.002900	3.470100	-10.420000	25.889497	0.000259	20.780620
1582.465250	-3.014600	3.469800	-10.459000	25.844904	0.000259	20.810267
1583.465612	-3.002800	3.470800	-10.421000	25.809380	0.000259	20.807298
1584.471018	-3.005400	3.469700	-10.427000	25.783591	0.000258	20.809843
1585.465653	-2.982800	3.471000	-10.352000	25.865995	0.000258	20.798737
1586.466613	-2.992600	3.470500	-10.385000	25.883859	0.000259	20.796294
1587.467474	-3.001800	3.468500	-10.410000	25.906910	0.000258	20.788157
1588.468029	-3.012900	3.468900	-10.451000	25.929018	0.000258	20.790452
1589.465343	-3.014600	3.468300	-10.455000	25.936718	0.000258	20.805774
1590.470281	-2.999300	3.468200	-10.401000	25.944916	0.000257	20.805475
1591.469520	-3.002600	3.468100	-10.412000	25.959473	0.000257	20.812988
1592.467644	-3.004000	3.465700	-10.410000	25.962578	0.000256	20.808520
1593.468726	-3.014700	3.466100	-10.449000	25.970948	0.000257	20.785162
1594.468297	-3.023600	3.466000	-10.478000	25.928769	0.000258	20.812487
1595.468769	-2.971000	3.466600	-10.298000	25.932944	0.000254	20.812414
1596.469769	-2.989800	3.465100	-10.359000	25.947201	0.000256	20.812512
1597.471118	-3.023300	3.464900	-10.475000	25.909120	0.000255	20.798912
1598.473548	-3.017600	3.465000	-10.456000	25.895308	0.000254	20.802580
1599.472965	-2.970400	3.465600	-10.293000	25.838770	0.000254	20.808372
1600.471661	-2.978900	3.465700	-10.323000	25.822547	0.000255	20.813412
1601.479024	-2.985500	3.463700	-10.339000	25.859438	0.000254	20.833875
1602.473199	-2.998900	3.465100	-10.390000	25.905220	0.000253	20.812063
1603.479869	-3.009400	3.462900	-10.419000	25.880454	0.000255	20.817055
1604.474876	-3.033100	3.462100	-10.500000	25.865450	0.000252	20.812414
1605.473568	-2.994000	3.463300	-10.369000	25.860457	0.000252	20.803131
1606.478649	-3.028700	3.461600	-10.483000	25.879437	0.000252	20.806550
1607.475422	-3.020300	3.461500	-10.454000	25.862595	0.000252	20.826615
1608.475513	-2.994300	3.462000	-10.365000	25.887461	0.000253	20.835473
1609.476913	-3.013800	3.461500	-10.431000	25.916948	0.000252	20.814836
1610.477513	-3.000500	3.461500	-10.386000	25.888132	0.000252	20.836622
1611.473872	-2.968200	3.462200	-10.276000	25.838000	0.000251	20.802857
1612.475853	-3.012100	3.460400	-10.422000	25.869724	0.000251	20.804854
1613.477905	-2.995900	3.460400	-10.366000	25.884082	0.000250	20.824493
1614.476648	-3.000600	3.459700	-10.380000	25.916724	0.000250	20.813188
1615.475605	-3.002800	3.458700	-10.384000	25.932274	0.000252	20.798939
1616.478914	-2.985000	3.459300	-10.325000	25.903508	0.000250	20.835473
1617.475526	-3.000800	3.459700	-10.381000	25.855662	0.000249	20.818703
1618.475376	-3.015000	3.458800	-10.426000	25.892603	0.000249	20.827363
1619.475846	-2.994600	3.458900	-10.357000	25.932920	0.000247	20.810968
1620.477401	-2.993400	3.459000	-10.353000	25.937492	0.000248	20.826466
1621.478289	-3.011000	3.458500	-10.413000	25.931927	0.000246	20.826091
1622.482405	-3.020800	3.457700	-10.444000	25.913742	0.000246	20.813986
1623.482230	-3.012900	3.457600	-10.417000	25.921841	0.000250	20.834450
1624.479982	-3.004100	3.455800	-10.380000	25.927654	0.000250	20.829385
1625.481425	-2.983000	3.457600	-10.312000	25.990499	0.000245	20.813339
1626.484592	-2.999100	3.455900	-10.363000	25.997205	0.000247	20.840463
1627.480456	-2.994600	3.456100	-10.350000	26.060965	0.000245	20.833401
1628.483365	-2.988200	3.456700	-10.327000	26.064295	0.000246	20.830583
1629.483488	-2.999300	3.454700	-10.360000	26.010843	0.000245	20.835674
1630.481863	-3.013400	3.454000	-10.408000	25.984239	0.000244	20.817955
1631.492886	-3.028500	3.454400	-10.461000	25.971696	0.000245	20.855612
1632.485811	-2.990300	3.454200	-10.328000	25.940322	0.000244	20.816033
1633.482670	-2.990700	3.454000	-10.329000	25.920676	0.000245	20.829487
1634.482822	-2.996800	3.454800	-10.353000	25.917769	0.000243	20.820877
1635.481891	-3.000400	3.454300	-10.362000	25.941938	0.000244	20.840889
1636.492030	-2.988300	3.453700	-10.319000	25.966058	0.000245	20.835724
1637.481647	-2.996000	3.452500	-10.343000	25.981632	0.000243	20.830508
1638.481576	-3.011800	3.450800	-10.391000	25.969039	0.000242	20.838719
1639.485451	-3.023400	3.452700	-10.438000	25.947206	0.000243	20.848078
1640.481386	-2.999900	3.451900	-10.355000	25.955354	0.000241	20.838721
1641.481496	-2.991300	3.453200	-10.329000	25.894022	0.000245	20.845858
1642.482443	-3.004000	3.452400	-10.370000	25.904109	0.000240	20.843662
1643.482375	-3.011400	3.450500	-10.390000	25.872435	0.000241	20.844561
1644.482450	-3.000400	3.450600	-10.352000	25.852711	0.000243	20.843238
1645.481701	-2.987100	3.451500	-10.309000	25.832862	0.000241	20.838946
1646.483219	-3.003500	3.449300	-10.359000	25.891666	0.000239	20.832586
1647.484638	-3.005500	3.449800	-10.367000	25.926541	0.000241	20.832534
1648.482808	-2.995300	3.449100	-10.330000	25.955258	0.000241	20.850477
1649.483829	-3.003300	3.449100	-10.357000	25.993983	0.000241	20.839597
1650.489676	-2.993200	3.447300	-10.318000	25.962811	0.000241	20.851428
1651.482139	-3.006500	3.446600	-10.362000	25.924480	0.000239	20.843739
1652.485381	-3.027300	3.447300	-10.435000	25.915887	0.000239	20.850279
1653.485581	-3.027200	3.446700	-10.432000	25.904634	0.000237	20.861259
1654.489582	-3.018800	3.446800	-10.404000	25.849683	0.000237	20.856317
1655.486136	-3.003000	3.447600	-10.353000	25.861681	0.000237	20.863628
1656.485475	-3.006100	3.446400	-10.360000	25.850107	0.000236	20.844416
1657.487695	-2.996100	3.447400	-10.328000	25.837363	0.000237	20.850579
1658.485694	-3.013000	3.447400	-10.386000	25.843002	0.000236	20.845813
1659.486823	-3.014600	3.445000	-10.384000	25.907591	0.000234	20.857117
1660.487313	-3.000200	3.446100	-10.338000	25.957819	0.000236	20.856369
1661.494876	-3.018500	3.444300	-10.396000	25.918521	0.000236	20.860037
1662.487690	-2.967800	3.445600	-10.225000	25.934394	0.000238	20.856069
1663.487827	-2.989900	3.444300	-10.297000	25.978760	0.000237	20.866027
1664.487048	-2.999300	3.443700	-10.328000	26.004220	0.000235	20.880226
1665.489158	-3.015100	3.443700	-10.382000	26.058167	0.000235	20.854771
1666.488873	-2.983400	3.444700	-10.276000	26.036933	0.000234	20.866152
1667.489007	-3.004100	3.443500	-10.344000	26.013584	0.000237	20.879676
1668.495438	-2.995200	3.444000	-10.315000	25.982535	0.000233	20.861286
1669.489148	-3.015800	3.442400	-10.380000	25.983331	0.000234	20.862086
1670.490440	-3.020800	3.441400	-10.396000	25.971086	0.000235	20.872541
1671.490234	-3.026900	3.440800	-10.413000	26.036858	0.000234	20.861810
1672.491061	-3.016100	3.440900	-10.377000	26.023348	0.000233	20.867203
1673.499894	-3.024000	3.440000	-10.402000	25.941527	0.000233	20.872243
1674.489532	-2.998500	3.441300	-10.318000	25.904166	0.000236	20.884969
1675.491552	-2.998900	3.440700	-10.318000	25.875202	0.000230	20.885269
1676.490280	-3.001400	3.440800	-10.326000	25.850435	0.000232	20.884098
1677.490863	-2.996900	3.440100	-10.309000	25.891998	0.000233	20.892659
1678.494730	-2.999700	3.439300	-10.316000	25.888866	0.000232	20.889513
1679.495348	-3.010100	3.439100	-10.351000	25.918503	0.000230	20.868554
1680.493129	-2.998000	3.438900	-10.309000	25.965973	0.000232	20.880680
1681.494698	-2.991900	3.439600	-10.290000	26.009814	0.000230	20.884423
1682.492792	-3.015500	3.437800	-10.366000	26.057480	0.000232	20.883951
1683.494969	-2.992200	3.438700	-10.289000	26.042826	0.000231	20.889615
1684.494407	-2.981600	3.438300	-10.251000	26.048441	0.000230	20.883404
1685.495505	-2.992400	3.437600	-10.286000	26.073030	0.000231	20.879661
1686.496226	-2.999300	3.436700	-10.307000	26.077799	0.000229	20.883030
1687.495865	-3.002500	3.436400	-10.318000	26.103631	0.000228	20.887647
1688.494693	-3.003000	3.436600	-10.319000	26.033888	0.000228	20.892489
1689.495646	-2.995600	3.435500	-10.291000	25.981950	0.000227	20.878240
1690.499658	-3.009200	3.435900	-10.339000	25.999039	0.000228	20.888771
1691.496858	-3.021900	3.435100	-10.380000	25.986594	0.000226	20.885277
1692.499920	-2.992700	3.434800	-10.279000	25.978895	0.000227	20.896981
1693.497198	-2.999000	3.433600	-10.296000	25.959421	0.000224	20.900649
1694.497749	-2.994800	3.434400	-10.284000	25.984983	0.000226	20.887925
1695.505685	-3.006400	3.434800	-10.326000	25.994074	0.000224	20.903696
1696.501882	-2.998300	3.434700	-10.297000	26.021345	0.000227	20.907387
1697.501093	-2.995100	3.433900	-10.284000	26.026985	0.000226	20.906415
1698.499223	-3.000200	3.434700	-10.304000	26.002694	0.000224	20.900502
1699.507122	-2.982200	3.435000	-10.243000	26.032128	0.000224	20.884084
1700.500770	-3.018800	3.432000	-10.359000	26.048596	0.000225	20.910110
1701.500688	-3.012100	3.432800	-10.339000	26.053215	0.000224	20.910484
1702.511421	-3.016600	3.432800	-10.355000	26.074229	0.000224	20.875176
1703.499387	-3.008200	3.432000	-10.323000	26.069782	0.000226	20.912430
1704.506229	-2.991500	3.430600	-10.262000	26.054706	0.000224	20.894913
1705.501268	-2.991300	3.432300	-10.266000	26.031210	0.000222	20.877945
1706.504311	-2.998900	3.431600	-10.291000	26.012557	0.000223	20.908514
1707.506155	-3.029400	3.429600	-10.388000	25.982327	0.000223	20.895214
1708.503322	-3.008600	3.430600	-10.320000	25.998596	0.000222	20.911557
1709.503553	-2.999000	3.430700	-10.287000	26.025844	0.000223	20.904320
1710.503706	-3.006500	3.429800	-10.310000	26.045565	0.000222	20.920814
1711.502819	-3.000100	3.428700	-10.286000	26.019509	0.000222	20.902223
1712.504997	-2.979700	3.430100	-10.219000	26.007340	0.000220	20.923660
1713.505177	-3.009100	3.428500	-10.316000	25.977807	0.000221	20.922438
1714.505629	-3.003800	3.427700	-10.295000	25.943205	0.000223	20.915651
1715.507868	-3.004200	3.428300	-10.298000	25.976837	0.000219	20.917670
1716.507351	-3.002800	3.427200	-10.290000	25.967868	0.000218	20.934736
1717.507558	-2.976700	3.427800	-10.202000	26.013228	0.000222	20.937160
1718.506565	-2.986500	3.426700	-10.233000	26.069260	0.000222	20.914751
1719.513658	-3.019200	3.426200	-10.344000	26.044821	0.000219	20.937134
1720.509112	-3.060200	3.425900	-10.482000	26.025721	0.000220	20.937384
1721.507594	-2.969400	3.426800	-10.174000	26.017449	0.000220	20.912954
1722.507696	-2.993600	3.426200	-10.256000	25.975321	0.000219	20.911407
1723.510494	-2.991900	3.426000	-10.250000	26.031931	0.000218	20.938407
1724.508383	-2.991500	3.425000	-10.245000	26.081183	0.000218	20.911083
1725.509407	-2.993100	3.424100	-10.247000	26.079343	0.000217	20.913028
1726.509351	-2.994600	3.424400	-10.254000	26.035902	0.000218	20.908262
1727.507089	-2.999400	3.422800	-10.266000	25.970452	0.000218	20.911731
1728.510034	-3.012900	3.423600	-10.314000	25.992336	0.000217	20.928500
1729.509813	-2.991000	3.422800	-10.236000	26.027409	0.000218	20.931969
1730.512473	-2.994500	3.423500	-10.250000	26.007960	0.000214	20.918119
1731.508589	-3.033300	3.421300	-10.377000	25.990548	0.000216	20.917695
1732.511134	-3.002700	3.422200	-10.275000	25.964269	0.000214	20.906941
1733.514024	-2.985200	3.422100	-10.215000	25.974354	0.000214	20.916125
1734.511186	-2.992500	3.421900	-10.239000	25.985854	0.000214	20.919143
1735.513835	-2.995600	3.422200	-10.251000	25.982774	0.000215	20.921265
1736.511792	-2.981400	3.421400	-10.199000	25.994995	0.000213	20.922637
1737.511005	-2.997700	3.420500	-10.253000	26.041717	0.000214	20.925007
1738.510414	-2.984100	3.421300	-10.208000	26.007565	0.000214	20.899706
1739.511827	-2.998600	3.420600	-10.256000	26.012012	0.000214	20.929301
1740.513930	-2.995800	3.420100	-10.245000	26.020779	0.000212	20.918671
1741.513031	-2.972100	3.421300	-10.167000	26.004808	0.000212	20.914953
1742.511296	-2.976700	3.420300	-10.180000	26.037446	0.000211	20.891323
1743.512296	-2.992400	3.419800	-10.232000	26.068297	0.000211	20.882017
1744.512997	-2.984600	3.419400	-10.205000	26.098150	0.000213	20.901580
1745.514149	-3.001000	3.418900	-10.259000	26.070805	0.000211	20.900656
1746.512442	-2.994900	3.418200	-10.236000	26.080715	0.000211	20.898286
1747.514598	-2.994100	3.416900	-10.230000	26.130338	0.000209	20.902628
1748.513123	-2.993300	3.417800	-10.229000	26.083099	0.000209	20.894518
1749.514785	-3.036300	3.416700	-10.373000	26.112184	0.000209	20.887233
1750.515592	-3.041900	3.415100	-10.386000	26.118541	0.000209	20.896465
1751.514566	-2.997800	3.418500	-10.246000	26.126364	0.000210	20.878248
1752.515917	-2.997100	3.417300	-10.241000	26.098722	0.000209	20.917799
1753.520911	-2.988800	3.416800	-10.211000	26.064819	0.000210	20.897962
1754.516212	-2.993800	3.415100	-10.224000	25.986876	0.000208	20.915903
1755.515923	-2.999800	3.414500	-10.243000	25.959700	0.000209	20.909464
1756.519911	-3.000400	3.415500	-10.247000	25.955679	0.000208	20.883615
1757.518148	-3.013400	3.414000	-10.287000	25.978231	0.000209	20.896314
1758.515448	-3.008100	3.414900	-10.271000	25.988914	0.000207	20.903727
1759.520623	-3.009500	3.413000	-10.270000	26.008039	0.000207	20.893545
1760.517780	-3.007100	3.414700	-10.267000	26.032430	0.000206	20.911885
1761.516721	-3.010100	3.413100	-10.273000	26.007989	0.000207	20.890176
1762.522756	-3.027100	3.412300	-10.329000	26.048972	0.000204	20.882989
1763.519395	-3.023500	3.412800	-10.317000	26.058410	0.000205	20.880144
1764.517416	-3.012900	3.411200	-10.277000	26.067651	0.000205	20.871886
1765.518032	-3.023200	3.412200	-10.316000	26.063726	0.000207	20.877425
1766.519619	-2.992800	3.413500	-10.215000	26.086700	0.000204	20.891024
1767.522813	-2.998100	3.411700	-10.228000	26.101478	0.000205	20.887855
1768.520461	-2.994400	3.411700	-10.214000	26.148095	0.000204	20.875428
1769.521171	-3.008200	3.410900	-10.259000	26.149758	0.000203	20.893693
1770.521048	-2.994100	3.412100	-10.215000	26.122963	0.000201	20.880046
1771.521984	-2.996100	3.409400	-10.214000	26.082827	0.000202	20.889503
1772.523426	-2.997100	3.410300	-10.220000	26.069861	0.000203	20.864149
1773.527560	-2.988500	3.409400	-10.188000	26.092040	0.000203	20.877425
1774.523565	-2.992000	3.409700	-10.201000	26.129418	0.000203	20.868515
1775.525124	-2.998500	3.409000	-10.221000	26.132995	0.000202	20.865946
1776.525880	-2.986900	3.409800	-10.184000	26.114864	0.000199	20.874279
1777.524946	-3.007300	3.408900	-10.251000	26.146432	0.000200	20.879921
1778.524540	-2.994700	3.408000	-10.205000	26.158776	0.000202	20.866720
1779.530070	-2.976900	3.407600	-10.143000	26.190887	0.000201	20.866271
1780.525656	-2.999900	3.406700	-10.219000	26.201865	0.000201	20.863552
1781.537883	-2.998500	3.406300	-10.213000	26.167444	0.000203	20.864999
1782.525121	-2.995500	3.407000	-10.204000	26.211227	0.000203	20.871537
1783.524442	-3.021200	3.405500	-10.287000	26.185697	0.000201	20.856315
1784.525446	-2.971900	3.406300	-10.122000	26.163097	0.000200	20.861580
1785.531816	-3.012800	3.405500	-10.259000	26.138435	0.000199	20.874730
1786.530421	-3.009000	3.404700	-10.243000	26.117300	0.000198	20.853969
1787.529255	-2.984600	3.404900	-10.162000	26.102249	0.000197	20.866821
1788.527209	-2.986900	3.405700	-10.172000	26.121622	0.000197	20.865423
1789.528222	-2.975700	3.404900	-10.131000	26.111588	0.000199	20.856764
1790.540495	-2.994300	3.404400	-10.193000	26.098250	0.000198	20.839570
1791.529554	-3.007200	3.403700	-10.235000	26.112457	0.000196	20.866171
1792.528195	-2.965700	3.405400	-10.098000	26.114392	0.000199	20.863849
1793.528722	-2.984900	3.402700	-10.157000	26.146357	0.000196	20.861829
1794.529862	-2.982800	3.404900	-10.155000	26.150430	0.000196	20.873506
1795.530913	-2.978600	3.403600	-10.137000	26.161555	0.000194	20.861453
1796.529945	-2.992800	3.402200	-10.181000	26.151870	0.000196	20.877324
1797.529875	-3.013900	3.400000	-10.247000	26.124774	0.000195	20.844409
1798.528883	-3.022900	3.401000	-10.280000	26.160834	0.000193	20.855987
1799.529341	-3.000300	3.400700	-10.202000	26.158177	0.000191	20.854266
1800.530861	-2.984000	3.401500	-10.149000	26.127256	0.000196	20.857808
1801.529465	-2.996500	3.399800	-10.187000	26.106842	0.000195	20.846306
1802.529459	-3.014100	3.401400	-10.251000	26.071298	0.000195	20.837619
1803.535480	-3.004100	3.399700	-10.212000	26.096261	0.000194	20.863648
1804.530569	-2.983600	3.401000	-10.145000	26.098419	0.000193	20.866291
1805.533350	-3.003900	3.399000	-10.209000	26.077457	0.000193	20.852342
1806.529569	-3.010400	3.398400	-10.229000	26.109969	0.000193	20.840913
1807.534446	-3.011800	3.398900	-10.236000	26.079890	0.000193	20.848623
1808.533022	-2.992800	3.399200	-10.172000	26.085305	0.000191	20.853589
1809.532804	-2.998700	3.398800	-10.191000	26.102888	0.000192	20.864618
1810.533504	-2.988800	3.398100	-10.156000	26.129092	0.000193	20.841162
1811.532255	-3.004400	3.398000	-10.208000	26.140367	0.000192	20.839215
1812.533800	-3.011900	3.397300	-10.231000	26.160458	0.000192	20.845178
1813.530385	-3.000200	3.396700	-10.190000	26.218199	0.000191	20.843931
1814.540785	-3.014100	3.396600	-10.236000	26.167511	0.000191	20.844205
1815.549335	-3.004900	3.396400	-10.205000	26.174292	0.000189	20.846277
1816.534022	-3.010300	3.396800	-10.225000	26.207892	0.000190	20.844005
1817.534969	-3.005200	3.396200	-10.206000	26.216956	0.000190	20.833200
1818.534774	-3.023400	3.395700	-10.265000	26.203672	0.000189	20.853040
1819.533115	-3.011500	3.394300	-10.221000	26.252469	0.000189	20.849920
1820.537282	-2.990600	3.395500	-10.154000	26.232878	0.000188	20.837345
1821.535469	-3.009800	3.393600	-10.212000	26.195029	0.000187	20.841985
1822.538172	-3.005800	3.394400	-10.202000	26.169773	0.000189	20.839365
1823.537251	-2.991000	3.393300	-10.148000	26.131104	0.000188	20.835123
1824.539232	-2.975700	3.393200	-10.096000	26.210502	0.000189	20.840938
1825.535103	-2.985200	3.394200	-10.131000	26.200643	0.000186	20.865169
1826.537221	-3.002000	3.391200	-10.179000	26.230991	0.000187	20.834501
1827.534657	-3.002300	3.391700	-10.182000	26.216834	0.000187	20.836395
1828.538764	-3.001800	3.392900	-10.184000	26.146726	0.000188	20.844182
1829.536281	-3.018300	3.391000	-10.234000	26.173300	0.000186	20.849548
1830.536054	-3.009500	3.390300	-10.202000	26.217555	0.000186	20.831430
1831.538700	-2.999800	3.391900	-10.174000	26.189963	0.000185	20.855386
1832.535592	-3.015700	3.391200	-10.226000	26.230939	0.000185	20.851517
1833.536931	-2.985700	3.391700	-10.125000	26.164135	0.000186	20.832753
1834.541561	-3.000500	3.389700	-10.169000	26.111384	0.000184	20.846603
1835.535222	-3.022300	3.389800	-10.244000	26.076859	0.000182	20.828034
1836.536273	-3.010200	3.389900	-10.204000	26.090049	0.000186	20.840339
1837.535263	-2.999800	3.388800	-10.164000	26.126782	0.000183	20.839789
1838.536292	-3.034500	3.387200	-10.277000	26.158149	0.000183	20.847125
1839.538214	-2.978800	3.389600	-10.096000	26.229449	0.000183	20.851916
1840.536625	-2.999000	3.388200	-10.160000	26.250831	0.000181	20.836420
1841.537478	-2.994600	3.387400	-10.143000	26.199822	0.000180	20.839215
1842.537048	-2.984100	3.388200	-10.110000	26.188895	0.000180	20.823493
1843.544024	-2.992100	3.387100	-10.134000	26.167511	0.000182	20.846102
1844.538678	-2.994300	3.387200	-10.141000	26.133908	0.000181	20.859751
1845.536830	-2.995800	3.386300	-10.144000	26.139224	0.000181	20.827635
1846.543287	-3.005700	3.386300	-10.177000	26.163663	0.000181	20.821373
1847.542445	-2.996300	3.386600	-10.146000	26.173126	0.000179	20.834200
1848.538169	-2.992500	3.386100	-10.132000	26.173868	0.000179	20.827834
1849.540088	-2.982900	3.386400	-10.101000	26.149805	0.000182	20.848224
1850.545606	-3.007300	3.384500	-10.177000	26.149258	0.000181	20.830131
1851.540274	-3.015100	3.384800	-10.205000	26.135251	0.000180	20.829333
1852.539929	-2.988100	3.386200	-10.118000	26.115207	0.000180	20.833849
1853.542885	-3.005700	3.384200	-10.171000	26.122930	0.000181	20.816479
1854.540120	-3.017600	3.383100	-10.208000	26.123007	0.000177	20.833626
1855.538878	-3.009300	3.383300	-10.181000	26.158968	0.000178	20.830879
1856.539311	-3.030200	3.383300	-10.251000	26.184870	0.000176	20.815656
1857.544030	-2.992900	3.384000	-10.127000	26.221303	0.000178	20.801532
1858.541452	-2.973600	3.384300	-10.063000	26.213901	0.000180	20.823491
1859.541900	-2.987800	3.383500	-10.109000	26.236774	0.000178	20.843157
1860.541427	-2.991100	3.383300	-10.119000	26.200517	0.000177	20.826163
1861.543402	-3.013300	3.380200	-10.185000	26.189838	0.000178	20.816855
1862.542295	-3.001400	3.381700	-10.149000	26.220956	0.000176	20.818253
1863.544014	-3.011600	3.380900	-10.181000	26.235955	0.000177	20.826213
1864.546398	-2.996700	3.381800	-10.133000	26.221305	0.000176	20.810543
1865.542187	-3.001800	3.380800	-10.148000	26.224705	0.000174	20.823443
1866.541647	-3.018900	3.379000	-10.200000	26.161624	0.000174	20.828807
1867.544002	-3.016800	3.379000	-10.192000	26.151195	0.000176	20.815957
1868.543300	-3.008500	3.379600	-10.166000	26.187901	0.000175	20.823443
1869.544899	-2.994800	3.379100	-10.119000	26.187753	0.000172	20.816657
1870.548778	-2.975300	3.380700	-10.058000	26.146452	0.000175	20.824467
1871.544913	-3.030800	3.376800	-10.233000	26.160234	0.000174	20.831677
1872.543833	-3.009400	3.378100	-10.164000	26.162470	0.000173	20.812114
1873.549181	-3.015000	3.376400	-10.178000	26.210425	0.000172	20.801033
1874.544025	-2.989600	3.379200	-10.101000	26.209110	0.000173	20.790702
1875.544998	-2.990300	3.378800	-10.102000	26.230268	0.000169	20.824291
1876.546538	-2.997200	3.378200	-10.125000	26.232652	0.000172	20.811989
1877.546994	-2.970000	3.376400	-10.027000	26.222371	0.000170	20.801657
1878.544397	-3.002500	3.375300	-10.132000	26.256393	0.000171	20.811665
1879.545926	-2.978000	3.376300	-10.054000	26.269677	0.000171	20.803203
1880.544549	-3.001900	3.374500	-10.129000	26.335855	0.000171	20.836045
1881.548347	-3.010700	3.375900	-10.163000	26.277575	0.000167	20.804028
1882.545493	-3.010700	3.375400	-10.162000	26.276732	0.000167	20.806973
1883.549186	-2.989700	3.375000	-10.090000	26.306256	0.000167	20.817204
1884.545613	-3.004300	3.374700	-10.138000	26.340498	0.000170	20.807521
1885.546688	-2.992500	3.375100	-10.099000	26.330892	0.000168	20.793599
1886.547627	-2.999600	3.374600	-10.121000	26.346758	0.000166	20.810493
1887.545203	-2.991700	3.373300	-10.091000	26.285100	0.000168	20.799736
1888.549260	-2.986700	3.374000	-10.076000	26.289248	0.000170	20.808172
1889.545387	-2.993600	3.374000	-10.100000	26.260195	0.000167	20.807898
1890.546154	-2.978300	3.374100	-10.048000	26.284108	0.000165	20.794472
1891.547900	-2.997200	3.373200	-10.109000	26.290391	0.000168	20.822123
1892.549078	-2.998700	3.373000	-10.114000	26.294737	0.000167	20.800412
1893.546322	-2.996900	3.371500	-10.103000	26.304024	0.000165	20.803581
1894.545851	-3.023300	3.370600	-10.188000	26.340826	0.000164	20.788884
1895.545552	-3.006900	3.371200	-10.137000	26.322301	0.000166	20.792078
1896.548899	-2.974700	3.371400	-10.028000	26.280659	0.000165	20.798593
1897.547902	-3.029900	3.369800	-10.208000	26.231961	0.000166	20.810346
1898.551147	-3.016400	3.369100	-10.161000	26.221134	0.000164	20.821751
1899.546981	-2.995000	3.369400	-10.091000	26.227765	0.000164	20.802810
1900.548078	-3.016900	3.369800	-10.165000	26.237947	0.000164	20.797396
1901.550659	-3.002600	3.369700	-10.116000	26.231340	0.000164	20.789333
1902.549317	-2.975100	3.370200	-10.026000	26.227887	0.000163	20.796769
1903.550314	-2.987400	3.368700	-10.063000	26.240579	0.000165	20.798144
1904.550602	-3.010900	3.368100	-10.139000	26.215372	0.000161	20.792253
1905.550181	-2.989200	3.368300	-10.068000	26.212094	0.000163	20.827365
1906.556660	-2.982300	3.367600	-10.042000	26.262383	0.000161	20.794925
1907.550079	-2.996800	3.368100	-10.093000	26.291958	0.000163	20.808999
1908.550212	-2.983300	3.367600	-10.046000	26.339758	0.000161	20.805828
1909.554728	-2.990100	3.367000	-10.067000	26.327666	0.000162	20.810271
1910.555573	-2.982800	3.366400	-10.041000	26.324215	0.000158	20.781673
1911.557166	-3.011300	3.365400	-10.133000	26.365359	0.000159	20.795522
1912.563627	-2.992900	3.366700	-10.075000	26.388227	0.000162	20.803807
1913.551453	-2.997000	3.365200	-10.085000	26.434906	0.000159	20.793350
1914.554023	-3.006200	3.365000	-10.115000	26.443100	0.000160	20.782620
1915.553516	-2.994700	3.365900	-10.079000	26.397240	0.000161	20.773511
1916.553361	-3.027300	3.364300	-10.184000	26.360392	0.000159	20.800962
1917.552669	-3.023400	3.364400	-10.171000	26.353068	0.000159	20.788859
1918.552548	-2.988600	3.364600	-10.054000	26.390908	0.000157	20.788483
1919.555142	-3.013100	3.363700	-10.134000	26.391007	0.000159	20.783842
1920.552427	-2.959900	3.363700	-9.954500	26.398107	0.000158	20.784339
1921.551996	-2.992200	3.363400	-10.063000	26.347255	0.000158	20.774956
1922.554817	-2.994500	3.361800	-10.066000	26.317186	0.000155	20.784092
1923.555396	-3.023900	3.361600	-10.164000	26.352717	0.000156	20.781394
1924.554203	-3.022200	3.362900	-10.163000	26.370869	0.000155	20.792051
1925.557057	-3.018100	3.361600	-10.144000	26.392223	0.000156	20.784116
1926.554021	-2.992200	3.361500	-10.057000	26.440241	0.000156	20.767892
1927.554853	-3.010700	3.360300	-10.115000	26.433688	0.000158	20.785014
1928.553696	-3.008700	3.361400	-10.113000	26.415464	0.000156	20.775232
1929.558838	-3.006500	3.359300	-10.099000	26.465295	0.000154	20.801609
1930.559694	-2.997000	3.361300	-10.073000	26.459063	0.000154	20.792026
1931.560431	-3.020700	3.359200	-10.146000	26.437040	0.000154	20.777003
1932.559794	-2.996400	3.358200	-10.062000	26.483046	0.000152	20.778200
1933.555913	-3.002500	3.359100	-10.085000	26.439175	0.000154	20.775829
1934.561883	-2.995900	3.358600	-10.061000	26.415190	0.000156	20.779698
1935.557177	-2.996600	3.358400	-10.063000	26.403300	0.000154	20.771066
1936.554739	-2.999100	3.358300	-10.071000	26.379113	0.000151	20.784216
1937.557357	-2.998200	3.359100	-10.071000	26.383731	0.000154	20.776055
1938.558170	-2.974600	3.358800	-9.989500	26.422094	0.000151	20.763877
1939.557126	-3.015000	3.356900	-10.121000	26.402034	0.000152	20.778329
1940.557460	-2.978400	3.357300	-9.999000	26.390837	0.000152	20.772765
1941.558296	-3.019200	3.357400	-10.136000	26.435775	0.000151	20.777154
1942.561256	-2.989600	3.355800	-10.031000	26.396820	0.000151	20.769769
1943.558059	-3.007800	3.356800	-10.096000	26.399177	0.000151	20.770716
1944.556800	-3.020700	3.354400	-10.132000	26.403674	0.000149	20.784719
1945.558586	-3.001300	3.355200	-10.069000	26.308820	0.000149	20.793703
1946.559251	-3.017800	3.354900	-10.123000	26.311304	0.000148	20.765853
1947.558171	-3.006000	3.355800	-10.086000	26.331267	0.000148	20.760785
1948.562262	-3.011600	3.353800	-10.099000	26.322800	0.000148	20.783096
1949.565908	-2.991600	3.354100	-10.033000	26.313836	0.000147	20.775984
1950.561190	-3.023400	3.353500	-10.139000	26.363349	0.000148	20.782597
1951.563277	-3.006800	3.353200	-10.081000	26.376164	0.000147	20.764181
1952.563568	-2.982300	3.353000	-9.998800	26.427734	0.000146	20.779977
1953.561107	-2.991100	3.352100	-10.026000	26.479750	0.000147	20.777258
1954.563926	-2.977400	3.353000	-9.982300	26.428230	0.000147	20.756768
1955.560827	-2.985800	3.352600	-10.009000	26.390986	0.000147	20.766751
1956.561516	-2.994400	3.351600	-10.035000	26.343659	0.000146	20.776558
1957.560682	-3.003200	3.351800	-10.066000	26.344579	0.000144	20.785544
1958.565594	-2.997300	3.351800	-10.046000	26.351084	0.000146	20.757468
1959.561933	-2.981800	3.351300	-9.992500	26.358161	0.000145	20.752252
1960.562852	-3.007500	3.350600	-10.076000	26.400621	0.000146	20.783073
1961.563618	-2.989600	3.351200	-10.018000	26.412689	0.000146	20.776236
1962.563900	-2.998800	3.349700	-10.044000	26.404199	0.000144	20.764384
1963.564129	-2.987800	3.349800	-10.008000	26.410008	0.000146	20.769274
1964.563871	-2.977200	3.348800	-9.969600	26.396327	0.000144	20.757420
1965.565282	-2.982100	3.349700	-9.988200	26.366233	0.000144	20.761313
1966.562337	-3.021000	3.347800	-10.112000	26.412938	0.000145	20.778383
1967.563142	-2.989600	3.349900	-10.014000	26.444720	0.000142	20.762911
1968.562885	-2.983100	3.348500	-9.987000	26.485911	0.000142	20.766855
1969.568746	-2.981900	3.347800	-9.981600	26.475533	0.000141	20.761639
1970.565756	-2.990700	3.347100	-10.009000	26.431439	0.000141	20.778011
1971.564331	-3.011500	3.347000	-10.079000	26.441570	0.000144	20.754528
1972.563794	-2.998000	3.347300	-10.034000	26.456464	0.000142	20.767603
1973.565434	-3.018200	3.345900	-10.098000	26.479604	0.000142	20.783275
1974.566524	-3.015200	3.346300	-10.089000	26.468037	0.000141	20.763588
1975.566192	-3.014800	3.346100	-10.087000	26.471215	0.000139	20.770101
1976.564596	-3.006300	3.346200	-10.059000	26.526605	0.000142	20.744696
1977.568950	-3.020000	3.345000	-10.101000	26.555354	0.000139	20.765060
1978.565596	-3.004300	3.345000	-10.049000	26.569580	0.000138	20.770351
1979.565987	-2.964400	3.346300	-9.919000	26.582687	0.000140	20.760294
1980.566832	-2.990100	3.344700	-10.000000	26.503911	0.000137	20.765982
1981.566058	-3.009800	3.344400	-10.065000	26.485988	0.000138	20.770725
1982.568534	-3.008300	3.344200	-10.059000	26.476724	0.000136	20.767103
1983.567224	-3.003700	3.343500	-10.042000	26.483058	0.000139	20.773470
1984.567569	-3.011900	3.343800	-10.071000	26.440030	0.000138	20.771473
1985.569017	-3.000100	3.343400	-10.030000	26.437945	0.000137	20.769378
1986.568997	-2.998400	3.341900	-10.020000	26.492814	0.000137	20.756724
1987.569492	-3.003500	3.341900	-10.037000	26.552773	0.000137	20.763414
1988.567267	-3.021700	3.341400	-10.096000	26.620596	0.000136	20.745770
1989.571291	-2.992500	3.342000	-9.999500	26.639288	0.000136	20.765035
1990.570080	-3.000000	3.341400	-10.023000	26.640903	0.000136	20.771874
1991.575650	-3.025600	3.340900	-10.108000	26.667016	0.000136	20.776315
1992.569689	-2.984500	3.341200	-9.970500	26.595373	0.000135	20.754079
1993.573300	-2.989300	3.342100	-9.989200	26.600836	0.000134	20.776641
1994.570186	-2.992600	3.339600	-9.992700	26.564738	0.000135	20.752208
1995.572189	-3.002800	3.339600	-10.027000	26.549696	0.000136	20.753208
1996.577531	-3.000800	3.338800	-10.018000	26.563523	0.000133	20.779910
1997.572199	-3.000800	3.338300	-10.016000	26.557910	0.000134	20.762888
1998.575545	-3.009200	3.338700	-10.046000	26.570845	0.000133	20.766882
1999.576587	-3.022500	3.338400	-10.089000	26.579213	0.000132	20.777664
2000.575036	-2.998600	3.337900	-10.008000	26.609721	0.000133	20.758071
2001.575870	-2.978600	3.338200	-9.942900	26.633057	0.000133	20.774892
2002.575770	-3.011700	3.337100	-10.049000	26.621315	0.000131	20.748863
2003.577359	-3.011600	3.336600	-10.048000	26.645991	0.000132	20.779834
2004.574721	-2.989000	3.337300	-9.974500	26.671637	0.000131	20.780486
2005.576581	-3.013800	3.337500	-10.058000	26.680149	0.000132	20.761068
2006.577077	-2.992300	3.337100	-9.985400	26.618213	0.000131	20.764711
2007.576682	-2.987300	3.336100	-9.965300	26.564416	0.000131	20.768480
2008.577841	-3.006800	3.336000	-10.030000	26.538323	0.000129	20.768329
2009.579374	-3.018300	3.335600	-10.066000	26.580701	0.000130	20.761616
2010.579971	-3.019000	3.334700	-10.067000	26.608854	0.000131	20.768580
2011.578632	-3.014900	3.334300	-10.052000	26.615086	0.000129	20.763464
2012.582158	-3.016600	3.333700	-10.055000	26.580481	0.000128	20.772300
2013.577968	-2.995700	3.332800	-9.983100	26.569482	0.000127	20.782581
2014.583292	-3.006400	3.333800	-10.022000	26.521766	0.000127	20.772074
2015.582408	-3.003400	3.333200	-10.010000	26.524521	0.000128	20.775793
2016.579179	-2.999700	3.331500	-9.992600	26.487529	0.000129	20.770852
2017.582057	-2.987800	3.332200	-9.954500	26.555776	0.000126	20.759794
2018.582938	-2.996100	3.333000	-9.985200	26.536191	0.000128	20.789894
2019.578514	-2.991600	3.331300	-9.965200	26.524226	0.000126	20.774547
2020.582593	-2.998200	3.331100	-9.986500	26.542597	0.000126	20.776419
2021.581675	-3.006600	3.331200	-10.015000	26.537407	0.000126	20.778314
2022.583520	-2.986800	3.331000	-9.948300	26.524473	0.000126	20.799926
2023.587954	-2.987600	3.330500	-9.949500	26.551855	0.000124	20.762965
2024.584123	-3.024600	3.330400	-10.072000	26.575292	0.000125	20.767558
2025.584745	-3.015800	3.329500	-10.040000	26.575566	0.000126	20.760721
2026.586205	-3.011600	3.329200	-10.025000	26.621516	0.000124	20.781309
2027.585718	-3.007900	3.328500	-10.011000	26.582887	0.000124	20.786573
2028.582414	-2.980900	3.330200	-9.926400	26.508659	0.000124	20.769806
2029.587765	-3.013200	3.328600	-10.027000	26.545405	0.000125	20.787302
2030.585568	-3.008600	3.327700	-10.010000	26.622086	0.000122	20.781881
2031.585203	-3.022400	3.328700	-10.060000	26.700953	0.000122	20.772026
2032.585882	-2.994400	3.328000	-9.963800	26.761370	0.000123	20.789146
2033.586187	-2.987200	3.326800	-9.937100	26.772689	0.000122	20.782982
2034.585309	-2.979800	3.327500	-9.914300	26.737193	0.000121	20.791392
2035.588208	-3.007100	3.325700	-9.999700	26.706266	0.000125	20.788747
2036.588402	-3.015500	3.326600	-10.030000	26.699189	0.000120	20.756502
2037.591221	-3.022400	3.324900	-10.048000	26.612952	0.000121	20.778863
2038.591134	-2.956400	3.327200	-9.835300	26.566752	0.000121	20.791690
2039.591077	-2.985900	3.326400	-9.931600	26.550589	0.000118	20.770228
2040.591978	-2.976700	3.325600	-9.898400	26.640730	0.000122	20.781184
2041.591694	-2.989400	3.324500	-9.937000	26.657412	0.000120	20.787523
2042.590780	-2.979800	3.325800	-9.909300	26.722226	0.000120	20.771602
2043.591692	-2.975300	3.325600	-9.893600	26.701325	0.000117	20.797056
2044.592680	-2.994200	3.324300	-9.952400	26.687249	0.000117	20.787172
2045.593175	-3.015000	3.324000	-10.021000	26.689684	0.000123	20.801948
2046.595201	-2.973500	3.324300	-9.883400	26.668435	0.000118	20.786750
2047.594772	-2.983700	3.323900	-9.916600	26.701250	0.000118	20.788921
2048.594842	-3.012600	3.322600	-10.009000	26.711651	0.000119	20.809808
2049.598065	-3.002500	3.321900	-9.972800	26.680176	0.000118	20.801873
2050.593561	-2.971000	3.324300	-9.875500	26.661385	0.000116	20.812380
2051.593281	-2.998800	3.321400	-9.959300	26.622809	0.000119	20.792565
2052.592595	-3.011000	3.320100	-9.996000	26.690926	0.000117	20.806516
2053.598749	-2.996200	3.322300	-9.953100	26.712843	0.000116	20.785877
2054.593292	-2.974200	3.321500	-9.877500	26.720589	0.000115	20.788448
2055.594082	-3.001400	3.320300	-9.964100	26.687799	0.000115	20.799105
2056.593688	-2.989900	3.320500	-9.928000	26.667271	0.000116	20.796486
2057.594917	-3.003300	3.320000	-9.969700	26.670250	0.000114	20.793317
2058.594357	-3.007600	3.318000	-9.978500	26.672559	0.000114	20.819819
2059.594695	-2.983500	3.319700	-9.902600	26.653098	0.000115	20.770858
2060.596819	-2.988300	3.320100	-9.920000	26.628572	0.000115	20.797885
2061.593215	-2.972900	3.319300	-9.867300	26.636590	0.000112	20.808317
2062.594131	-2.951900	3.320000	-9.799300	26.645182	0.000113	20.814583
2063.594950	-2.983400	3.318400	-9.899200	26.673778	0.000112	20.815355
2064.594766	-3.015300	3.316200	-9.999000	26.656699	0.000111	20.798660
2065.595348	-2.982700	3.317200	-9.892300	26.666705	0.000112	20.811090
2066.594327	-3.010400	3.315600	-9.980900	26.700464	0.000111	20.825114
2067.594923	-2.997900	3.315300	-9.937900	26.702402	0.000110	20.800036
2068.598426	-2.979100	3.316600	-9.879600	26.718860	0.000112	20.809943
2069.596290	-2.993000	3.315000	-9.920700	26.739089	0.000109	20.805626
2070.596734	-2.990900	3.315100	-9.914300	26.812933	0.000111	20.805901
2071.601205	-2.988400	3.313900	-9.901800	26.790720	0.000111	20.813440
2072.597462	-3.012600	3.314400	-9.984200	26.754060	0.000110	20.807875
2073.601460	-3.017400	3.314000	-9.998900	26.718637	0.000111	20.835323
2074.597618	-2.991000	3.313800	-9.910800	26.767490	0.000109	20.818058
2075.598076	-2.996800	3.313600	-9.928800	26.782136	0.000109	20.822352
2076.601429	-2.998000	3.313700	-9.933500	26.804349	0.000108	20.811021
2077.599425	-3.001700	3.313600	-9.945800	26.818172	0.000107	20.808324
2078.600011	-3.014300	3.313100	-9.985200	26.872132	0.000108	20.816587
2079.601347	-3.001500	3.311800	-9.939100	26.834357	0.000107	20.835503
2080.599880	-3.002500	3.310900	-9.940100	26.807650	0.000109	20.834728
2081.599581	-2.997400	3.311300	-9.924300	26.813708	0.000108	20.812370
2082.599463	-2.992700	3.311500	-9.909600	26.788439	0.000108	20.796922
2083.599580	-2.992300	3.311900	-9.908700	26.772031	0.000106	20.845857
2084.602015	-2.986400	3.310400	-9.885400	26.794570	0.000107	20.814465
2085.611391	-2.978900	3.311500	-9.863900	26.834854	0.000104	20.817036
2086.600941	-3.002900	3.309800	-9.938300	26.845575	0.000106	20.815014
2087.604025	-3.013100	3.310000	-9.971800	26.865853	0.000104	20.828290
2088.606389	-2.989100	3.311400	-9.897300	26.892285	0.000107	20.827367
2089.606122	-3.008400	3.309900	-9.956600	26.836044	0.000103	20.807802
2090.603348	-3.023300	3.309500	-10.004000	26.817628	0.000103	20.803984
2091.603059	-2.998900	3.309500	-9.923800	26.791219	0.000104	20.824372
2092.602991	-2.999900	3.308300	-9.923000	26.790103	0.000105	20.832259
2093.605734	-2.965600	3.308400	-9.810200	26.828202	0.000103	20.837374
2094.608337	-3.035600	3.305900	-10.035000	26.813062	0.000103	20.827841
2095.609789	-2.982100	3.308000	-9.863700	26.790625	0.000104	20.815714
2096.608598	-2.997300	3.306400	-9.909400	26.829939	0.000103	20.834379
2097.607799	-2.999700	3.305600	-9.914900	26.849645	0.000102	20.825744
2098.608044	-3.008500	3.305600	-9.943900	26.845353	0.000102	20.837550
2099.605760	-3.002800	3.305100	-9.923400	26.824652	0.000102	20.825270
2100.608165	-2.993700	3.304300	-9.891200	26.831503	0.000102	20.862977
2101.606694	-2.983100	3.305400	-9.859500	26.879503	0.000103	20.851498
2102.606636	-2.987400	3.303900	-9.869700	26.944625	0.000102	20.827367
2103.610499	-2.982700	3.304500	-9.855200	26.930431	0.000100	20.837750
2104.610273	-2.990400	3.305000	-9.882600	26.888512	9.902376E-5	20.847755
2105.608054	-3.002600	3.303700	-9.918400	26.906803	9.899076E-5	20.823474
2106.607026	-3.018800	3.303600	-9.971800	26.892162	9.899076E-5	20.834356
2107.607077	-3.007300	3.304600	-9.937000	26.844462	9.800069E-5	20.832386
2108.609896	-3.030200	3.301300	-10.002000	26.826617	9.661458E-5	20.842418
2109.607597	-3.005700	3.302100	-9.924200	26.813585	9.572352E-5	20.860609
2110.610566	-2.999900	3.301500	-9.902200	26.816290	9.978282E-5	20.836303
2111.607437	-2.990500	3.301700	-9.873300	26.826567	9.846272E-5	20.839049
2112.607100	-2.979800	3.302500	-9.839200	26.861957	9.829771E-5	20.847133
2113.613526	-3.007300	3.300700	-9.924900	26.873300	9.753865E-5	20.822502
2114.609208	-3.016100	3.300300	-9.952900	26.931896	9.717563E-5	20.843016
2115.611234	-2.990400	3.302000	-9.873300	26.931104	9.588853E-5	20.858814
2116.610598	-3.024100	3.299300	-9.976300	26.962447	9.674659E-5	20.837702
2117.617334	-2.993900	3.299700	-9.878100	26.970837	9.796768E-5	20.827647
2118.609261	-2.993300	3.300900	-9.880300	26.929243	9.727463E-5	20.864529
2119.609241	-2.980400	3.299600	-9.833400	26.899709	9.664759E-5	20.846211
2120.612030	-2.999500	3.299200	-9.894900	26.905940	9.605354E-5	20.837779
2121.610474	-3.006400	3.297900	-9.914100	26.904528	9.450243E-5	20.849634
2122.610128	-2.994200	3.297700	-9.873000	26.889089	9.364437E-5	20.856870
2123.611787	-3.004600	3.297000	-9.905900	26.903188	9.166422E-5	20.837856
2124.613113	-2.999200	3.296900	-9.887700	26.897826	9.552551E-5	20.882723
2125.613595	-2.980700	3.297000	-9.826500	26.897207	9.476645E-5	20.860765
2126.618086	-2.996300	3.296000	-9.874900	26.946496	9.582253E-5	20.851533
2127.612163	-2.975200	3.296900	-9.808400	26.931630	9.400739E-5	20.845593
2128.612926	-3.018700	3.295700	-9.948200	26.916466	9.331434E-5	20.844569
2129.614126	-3.007600	3.294700	-9.907500	26.910662	9.288531E-5	20.871448
2130.612384	-2.983600	3.295800	-9.832500	26.900560	9.453543E-5	20.851809
2131.616812	-3.027100	3.294100	-9.970800	26.865912	9.298432E-5	20.861540
2132.612540	-3.015600	3.295400	-9.937200	26.890533	9.153221E-5	20.873967
2133.612915	-3.001300	3.294600	-9.887900	26.935900	9.159822E-5	20.865059
2134.611798	-3.004300	3.293000	-9.892400	26.958311	9.295132E-5	20.865310
2135.611732	-3.011900	3.293700	-9.919900	26.979454	9.291831E-5	20.871872
2136.611780	-2.988400	3.293600	-9.842100	26.940815	9.140020E-5	20.861467
2137.615432	-3.012600	3.290700	-9.912100	26.970199	8.981609E-5	20.862565
2138.612282	-2.993300	3.291700	-9.851800	27.039559	9.024512E-5	20.858822
2139.613398	-3.005100	3.292800	-9.894100	27.014942	9.011311E-5	20.832171
2140.614039	-3.026200	3.290700	-9.957900	27.028592	8.971708E-5	20.863914
2141.612854	-3.016300	3.290700	-9.925200	27.024151	9.044313E-5	20.877940
2142.616744	-3.003000	3.290700	-9.881100	27.027452	8.783594E-5	20.865138
2143.612538	-3.020100	3.290700	-9.938000	27.009485	8.809996E-5	20.866036
2144.614279	-2.989300	3.290500	-9.835600	27.049935	8.866100E-5	20.870205
2145.614926	-2.994700	3.289600	-9.850600	27.087728	8.948606E-5	20.859376
2146.614322	-2.991100	3.288800	-9.836300	27.129886	8.704389E-5	20.863369
2147.614798	-2.982900	3.289300	-9.810900	27.140704	8.707689E-5	20.873301
2148.614434	-3.012200	3.287400	-9.901500	27.149909	8.836398E-5	20.877816
2149.614223	-3.013600	3.288200	-9.908000	27.092320	8.710989E-5	20.888174
2150.615056	-3.005100	3.288700	-9.882200	27.073014	8.602081E-5	20.882509
2151.615680	-2.974400	3.288100	-9.779300	27.065126	8.466771E-5	20.894015
2152.615542	-3.015500	3.286400	-9.908900	27.057136	8.796795E-5	20.895937
2153.618605	-2.982900	3.288300	-9.807000	27.057904	8.417268E-5	20.880590
2154.616228	-3.013600	3.285700	-9.900200	27.032991	8.479972E-5	20.863597
2155.617129	-2.998200	3.286400	-9.852100	27.033165	8.562478E-5	20.891271
2156.617996	-3.009200	3.286300	-9.888600	27.040736	8.433769E-5	20.885609
2157.617144	-3.026600	3.285000	-9.941500	27.072622	8.321561E-5	20.875951
2158.621026	-2.975300	3.285000	-9.772700	27.131828	8.305059E-5	20.865322
2159.619113	-2.987300	3.285000	-9.812100	27.106544	8.291858E-5	20.892048
2160.618835	-2.995600	3.285400	-9.840800	27.100712	8.456870E-5	20.898036
2161.619586	-3.030300	3.283400	-9.948900	27.112326	8.463471E-5	20.860407
2162.622565	-2.996100	3.284500	-9.839400	27.082749	8.354563E-5	20.871911
2163.625905	-2.992200	3.282800	-9.821900	27.026197	8.219253E-5	20.909391
2164.626769	-2.999100	3.282900	-9.844600	27.036696	8.328161E-5	20.881072
2165.621998	-2.995000	3.283000	-9.831400	27.063049	8.222553E-5	20.900461
2166.622221	-3.006000	3.281900	-9.863400	27.074090	8.077343E-5	20.889280
2167.623416	-3.004700	3.281900	-9.860200	26.997041	8.219253E-5	20.898564
2168.624096	-3.017500	3.280800	-9.898600	26.983566	8.470071E-5	20.892601
2169.627491	-2.998700	3.281600	-9.839700	27.009798	8.100444E-5	20.893376
2170.623766	-2.993200	3.279900	-9.815600	27.090101	8.031139E-5	20.899692
2171.623273	-2.990500	3.281500	-9.812400	27.095484	7.975035E-5	20.891356
2172.626192	-2.997700	3.280800	-9.833400	27.128191	8.173050E-5	20.908602
2173.623656	-3.011200	3.278900	-9.872200	27.194413	8.189551E-5	20.916885
2174.626391	-2.992300	3.279300	-9.812000	27.175010	8.021239E-5	20.913491
2175.622805	-2.988500	3.278500	-9.796800	27.191757	7.836425E-5	20.877707
2176.622293	-3.009200	3.278100	-9.863400	27.126405	7.859527E-5	20.901590
2177.622116	-3.012700	3.277400	-9.873500	27.124517	8.077343E-5	20.908700
2178.631788	-3.008900	3.278300	-9.863000	27.170842	7.760520E-5	20.915463
2179.623208	-3.017400	3.277200	-9.888100	27.100153	7.707716E-5	20.912171
2180.627108	-2.996600	3.277700	-9.820400	27.136455	7.938733E-5	20.896525
2181.623381	-3.000300	3.277500	-9.832300	27.119854	7.777021E-5	20.907330
2182.623631	-2.988000	3.277400	-9.792200	27.120872	7.734118E-5	20.896974
2183.627480	-2.989000	3.275900	-9.790800	27.115763	7.704415E-5	20.911275
2184.626378	-3.012100	3.275800	-9.866200	27.105268	7.664813E-5	20.919686
2185.628788	-3.018500	3.274400	-9.882800	27.110282	7.810023E-5	20.930417
2186.630948	-3.003300	3.274000	-9.832200	27.084250	7.727517E-5	20.902342
2187.625909	-3.021200	3.273600	-9.889500	27.117800	7.645011E-5	20.916168
2188.627550	-3.008800	3.273200	-9.847600	27.200870	7.466798E-5	20.908207
2189.627743	-3.004200	3.273100	-9.831400	27.192758	7.522902E-5	20.922332
2190.630205	-2.995100	3.274900	-9.808000	27.206279	7.608708E-5	20.918863
2191.628777	-2.974100	3.272600	-9.732300	27.160280	7.377692E-5	20.928545
2192.627407	-2.987300	3.273700	-9.777900	27.196853	7.509701E-5	20.911753
2193.627481	-2.985600	3.271500	-9.766200	27.170107	7.278684E-5	20.930369
2194.628394	-2.990900	3.271300	-9.782300	27.169660	7.417294E-5	20.930868
2195.626490	-2.992000	3.271600	-9.787700	27.160753	7.308386E-5	20.925229
2196.630410	-3.007300	3.270700	-9.835300	27.171000	7.394193E-5	20.923207
2197.627709	-2.999800	3.271300	-9.811800	27.208391	7.516302E-5	20.932365
2198.627602	-2.992900	3.269700	-9.784800	27.286293	7.090571E-5	20.937229
2199.632481	-2.993800	3.270000	-9.789000	27.318697	7.305086E-5	20.920515
2200.628624	-3.022700	3.267400	-9.875400	27.294606	7.215980E-5	20.926626
2201.633411	-2.989600	3.269100	-9.772900	27.312619	7.166476E-5	20.927676
2202.629699	-3.007100	3.268300	-9.826600	27.284883	7.308386E-5	20.900253
2203.628006	-2.999700	3.267300	-9.799500	27.260124	7.443696E-5	20.922288
2204.630203	-3.007700	3.268100	-9.828500	27.249010	7.308386E-5	20.914903
2205.629333	-2.998000	3.267900	-9.796900	27.223086	7.100471E-5	20.930076
2206.631713	-3.007700	3.266400	-9.823300	27.242561	7.113672E-5	20.936388
2207.632741	-2.978700	3.266500	-9.728900	27.296994	7.100471E-5	20.930450
2208.629992	-3.013100	3.265500	-9.838800	27.316891	6.895856E-5	20.925809
2209.629886	-3.009000	3.264900	-9.823300	27.319073	7.047667E-5	20.921841
2210.635004	-2.984700	3.266800	-9.749100	27.355716	7.031166E-5	20.921718
2211.630036	-3.006700	3.263600	-9.811700	27.384121	6.879355E-5	20.924688
2212.633558	-2.989800	3.264800	-9.760100	27.324187	6.747345E-5	20.912288
2213.629921	-2.975600	3.263800	-9.710500	27.320763	6.717643E-5	20.916904
2214.628918	-2.978900	3.263900	-9.721600	27.318730	6.786948E-5	20.913437
2215.632493	-3.018800	3.262700	-9.847900	27.340535	6.734144E-5	20.930153
2216.630417	-3.015400	3.262300	-9.834700	27.380329	6.895856E-5	20.912340
2217.634562	-2.986000	3.263600	-9.744400	27.430389	6.671440E-5	20.911966
2218.631639	-3.005900	3.262500	-9.805700	27.433690	6.555931E-5	20.895848
2219.631326	-3.026200	3.261600	-9.868600	27.417863	6.720943E-5	20.896047
2220.634840	-3.009000	3.261200	-9.812300	27.470699	6.664839E-5	20.902735
2221.633556	-2.998800	3.260800	-9.777700	27.488832	6.707742E-5	20.900116
2222.635485	-2.994000	3.261800	-9.764900	27.449814	6.866154E-5	20.889311
2223.633950	-2.998600	3.261000	-9.777200	27.406057	6.750646E-5	20.896498
2224.634730	-2.986300	3.259600	-9.732900	27.418261	6.555931E-5	20.893603
2225.633595	-3.024000	3.258600	-9.853000	27.420170	6.483326E-5	20.908324
2226.633375	-2.989700	3.258800	-9.741300	27.405089	6.569132E-5	20.895999
2227.634198	-2.990700	3.259200	-9.746100	27.375149	6.489927E-5	20.894802
2228.636279	-2.973000	3.261200	-9.694500	27.352921	6.664839E-5	20.911321
2229.636282	-3.005700	3.259000	-9.794300	27.436049	6.410721E-5	20.874989
2230.634639	-2.979800	3.258900	-9.709100	27.403952	6.400820E-5	20.879208
2231.639677	-3.016300	3.256500	-9.821600	27.376216	6.301813E-5	20.898720
2232.635193	-2.997000	3.258400	-9.765000	27.366889	6.364517E-5	20.895976
2233.638667	-3.013900	3.256700	-9.814000	27.418066	6.315014E-5	20.899570
2234.634775	-2.994600	3.256700	-9.750800	27.445303	6.298513E-5	20.880506
2235.635572	-3.011800	3.253700	-9.798300	27.406979	6.371118E-5	20.877513
2236.634662	-3.002200	3.255600	-9.773700	27.422879	6.120299E-5	20.897300
2237.635769	-2.989800	3.255600	-9.732500	27.451631	6.150002E-5	20.875019
2238.638132	-3.011600	3.254900	-9.801000	27.509448	6.308413E-5	20.874392
2239.636876	-2.996600	3.252600	-9.746400	27.519494	6.216006E-5	20.883551
2240.637425	-2.976500	3.256100	-9.690900	27.570687	6.282011E-5	20.876738
2241.637908	-3.002600	3.252700	-9.766400	27.568233	6.272111E-5	20.891337
2242.636395	-3.000600	3.252900	-9.759600	27.574334	6.070796E-5	20.864287
2243.642819	-2.987500	3.251900	-9.714300	27.553253	6.083997E-5	20.881955
2244.641507	-2.996000	3.252200	-9.743000	27.498635	6.179704E-5	20.864937
2245.637029	-2.994200	3.250900	-9.732100	27.498957	6.041094E-5	20.879484
2246.637240	-2.999100	3.250200	-9.746900	27.501015	6.074096E-5	20.883450
2247.637973	-2.999600	3.248500	-9.743300	27.456392	5.856280E-5	20.884075
2248.641486	-2.998000	3.250600	-9.744600	27.401001	5.984990E-5	20.884301
2249.641801	-3.009100	3.248700	-9.773700	27.426427	5.925585E-5	20.893284
2250.638340	-2.989300	3.249200	-9.712400	27.505306	5.968488E-5	20.870699
2251.635606	-2.985900	3.251400	-9.707200	27.507316	5.895883E-5	20.875092
2252.638316	-2.991900	3.248700	-9.719100	27.463411	6.054295E-5	20.880706
2253.637338	-2.984300	3.247700	-9.690700	27.479931	5.882682E-5	20.875990
2254.638474	-3.001600	3.246900	-9.745400	27.466910	5.932186E-5	20.874269
2255.648915	-2.981900	3.249000	-9.687400	27.450886	5.902484E-5	20.859571
2256.636997	-2.988900	3.247500	-9.706100	27.426625	5.763873E-5	20.861716
2257.637225	-2.987100	3.247900	-9.701000	27.486158	5.961888E-5	20.872771
2258.638085	-2.970300	3.246800	-9.643300	27.542312	5.938786E-5	20.851035
2259.638141	-2.979200	3.245200	-9.667100	27.507438	5.829878E-5	20.869526
2260.646344	-2.990700	3.244100	-9.701600	27.496204	5.833178E-5	20.862965
2261.637816	-2.976000	3.245800	-9.658700	27.517908	5.697869E-5	20.868680
2262.641561	-3.006500	3.244500	-9.753400	27.561040	5.763873E-5	20.862290
2263.638291	-3.015700	3.243300	-9.780100	27.595169	5.833178E-5	20.858224
2264.644104	-2.997000	3.245300	-9.725500	27.640950	5.645065E-5	20.863986
2265.640794	-2.998600	3.243400	-9.725100	27.678400	5.565859E-5	20.853781
2266.641470	-2.998000	3.242100	-9.719300	27.669771	5.836479E-5	20.854581
2267.642159	-2.990900	3.242500	-9.697700	27.661239	5.588961E-5	20.853109
2268.641089	-3.006800	3.241800	-9.746700	27.603229	5.625263E-5	20.851636
2269.637965	-3.015800	3.241600	-9.775300	27.516272	5.506455E-5	20.866560
2270.639011	-3.011000	3.240900	-9.757500	27.492633	5.575760E-5	20.851787
2271.647031	-2.982400	3.240300	-9.662700	27.523563	5.364544E-5	20.871050
2272.638927	-3.002100	3.238900	-9.722700	27.448110	5.321641E-5	20.862468
2273.640195	-2.997900	3.240100	-9.712600	27.469119	5.219333E-5	20.857052
2274.644716	-3.010400	3.238700	-9.748200	27.539860	5.513055E-5	20.861843
2275.642904	-2.996000	3.240200	-9.707000	27.554644	5.295239E-5	20.847795
2276.645033	-2.980000	3.238800	-9.650800	27.638972	5.463551E-5	20.856781
2277.643380	-3.010100	3.237000	-9.742500	27.692814	5.684668E-5	20.854061
2278.644497	-2.986200	3.238600	-9.670500	27.634060	5.371145E-5	20.844727
2279.647289	-3.009300	3.236900	-9.739500	27.556331	5.239135E-5	20.856605
2280.642575	-2.997200	3.237300	-9.701800	27.528973	5.252336E-5	20.830977
2281.647195	-2.988800	3.236700	-9.672800	27.566823	5.255636E-5	20.849144
2282.643128	-3.000000	3.235000	-9.704400	27.562283	5.133527E-5	20.865438
2283.641862	-3.001500	3.235600	-9.710500	27.597255	5.150028E-5	20.848944
2284.643270	-3.001200	3.237100	-9.714700	27.614319	5.159929E-5	20.854734
2285.643303	-3.015100	3.233700	-9.748900	27.639194	5.037820E-5	20.844677
2286.654020	-2.998000	3.234100	-9.694900	27.688100	5.140128E-5	20.852162
2287.649287	-2.997600	3.232800	-9.690300	27.642466	4.971815E-5	20.838486
2288.645391	-2.998100	3.233200	-9.691700	27.646806	5.120326E-5	20.829103
2289.645549	-2.986300	3.233400	-9.655600	27.678304	5.159929E-5	20.840884
2290.647381	-2.997500	3.233100	-9.690100	27.676270	4.942113E-5	20.841207
2291.646719	-3.012100	3.231800	-9.733800	27.593583	5.130227E-5	20.849042
2292.649501	-3.000100	3.231800	-9.694900	27.565831	4.882709E-5	20.850991
2293.651482	-2.996300	3.231600	-9.681600	27.560720	4.988317E-5	20.852012
2294.647344	-2.995900	3.230600	-9.677700	27.528278	4.981716E-5	20.841656
2295.649638	-2.989200	3.231700	-9.659800	27.502879	4.942113E-5	20.852612
2296.648604	-2.976900	3.229800	-9.613800	27.501884	4.882709E-5	20.841654
2297.650813	-2.996500	3.228900	-9.674300	27.552262	4.793602E-5	20.848244
2298.649225	-2.991400	3.228800	-9.657700	27.613177	4.856307E-5	20.826559
2299.649826	-2.982600	3.229600	-9.632000	27.688968	4.994917E-5	20.843553
2300.650455	-2.970500	3.230900	-9.596800	27.716321	4.777101E-5	20.842630
2301.651921	-2.982300	3.230400	-9.632100	27.653181	4.628590E-5	20.845949
2302.650771	-2.996000	3.227300	-9.668100	27.634853	4.559285E-5	20.836990
2303.651434	-2.988900	3.227000	-9.644500	27.622006	4.787002E-5	20.837339
2304.651355	-3.011600	3.224700	-9.710700	27.689489	4.744099E-5	20.845500
2305.652801	-2.967600	3.228000	-9.578200	27.736036	4.585687E-5	20.837339
2306.654121	-3.008300	3.224200	-9.698900	27.686190	4.668193E-5	20.845500
2307.654646	-3.003200	3.226900	-9.690200	27.683658	4.582387E-5	20.824934
2308.654733	-2.999800	3.224900	-9.673500	27.616476	4.387672E-5	20.843154
2309.653228	-3.001300	3.223800	-9.674800	27.588499	4.522982E-5	20.821168
2310.652325	-2.988800	3.223900	-9.633900	27.631951	4.328268E-5	20.850665
2311.655507	-3.001100	3.223600	-9.672700	27.677931	4.443777E-5	20.833870
2312.651536	-3.012200	3.222300	-9.705200	27.650451	4.661593E-5	20.846521
2313.660054	-3.001400	3.222900	-9.672400	27.629199	4.539484E-5	20.830352
2314.654722	-3.025200	3.222800	-9.749100	27.654767	4.532883E-5	20.831424
2315.654772	-3.003900	3.221500	-9.676200	27.722669	4.341469E-5	20.823413
2316.657417	-2.995300	3.220500	-9.645900	27.738043	4.275464E-5	20.836040
2317.657776	-2.992100	3.220000	-9.633300	27.720116	4.255663E-5	20.822741
2318.655773	-2.989700	3.219700	-9.624800	27.716818	4.318367E-5	20.845025
2319.662718	-3.005700	3.220500	-9.679500	27.714437	4.209459E-5	20.816552
2320.655336	-3.003200	3.219800	-9.668600	27.706701	3.981743E-5	20.850492
2321.655565	-2.978900	3.220100	-9.591900	27.687554	4.288665E-5	20.824113
2322.656152	-2.989300	3.218400	-9.620200	27.640309	4.173157E-5	20.812134
2323.656345	-2.959400	3.218900	-9.525100	27.639194	4.179757E-5	20.818599
2324.657063	-2.973100	3.217200	-9.563800	27.698987	4.216060E-5	20.821868
2325.655608	-2.995700	3.216800	-9.636100	27.668880	4.130254E-5	20.818599
2326.655037	-3.016100	3.216500	-9.699400	27.673742	4.291965E-5	20.836293
2327.657003	-2.999900	3.215900	-9.647200	27.688274	3.965241E-5	20.831002
2328.655837	-2.989200	3.217000	-9.614400	27.721702	4.014745E-5	20.822914
2329.657868	-2.981400	3.215200	-9.584600	27.731897	3.760626E-5	20.806148
2330.655568	-2.968100	3.215500	-9.542800	27.714933	3.915738E-5	20.829379
2331.655342	-2.981600	3.214600	-9.583000	27.735688	3.813430E-5	20.832721
2332.657703	-2.993500	3.214100	-9.619800	27.725075	4.074149E-5	20.826783
2333.655610	-2.985600	3.214200	-9.595000	27.770332	4.120353E-5	20.840084
2334.657109	-2.986800	3.212400	-9.594400	27.819503	4.166556E-5	20.819395
2335.654605	-2.990800	3.214300	-9.612000	27.865774	3.869534E-5	20.814754
2336.656033	-2.997200	3.211400	-9.624200	27.878840	4.041147E-5	20.830275
2337.657640	-3.008900	3.211100	-9.661300	27.819753	4.014745E-5	20.826758
2338.655195	-2.991300	3.211700	-9.606900	27.792526	3.978442E-5	20.815478
2339.658467	-2.999700	3.209400	-9.626800	27.794633	4.212760E-5	20.814279
2340.656969	-2.983700	3.210300	-9.577900	27.806586	4.235861E-5	20.831050
2341.655000	-2.975800	3.208700	-9.547700	27.837656	3.942140E-5	20.835292
2342.655536	-2.990200	3.209200	-9.594100	27.817496	3.810130E-5	20.807418
2343.656042	-2.992500	3.209000	-9.602300	27.736854	3.747425E-5	20.816826
2344.656534	-3.002700	3.207500	-9.630400	27.723339	3.816731E-5	20.809390
2345.660198	-3.015000	3.207500	-9.669500	27.703450	4.011445E-5	20.819721
2346.656313	-3.017500	3.206700	-9.675200	27.727578	3.681421E-5	20.816974
2347.656292	-2.992800	3.209100	-9.603500	27.759124	3.862934E-5	20.794192
2348.659068	-3.004200	3.205200	-9.628100	27.768175	3.928939E-5	20.817525
2349.656464	-3.012400	3.204800	-9.652800	27.759545	3.876135E-5	20.799357
2350.658430	-3.023100	3.204900	-9.687800	27.836095	3.994944E-5	20.832773
2351.657777	-3.011500	3.204200	-9.648800	27.886577	3.892636E-5	20.827631
2352.657599	-3.005800	3.205500	-9.634900	27.893770	3.820031E-5	20.801680
2353.658840	-2.998600	3.206200	-9.613100	27.911598	3.803530E-5	20.817726
2354.659083	-3.013800	3.201500	-9.648300	27.947226	3.856333E-5	20.801904
2355.660899	-3.002600	3.203000	-9.616000	27.890126	3.767227E-5	20.818875
2356.661306	-2.996600	3.201000	-9.590800	27.893696	3.803530E-5	20.785484
2357.659472	-3.029100	3.201800	-9.697400	27.913233	3.803530E-5	20.823639
2358.660653	-3.029500	3.200900	-9.696100	27.879388	3.648418E-5	20.808067
2359.660985	-2.995900	3.200200	-9.586900	27.933639	3.671520E-5	20.828057
2360.661055	-3.012300	3.199400	-9.636100	27.969690	3.922338E-5	20.799384
2361.662062	-2.991600	3.199000	-9.568900	27.987167	3.823331E-5	20.818873
2362.662058	-2.987300	3.199600	-9.557200	27.955286	3.608815E-5	20.825189
2363.661227	-2.994000	3.198900	-9.576100	27.980797	3.661619E-5	20.813883
2364.664420	-3.007600	3.198300	-9.617900	28.022797	3.589014E-5	20.811589
2365.661414	-3.013100	3.196200	-9.629600	28.037796	3.796929E-5	20.783539
2366.669263	-2.974200	3.198000	-9.510700	27.928881	3.635217E-5	20.799560
2367.662100	-2.991900	3.196500	-9.562900	27.927418	3.486706E-5	20.796665
2368.661797	-2.985300	3.196800	-9.541800	27.928111	3.757326E-5	20.810165
2369.663497	-2.998400	3.194600	-9.577800	27.945120	3.582413E-5	20.802154
2370.663648	-3.019700	3.194100	-9.644500	27.908402	3.440503E-5	20.814035
2371.667587	-3.007700	3.193300	-9.604000	27.913905	3.404200E-5	20.794445
2372.669280	-3.023100	3.193700	-9.653900	27.879438	3.384399E-5	20.802428
2373.666115	-3.005300	3.193200	-9.595400	27.862627	3.466905E-5	20.786931
2374.670498	-2.981900	3.193800	-9.522900	27.841377	3.407501E-5	20.800631
2375.667356	-2.984500	3.192500	-9.527500	27.848519	3.549411E-5	20.792646
2376.670072	-3.006200	3.193900	-9.600900	27.861834	3.179784E-5	20.795616
2377.668592	-2.970900	3.191700	-9.481500	27.918766	3.414101E-5	20.800285
2378.668603	-3.010500	3.190400	-9.603800	27.832924	3.120379E-5	20.784537
2379.671598	-3.002900	3.190700	-9.580800	27.848446	3.272191E-5	20.787357
2380.669079	-2.998200	3.189800	-9.563500	27.880305	3.179784E-5	20.798559
2381.670142	-3.006700	3.188300	-9.585200	27.929175	3.374498E-5	20.805072
2382.671298	-2.975900	3.189300	-9.490500	27.950127	3.136881E-5	20.789651
2383.671034	-3.004100	3.187700	-9.575600	27.905224	3.192985E-5	20.778121
2384.670998	-2.982900	3.186800	-9.505300	27.852163	3.080777E-5	20.789676
2385.672880	-3.000200	3.185700	-9.556200	27.806289	3.024672E-5	20.806096
2386.671631	-2.991800	3.186400	-9.531900	27.877751	3.136881E-5	20.795040
2387.676205	-3.008300	3.185600	-9.582100	27.927488	3.206186E-5	20.786304
2388.672059	-2.991600	3.184600	-9.526100	27.962622	3.351396E-5	20.783735
2389.673309	-2.998200	3.184900	-9.548400	28.003999	3.166583E-5	20.785555
2390.671975	-3.026200	3.183300	-9.632100	28.039751	3.018072E-5	20.785981
2391.672129	-3.014700	3.183300	-9.595900	28.006701	3.080777E-5	20.784007
2392.673819	-3.015000	3.183400	-9.596300	28.027724	3.021372E-5	20.798530
2393.670306	-3.009500	3.182000	-9.575500	27.962049	3.100578E-5	20.802125
2394.670782	-3.000900	3.182000	-9.548200	27.937900	3.064275E-5	20.795836
2395.672929	-2.987700	3.180500	-9.501300	27.922974	2.872861E-5	20.794564
2396.673818	-2.990200	3.181000	-9.510700	27.928256	3.031273E-5	20.801776
2397.677543	-3.000700	3.179500	-9.540100	27.992023	2.886062E-5	20.773500
2398.675311	-3.005800	3.177900	-9.551200	28.061516	2.820057E-5	20.782286
2399.675958	-2.991500	3.179700	-9.511200	28.078919	2.925665E-5	20.786528
2400.675690	-2.990100	3.177000	-9.498400	28.046889	2.945467E-5	20.786054
2401.674706	-3.013700	3.179200	-9.581000	28.051402	2.595641E-5	20.767837
2402.675100	-3.003800	3.175800	-9.538100	28.038732	2.813457E-5	20.781636
2403.675362	-3.023000	3.175300	-9.598200	28.081523	2.853060E-5	20.770657
2404.677058	-3.012300	3.174900	-9.563000	28.043173	2.829958E-5	20.770933
2405.675253	-3.004500	3.174800	-9.537400	27.994281	2.559338E-5	20.788575
2406.678505	-3.016800	3.174200	-9.574700	27.936613	2.780454E-5	20.775100
2407.675295	-3.021300	3.172900	-9.585400	27.908472	2.668246E-5	20.780915
2408.679562	-3.002100	3.172400	-9.522200	27.955110	2.486733E-5	20.793243
2409.677797	-2.999200	3.172700	-9.514700	28.002613	2.849760E-5	20.779418
2410.678154	-3.027900	3.171000	-9.600700	28.010845	2.730951E-5	20.775376
2411.678810	-2.989900	3.170800	-9.478600	28.051826	2.787055E-5	20.778221
2412.677333	-2.993100	3.169900	-9.486900	28.122800	2.608842E-5	20.768113
2413.681759	-3.017500	3.169500	-9.563800	28.151234	2.641844E-5	20.784410
2414.683085	-3.001300	3.169400	-9.511000	28.157432	2.671546E-5	20.767889
2415.679692	-2.993800	3.168300	-9.484100	28.105993	2.635244E-5	20.771583
2416.684194	-3.012700	3.168000	-9.542900	28.058816	2.377825E-5	20.761076
2417.681502	-3.006900	3.167000	-9.521500	28.015730	2.595641E-5	20.755162
2418.680489	-3.025000	3.165100	-9.572900	28.055642	2.457031E-5	20.766415
2419.684882	-3.017300	3.166700	-9.554200	28.112786	2.519735E-5	20.758506
2420.681987	-3.015400	3.164900	-9.541900	28.082938	2.351423E-5	20.762124
2421.682421	-3.004000	3.164200	-9.504800	28.075377	2.433929E-5	20.758780
2422.681022	-3.025800	3.163000	-9.569700	28.044586	2.503234E-5	20.770933
2423.681270	-3.019200	3.162300	-9.547000	28.094811	2.424028E-5	20.765542
2424.681886	-2.981700	3.163100	-9.430200	28.140250	2.595641E-5	20.758653
2425.682736	-2.980100	3.161800	-9.421800	28.154282	2.552738E-5	20.760451
2426.682618	-2.987200	3.161600	-9.442300	28.178551	2.404227E-5	20.772556
2427.684088	-3.001900	3.159700	-9.483500	28.152201	2.348123E-5	20.764520
2428.682894	-2.970000	3.159300	-9.382000	28.069303	2.163309E-5	20.739863
2429.684700	-3.016300	3.157000	-9.521700	28.064396	2.364624E-5	20.774753
2430.686081	-3.002600	3.156600	-9.476700	28.067469	2.400927E-5	20.760777
2431.685374	-3.011200	3.156400	-9.503300	28.163903	2.222714E-5	20.738368
2432.685486	-2.991100	3.157200	-9.441900	28.149622	2.226014E-5	20.755285
2433.689336	-3.004000	3.156100	-9.480000	28.103787	2.311820E-5	20.770310
2434.683613	-3.019800	3.155500	-9.528000	28.045629	2.424028E-5	20.773406
2435.688590	-2.979800	3.154100	-9.397700	28.005763	2.242515E-5	20.760777
2436.685046	-3.014300	3.153400	-9.505000	28.025696	2.160009E-5	20.767566
2437.686883	-3.005200	3.152500	-9.473300	28.052473	2.120406E-5	20.762277
2438.690369	-2.975400	3.151500	-9.375900	28.041639	2.318421E-5	20.770338
2439.685148	-3.012100	3.149700	-9.486000	28.069627	2.268917E-5	20.745405
2440.689160	-2.986500	3.150000	-9.406900	28.060727	2.077503E-5	20.765370
2441.686749	-3.027800	3.148200	-9.531300	28.064521	2.292019E-5	20.757335
2442.687141	-2.994700	3.148800	-9.429300	28.068289	2.179810E-5	20.759231
2443.687562	-2.979000	3.148200	-9.378000	28.031847	2.051101E-5	20.735349
2444.689161	-3.008000	3.146000	-9.462300	28.080413	2.163309E-5	20.754840
2445.688953	-2.994600	3.147200	-9.423800	28.099922	2.034600E-5	20.755513
2446.686989	-3.019300	3.145300	-9.496100	28.111054	2.047801E-5	20.751546
2447.688989	-2.976800	3.144900	-9.360700	28.119657	1.988396E-5	20.775854
2448.689709	-3.004600	3.144200	-9.446500	28.175605	2.094004E-5	20.763426
2449.689888	-3.008600	3.141700	-9.450900	28.129373	1.859687E-5	20.755290
2450.689840	-3.002900	3.142100	-9.434400	28.137158	1.843186E-5	20.765972
2451.691321	-2.986100	3.142700	-9.382900	28.160511	1.806883E-5	20.762929
2452.690044	-3.000900	3.140500	-9.423100	28.138820	1.856387E-5	20.756739
2453.689301	-2.989900	3.140600	-9.389000	28.133540	1.856387E-5	20.755217
2454.693094	-2.993300	3.140000	-9.397300	28.172706	1.727677E-5	20.755292
2455.689858	-2.996800	3.138800	-9.405200	28.170304	1.985096E-5	20.755718
2456.693334	-3.004300	3.138200	-9.426900	28.224909	1.889389E-5	20.727714
2457.690251	-2.989100	3.137000	-9.375600	28.250044	1.892689E-5	20.756814
2458.690132	-2.988100	3.135800	-9.367800	28.214824	1.704575E-5	20.768771
2459.690200	-3.006900	3.135600	-9.427700	28.204214	1.796982E-5	20.768520
2460.694417	-2.960800	3.134400	-9.279700	28.110662	1.754079E-5	20.760635
2461.694880	-2.987800	3.135300	-9.366700	28.090334	1.688074E-5	20.747283
2462.695995	-3.009200	3.131700	-9.422600	28.062742	1.625370E-5	20.747958
2463.693720	-3.009800	3.131000	-9.422900	28.099532	1.539563E-5	20.741369
2464.694723	-3.006800	3.132600	-9.417500	28.142221	1.483459E-5	20.758741
2465.697561	-3.012400	3.130100	-9.428400	28.112421	1.565965E-5	20.759087
2466.695403	-2.974800	3.130200	-9.311000	28.104217	1.803583E-5	20.749880
2467.697402	-2.998100	3.128100	-9.377300	28.135303	1.727677E-5	20.758415
2468.697090	-2.984900	3.128400	-9.337000	28.241521	1.787081E-5	20.737328
2469.696087	-3.029200	3.125200	-9.465700	28.274933	1.651772E-5	20.752950
2470.695599	-2.991000	3.125100	-9.346000	28.242463	1.463658E-5	20.739698
2471.697155	-2.996900	3.124200	-9.361700	28.183915	1.338248E-5	20.766102
2472.701290	-3.017100	3.124800	-9.426800	28.232277	1.450457E-5	20.753625
2473.697107	-3.004300	3.122900	-9.380700	28.270249	1.536263E-5	20.756294
2474.699315	-3.001800	3.122500	-9.371900	28.278898	1.645171E-5	20.755994
2475.698337	-3.004900	3.120600	-9.375900	28.324206	1.354750E-5	20.752775
2476.697659	-3.010500	3.120700	-9.393900	28.267473	1.367951E-5	20.748758
2477.698913	-3.014000	3.119800	-9.402200	28.190658	1.430655E-5	20.767674
2478.700507	-3.016400	3.118300	-9.404900	28.125041	1.292045E-5	20.749031
2479.699865	-3.015900	3.117300	-9.400400	28.126977	1.549464E-5	20.766154
2480.699053	-2.991500	3.116900	-9.323700	28.126110	1.348149E-5	20.762910
2481.703012	-3.022400	3.116100	-9.416900	28.186718	1.569265E-5	20.753276
2482.699455	-2.986700	3.116100	-9.306000	28.292136	1.546164E-5	20.758417
2483.701544	-2.991200	3.114000	-9.313300	28.254832	1.325048E-5	20.763532
2484.700312	-3.014300	3.113100	-9.382200	28.271068	1.222740E-5	20.755223
2485.699888	-3.009400	3.112000	-9.364300	28.215272	1.443856E-5	20.774438
2486.699949	-2.994500	3.111200	-9.316000	28.297912	1.361350E-5	20.754749
2487.701385	-2.987200	3.111700	-9.294300	28.376972	1.463658E-5	20.747110
2488.702384	-2.994400	3.109300	-9.308500	28.415638	1.424055E-5	20.760441
2489.701122	-3.012500	3.106900	-9.358800	28.427356	1.262343E-5	20.777456
2490.700146	-3.019500	3.107400	-9.381800	28.362972	1.156735E-5	20.752453
2491.699833	-3.024600	3.106900	-9.395900	28.329090	1.252442E-5	20.751054
2492.700554	-2.996700	3.105900	-9.307000	28.282767	1.074229E-5	20.781701
2493.701597	-2.994300	3.106700	-9.300400	28.311618	1.255742E-5	20.760963
2494.702734	-2.993100	3.104600	-9.291300	28.317688	1.110532E-5	20.771817
2495.701973	-2.987400	3.102600	-9.268200	28.306388	1.384452E-5	20.782724
2496.702638	-3.010800	3.101400	-9.336900	28.290624	1.308546E-5	20.774438
2497.706106	-3.001000	3.100800	-9.304800	28.337765	1.351449E-5	20.759315
2498.701024	-3.011700	3.100600	-9.337200	28.304629	1.212839E-5	20.766728
2499.711627	-2.986900	3.100200	-9.259100	28.324704	1.272244E-5	20.749009
2500.703063	-3.010500	3.097600	-9.323600	28.376825	1.202939E-5	20.767351
2501.702224	-2.983200	3.097600	-9.239800	28.417669	1.222740E-5	20.767228
2502.702325	-2.990300	3.096500	-9.258400	28.393851	1.189738E-5	20.774538
2503.702505	-2.985700	3.094800	-9.238200	28.394644	1.133633E-5	20.764905
2504.702322	-3.026100	3.094000	-9.361700	28.434373	1.110532E-5	20.763186
2505.705971	-2.992700	3.093700	-9.257900	28.410235	1.130333E-5	20.758793
2506.701942	-3.024300	3.090600	-9.346400	28.473724	1.018125E-5	20.781949
2507.701453	-3.004400	3.090900	-9.285300	28.468248	1.123733E-5	20.760313
2508.705840	-3.013100	3.089600	-9.307900	28.487157	8.498126E-6	20.754224
2509.702395	-3.017100	3.088000	-9.315700	28.522123	1.044527E-5	20.768101
2510.704653	-3.005000	3.088300	-9.279700	28.566329	1.163336E-5	20.775163
2511.702112	-2.997300	3.086200	-9.249400	28.551562	1.150135E-5	20.771196
2512.701953	-3.024500	3.085000	-9.330300	28.546309	9.950232E-6	20.771595
2513.702451	-2.984600	3.085100	-9.207400	28.450109	1.037926E-5	20.773816
2514.702576	-2.998800	3.082900	-9.244000	28.413802	9.653210E-6	20.767601
2515.704910	-3.001600	3.081900	-9.249700	28.398264	1.014825E-5	20.778507
2516.703595	-2.985600	3.082200	-9.201500	28.368052	9.587206E-6	20.773690
2517.702361	-3.003800	3.079800	-9.250400	28.415068	9.752218E-6	20.771721
2518.703034	-3.013700	3.079000	-9.277000	28.507826	1.090730E-5	20.760341
2519.703046	-2.999600	3.077400	-9.229800	28.510404	1.094031E-5	20.772420
2520.716091	-3.013000	3.076200	-9.267300	28.512609	9.653210E-6	20.777012
2521.704872	-3.011100	3.076000	-9.260700	28.563133	9.356189E-6	20.786643
2522.704434	-2.997300	3.073100	-9.209700	28.579711	1.153435E-5	20.776786
2523.705717	-2.998000	3.073800	-9.214600	28.532904	7.937084E-6	20.781803
2524.708086	-2.996900	3.071400	-9.204200	28.560979	9.224179E-6	20.754600
2525.705949	-3.013200	3.071100	-9.253300	28.545270	9.950232E-6	20.785248
2526.707268	-2.996500	3.070500	-9.199500	28.557733	9.455196E-6	20.785471
2527.705948	-3.004200	3.068300	-9.217300	28.603574	9.719215E-6	20.792285
2528.707084	-3.019200	3.068000	-9.261300	28.619903	9.290184E-6	20.790712
2529.706631	-3.000400	3.066300	-9.198900	28.599584	8.762145E-6	20.777360
2530.707180	-2.999900	3.065900	-9.196900	28.547748	8.003089E-6	20.793908
2531.709319	-3.018800	3.063800	-9.248000	28.506388	1.014825E-5	20.785446
2532.712428	-3.011300	3.062400	-9.221100	28.483740	8.234106E-6	20.802942
2533.710283	-2.954900	3.063500	-9.051800	28.437894	7.970087E-6	20.788542
2534.708970	-3.000500	3.060900	-9.183300	28.454177	1.107231E-5	20.774119
2535.715690	-2.985500	3.059700	-9.133500	28.510580	9.851225E-6	20.794409
2536.710824	-3.003200	3.058600	-9.184700	28.577830	7.904082E-6	20.780107
2537.713045	-3.004700	3.056700	-9.183900	28.556793	1.004924E-5	20.788793
2538.714479	-2.991400	3.057200	-9.145000	28.515510	7.442048E-6	20.807435
2539.713878	-3.010700	3.055000	-9.196600	28.503617	9.125172E-6	20.775543
2540.713041	-2.996400	3.054800	-9.152700	28.523960	9.323186E-6	20.792711
2541.712152	-3.026600	3.052100	-9.236800	28.528671	7.475050E-6	20.794610
2542.714244	-3.020800	3.051400	-9.217100	28.586406	8.498126E-6	20.783529
2543.713219	-3.014900	3.051100	-9.198200	28.605115	7.706067E-6	20.796682
2544.712169	-3.014100	3.049000	-9.189500	28.661333	8.927157E-6	20.788818
2545.711870	-2.994300	3.049300	-9.130300	28.667133	6.881007E-6	20.795134
2546.717143	-2.981500	3.048200	-9.087600	28.714975	8.960159E-6	20.797329
2547.713797	-3.000700	3.045700	-9.138200	28.711830	6.815002E-6	20.799376
2548.716454	-2.996600	3.043500	-9.119200	28.695055	7.409045E-6	20.792912
2549.713704	-2.987400	3.042400	-9.087600	28.661903	6.055946E-6	20.796030
2550.713593	-2.990000	3.040900	-9.091600	28.640920	9.290184E-6	20.786750
2551.717828	-3.000300	3.040700	-9.121900	28.708731	9.389191E-6	20.800523
2552.714152	-2.990400	3.039800	-9.089500	28.701994	7.145026E-6	20.799901
2553.715572	-2.994800	3.037200	-9.095100	28.722532	8.597133E-6	20.792139
2554.715518	-3.014200	3.036700	-9.152600	28.746886	7.046019E-6	20.785375
2555.714577	-2.996700	3.035400	-9.095500	28.708557	7.112024E-6	20.806986
2556.716983	-3.013100	3.032600	-9.137200	28.620649	5.593912E-6	20.809482
2557.720441	-3.013100	3.033300	-9.138700	28.630660	5.791926E-6	20.800598
2558.717313	-2.966600	3.032900	-8.996400	28.712101	6.451975E-6	20.801073
2559.717727	-2.992900	3.030100	-9.067900	28.744457	7.079021E-6	20.808059
2560.717306	-2.987800	3.029300	-9.050400	28.762220	8.036092E-6	20.803667
2561.717909	-2.995400	3.027800	-9.068500	28.767324	7.046019E-6	20.792212
2562.722325	-3.006000	3.027200	-9.099600	28.704791	6.451975E-6	20.816943
2563.719172	-3.009600	3.025600	-9.105300	28.721068	6.914009E-6	20.805837
2564.722171	-3.001100	3.023200	-9.072700	28.716164	7.871079E-6	20.820337
2565.719435	-3.001100	3.022800	-9.069800	28.758280	5.461902E-6	20.803491
2566.720102	-2.972300	3.022400	-8.982600	28.739302	7.277036E-6	20.799074
2567.719682	-3.024300	3.019500	-9.131600	28.726570	6.715994E-6	20.795257
2568.719538	-3.017200	3.018500	-9.105400	28.740096	5.428900E-6	20.806038
2569.722641	-2.998200	3.017500	-9.046000	28.662002	6.649990E-6	20.803717
2570.721180	-2.988100	3.015600	-9.010300	28.619359	6.385970E-6	20.822407
2571.719589	-2.988700	3.015400	-9.011100	28.674389	6.781999E-6	20.808133
2572.719396	-2.985200	3.014500	-8.997900	28.713808	7.574058E-6	20.818438
2573.722414	-2.980200	3.012800	-8.977700	28.697332	6.319965E-6	20.800895
2574.721037	-3.004600	3.011000	-9.046000	28.701444	5.989941E-6	20.826848
2575.722631	-3.008900	3.009700	-9.055700	28.662224	6.881007E-6	20.828596
2576.723826	-3.017800	3.007800	-9.075700	28.629615	6.583985E-6	20.813296
2577.722355	-2.976200	3.006900	-8.948500	28.593416	5.956939E-6	20.807658
2578.724171	-2.976000	3.006400	-8.946300	28.552778	4.108802E-6	20.814146
2579.722638	-2.972200	3.004500	-8.927800	28.593538	6.055946E-6	20.811101
2580.725586	-2.986000	3.002700	-8.965000	28.603796	7.475050E-6	20.811949
2581.723789	-2.990700	3.001800	-8.976200	28.583776	4.867858E-6	20.809329
2582.721808	-3.033000	2.999200	-9.095200	28.648249	5.593912E-6	20.819261
2583.723948	-3.001000	2.998400	-8.997200	28.635191	6.451975E-6	20.814171
2584.723522	-3.016400	2.996200	-9.036000	28.616136	7.706067E-6	20.831015
2585.724733	-2.983300	2.997000	-8.939700	28.633035	4.339819E-6	20.818637
2586.730037	-3.013300	2.993300	-9.019100	28.639822	5.989941E-6	20.841120
2587.729961	-3.002000	2.993100	-8.984200	28.640764	8.564130E-6	20.823577
2588.726779	-3.008000	2.990600	-8.995800	28.684819	6.055946E-6	20.824327
2589.726694	-3.016100	2.988600	-9.013000	28.778766	6.088948E-6	20.812272
2590.726620	-3.002400	2.989600	-8.975400	28.791821	4.867858E-6	20.828268
2591.731661	-2.986600	2.987500	-8.921200	28.780427	4.702846E-6	20.823428
2592.728733	-3.021900	2.984800	-9.019400	28.755601	7.112024E-6	20.820707
2593.729568	-2.996200	2.985100	-8.943400	28.812457	6.220958E-6	20.806382
2594.727837	-2.993300	2.983800	-8.930800	28.865694	4.768851E-6	20.823501
2595.729055	-3.004600	2.982300	-8.960100	28.921900	3.877785E-6	20.839821
2596.731040	-2.986900	2.979800	-8.899200	28.886230	5.692919E-6	20.844188
2597.729560	-3.026500	2.976900	-9.007400	28.831459	8.135099E-6	20.821256
2598.728109	-3.000000	2.978000	-8.932600	28.781812	4.669844E-6	20.849005
2599.727774	-2.990300	2.976700	-8.900700	28.718638	4.405824E-6	20.820458
2600.730534	-3.004900	2.973800	-8.935200	28.743634	2.821708E-6	20.847532
2601.730105	-2.986900	2.974000	-8.882300	28.781515	4.966866E-6	20.833534
2602.732776	-2.993200	2.971500	-8.893600	28.802374	3.712773E-6	20.833682
2603.731506	-3.019300	2.969100	-8.963200	28.848651	5.197883E-6	20.833832
2604.730966	-3.003500	2.968400	-8.915200	28.857195	4.108802E-6	20.849078
2605.731914	-3.002000	2.967900	-8.908300	28.898987	5.626914E-6	20.825747
2606.736757	-3.016200	2.964900	-8.941000	28.929826	3.481756E-6	20.846383
2607.730875	-3.010600	2.963900	-8.922200	28.971961	5.923936E-6	20.840470
2608.732920	-3.007200	2.961900	-8.906400	29.003814	4.207810E-6	20.847432
2609.733257	-2.991000	2.961000	-8.855700	29.034673	5.692919E-6	20.842014
2610.733068	-2.988700	2.959800	-8.845100	29.041485	6.550982E-6	20.838920
2611.734800	-3.015100	2.957800	-8.917800	28.960712	4.570836E-6	20.851895
2612.735533	-2.984600	2.957100	-8.825400	28.845924	4.834856E-6	20.850051
2613.732851	-3.014100	2.953600	-8.902000	28.785526	4.933863E-6	20.862702
2614.733650	-3.017700	2.952800	-8.910100	28.750444	6.947011E-6	20.840167
2615.736526	-2.978800	2.952200	-8.793100	28.810224	5.461902E-6	20.845383
2616.734720	-3.005500	2.951100	-8.868500	28.786094	5.395897E-6	20.840516
2617.735140	-2.992300	2.949300	-8.823800	28.739592	6.418973E-6	20.845358
2618.734180	-2.998600	2.947500	-8.837500	28.733324	5.890934E-6	20.835250
2619.742899	-3.005800	2.945500	-8.852100	28.787803	4.570836E-6	20.857409
2620.737200	-2.984300	2.944700	-8.786900	28.771081	4.834856E-6	20.862850
2621.735006	-2.980800	2.942400	-8.769900	28.849561	4.867858E-6	20.873154
2622.739588	-3.005000	2.939300	-8.832000	28.888975	4.207810E-6	20.863074
2623.738289	-3.002300	2.939500	-8.823700	28.946466	4.471829E-6	20.843708
2624.735305	-3.024200	2.937200	-8.881600	28.985827	5.659917E-6	20.853017
2625.737635	-3.008200	2.935400	-8.829000	28.968883	4.108802E-6	20.853963
2626.735634	-3.011200	2.934600	-8.835800	28.899773	6.055946E-6	20.853090
2627.735869	-3.000000	2.932800	-8.797400	28.906090	6.583985E-6	20.847127
2628.739668	-3.025700	2.930600	-8.865800	28.849140	3.943790E-6	20.847601
2629.737139	-3.015600	2.929600	-8.833300	28.884836	4.273815E-6	20.860327
2630.738564	-2.980500	2.928300	-8.726700	28.966901	4.306817E-6	20.864768
2631.741586	-2.987500	2.925400	-8.738500	28.987088	5.230885E-6	20.867088
2632.739083	-3.001400	2.925400	-8.779200	29.083460	6.451975E-6	20.850393
2633.741712	-3.029600	2.921600	-8.849300	29.134256	6.352968E-6	20.880712
2634.739512	-3.016500	2.920700	-8.808800	29.107783	4.174807E-6	20.894813
2635.739621	-3.027100	2.919600	-8.837600	29.040044	4.702846E-6	20.864494
2636.740892	-3.001300	2.918500	-8.758200	29.021689	3.877785E-6	20.853587
2637.740201	-2.997400	2.915800	-8.738900	28.975098	3.283742E-6	20.868285
2638.742273	-3.007000	2.913500	-8.760000	28.947480	7.079021E-6	20.877918
2639.741696	-2.992100	2.911900	-8.710500	28.991719	5.461902E-6	20.862272
2640.741105	-3.012700	2.911800	-8.771000	29.012105	4.372822E-6	20.877594
2641.740784	-2.977000	2.909300	-8.659900	28.948148	5.032870E-6	20.867211
2642.740909	-2.999600	2.906500	-8.717900	28.937943	4.207810E-6	20.872577
2643.740825	-3.015500	2.906600	-8.763400	28.881315	4.108802E-6	20.869582
2644.741520	-3.020700	2.903500	-8.769400	28.913148	4.273815E-6	20.880313
2645.741523	-2.982900	2.902000	-8.654900	28.976560	5.956939E-6	20.870232
2646.742264	-2.998200	2.900000	-8.693800	28.988002	5.692919E-6	20.883181
2647.742194	-2.995500	2.898900	-8.682700	29.047223	4.405824E-6	20.871727
2648.742992	-2.980700	2.897400	-8.635700	29.044029	4.735849E-6	20.863767
2649.744469	-3.004700	2.895200	-8.697700	29.121674	5.263888E-6	20.877043
2650.743038	-2.991400	2.893200	-8.654200	29.171701	6.980014E-6	20.880038
2651.745680	-2.985700	2.891300	-8.631900	29.231010	3.349747E-6	20.905663
2652.745786	-3.002000	2.889600	-8.674100	29.226503	5.131878E-6	20.876942
2653.743897	-3.002200	2.888000	-8.669000	29.145079	4.570836E-6	20.873126
2654.746749	-3.014100	2.886500	-8.699200	29.084202	5.329892E-6	20.894760
2655.743328	-2.996300	2.884700	-8.642400	29.051088	4.900861E-6	20.905964
2656.743123	-3.015300	2.882200	-8.689700	28.991543	3.151732E-6	20.888171
2657.743823	-3.000700	2.882000	-8.647000	29.036970	5.098875E-6	20.897904
2658.743334	-2.993200	2.878600	-8.615600	28.987185	6.848004E-6	20.890892
2659.744549	-2.988100	2.877200	-8.596800	29.094827	5.362895E-6	20.894086
2660.747174	-2.991900	2.874600	-8.600000	29.043309	3.910788E-6	20.883430
2661.744273	-2.994700	2.873600	-8.604300	29.017997	5.032870E-6	20.900124
2662.744192	-3.019700	2.870100	-8.666000	29.067185	3.514759E-6	20.865288
2663.745663	-2.985800	2.869300	-8.565700	29.066938	5.923936E-6	20.895383
2664.745786	-3.008600	2.867200	-8.625800	29.088239	5.329892E-6	20.907361
2665.747856	-3.010600	2.866400	-8.628400	29.071818	4.471829E-6	20.883705
2666.744589	-3.005300	2.863100	-8.604000	29.112880	3.646768E-6	20.905164
2667.747290	-3.016200	2.861400	-8.630300	29.185294	4.372822E-6	20.914596
2668.746166	-3.002300	2.859900	-8.585100	29.086083	4.042798E-6	20.893810
2669.746654	-2.999000	2.859300	-8.573700	29.067977	2.491683E-6	20.918238
2670.747456	-3.008400	2.856200	-8.591800	29.144430	4.207810E-6	20.887644
2671.748350	-3.004100	2.854800	-8.575400	29.198666	5.593912E-6	20.914794
2672.747049	-3.013000	2.851700	-8.591300	29.260154	3.085727E-6	20.902791
2673.747839	-2.992200	2.851000	-8.530300	29.291109	4.174807E-6	20.914546
2674.748379	-3.023400	2.848300	-8.609300	29.298634	2.887713E-6	20.903165
2675.746694	-2.973100	2.846400	-8.461900	29.276571	6.187956E-6	20.890888
2676.748150	-2.981500	2.843000	-8.475900	29.312502	6.451975E-6	20.910502
2677.749297	-3.019800	2.840600	-8.577100	29.292493	3.118730E-6	20.926845
2678.748068	-3.020000	2.838600	-8.571400	29.341820	5.593912E-6	20.908756
2679.765314	-3.018500	2.836700	-8.561800	29.331072	5.560909E-6	20.910251
2680.750879	-3.026200	2.833500	-8.573500	29.306236	4.042798E-6	20.931686
2681.751503	-2.982600	2.834400	-8.451900	29.242297	5.857931E-6	20.895702
2682.749304	-3.008300	2.829500	-8.511400	29.254730	5.098875E-6	20.912497
2683.748672	-3.001500	2.826900	-8.484200	29.309480	5.098875E-6	20.921206
2684.751479	-3.003900	2.825900	-8.487700	29.281919	4.900861E-6	20.907655
2685.750407	-2.990700	2.824300	-8.446300	29.253838	5.098875E-6	20.902116
2686.753193	-3.025100	2.821300	-8.532700	29.227589	5.197883E-6	20.929715
2687.751338	-2.972100	2.818600	-8.376100	29.216073	4.603839E-6	20.929963
2688.755458	-2.986800	2.816000	-8.410000	29.205226	5.362895E-6	20.941317
2689.753291	-2.990700	2.815400	-8.419300	29.279765	4.768851E-6	20.932035
2690.756605	-3.015500	2.810900	-8.476000	29.364497	4.570836E-6	20.916438
2691.754610	-3.010900	2.809500	-8.457600	29.410503	7.046019E-6	20.916340
2692.755529	-3.028000	2.806500	-8.496800	29.461358	5.230885E-6	20.919708
2693.754645	-3.014800	2.803000	-8.449900	29.534614	5.857931E-6	20.923376
2694.755348	-3.012800	2.800500	-8.436900	29.519241	4.339819E-6	20.925423
2695.756977	-2.977500	2.799700	-8.335200	29.429171	5.923936E-6	20.928042
2696.760209	-3.012600	2.796000	-8.422200	29.394237	4.669844E-6	20.930289
2697.756798	-3.009100	2.792800	-8.402500	29.404883	4.240812E-6	20.927269
2698.757302	-2.992800	2.790100	-8.349300	29.384306	3.745776E-6	20.925022
2699.760266	-2.983400	2.789200	-8.319600	29.351872	2.689698E-6	20.931212
2700.759070	-2.978600	2.786800	-8.299700	29.338477	5.692919E-6	20.923403
2701.761181	-2.992800	2.782500	-8.326400	29.351923	5.725922E-6	20.918464
2702.759168	-3.004500	2.779700	-8.351000	29.367374	5.362895E-6	20.941145
2703.759652	-2.984600	2.777200	-8.288100	29.306067	7.475050E-6	20.921085
2704.762836	-2.994400	2.776000	-8.310900	29.362843	8.531128E-6	20.941795
2705.761336	-2.980300	2.772700	-8.262500	29.460247	4.537834E-6	20.927123
2706.761780	-2.987900	2.768600	-8.271600	29.423855	4.966866E-6	20.927900
2707.763470	-2.987800	2.766500	-8.265000	29.475845	4.372822E-6	20.917716
2708.762616	-2.996600	2.763400	-8.279600	29.496816	5.857931E-6	20.926051
2709.763423	-3.027800	2.758600	-8.351500	29.579950	6.848004E-6	20.937781
2710.762870	-3.004700	2.757200	-8.283100	29.565369	7.145026E-6	20.915498
2711.765821	-3.013400	2.752700	-8.294100	29.603444	5.758924E-6	20.930646
2712.761252	-2.997300	2.750400	-8.243000	29.563587	5.890934E-6	20.929821
2713.760952	-2.994300	2.748200	-8.227300	29.541455	6.715994E-6	20.926003
2714.761874	-3.000700	2.743700	-8.232100	29.570692	4.537834E-6	20.918019
2715.761952	-2.995200	2.740700	-8.208000	29.592301	4.273815E-6	20.919414
2716.765210	-3.008100	2.737400	-8.233300	29.580321	4.867858E-6	20.936732
2717.761948	-2.980800	2.734300	-8.149900	29.480155	4.867858E-6	20.912578
2718.763332	-2.993700	2.730600	-8.174200	29.481494	5.758924E-6	20.908238
2719.761720	-3.016300	2.726300	-8.222100	29.594110	3.811781E-6	20.905118
2720.762540	-2.989700	2.725500	-8.147400	29.556655	5.560909E-6	20.896759
2721.761699	-2.992800	2.719600	-8.138100	29.524745	7.277036E-6	20.909161
2722.771055	-3.003000	2.716600	-8.157100	29.515263	6.451975E-6	20.910983
2723.762326	-3.015000	2.713700	-8.181100	29.479737	4.669844E-6	20.927328
2724.763246	-2.999400	2.709700	-8.126500	29.491101	3.943790E-6	20.894215
2725.763876	-3.042600	2.704800	-8.228300	29.545070	6.055946E-6	20.901202
2726.762149	-3.010300	2.701500	-8.131600	29.604186	6.781999E-6	20.890147
2727.764164	-3.009200	2.697600	-8.116900	29.532890	7.079021E-6	20.916897
2728.763205	-3.006700	2.694000	-8.099400	29.592898	7.904082E-6	20.886354
2729.763030	-2.990800	2.690200	-8.045400	29.625797	6.286963E-6	20.895811
2730.763083	-3.016400	2.685600	-8.100000	29.545317	5.824929E-6	20.902873
2731.764513	-2.977200	2.682300	-7.985000	29.579061	5.098875E-6	20.898482
2732.766843	-2.979700	2.678200	-7.979500	29.560222	5.065873E-6	20.890871
2733.768800	-2.983700	2.674200	-7.977800	29.505954	5.230885E-6	20.905868
2734.765596	-3.019100	2.669200	-8.057800	29.473522	3.844783E-6	20.880765
2735.765812	-2.989100	2.665600	-7.967000	29.542422	7.277036E-6	20.887154
2736.769924	-3.015600	2.660500	-8.022200	29.598791	6.319965E-6	20.881389
2737.766011	-3.006100	2.656700	-7.984900	29.574830	4.603839E-6	20.876201
2738.769465	-2.998600	2.651000	-7.948500	29.601416	5.065873E-6	20.908689
2739.767065	-2.998100	2.647300	-7.936300	29.665182	5.857931E-6	20.896162
2740.767717	-2.987200	2.641800	-7.890700	29.771122	7.871079E-6	20.876374
2741.770065	-2.997100	2.636200	-7.900300	29.799586	6.748997E-6	20.888952
2742.767890	-2.981600	2.633000	-7.849600	29.772508	6.418973E-6	20.902426
2743.771653	-3.018600	2.626900	-7.929300	29.703896	8.201104E-6	20.897261
2744.770272	-3.011900	2.622400	-7.896000	29.688697	6.319965E-6	20.891895
2745.770912	-3.028800	2.617200	-7.925100	29.613794	6.649990E-6	20.884660
2746.771160	-2.969900	2.612100	-7.756500	29.709739	7.178028E-6	20.878022
2747.772966	-2.999200	2.606200	-7.815000	29.684614	6.682992E-6	20.874503
2748.771778	-2.985400	2.600600	-7.762500	29.672784	5.758924E-6	20.874430
2749.771819	-2.992200	2.596200	-7.767700	29.730531	7.970087E-6	20.889027
2750.772228	-3.004500	2.590600	-7.781500	29.749688	8.795147E-6	20.896962
2751.771379	-2.998000	2.585300	-7.749200	29.772955	4.867858E-6	20.864947
2752.774290	-3.012400	2.579300	-7.768100	29.841388	6.947011E-6	20.877997
2753.774687	-2.988000	2.573800	-7.689900	29.886580	6.583985E-6	20.869987
2754.773640	-2.973100	2.569400	-7.637600	29.870595	4.504832E-6	20.877101
2755.774094	-2.982100	2.562100	-7.639700	29.809215	4.636841E-6	20.886807
2756.775994	-2.981200	2.556500	-7.620500	29.845150	7.343041E-6	20.884635
2757.774646	-3.015200	2.549200	-7.685200	29.883587	7.079021E-6	20.878822
2758.779750	-3.004400	2.545400	-7.646400	29.837703	6.088948E-6	20.875704
2759.776500	-2.980200	2.539000	-7.566000	29.842627	4.966866E-6	20.890625
2760.773446	-2.997700	2.530900	-7.585900	29.857749	6.451975E-6	20.865572
2761.774084	-2.991700	2.526500	-7.557300	29.886408	8.102096E-6	20.879296
2762.775651	-2.992600	2.520100	-7.541500	29.860571	6.418973E-6	20.883114
2763.775560	-2.945300	2.513300	-7.401100	29.924147	6.253960E-6	20.885583
2764.774548	-3.004100	2.506600	-7.528900	29.968738	8.003089E-6	20.860377
2765.776988	-3.029400	2.501300	-7.576400	29.930036	7.475050E-6	20.849324
2766.775900	-3.017900	2.493800	-7.525400	30.020855	6.649990E-6	20.867890
