LabVIEW Measurement	
Writer_Version	2
Reader_Version	2
Separator	Tab
Decimal_Separator	.
Multi_Headings	No
X_Columns	One
Time_Pref	Absolute
Operator	admin
Description	Clolumns are: time, Current, Voltage, Power, Battery Temp, and Chamber Temp
Date	2024/08/16
Time	13:07:17.8513970375061035156
***End_of_Header***	
	
Channels	6						
Samples	1	1	1	1	1	1	
Date	2024/09/19	2024/09/19	2024/09/19	2024/09/19	2024/09/19	2024/09/19	
Time	20:02:58.6579942703247070312	20:02:58.6657977104187011719	20:02:58.6747984886169433594	20:02:58.6382727622985839844	20:02:58.6392736434936523437	20:02:58.6392736434936523437	
X_Dimension	Time	Time	Time	Time	Time	Time	
X0	0.0000000000000000E+0	0.0000000000000000E+0	0.0000000000000000E+0	0.0000000000000000E+0	0.0000000000000000E+0	0.0000000000000000E+0	
Delta_X	1.000000	1.000000	1.000000	1.000000	1.000000	1.000000	
***End_of_Header***							
X_Value	Untitled	Untitled 1	Untitled 2	Untitled 3	Untitled 4	Untitled 5	Comment
0.000000	0.019186	4.085800	0.078399	20.837988	0.000479	20.815703
0.999190	-2.985800	3.913500	-11.683000	20.830925	0.000476	20.797735
2.001226	-2.981700	3.907900	-11.651000	20.843528	0.000478	20.807019
3.002903	-3.007100	3.902900	-11.735000	20.838387	0.000477	20.812783
4.004377	-3.010900	3.898200	-11.736000	20.836615	0.000474	20.837563
5.000400	-2.993500	3.897100	-11.665000	20.861544	0.000473	20.824087
6.002006	-2.995100	3.893600	-11.661000	20.853659	0.000473	20.804823
7.007471	-2.991100	3.892700	-11.642000	20.868482	0.000473	20.807792
7.999619	-3.000300	3.889900	-11.670000	20.884277	0.000473	20.827856
9.005935	-2.978400	3.887400	-11.577000	20.883079	0.000470	20.807217
10.003804	-3.006000	3.885700	-11.680000	20.889167	0.000473	20.831323
10.999401	-2.996500	3.884300	-11.637000	20.870651	0.000470	20.816600
12.005556	-3.000800	3.883700	-11.653000	20.901169	0.000470	20.803972
13.004423	-2.983500	3.882600	-11.583000	20.900072	0.000470	20.814254
14.006796	-2.994200	3.880400	-11.618000	20.913821	0.000468	20.821841
15.004482	-2.976000	3.880100	-11.547000	20.927694	0.000468	20.802999
16.005595	-2.982600	3.880400	-11.573000	20.950026	0.000469	20.833394
17.004887	-3.019200	3.877600	-11.706000	20.923501	0.000467	20.805918
18.003839	-3.030200	3.875400	-11.742000	20.937051	0.000467	20.809512
19.004227	-2.994200	3.875500	-11.603000	20.935579	0.000467	20.797134
20.004710	-2.990800	3.875000	-11.588000	20.976225	0.000465	20.809811
21.004790	-3.011500	3.873500	-11.663000	20.976849	0.000464	20.834616
22.005324	-3.009700	3.873800	-11.658000	20.997260	0.000466	20.788649
23.004726	-3.000000	3.873900	-11.621000	21.000153	0.000463	20.803871
24.001400	-2.984700	3.873000	-11.559000	21.008063	0.000464	20.816524
25.004064	-3.016000	3.872000	-11.678000	21.022634	0.000464	20.796484
26.003030	-3.003100	3.870700	-11.623000	21.008112	0.000462	20.807564
27.014155	-3.004800	3.870600	-11.628000	21.044813	0.000464	20.819142
28.010493	-3.026700	3.868800	-11.707000	21.020412	0.000465	20.808961
29.011332	-2.985000	3.870000	-11.551000	21.055393	0.000462	20.814551
30.012743	-3.000700	3.869400	-11.610000	21.055791	0.000465	20.800725
31.009181	-3.009700	3.867400	-11.639000	21.069015	0.000463	20.806365
32.012480	-2.994100	3.868200	-11.580000	21.083734	0.000460	20.803071
33.012846	-2.995200	3.867900	-11.584000	21.092166	0.000461	20.801548
34.008628	-3.015100	3.867600	-11.660000	21.086229	0.000459	20.805092
35.008931	-2.982600	3.867500	-11.535000	21.100449	0.000460	20.810781
36.011418	-3.008300	3.866300	-11.630000	21.114071	0.000461	20.782681
37.010283	-3.013000	3.865200	-11.645000	21.098927	0.000460	20.814000
38.013196	-2.994100	3.865700	-11.574000	21.127867	0.000459	20.788420
39.014071	-2.998500	3.865100	-11.588000	21.152815	0.000461	20.822859
40.013561	-2.997000	3.865300	-11.584000	21.133156	0.000459	20.821211
41.016014	-3.006800	3.864600	-11.619000	21.158053	0.000459	20.800597
42.011091	-2.996700	3.865800	-11.583000	21.162693	0.000459	20.799075
43.013554	-3.018500	3.864400	-11.663000	21.168631	0.000459	20.796005
44.014799	-2.997500	3.863600	-11.580000	21.173346	0.000459	20.801670
45.017686	-3.001800	3.863200	-11.595000	21.184297	0.000460	20.785124
46.018012	-2.994000	3.862900	-11.564000	21.205876	0.000458	20.811926
47.012568	-3.006800	3.863100	-11.615000	21.208445	0.000459	20.799324
48.017182	-3.006900	3.862700	-11.612000	21.219572	0.000459	20.802868
49.015532	-3.021800	3.860500	-11.664000	21.225010	0.000458	20.784126
50.013203	-3.008000	3.860800	-11.612000	21.239678	0.000460	20.793583
51.012978	-2.996700	3.861500	-11.571000	21.252998	0.000457	20.784150
52.016805	-3.003200	3.860200	-11.592000	21.270160	0.000457	20.804638
53.019773	-2.984000	3.859800	-11.517000	21.267192	0.000460	20.785073
54.016621	-2.984600	3.860500	-11.521000	21.286026	0.000457	20.787319
55.014738	-2.965200	3.861300	-11.449000	21.274925	0.000457	20.796128
56.025234	-2.986200	3.860700	-11.528000	21.287996	0.000460	20.796876
57.026472	-3.011800	3.859100	-11.621000	21.302487	0.000458	20.797150
58.015539	-3.013300	3.859100	-11.628000	21.313289	0.000457	20.809853
59.022313	-2.988900	3.860200	-11.537000	21.321420	0.000458	20.789538
60.021460	-2.996300	3.858700	-11.561000	21.309945	0.000458	20.787067
61.021112	-3.006300	3.858000	-11.598000	21.346563	0.000458	20.804261
62.025752	-3.013300	3.858900	-11.627000	21.354295	0.000460	20.804411
63.018358	-2.993600	3.858900	-11.551000	21.365470	0.000460	20.788564
64.022655	-3.011500	3.857900	-11.617000	21.357637	0.000456	20.780253
65.024377	-2.997900	3.857600	-11.564000	21.374449	0.000458	20.793281
66.023467	-3.003800	3.859200	-11.591000	21.369086	0.000459	20.797872
67.019328	-3.006600	3.858300	-11.600000	21.386271	0.000458	20.784720
68.019896	-3.000300	3.858000	-11.574000	21.421465	0.000458	20.777258
69.019194	-3.001200	3.858000	-11.578000	21.403706	0.000460	20.786517
70.024387	-3.008600	3.856600	-11.602000	21.431541	0.000458	20.793978
71.023945	-3.008400	3.856300	-11.600000	21.411687	0.000459	20.790709
72.021002	-2.988200	3.856800	-11.524000	21.427301	0.000457	20.787365
73.023944	-2.992000	3.857200	-11.540000	21.440744	0.000456	20.789910
74.022800	-2.999600	3.857400	-11.570000	21.459824	0.000461	20.768697
75.024386	-2.988300	3.856000	-11.522000	21.479078	0.000458	20.809300
76.023772	-2.991000	3.856400	-11.534000	21.480500	0.000460	20.794127
77.025880	-2.999000	3.857600	-11.568000	21.485862	0.000457	20.783371
78.021609	-3.013000	3.856800	-11.620000	21.480499	0.000461	20.800290
79.024289	-2.996900	3.855100	-11.553000	21.497359	0.000459	20.784918
80.023327	-3.002600	3.855300	-11.575000	21.508782	0.000459	20.781175
81.021740	-3.000700	3.854800	-11.567000	21.520030	0.000458	20.784369
82.025667	-2.997500	3.855500	-11.556000	21.522200	0.000460	20.779902
83.024672	-3.001900	3.854100	-11.569000	21.515266	0.000460	20.792405
84.021368	-3.004400	3.854700	-11.580000	21.537114	0.000458	20.786765
85.029408	-3.009800	3.854700	-11.601000	21.534844	0.000458	20.771217
86.021897	-2.984300	3.854700	-11.503000	21.563823	0.000459	20.782672
87.024512	-2.998900	3.853300	-11.555000	21.571779	0.000459	20.794900
88.023633	-2.973300	3.854900	-11.461000	21.580407	0.000458	20.798793
89.024973	-3.005100	3.853400	-11.579000	21.590507	0.000458	20.789459
90.022597	-2.994100	3.853900	-11.538000	21.613550	0.000459	20.780749
91.023819	-2.974600	3.854200	-11.464000	21.600881	0.000458	20.770917
92.028020	-2.979100	3.853300	-11.479000	21.604198	0.000461	20.797470
93.024499	-2.991400	3.853000	-11.525000	21.614348	0.000460	20.762107
94.024458	-3.000600	3.852200	-11.558000	21.644646	0.000459	20.790057
95.028562	-3.011900	3.851900	-11.600000	21.641179	0.000458	20.798442
96.028575	-3.003500	3.852500	-11.569000	21.670855	0.000460	20.791155
97.027721	-2.986800	3.852800	-11.506000	21.648386	0.000459	20.798068
98.027678	-2.998900	3.851600	-11.550000	21.673623	0.000461	20.798667
99.028808	-3.001900	3.850800	-11.558000	21.676614	0.000461	20.809247
100.031769	-3.000400	3.851100	-11.554000	21.690903	0.000460	20.802685
101.027583	-2.994600	3.851500	-11.532000	21.695067	0.000463	20.802584
102.030253	-3.002700	3.852100	-11.566000	21.699655	0.000461	20.785839
103.029619	-3.015200	3.850700	-11.610000	21.704842	0.000460	20.781072
104.030057	-3.032800	3.850200	-11.676000	21.711524	0.000461	20.797243
105.032804	-2.984600	3.851500	-11.495000	21.743666	0.000462	20.805703
106.030540	-2.995500	3.849900	-11.530000	21.752168	0.000460	20.789557
107.032659	-3.012900	3.850100	-11.599000	21.739676	0.000461	20.795546
108.033163	-3.014400	3.850700	-11.606000	21.763389	0.000460	20.805054
109.030833	-3.004400	3.850600	-11.568000	21.770720	0.000459	20.789157
110.034246	-3.001400	3.849600	-11.553000	21.765808	0.000460	20.808423
111.030585	-3.002500	3.850300	-11.559000	21.776031	0.000460	20.793051
112.030588	-3.008700	3.849200	-11.579000	21.811761	0.000462	20.791828
113.033020	-3.015500	3.849200	-11.607000	21.825376	0.000461	20.804506
114.035995	-3.011900	3.849800	-11.594000	21.812484	0.000461	20.775482
115.031943	-2.992300	3.849900	-11.520000	21.813556	0.000461	20.799314
116.033754	-2.990800	3.849100	-11.511000	21.827795	0.000460	20.796970
117.038170	-2.994800	3.848900	-11.526000	21.846170	0.000462	20.784541
118.032804	-2.998200	3.849600	-11.541000	21.852453	0.000462	20.802210
119.030870	-2.970000	3.849700	-11.433000	21.863523	0.000461	20.788634
120.032881	-2.973100	3.850200	-11.446000	21.848863	0.000463	20.794823
121.033209	-3.003900	3.847400	-11.557000	21.883769	0.000463	20.794674
122.036654	-2.971000	3.849400	-11.435000	21.900498	0.000464	20.809523
123.039673	-3.001400	3.848100	-11.549000	21.893168	0.000462	20.804083
124.037850	-2.992800	3.847700	-11.515000	21.891323	0.000463	20.819779
125.037959	-2.979900	3.849400	-11.469000	21.905759	0.000463	20.803409
126.037146	-2.991200	3.847400	-11.507000	21.896560	0.000461	20.821228
127.037681	-3.003800	3.847200	-11.556000	21.884616	0.000465	20.815911
128.038824	-2.998800	3.848800	-11.541000	21.935826	0.000464	20.810746
129.034974	-2.991900	3.847500	-11.510000	21.918076	0.000465	20.781125
130.039092	-3.002700	3.846500	-11.549000	21.955297	0.000465	20.789934
131.039383	-3.007100	3.847300	-11.569000	21.966766	0.000465	20.785767
132.038644	-2.994200	3.846300	-11.515000	21.961929	0.000467	20.797046
133.037854	-2.996200	3.846100	-11.523000	21.968885	0.000466	20.795001
134.038804	-2.996700	3.846500	-11.526000	21.990549	0.000468	20.821429
135.038838	-3.013300	3.845500	-11.586000	21.983320	0.000469	20.804235
136.041222	-3.019100	3.845300	-11.609000	21.999748	0.000467	20.823050
137.037845	-2.998300	3.846200	-11.531000	22.006579	0.000468	20.818983
138.042908	-2.990600	3.846300	-11.502000	22.010119	0.000468	20.808303
139.041114	-3.015600	3.845600	-11.595000	22.033353	0.000469	20.810224
140.037522	-2.991800	3.845300	-11.503000	22.054069	0.000468	20.801565
141.045312	-3.009400	3.844200	-11.567000	22.041854	0.000471	20.806406
142.043172	-3.022700	3.843400	-11.617000	22.077077	0.000471	20.820806
143.043511	-2.995800	3.845600	-11.519000	22.082013	0.000469	20.815789
144.039119	-2.997100	3.844400	-11.521000	22.076179	0.000472	20.810424
145.042220	-2.998900	3.844200	-11.527000	22.076180	0.000469	20.816114
146.040646	-3.013400	3.843500	-11.581000	22.089915	0.000468	20.798096
147.043140	-3.006600	3.844400	-11.558000	22.107638	0.000470	20.815839
148.043797	-2.987100	3.843400	-11.480000	22.100010	0.000471	20.803461
149.040452	-2.992300	3.845000	-11.505000	22.118655	0.000471	20.809800
150.045825	-3.011300	3.842800	-11.571000	22.118755	0.000472	20.820805
151.046847	-3.018400	3.842300	-11.597000	22.133412	0.000473	20.819832
152.046427	-3.007500	3.842800	-11.557000	22.144055	0.000475	20.817211
153.045892	-3.004900	3.843100	-11.547000	22.123591	0.000474	20.797198
154.048208	-3.021300	3.842000	-11.607000	22.121547	0.000473	20.813643
155.047728	-3.008500	3.841000	-11.555000	22.152206	0.000473	20.823001
156.048128	-3.018300	3.841000	-11.591000	22.180074	0.000475	20.815340
157.045411	-3.018700	3.842300	-11.599000	22.194156	0.000476	20.817111
158.048884	-2.991300	3.842700	-11.494000	22.182391	0.000474	20.820031
159.050641	-2.990800	3.842700	-11.492000	22.214445	0.000476	20.819882
160.049398	-3.017100	3.840900	-11.587000	22.196149	0.000474	20.824797
161.049763	-2.984900	3.841300	-11.465000	22.210008	0.000478	20.823025
162.053112	-3.004300	3.841200	-11.540000	22.208088	0.000475	20.829638
163.050324	-3.018300	3.841000	-11.592000	22.218033	0.000475	20.816362
164.052153	-2.989300	3.841400	-11.482000	22.238945	0.000475	20.821653
165.054434	-2.992000	3.842500	-11.496000	22.233959	0.000477	20.833730
166.048336	-3.008200	3.841000	-11.553000	22.224987	0.000477	20.828065
167.050929	-2.969600	3.841500	-11.406000	22.250958	0.000476	20.838422
168.050110	-2.993200	3.840300	-11.494000	22.236676	0.000476	20.819381
169.048464	-2.969100	3.840700	-11.403000	22.242583	0.000475	20.817235
170.053195	-2.989000	3.839300	-11.474000	22.246795	0.000476	20.815288
171.057391	-2.982800	3.840900	-11.456000	22.282585	0.000478	20.828839
172.055124	-2.990800	3.839600	-11.483000	22.294374	0.000478	20.821202
173.054519	-2.984500	3.838800	-11.456000	22.296118	0.000479	20.828639
174.052508	-2.972500	3.839800	-11.413000	22.304268	0.000480	20.842963
175.049047	-3.019900	3.838400	-11.591000	22.306063	0.000478	20.832432
176.052865	-2.967900	3.839900	-11.395000	22.325826	0.000479	20.831359
177.048805	-3.015700	3.838700	-11.574000	22.351894	0.000479	20.825694
178.052123	-3.022000	3.836600	-11.594000	22.345165	0.000480	20.823698
179.052061	-3.018500	3.837000	-11.581000	22.363557	0.000479	20.830735
180.047230	-3.010200	3.837100	-11.550000	22.389127	0.000480	20.831683
181.052453	-3.014200	3.837700	-11.567000	22.408065	0.000483	20.837372
182.057703	-3.003600	3.836900	-11.524000	22.437696	0.000481	20.833380
183.051701	-2.991900	3.838300	-11.483000	22.397898	0.000483	20.849002
184.054704	-3.038300	3.835700	-11.653000	22.399144	0.000482	20.842189
185.055077	-3.021400	3.835500	-11.588000	22.417785	0.000480	20.828614
186.053630	-3.007000	3.837000	-11.536000	22.424936	0.000482	20.837197
187.053823	-3.004200	3.836100	-11.523000	22.422145	0.000483	20.833454
188.055631	-2.993200	3.835700	-11.481000	22.450878	0.000482	20.846106
189.053768	-3.009400	3.835400	-11.541000	22.451974	0.000482	20.823023
190.052676	-3.009800	3.836300	-11.546000	22.427128	0.000484	20.843186
191.052609	-3.007000	3.835000	-11.531000	22.458577	0.000482	20.819679
192.052216	-3.018700	3.834800	-11.575000	22.454466	0.000486	20.846855
193.051444	-2.986700	3.834200	-11.451000	22.491097	0.000484	20.841339
194.053707	-3.006400	3.835800	-11.531000	22.500416	0.000484	20.842612
195.052249	-3.009600	3.834400	-11.538000	22.511380	0.000484	20.846480
196.053103	-3.013600	3.834500	-11.555000	22.513299	0.000487	20.842712
197.057981	-2.979700	3.835400	-11.427000	22.518705	0.000487	20.852393
198.053845	-3.001400	3.834100	-11.507000	22.532909	0.000487	20.853816
199.054023	-2.996100	3.834200	-11.487000	22.513498	0.000486	20.844334
200.053812	-3.005000	3.832600	-11.517000	22.531862	0.000486	20.837596
201.055039	-3.016900	3.833800	-11.565000	22.547460	0.000486	20.835674
202.053702	-2.998700	3.834000	-11.496000	22.556356	0.000486	20.859755
203.057359	-2.999000	3.832900	-11.494000	22.566497	0.000487	20.834351
204.058053	-2.991000	3.833300	-11.465000	22.579229	0.000487	20.870335
205.056161	-2.978300	3.833600	-11.416000	22.574520	0.000489	20.838120
206.057456	-3.004900	3.831100	-11.511000	22.593332	0.000488	20.849374
207.058877	-2.990800	3.833200	-11.463000	22.575144	0.000486	20.845856
208.054768	-2.999300	3.832600	-11.495000	22.575068	0.000488	20.865694
209.055081	-2.976700	3.832100	-11.406000	22.586255	0.000487	20.846080
210.057801	-2.992100	3.832300	-11.466000	22.580300	0.000489	20.850546
211.059349	-2.994600	3.831800	-11.474000	22.605740	0.000490	20.878870
212.059959	-3.000900	3.830600	-11.494000	22.628936	0.000492	20.862275
213.059705	-2.992800	3.831300	-11.466000	22.635240	0.000491	20.843459
214.060999	-3.011300	3.830100	-11.533000	22.632475	0.000492	20.874353
215.063016	-3.023500	3.829400	-11.577000	22.627790	0.000491	20.892419
216.063096	-2.986800	3.830500	-11.440000	22.625498	0.000493	20.894864
217.060555	-2.977400	3.830900	-11.406000	22.650563	0.000492	20.853117
218.059941	-2.990600	3.831400	-11.457000	22.673409	0.000493	20.875051
219.058639	-3.021200	3.829100	-11.567000	22.667255	0.000493	20.854189
220.060046	-2.996100	3.829100	-11.472000	22.678218	0.000492	20.861850
221.064181	-3.005300	3.830300	-11.510000	22.719924	0.000493	20.868538
222.063753	-2.988000	3.830400	-11.445000	22.711205	0.000493	20.861227
223.065859	-3.003000	3.829600	-11.500000	22.698822	0.000495	20.863996
224.063087	-2.997400	3.829300	-11.477000	22.713795	0.000494	20.863822
225.064579	-3.002200	3.828300	-11.492000	22.741948	0.000494	20.861202
226.063920	-3.005800	3.829400	-11.509000	22.740926	0.000495	20.868713
227.061738	-2.997900	3.829300	-11.479000	22.752810	0.000496	20.868289
228.066922	-2.992300	3.827200	-11.451000	22.752809	0.000496	20.853116
229.060729	-3.004700	3.828700	-11.503000	22.747777	0.000495	20.858506
230.062809	-3.002800	3.827400	-11.492000	22.787363	0.000496	20.878245
231.059664	-2.997000	3.826500	-11.467000	22.789106	0.000496	20.872879
232.064961	-2.983500	3.826900	-11.417000	22.803704	0.000495	20.872330
233.064262	-2.978500	3.828300	-11.401000	22.777048	0.000496	20.893042
234.064371	-2.999500	3.825600	-11.474000	22.795085	0.000497	20.886928
235.065976	-3.011400	3.825900	-11.521000	22.790675	0.000494	20.891520
236.069753	-2.995000	3.826700	-11.460000	22.783949	0.000497	20.879567
237.066750	-2.994200	3.825800	-11.455000	22.824828	0.000495	20.863621
238.064746	-2.971300	3.827900	-11.372000	22.808337	0.000496	20.886927
239.068041	-3.004000	3.826900	-11.495000	22.813394	0.000496	20.901949
240.063278	-3.001500	3.825100	-11.481000	22.819025	0.000496	20.865393
241.062451	-2.999100	3.824200	-11.469000	22.825352	0.000499	20.875050
242.067575	-2.998400	3.825000	-11.468000	22.834420	0.000500	20.893615
243.066472	-3.008100	3.825700	-11.507000	22.852431	0.000499	20.880366
244.067838	-3.003900	3.825000	-11.489000	22.850837	0.000498	20.874502
245.066789	-2.982900	3.825100	-11.408000	22.849815	0.000499	20.873953
246.067128	-2.989700	3.825500	-11.436000	22.873605	0.000500	20.879293
247.068400	-2.967900	3.824700	-11.350000	22.865459	0.000500	20.888201
248.068476	-2.993500	3.823800	-11.446000	22.888576	0.000501	20.878170
249.073265	-3.003200	3.823200	-11.481000	22.904194	0.000500	20.890498
250.065739	-2.986200	3.824600	-11.421000	22.933139	0.000501	20.884409
251.068924	-3.001100	3.822700	-11.471000	22.943028	0.000501	20.865869
252.072186	-3.000600	3.823400	-11.472000	22.926513	0.000500	20.891521
253.071358	-3.010800	3.824000	-11.512000	22.942605	0.000503	20.870660
254.072176	-3.004000	3.822400	-11.482000	22.930076	0.000503	20.887504
255.075514	-3.004000	3.822100	-11.481000	22.933414	0.000504	20.882788
256.071816	-3.019200	3.821100	-11.536000	22.959667	0.000501	20.887280
257.074804	-2.980600	3.822000	-11.391000	22.984202	0.000504	20.883413
258.067905	-3.017300	3.821000	-11.528000	22.975485	0.000504	20.901230
259.069686	-2.990600	3.821500	-11.428000	22.968337	0.000503	20.889802
260.070959	-2.991200	3.821500	-11.430000	22.970454	0.000505	20.883863
261.070220	-2.999200	3.820000	-11.456000	22.974863	0.000503	20.894917
262.075562	-3.004200	3.820800	-11.478000	23.005650	0.000504	20.889254
263.075143	-3.006600	3.820500	-11.486000	23.044629	0.000507	20.898437
264.077703	-2.981600	3.821100	-11.392000	23.016385	0.000505	20.876303
265.077682	-3.008600	3.819200	-11.489000	23.061466	0.000506	20.916728
266.075784	-2.999600	3.820400	-11.458000	23.007245	0.000505	20.888007
267.080802	-2.995200	3.819000	-11.438000	23.017507	0.000506	20.896866
268.077633	-3.013000	3.818700	-11.505000	23.023510	0.000506	20.888657
269.074209	-3.008900	3.819600	-11.492000	23.052601	0.000506	20.913061
270.074650	-3.000800	3.819900	-11.462000	23.078927	0.000509	20.893449
271.079846	-2.987200	3.819300	-11.408000	23.071555	0.000506	20.894597
272.078039	-2.997700	3.819300	-11.448000	23.063761	0.000509	20.911915
273.076006	-3.028900	3.817300	-11.560000	23.081792	0.000510	20.901061
274.076438	-3.008600	3.818000	-11.486000	23.065380	0.000510	20.915434
275.079981	-3.014500	3.818100	-11.508000	23.087247	0.000506	20.906052
276.084056	-3.014400	3.817100	-11.505000	23.073401	0.000510	20.892653
277.079498	-3.023800	3.816400	-11.540000	23.085480	0.000509	20.901911
278.078650	-2.991800	3.818700	-11.424000	23.110460	0.000509	20.917457
279.085042	-3.000600	3.818500	-11.457000	23.105530	0.000510	20.899717
280.093822	-3.038300	3.816400	-11.595000	23.092057	0.000509	20.921301
281.083636	-3.005500	3.817100	-11.471000	23.093078	0.000510	20.903361
282.082449	-2.997400	3.817900	-11.443000	23.106577	0.000511	20.908352
283.081038	-2.981900	3.817700	-11.383000	23.088422	0.000510	20.906755
284.090044	-3.016100	3.815600	-11.507000	23.136464	0.000512	20.928340
285.087174	-3.005700	3.816800	-11.471000	23.152652	0.000510	20.916588
286.084032	-3.000100	3.816400	-11.449000	23.179399	0.000512	20.909726
287.080916	-3.005600	3.816000	-11.468000	23.203356	0.000514	20.919508
288.090603	-3.008800	3.814800	-11.477000	23.222705	0.000512	20.910924
289.087805	-3.018800	3.814300	-11.513000	23.200692	0.000513	20.906883
290.085971	-3.012300	3.814100	-11.489000	23.210604	0.000511	20.921555
291.084124	-3.001700	3.814300	-11.449000	23.236776	0.000515	20.928817
292.081627	-3.000100	3.814800	-11.443000	23.260059	0.000513	20.933183
293.088084	-3.014600	3.813800	-11.496000	23.261354	0.000513	20.902716
294.085714	-3.027600	3.813400	-11.545000	23.272785	0.000514	20.923178
295.082019	-3.001100	3.813700	-11.444000	23.242306	0.000518	20.922506
296.084340	-2.981100	3.813000	-11.367000	23.255952	0.000515	20.890665
297.086696	-3.013000	3.813300	-11.489000	23.267256	0.000514	20.911475
298.082359	-2.984200	3.814300	-11.381000	23.245119	0.000514	20.924376
299.083493	-2.984000	3.813600	-11.379000	23.272238	0.000517	20.927371
300.083230	-2.997700	3.812200	-11.427000	23.278039	0.000515	20.924651
301.086044	-2.989400	3.813200	-11.398000	23.295469	0.000516	20.916990
302.083410	-3.010800	3.813000	-11.479000	23.286107	0.000515	20.941269
303.088361	-3.015900	3.812100	-11.495000	23.302568	0.000517	20.899449
304.092462	-3.013700	3.810800	-11.484000	23.303613	0.000520	20.908083
305.089108	-2.980600	3.812000	-11.361000	23.322313	0.000518	20.928719
306.089731	-2.991000	3.811000	-11.398000	23.324579	0.000518	20.920085
307.087178	-2.994700	3.811900	-11.415000	23.342881	0.000518	20.931788
308.091348	-2.991400	3.811000	-11.399000	23.326945	0.000519	20.927197
309.095047	-2.976900	3.810000	-11.340000	23.338971	0.000519	20.944464
310.093727	-2.993000	3.810600	-11.404000	23.352815	0.000521	20.927047
311.094779	-3.000600	3.810800	-11.434000	23.323135	0.000520	20.915793
312.093218	-3.008000	3.810700	-11.462000	23.351621	0.000521	20.936754
313.096201	-3.001200	3.810800	-11.436000	23.349828	0.000520	20.909356
314.099168	-3.013700	3.808200	-11.476000	23.361032	0.000521	20.950452
315.092414	-3.028400	3.808000	-11.532000	23.372361	0.000524	20.925300
316.093107	-2.985300	3.811000	-11.376000	23.350400	0.000522	20.942643
317.100688	-2.987000	3.810900	-11.382000	23.373008	0.000522	20.952972
318.091942	-2.996500	3.809500	-11.414000	23.386454	0.000518	20.902444
319.101735	-3.005900	3.807000	-11.442000	23.391557	0.000521	20.932211
320.095404	-3.020200	3.808700	-11.502000	23.369746	0.000520	20.945436
321.095599	-3.018300	3.806400	-11.488000	23.359015	0.000523	20.922356
322.095355	-3.015000	3.806200	-11.474000	23.383042	0.000523	20.944064
323.093343	-2.991100	3.808000	-11.389000	23.371963	0.000523	20.916841
324.095251	-3.003600	3.808300	-11.438000	23.402015	0.000525	20.944114
325.095358	-2.997100	3.807300	-11.410000	23.457686	0.000522	20.938749
326.103476	-3.003100	3.808100	-11.435000	23.464135	0.000522	20.945686
327.095599	-3.011000	3.807100	-11.462000	23.475064	0.000525	20.920608
328.094102	-3.010900	3.806000	-11.458000	23.504989	0.000525	20.926897
329.096284	-2.997500	3.806600	-11.409000	23.481911	0.000525	20.917515
330.096314	-3.007300	3.804900	-11.441000	23.483156	0.000524	20.922081
331.097195	-2.999800	3.804500	-11.411000	23.451686	0.000521	20.926099
332.097731	-3.018700	3.804500	-11.484000	23.487588	0.000526	20.917515
333.102280	-2.995600	3.805600	-11.400000	23.489729	0.000525	20.931988
334.096992	-2.998600	3.804200	-11.406000	23.461621	0.000526	20.927048
335.099338	-3.003600	3.803000	-11.421000	23.467671	0.000527	20.935008
336.106329	-3.008600	3.804100	-11.444000	23.476061	0.000526	20.910703
337.100218	-3.001600	3.804400	-11.419000	23.510419	0.000528	20.925227
338.102425	-2.996300	3.804300	-11.398000	23.473198	0.000528	20.908783
339.105852	-3.024400	3.803500	-11.502000	23.489132	0.000526	20.920012
340.100300	-3.034800	3.801300	-11.536000	23.515422	0.000525	20.916019
341.100893	-3.016800	3.801300	-11.466000	23.544999	0.000528	20.927648
342.107044	-3.015300	3.802600	-11.466000	23.570939	0.000526	20.916669
343.098970	-3.015500	3.801600	-11.461000	23.549157	0.000527	20.914748
344.106464	-3.003800	3.802000	-11.420000	23.534369	0.000528	20.932165
345.103404	-2.986800	3.801600	-11.354000	23.540842	0.000526	20.888872
346.112002	-3.008000	3.801200	-11.433000	23.562352	0.000528	20.922284
347.101390	-2.998800	3.801700	-11.399000	23.557895	0.000528	20.907387
348.106966	-2.992000	3.800900	-11.371000	23.586076	0.000530	20.909558
349.101690	-2.984300	3.800300	-11.340000	23.569149	0.000531	20.893539
350.120452	-3.014400	3.800200	-11.455000	23.574253	0.000529	20.917619
351.106140	-3.006100	3.801800	-11.428000	23.569099	0.000530	20.895859
352.111071	-2.999500	3.800000	-11.396000	23.610673	0.000530	20.918094
353.106478	-3.005900	3.801200	-11.425000	23.634995	0.000532	20.895063
354.103992	-3.004800	3.800600	-11.419000	23.621328	0.000529	20.910284
355.109195	-3.025300	3.799100	-11.493000	23.602060	0.000531	20.893341
356.104320	-3.019000	3.797600	-11.464000	23.582469	0.000532	20.906417
357.106228	-2.987300	3.799300	-11.349000	23.607588	0.000531	20.894615
358.113173	-3.008600	3.798600	-11.427000	23.616425	0.000533	20.885457
359.107609	-2.998500	3.798500	-11.389000	23.602112	0.000532	20.891022
360.104483	-3.008500	3.797900	-11.425000	23.613713	0.000532	20.890324
361.106201	-2.980100	3.798300	-11.318000	23.603358	0.000533	20.894642
362.108256	-2.996200	3.797500	-11.377000	23.608636	0.000533	20.895666
363.105958	-2.977100	3.799000	-11.308000	23.631588	0.000532	20.885959
364.107074	-3.010900	3.796400	-11.429000	23.623872	0.000535	20.879173
365.112172	-3.025600	3.796100	-11.484000	23.651652	0.000534	20.889478
366.108369	-2.992500	3.797900	-11.365000	23.674429	0.000534	20.877700
367.114504	-3.000600	3.797800	-11.394000	23.691431	0.000534	20.873408
368.113093	-3.000800	3.796700	-11.392000	23.711418	0.000533	20.854568
369.109251	-2.994400	3.796400	-11.366000	23.730535	0.000535	20.886060
370.113095	-3.002600	3.795300	-11.395000	23.725483	0.000535	20.888581
371.114744	-2.999300	3.796000	-11.384000	23.705272	0.000535	20.883965
372.110713	-3.000600	3.795300	-11.387000	23.722621	0.000535	20.856791
373.110984	-3.004800	3.795800	-11.405000	23.726030	0.000537	20.867320
374.121449	-3.007900	3.794900	-11.413000	23.723020	0.000537	20.872836
375.120708	-2.987500	3.795800	-11.339000	23.733947	0.000536	20.879998
376.109860	-3.016900	3.794400	-11.447000	23.743754	0.000536	20.875132
377.110594	-2.981700	3.794600	-11.313000	23.724389	0.000536	20.884165
378.113008	-3.013500	3.793200	-11.430000	23.708782	0.000536	20.878002
379.113253	-3.011000	3.792600	-11.419000	23.701563	0.000536	20.874083
380.110636	-3.011900	3.793200	-11.423000	23.732453	0.000537	20.871389
381.113244	-3.007000	3.792800	-11.403000	23.736311	0.000537	20.884739
382.112968	-3.016700	3.791900	-11.438000	23.720905	0.000538	20.869294
383.115630	-2.996200	3.792300	-11.361000	23.726878	0.000537	20.856792
384.124746	-3.000700	3.791800	-11.377000	23.708881	0.000537	20.856292
385.114030	-2.990600	3.793900	-11.345000	23.728672	0.000535	20.877080
386.115839	-3.003800	3.791500	-11.388000	23.748186	0.000537	20.884316
387.116325	-2.994300	3.791200	-11.351000	23.752143	0.000540	20.875483
388.113372	-2.989300	3.791100	-11.332000	23.803640	0.000539	20.875907
389.112633	-2.997400	3.790400	-11.360000	23.814517	0.000536	20.872588
390.114908	-3.015300	3.789200	-11.425000	23.798464	0.000538	20.887785
391.126445	-3.012700	3.790900	-11.420000	23.810262	0.000538	20.853150
392.117438	-3.007000	3.790200	-11.396000	23.805484	0.000538	20.862583
393.126328	-3.001000	3.790300	-11.373000	23.764441	0.000539	20.855572
394.116523	-3.001700	3.790800	-11.378000	23.760733	0.000539	20.857544
395.116723	-2.993200	3.789800	-11.343000	23.789257	0.000538	20.851530
396.114747	-3.003900	3.789900	-11.384000	23.797571	0.000541	20.854176
397.121139	-2.987400	3.790100	-11.321000	23.801578	0.000540	20.846814
398.114931	-2.999800	3.789000	-11.366000	23.825771	0.000538	20.853053
399.115140	-3.022900	3.787100	-11.447000	23.821715	0.000538	20.861314
400.122235	-3.005600	3.787600	-11.382000	23.851555	0.000540	20.836234
401.115417	-3.009800	3.788900	-11.403000	23.835254	0.000539	20.848812
402.116567	-3.003500	3.788200	-11.377000	23.846779	0.000542	20.863212
403.119002	-3.009100	3.787200	-11.395000	23.849467	0.000542	20.843623
404.118810	-2.996500	3.788000	-11.350000	23.889113	0.000541	20.850186
405.119217	-3.017100	3.786600	-11.423000	23.927963	0.000540	20.850737
406.125613	-2.998300	3.786000	-11.351000	23.924056	0.000543	20.840655
407.117913	-3.032800	3.785600	-11.480000	23.896954	0.000542	20.846195
408.124158	-2.991400	3.786800	-11.327000	23.887149	0.000542	20.861018
409.125490	-2.967800	3.786600	-11.237000	23.903078	0.000542	20.851861
410.120976	-2.993700	3.785600	-11.332000	23.865622	0.000541	20.836115
411.121698	-2.988900	3.786100	-11.316000	23.855792	0.000542	20.855181
412.121045	-3.008000	3.783600	-11.380000	23.880357	0.000542	20.848518
413.120374	-3.003600	3.784100	-11.365000	23.867690	0.000542	20.863791
414.121062	-3.004300	3.785600	-11.372000	23.856863	0.000545	20.834918
415.130199	-3.011900	3.784100	-11.396000	23.896709	0.000544	20.844527
416.117885	-3.009000	3.783900	-11.384000	23.893001	0.000543	20.850765
417.120692	-3.028400	3.783900	-11.459000	23.904176	0.000542	20.830678
418.120690	-3.002900	3.784600	-11.364000	23.922169	0.000541	20.850142
419.121203	-3.003900	3.783100	-11.363000	23.895167	0.000543	20.833972
420.119259	-2.995500	3.783300	-11.333000	23.923338	0.000543	20.849418
421.121116	-3.002000	3.783300	-11.357000	23.931577	0.000545	20.854835
422.122635	-2.994900	3.782500	-11.328000	23.927644	0.000544	20.833822
423.119886	-3.004200	3.783000	-11.364000	23.963680	0.000545	20.855733
424.121343	-3.005800	3.781700	-11.366000	23.980304	0.000547	20.836369
425.118022	-2.987100	3.782000	-11.295000	23.965422	0.000544	20.838515
426.121105	-3.002000	3.780500	-11.348000	24.005788	0.000542	20.832527
427.124203	-2.994000	3.782100	-11.323000	24.015069	0.000544	20.838516
428.122747	-2.964400	3.781100	-11.208000	24.009968	0.000545	20.826763
429.122434	-2.972800	3.782000	-11.242000	23.997003	0.000542	20.821821
430.121895	-2.990600	3.780700	-11.305000	23.996257	0.000543	20.843832
431.125449	-3.000800	3.778900	-11.340000	24.019649	0.000545	20.828410
432.129195	-3.009800	3.779700	-11.376000	24.060284	0.000544	20.846403
433.120482	-3.014100	3.779000	-11.389000	24.067874	0.000545	20.815608
434.121112	-2.999000	3.779200	-11.332000	24.077926	0.000546	20.841811
435.125938	-3.002600	3.779800	-11.349000	24.087208	0.000545	20.823619
436.123806	-3.017000	3.778400	-11.398000	24.069615	0.000543	20.833001
437.124475	-3.007700	3.777800	-11.361000	24.056825	0.000544	20.837718
438.120792	-3.006400	3.778900	-11.360000	24.033957	0.000544	20.832328
439.129928	-3.008300	3.777900	-11.364000	24.019299	0.000545	20.834698
440.125567	-2.975600	3.778200	-11.241000	24.038535	0.000544	20.812738
441.127474	-3.005900	3.777000	-11.352000	24.054137	0.000546	20.830281
442.127226	-3.002800	3.777100	-11.341000	24.055778	0.000546	20.826711
443.124137	-3.016100	3.776300	-11.389000	24.052344	0.000548	20.821845
444.128706	-2.994500	3.777100	-11.310000	24.067100	0.000547	20.820522
445.124530	-2.997500	3.775300	-11.316000	24.072201	0.000546	20.806673
446.127687	-3.008700	3.775100	-11.357000	24.075511	0.000545	20.815681
447.123970	-3.001200	3.776400	-11.332000	24.080014	0.000547	20.820198
448.129527	-3.017900	3.774800	-11.391000	24.084667	0.000548	20.852363
449.131426	-2.987200	3.777000	-11.282000	24.105194	0.000547	20.835020
450.128809	-3.026800	3.773700	-11.422000	24.103378	0.000547	20.800008
451.129141	-3.009400	3.775000	-11.360000	24.093922	0.000547	20.839836
452.129499	-3.012200	3.775400	-11.370000	24.103302	0.000549	20.822691
453.132374	-3.021100	3.773500	-11.399000	24.118853	0.000548	20.824537
454.128108	-3.000900	3.773300	-11.323000	24.142964	0.000548	20.796088
455.129682	-2.991900	3.774900	-11.293000	24.140226	0.000547	20.822740
456.126330	-2.988900	3.774000	-11.279000	24.166674	0.000546	20.819395
457.129611	-3.004900	3.771900	-11.333000	24.150948	0.000547	20.812157
458.130299	-2.960400	3.773500	-11.170000	24.135173	0.000548	20.830000
459.128139	-2.998600	3.773500	-11.315000	24.146817	0.000548	20.818920
460.129134	-2.999900	3.773200	-11.318000	24.190383	0.000548	20.839381
461.131146	-3.022000	3.773100	-11.400000	24.156570	0.000548	20.826804
462.132223	-2.986200	3.772400	-11.265000	24.114918	0.000548	20.824383
463.134940	-3.001400	3.772000	-11.320000	24.094986	0.000549	20.820040
464.134580	-3.013500	3.770900	-11.363000	24.127258	0.000549	20.809260
465.128844	-2.981700	3.773300	-11.250000	24.138380	0.000547	20.822785
466.132203	-3.011800	3.771700	-11.359000	24.141563	0.000547	20.827400
467.133673	-2.997400	3.771500	-11.303000	24.178487	0.000546	20.813226
468.133035	-3.002500	3.769600	-11.318000	24.156517	0.000549	20.824380
469.131769	-3.012300	3.770800	-11.358000	24.178362	0.000547	20.814048
470.139129	-2.974200	3.771400	-11.216000	24.141886	0.000547	20.826301
471.132154	-3.000700	3.769600	-11.310000	24.204685	0.000549	20.824803
472.139848	-2.948600	3.772100	-11.121000	24.217050	0.000547	20.804964
473.138185	-2.984000	3.770400	-11.250000	24.202271	0.000547	20.827124
474.134310	-3.017700	3.769100	-11.372000	24.205455	0.000549	20.809929
475.138466	-2.981500	3.769100	-11.236000	24.206127	0.000549	20.812500
476.137164	-2.981200	3.769600	-11.237000	24.223120	0.000548	20.823380
477.141625	-3.008800	3.769900	-11.341000	24.218814	0.000547	20.806734
478.137294	-3.013200	3.768600	-11.354000	24.246356	0.000550	20.817289
479.143731	-3.017000	3.768400	-11.368000	24.233145	0.000548	20.825375
480.143820	-3.014400	3.769000	-11.360000	24.247574	0.000548	20.825624
481.144236	-2.985800	3.769200	-11.253000	24.262626	0.000546	20.809428
482.144245	-3.006800	3.767000	-11.326000	24.286708	0.000548	20.804187
483.144800	-2.988500	3.767000	-11.257000	24.295888	0.000546	20.802490
484.141413	-3.005700	3.766500	-11.321000	24.320964	0.000547	20.808678
485.145918	-3.013200	3.766500	-11.348000	24.348280	0.000548	20.804311
486.143208	-3.029600	3.765100	-11.406000	24.356713	0.000548	20.817039
487.144258	-2.990400	3.766400	-11.262000	24.320391	0.000548	20.800517
488.147792	-2.974000	3.766200	-11.199000	24.335342	0.000550	20.798445
489.144825	-2.998600	3.765800	-11.291000	24.344920	0.000551	20.818484
490.144718	-3.004700	3.765300	-11.313000	24.268271	0.000548	20.810348
491.141587	-3.006500	3.764200	-11.316000	24.241177	0.000551	20.820155
492.148772	-2.977800	3.764500	-11.208000	24.272873	0.000549	20.798369
493.149371	-2.994700	3.763600	-11.270000	24.260557	0.000550	20.807827
494.147102	-2.990400	3.764100	-11.255000	24.261228	0.000551	20.807552
495.148174	-2.989600	3.765000	-11.255000	24.311855	0.000552	20.794799
496.150046	-2.993000	3.764100	-11.265000	24.316755	0.000550	20.808724
497.148017	-2.983000	3.765400	-11.231000	24.346658	0.000549	20.809322
498.149823	-3.005900	3.763500	-11.311000	24.382007	0.000550	20.810645
499.152334	-3.000000	3.763100	-11.287000	24.410713	0.000550	20.812890
500.144632	-3.013800	3.761500	-11.336000	24.427032	0.000551	20.807925
501.150846	-2.998100	3.761500	-11.276000	24.406807	0.000552	20.798067
502.144835	-3.021400	3.760900	-11.362000	24.402255	0.000550	20.827164
503.148697	-3.011500	3.761700	-11.327000	24.398971	0.000549	20.803956
504.145442	-3.010000	3.761800	-11.321000	24.403225	0.000549	20.789257
505.148689	-3.022200	3.761700	-11.367000	24.377976	0.000550	20.815135
506.147046	-3.028700	3.759400	-11.385000	24.379518	0.000553	20.818579
507.145991	-3.003400	3.761700	-11.297000	24.369045	0.000552	20.819452
508.146103	-3.005000	3.760700	-11.300000	24.373920	0.000551	20.794946
509.154231	-2.999100	3.760500	-11.277000	24.376109	0.000552	20.815159
510.148986	-2.984000	3.760400	-11.220000	24.413472	0.000552	20.809494
511.146955	-3.016200	3.758800	-11.336000	24.389492	0.000549	20.781170
512.151968	-3.012500	3.759500	-11.325000	24.379144	0.000552	20.812988
513.147480	-3.018400	3.758400	-11.343000	24.377948	0.000552	20.791875
514.150483	-3.010000	3.757800	-11.310000	24.401383	0.000550	20.790254
515.155781	-3.018900	3.758500	-11.346000	24.412452	0.000550	20.817479
516.148513	-2.991500	3.758600	-11.243000	24.411183	0.000550	20.797241
517.148928	-3.022400	3.756500	-11.352000	24.411805	0.000552	20.794071
518.155675	-3.005100	3.758300	-11.294000	24.423596	0.000548	20.797365
519.149319	-3.018900	3.756700	-11.340000	24.400038	0.000551	20.805026
520.150646	-3.021000	3.756200	-11.347000	24.431779	0.000552	20.814109
521.154757	-3.000100	3.756500	-11.270000	24.428247	0.000552	20.801084
522.147382	-3.023300	3.755900	-11.353000	24.461380	0.000551	20.791175
523.152165	-3.001800	3.757000	-11.277000	24.473767	0.000551	20.785585
524.152647	-3.012800	3.756600	-11.317000	24.474463	0.000551	20.784861
525.153389	-3.009000	3.754600	-11.297000	24.492746	0.000551	20.791825
526.152512	-3.026500	3.756000	-11.366000	24.524683	0.000552	20.800634
527.153168	-3.012600	3.754700	-11.310000	24.512719	0.000551	20.787682
528.153396	-3.026200	3.754900	-11.362000	24.525828	0.000551	20.788980
529.150473	-3.009800	3.754700	-11.300000	24.496352	0.000550	20.798288
530.153600	-3.009700	3.755000	-11.301000	24.458792	0.000552	20.800908
531.149446	-3.010100	3.753700	-11.297000	24.462299	0.000551	20.797788
532.155701	-2.996500	3.752100	-11.242000	24.464638	0.000551	20.789228
533.153003	-3.000200	3.754600	-11.263000	24.458395	0.000553	20.805725
534.150409	-3.008700	3.754700	-11.296000	24.459415	0.000551	20.801058
535.158575	-2.988900	3.754000	-11.219000	24.491651	0.000553	20.782191
536.155990	-2.991500	3.753700	-11.229000	24.531423	0.000551	20.791274
537.156617	-3.004100	3.753500	-11.274000	24.526822	0.000551	20.798512
538.153491	-3.004600	3.753400	-11.276000	24.528787	0.000551	20.790052
539.152055	-2.999900	3.751900	-11.253000	24.512122	0.000551	20.791824
540.148398	-3.004600	3.752900	-11.276000	24.524434	0.000550	20.800858
541.152837	-3.018400	3.751300	-11.322000	24.552067	0.000552	20.790177
542.150776	-2.990800	3.752500	-11.222000	24.529160	0.000552	20.780943
543.154954	-2.986100	3.751300	-11.201000	24.498292	0.000552	20.786010
544.155316	-3.004300	3.751600	-11.270000	24.515778	0.000551	20.784112
545.149433	-2.993400	3.750900	-11.227000	24.507246	0.000551	20.794045
546.153312	-3.002600	3.751600	-11.264000	24.522418	0.000552	20.794094
547.155897	-2.994700	3.750500	-11.230000	24.534482	0.000553	20.810465
548.152228	-2.999500	3.749900	-11.248000	24.535701	0.000550	20.808369
549.151975	-2.994600	3.749600	-11.227000	24.544456	0.000551	20.804351
550.156470	-3.003500	3.749600	-11.261000	24.555076	0.000553	20.806471
551.155301	-3.004700	3.749800	-11.266000	24.594248	0.000550	20.811636
552.156810	-3.018100	3.748500	-11.312000	24.568929	0.000552	20.793345
553.157022	-3.001100	3.749600	-11.252000	24.520652	0.000552	20.792796
554.157632	-2.997400	3.749300	-11.238000	24.517891	0.000551	20.796190
555.157146	-3.007500	3.748500	-11.272000	24.534008	0.000551	20.803826
556.155889	-2.997500	3.748100	-11.233000	24.527243	0.000551	20.789452
557.154450	-2.995100	3.747900	-11.224000	24.545524	0.000553	20.796414
558.152792	-2.983000	3.747400	-11.178000	24.545599	0.000551	20.814507
559.155722	-2.990600	3.747300	-11.206000	24.535525	0.000550	20.802976
560.157502	-2.988900	3.747000	-11.198000	24.568655	0.000552	20.801605
561.157970	-2.979400	3.747700	-11.164000	24.574201	0.000552	20.800531
562.156405	-2.971700	3.747400	-11.136000	24.589945	0.000552	20.797836
563.162230	-3.002300	3.746000	-11.246000	24.597058	0.000550	20.791697
564.158823	-3.001300	3.746600	-11.243000	24.605663	0.000552	20.787055
565.157726	-2.998500	3.743900	-11.224000	24.561119	0.000552	20.792146
566.158355	-3.003000	3.745700	-11.247000	24.575420	0.000551	20.804125
567.154532	-2.990000	3.745400	-11.198000	24.584199	0.000552	20.812459
568.157624	-2.985800	3.744600	-11.179000	24.578902	0.000550	20.823265
569.161398	-2.991900	3.745000	-11.203000	24.578851	0.000552	20.797610
570.159352	-2.980900	3.745800	-11.164000	24.603076	0.000551	20.816227
571.154939	-2.995800	3.743700	-11.213000	24.597630	0.000551	20.792270
572.163936	-2.980900	3.743700	-11.159000	24.626380	0.000553	20.794091
573.157367	-2.986600	3.744900	-11.183000	24.613074	0.000551	20.796862
574.158550	-2.985200	3.743600	-11.174000	24.594694	0.000550	20.812558
575.156267	-2.994200	3.744400	-11.210000	24.551118	0.000551	20.809139
576.155087	-3.007400	3.743300	-11.257000	24.598375	0.000552	20.814829
577.159802	-2.992100	3.744300	-11.202000	24.584496	0.000549	20.795213
578.159739	-3.006600	3.743600	-11.255000	24.598101	0.000550	20.815502
579.159945	-3.005400	3.743000	-11.248000	24.601509	0.000551	20.799007
580.156084	-3.017300	3.740800	-11.286000	24.586684	0.000552	20.803099
581.162386	-2.983200	3.742200	-11.163000	24.622598	0.000550	20.837237
582.160082	-3.005800	3.741100	-11.244000	24.651796	0.000550	20.809163
583.159211	-2.986500	3.741300	-11.172000	24.651198	0.000550	20.816624
584.163782	-3.011300	3.739800	-11.260000	24.650700	0.000551	20.819444
585.157665	-3.025800	3.740600	-11.317000	24.629486	0.000550	20.801476
586.162487	-3.002500	3.740500	-11.229000	24.637046	0.000549	20.807639
587.161202	-2.996400	3.740600	-11.208000	24.647814	0.000552	20.812754
588.163404	-3.017500	3.741100	-11.289000	24.676041	0.000551	20.794138
589.162062	-3.032400	3.738900	-11.337000	24.699543	0.000549	20.815350
590.163072	-3.000400	3.739500	-11.219000	24.736745	0.000550	20.825655
591.163178	-3.010100	3.738300	-11.252000	24.697974	0.000548	20.817095
592.164732	-2.997300	3.739800	-11.209000	24.684072	0.000553	20.803619
593.162672	-3.010000	3.739500	-11.255000	24.657462	0.000549	20.832866
594.157219	-2.994600	3.738900	-11.196000	24.627741	0.000549	20.816320
595.162305	-3.003600	3.738300	-11.228000	24.610978	0.000546	20.810880
596.157957	-2.990200	3.738800	-11.179000	24.651691	0.000550	20.839403
597.163440	-3.000200	3.737800	-11.213000	24.681435	0.000550	20.816619
598.169375	-3.002700	3.738300	-11.224000	24.700558	0.000548	20.816843
599.162795	-3.000900	3.738100	-11.216000	24.687875	0.000549	20.809806
600.165114	-2.969000	3.737800	-11.096000	24.701403	0.000547	20.830967
601.165434	-2.993900	3.737700	-11.190000	24.659473	0.000547	20.833462
602.163498	-2.990800	3.736600	-11.174000	24.708241	0.000547	20.821708
603.168563	-3.009500	3.736300	-11.244000	24.703963	0.000547	20.843493
604.166649	-2.991400	3.737000	-11.178000	24.707768	0.000548	20.815069
605.165178	-3.000700	3.735700	-11.209000	24.748328	0.000547	20.827322
606.163843	-3.010800	3.735000	-11.244000	24.769441	0.000549	20.821482
607.166715	-3.002800	3.734900	-11.214000	24.769116	0.000547	20.833010
608.163201	-3.012500	3.734900	-11.251000	24.783440	0.000547	20.824151
609.167713	-3.002700	3.734600	-11.213000	24.795301	0.000549	20.818037
610.167796	-3.021400	3.734900	-11.282000	24.750117	0.000548	20.830065
611.168839	-3.019500	3.733900	-11.273000	24.718833	0.000547	20.828543
612.163088	-3.024300	3.732600	-11.288000	24.712691	0.000548	20.811948
613.176569	-2.997000	3.733900	-11.189000	24.761307	0.000550	20.855992
614.167647	-2.998700	3.733600	-11.195000	24.768892	0.000547	20.830888
615.165499	-2.992600	3.734000	-11.173000	24.795449	0.000547	20.834781
616.166935	-3.016800	3.733900	-11.264000	24.769239	0.000547	20.842142
617.163165	-3.000300	3.732300	-11.198000	24.714032	0.000548	20.838898
618.164495	-3.016500	3.732600	-11.257000	24.748325	0.000548	20.831586
619.164721	-3.018300	3.731900	-11.262000	24.754119	0.000547	20.848780
620.168540	-3.006000	3.731800	-11.217000	24.750513	0.000547	20.829040
621.166615	-2.991300	3.731800	-11.162000	24.736512	0.000546	20.852922
622.166152	-2.980800	3.732600	-11.125000	24.730345	0.000548	20.827768
623.168165	-3.003000	3.732100	-11.207000	24.781274	0.000546	20.826719
624.166558	-2.981100	3.730900	-11.122000	24.822403	0.000548	20.852347
625.164992	-2.999300	3.730600	-11.188000	24.820240	0.000546	20.849702
626.172498	-3.001700	3.731200	-11.200000	24.818200	0.000546	20.825845
627.170930	-3.014700	3.729800	-11.243000	24.826456	0.000548	20.837923
628.172235	-2.993800	3.730000	-11.166000	24.820811	0.000547	20.838422
629.175927	-3.031700	3.728400	-11.302000	24.865916	0.000547	20.838172
630.168530	-3.011700	3.728700	-11.228000	24.813798	0.000546	20.834229
631.170621	-3.021000	3.728100	-11.262000	24.813326	0.000546	20.826643
632.171049	-3.003000	3.728500	-11.195000	24.857388	0.000547	20.848578
633.173062	-3.016000	3.728800	-11.245000	24.850077	0.000546	20.856887
634.171353	-3.018600	3.728000	-11.253000	24.854428	0.000546	20.839444
635.172779	-3.009200	3.728300	-11.218000	24.881531	0.000546	20.834878
636.171906	-2.996200	3.727700	-11.168000	24.866712	0.000545	20.859358
637.176283	-3.006100	3.727500	-11.204000	24.833567	0.000546	20.856439
638.173710	-2.998400	3.726400	-11.172000	24.853931	0.000548	20.858384
639.174089	-2.978100	3.727100	-11.099000	24.868950	0.000546	20.872034
640.177111	-2.996600	3.727400	-11.169000	24.876931	0.000546	20.874355
641.170630	-2.995600	3.728100	-11.167000	24.894634	0.000544	20.860355
642.175279	-2.983700	3.727100	-11.119000	24.891750	0.000546	20.829487
643.172938	-3.003300	3.726200	-11.189000	24.910895	0.000545	20.837322
644.173298	-2.994600	3.725300	-11.155000	24.903684	0.000545	20.872282
645.172811	-3.012800	3.724900	-11.222000	24.902889	0.000546	20.873855
646.180582	-3.005100	3.724500	-11.192000	24.909054	0.000547	20.857759
647.177944	-3.008600	3.725400	-11.208000	24.918826	0.000545	20.879893
648.177555	-3.006300	3.724600	-11.196000	24.862806	0.000546	20.845956
649.177438	-3.001200	3.725700	-11.181000	24.886601	0.000543	20.855138
650.174986	-2.995500	3.723900	-11.153000	24.878719	0.000544	20.865719
651.173801	-2.992900	3.723600	-11.144000	24.874567	0.000544	20.853017
652.175758	-2.974000	3.725400	-11.078000	24.882125	0.000543	20.839741
653.173128	-3.013000	3.722700	-11.215000	24.897292	0.000542	20.851170
654.172420	-3.008800	3.724400	-11.205000	24.923077	0.000543	20.866617
655.176607	-2.988400	3.724100	-11.129000	24.919372	0.000543	20.856261
656.172875	-3.005600	3.722900	-11.188000	24.947567	0.000542	20.869387
657.176757	-2.980100	3.722400	-11.092000	24.953311	0.000542	20.872780
658.175718	-2.991500	3.722700	-11.135000	24.970565	0.000542	20.862599
659.181211	-3.008100	3.720900	-11.191000	24.955398	0.000543	20.870134
660.177436	-2.993700	3.722900	-11.144000	24.913752	0.000543	20.869585
661.179767	-3.007100	3.721000	-11.189000	24.920092	0.000541	20.860776
662.177582	-3.014200	3.721700	-11.217000	24.889832	0.000541	20.863122
663.175905	-3.001700	3.722300	-11.172000	24.856314	0.000541	20.871207
664.183226	-3.026300	3.720000	-11.257000	24.876007	0.000541	20.886229
665.178388	-3.022100	3.719800	-11.240000	24.856787	0.000540	20.871207
666.180922	-3.016000	3.721000	-11.222000	24.862033	0.000540	20.875998
667.175186	-3.000600	3.721300	-11.165000	24.856538	0.000540	20.878543
668.181817	-3.013200	3.719200	-11.206000	24.868448	0.000541	20.881014
669.176791	-3.020400	3.718800	-11.231000	24.860591	0.000542	20.887352
670.181902	-3.019800	3.718800	-11.229000	24.857507	0.000542	20.866241
671.181102	-2.995200	3.720700	-11.143000	24.905298	0.000539	20.896185
672.178922	-3.017500	3.719200	-11.222000	24.932424	0.000540	20.869834
673.181497	-3.027700	3.718600	-11.257000	24.967282	0.000540	20.869734
674.178615	-3.010200	3.718000	-11.191000	25.010492	0.000543	20.885605
675.181671	-3.009400	3.718900	-11.190000	24.988042	0.000537	20.863545
676.180172	-2.990500	3.718900	-11.120000	25.031400	0.000540	20.878143
677.183341	-2.971800	3.718700	-11.050000	25.025682	0.000540	20.879041
678.179041	-2.992900	3.717400	-11.125000	25.006862	0.000538	20.877220
679.184062	-2.970600	3.718200	-11.043000	24.980334	0.000539	20.863395
680.178442	-3.014000	3.717200	-11.203000	24.945352	0.000540	20.884232
681.181613	-2.985700	3.717300	-11.098000	24.966933	0.000538	20.892616
682.183276	-2.974900	3.717500	-11.057000	24.992517	0.000538	20.887476
683.181716	-2.994700	3.717300	-11.132000	24.962557	0.000539	20.896758
684.179210	-3.004100	3.715600	-11.161000	24.935905	0.000539	20.891344
685.182274	-2.993900	3.715700	-11.123000	24.941175	0.000541	20.903745
686.184576	-3.011600	3.714400	-11.186000	24.943313	0.000539	20.876970
687.187554	-3.007500	3.716400	-11.176000	24.919544	0.000540	20.876347
688.183562	-2.981000	3.716100	-11.077000	24.942145	0.000541	20.890495
689.184241	-2.981700	3.715500	-11.077000	24.975411	0.000541	20.907762
690.186984	-3.002900	3.714400	-11.153000	24.985132	0.000539	20.884805
691.179984	-2.985600	3.716300	-11.094000	24.961190	0.000540	20.886852
692.182441	-2.987700	3.714600	-11.097000	24.982324	0.000540	20.902373
693.183836	-2.979600	3.714800	-11.067000	24.995301	0.000539	20.874624
694.182711	-2.991100	3.713500	-11.106000	24.996743	0.000539	20.881761
695.184335	-2.989300	3.714100	-11.101000	25.030952	0.000541	20.890020
696.189548	-2.994900	3.714100	-11.122000	24.983616	0.000538	20.873327
697.183493	-3.017000	3.712300	-11.199000	24.996296	0.000537	20.871830
698.183183	-3.001400	3.712600	-11.142000	25.017428	0.000538	20.915323
699.188619	-3.009600	3.712800	-11.173000	25.013574	0.000540	20.892491
700.187693	-2.999700	3.713000	-11.137000	24.993684	0.000537	20.891018
701.187844	-3.001900	3.712300	-11.144000	25.028739	0.000539	20.903919
702.184620	-3.015800	3.712300	-11.194000	25.043010	0.000537	20.907812
703.188913	-3.009200	3.711600	-11.168000	25.027273	0.000538	20.912877
704.186834	-3.017300	3.711500	-11.197000	25.012828	0.000535	20.889845
705.188298	-3.019300	3.712000	-11.207000	24.999477	0.000537	20.902048
706.189178	-3.002300	3.711900	-11.143000	25.044551	0.000537	20.901299
707.191700	-2.996300	3.711200	-11.119000	25.066354	0.000538	20.909433
708.188399	-3.009700	3.710100	-11.165000	25.069138	0.000534	20.891367
709.186786	-2.993600	3.710900	-11.108000	25.057652	0.000537	20.922982
710.187395	-2.999400	3.709500	-11.126000	25.036669	0.000535	20.907137
711.185647	-2.994800	3.709800	-11.109000	25.015562	0.000535	20.917717
712.187232	-2.982100	3.710000	-11.063000	24.985827	0.000533	20.902571
713.191298	-3.030700	3.708600	-11.238000	25.008824	0.000535	20.924230
714.189711	-2.984800	3.709900	-11.072000	25.017327	0.000535	20.919489
715.186445	-3.011900	3.708200	-11.168000	24.986548	0.000535	20.903768
716.192448	-2.987800	3.709400	-11.082000	24.999203	0.000536	20.922633
717.191218	-3.023400	3.706900	-11.206000	24.981923	0.000533	20.932314
718.186984	-3.015900	3.707200	-11.179000	25.005542	0.000531	20.914298
719.192033	-2.985300	3.707500	-11.066000	24.990302	0.000533	20.917018
720.187162	-3.007000	3.708000	-11.148000	25.025481	0.000534	20.884529
721.188152	-3.016700	3.707100	-11.182000	25.072518	0.000532	20.935533
722.190755	-2.980400	3.708100	-11.050000	25.066776	0.000534	20.930243
723.188909	-2.995700	3.707800	-11.107000	25.071623	0.000531	20.914249
724.189406	-3.000500	3.707200	-11.122000	25.116645	0.000533	20.916295
725.189945	-2.977600	3.707500	-11.038000	25.095540	0.000530	20.928298
726.190483	-3.013400	3.706000	-11.167000	25.110505	0.000531	20.921985
727.189962	-2.987600	3.705300	-11.069000	25.126664	0.000532	20.934411
728.191682	-2.995800	3.706400	-11.103000	25.121692	0.000531	20.919939
729.193385	-3.004900	3.705800	-11.134000	25.130493	0.000531	20.935410
730.192031	-2.999300	3.704800	-11.111000	25.139069	0.000533	20.916995
731.191656	-3.007100	3.704800	-11.139000	25.154258	0.000531	20.933663
732.194873	-3.007400	3.705300	-11.142000	25.166289	0.000531	20.932466
733.205690	-2.998500	3.704400	-11.107000	25.148193	0.000530	20.925679
734.195639	-2.996700	3.703600	-11.097000	25.106579	0.000529	20.910932
735.196756	-2.995000	3.703800	-11.092000	25.085274	0.000529	20.929846
736.200169	-2.979200	3.704100	-11.034000	25.053975	0.000529	20.936834
737.197032	-3.007400	3.704400	-11.139000	25.083534	0.000530	20.929996
738.198419	-3.014100	3.702000	-11.157000	25.086716	0.000528	20.937931
739.201794	-2.990500	3.702600	-11.072000	25.077567	0.000531	20.933964
740.197269	-2.987300	3.703200	-11.062000	25.088481	0.000528	20.927850
741.196085	-3.007200	3.702100	-11.132000	25.117890	0.000527	20.934613
742.193262	-3.019700	3.701800	-11.177000	25.153513	0.000528	20.925330
743.199212	-2.981400	3.702400	-11.038000	25.152594	0.000529	20.922511
744.196763	-2.979300	3.703000	-11.031000	25.168975	0.000526	20.941325
745.201541	-2.990500	3.702100	-11.070000	25.188812	0.000528	20.924257
746.196504	-3.006900	3.700800	-11.127000	25.162412	0.000527	20.933789
747.200010	-2.984700	3.702400	-11.050000	25.141108	0.000527	20.916671
748.197221	-2.988700	3.701200	-11.061000	25.107424	0.000526	20.941649
749.197955	-2.985800	3.701200	-11.050000	25.077692	0.000525	20.959689
750.205343	-2.998400	3.701600	-11.098000	25.073316	0.000528	20.956246
751.196159	-2.989200	3.700800	-11.061000	25.126566	0.000527	20.946639
752.198745	-3.009600	3.701300	-11.138000	25.164848	0.000526	20.935760
753.200336	-3.003600	3.699900	-11.112000	25.172082	0.000525	20.952503
754.200577	-3.003700	3.699900	-11.112000	25.173722	0.000525	20.938031
755.202096	-3.008800	3.699800	-11.131000	25.184485	0.000526	20.945990
756.203033	-2.993600	3.699100	-11.073000	25.180557	0.000528	20.953899
757.203021	-3.009100	3.699400	-11.131000	25.142251	0.000527	20.954798
758.202897	-3.007800	3.699600	-11.127000	25.131090	0.000525	20.936483
759.206552	-3.023900	3.698200	-11.182000	25.135067	0.000526	20.941898
760.204173	-2.994300	3.698300	-11.072000	25.154059	0.000526	20.932041
761.202243	-3.011900	3.698500	-11.137000	25.175088	0.000525	20.957417
762.200267	-3.007400	3.698000	-11.121000	25.182023	0.000526	20.954423
763.202267	-3.011700	3.697200	-11.134000	25.184286	0.000527	20.948160
764.201797	-2.992400	3.697500	-11.063000	25.189481	0.000527	20.966650
765.201999	-2.988400	3.698100	-11.050000	25.202979	0.000526	20.959339
766.203927	-2.999400	3.698100	-11.091000	25.190277	0.000525	20.933788
767.203475	-2.994600	3.697400	-11.071000	25.175138	0.000524	20.967423
768.204527	-3.010100	3.697100	-11.128000	25.155897	0.000527	20.954747
769.208157	-3.006000	3.697100	-11.113000	25.142374	0.000524	20.951129
770.206347	-3.002900	3.695500	-11.096000	25.144860	0.000524	20.963579
771.201591	-3.001800	3.695400	-11.091000	25.134817	0.000523	20.956344
772.207259	-3.007500	3.695500	-11.113000	25.126712	0.000523	20.942045
773.203268	-3.005000	3.695000	-11.103000	25.183663	0.000524	20.960810
774.212694	-2.998700	3.694700	-11.078000	25.212075	0.000522	20.954247
775.211246	-2.999500	3.692900	-11.077000	25.218538	0.000522	20.954572
776.203674	-2.993000	3.695400	-11.059000	25.229599	0.000523	20.973260
777.210384	-2.989700	3.694400	-11.044000	25.199596	0.000521	20.967321
778.215058	-2.979600	3.694900	-11.008000	25.211851	0.000522	20.957340
779.206491	-2.999800	3.693400	-11.079000	25.174564	0.000520	20.954995
780.203884	-3.010300	3.694100	-11.119000	25.157487	0.000523	20.962980
781.212272	-2.981600	3.694100	-11.013000	25.175335	0.000522	20.973783
782.201223	-3.005500	3.691900	-11.095000	25.189628	0.000522	20.952574
783.207726	-2.992400	3.691800	-11.046000	25.208420	0.000521	20.961008
784.206569	-2.976000	3.693000	-10.990000	25.215156	0.000523	20.976303
785.208986	-2.975200	3.692000	-10.983000	25.193779	0.000521	20.965275
786.203974	-3.001500	3.691500	-11.078000	25.204443	0.000523	20.952275
787.205657	-3.016400	3.690300	-11.130000	25.215305	0.000521	20.957489
788.207345	-2.999100	3.691200	-11.069000	25.213316	0.000519	20.960234
789.203098	-2.997500	3.691400	-11.064000	25.205163	0.000519	20.959635
790.206770	-2.996800	3.691000	-11.059000	25.194275	0.000522	20.949180
791.208084	-3.001500	3.690000	-11.075000	25.201508	0.000521	20.963078
792.206944	-3.004700	3.688700	-11.083000	25.199644	0.000520	20.959784
793.208143	-3.000800	3.691000	-11.075000	25.197158	0.000520	20.941644
794.207946	-3.019400	3.689400	-11.139000	25.205286	0.000517	20.947432
795.205097	-2.997700	3.690300	-11.062000	25.180106	0.000518	20.932112
796.206075	-3.015900	3.689500	-11.126000	25.212644	0.000517	20.943914
797.207619	-2.983400	3.690500	-11.009000	25.231784	0.000518	20.922355
798.204937	-2.995900	3.689500	-11.053000	25.257684	0.000516	20.944562
799.206779	-2.987000	3.689900	-11.021000	25.257385	0.000519	20.932410
800.210550	-3.016400	3.687900	-11.123000	25.274561	0.000518	20.948704
801.206527	-3.030000	3.687500	-11.172000	25.201259	0.000518	20.930115
802.205697	-2.992800	3.688800	-11.038000	25.203645	0.000518	20.937251
803.206558	-3.012800	3.686900	-11.107000	25.230689	0.000517	20.938323
804.208679	-3.016300	3.687700	-11.121000	25.251767	0.000518	20.941942
805.205468	-2.994800	3.687000	-11.041000	25.255993	0.000518	20.937650
806.206991	-3.013100	3.686600	-11.107000	25.235188	0.000516	20.941891
807.205051	-2.996400	3.687500	-11.048000	25.199319	0.000513	20.931486
808.205503	-3.000800	3.687300	-11.064000	25.173442	0.000516	20.933956
809.209446	-3.003400	3.686400	-11.071000	25.124918	0.000517	20.939770
810.207299	-2.999800	3.686500	-11.058000	25.118902	0.000517	20.935154
811.206634	-3.000200	3.686500	-11.060000	25.150324	0.000513	20.924025
812.208290	-3.015300	3.685300	-11.112000	25.201606	0.000516	20.940419
813.207797	-3.004900	3.685100	-11.073000	25.247416	0.000514	20.928566
814.213248	-3.005500	3.684700	-11.074000	25.261535	0.000516	20.928990
815.208131	-3.006900	3.685100	-11.080000	25.243639	0.000513	20.950375
816.212036	-3.020000	3.685100	-11.129000	25.201705	0.000512	20.915865
817.217126	-3.000000	3.685300	-11.055000	25.231384	0.000513	20.896826
818.210136	-2.993700	3.683800	-11.028000	25.272024	0.000514	20.933831
819.214213	-2.995800	3.684000	-11.035000	25.300036	0.000514	20.943463
820.213276	-2.983600	3.684100	-10.991000	25.282438	0.000512	20.930537
821.214329	-3.008600	3.683400	-11.081000	25.272223	0.000512	20.937350
822.213959	-2.995000	3.683600	-11.031000	25.240879	0.000511	20.935752
823.214723	-2.987000	3.684200	-11.003000	25.198697	0.000513	20.946507
824.214925	-3.002700	3.682500	-11.057000	25.229794	0.000511	20.920357
825.211577	-3.016600	3.681900	-11.105000	25.215004	0.000511	20.910251
826.214926	-2.996700	3.681900	-11.032000	25.235162	0.000511	20.925272
827.217113	-3.028200	3.680200	-11.144000	25.237847	0.000511	20.933657
828.213990	-3.020600	3.681100	-11.118000	25.273938	0.000513	20.931486
829.210482	-3.013100	3.681900	-11.093000	25.282240	0.000510	20.912796
830.214486	-2.997500	3.682000	-11.036000	25.278437	0.000509	20.916564
831.215744	-2.988000	3.682000	-11.000000	25.305007	0.000512	20.912896
832.216221	-2.987200	3.681000	-10.995000	25.306573	0.000510	20.917312
833.222512	-3.006700	3.679600	-11.063000	25.274013	0.000511	20.893158
834.215585	-3.006100	3.680400	-11.062000	25.259372	0.000510	20.919234
835.213099	-3.004100	3.679800	-11.054000	25.267998	0.000509	20.910825
836.213127	-3.002000	3.679000	-11.044000	25.262628	0.000509	20.926769
837.215706	-3.000900	3.679700	-11.041000	25.244732	0.000510	20.915441
838.215571	-2.992200	3.680000	-11.010000	25.255495	0.000508	20.921031
839.213648	-3.005100	3.679200	-11.055000	25.262728	0.000508	20.898897
840.216450	-3.001000	3.678600	-11.039000	25.239910	0.000510	20.921979
841.216903	-3.013300	3.678000	-11.082000	25.290218	0.000509	20.908479
842.214150	-2.985800	3.678800	-10.984000	25.257061	0.000508	20.907432
843.215411	-2.993600	3.678900	-11.013000	25.261013	0.000506	20.916614
844.218159	-3.009000	3.678200	-11.067000	25.336772	0.000505	20.918711
845.215231	-3.006400	3.677100	-11.054000	25.391500	0.000508	20.898274
846.214317	-2.991700	3.678100	-11.003000	25.392345	0.000506	20.919509
847.215296	-3.000400	3.677500	-11.032000	25.391823	0.000508	20.906185
848.216635	-3.012900	3.676200	-11.075000	25.438571	0.000507	20.899073
849.216736	-3.015900	3.676100	-11.085000	25.415036	0.000507	20.885873
850.217022	-3.007500	3.675700	-11.053000	25.375272	0.000506	20.903790
851.214205	-2.995200	3.676900	-11.012000	25.313534	0.000507	20.897751
852.217892	-3.033100	3.674000	-11.143000	25.339955	0.000505	20.917165
853.232225	-3.004200	3.676000	-11.043000	25.345149	0.000506	20.927121
854.217215	-2.987700	3.675700	-10.982000	25.323178	0.000503	20.898899
855.219721	-2.979200	3.676100	-10.950000	25.348580	0.000507	20.905437
856.224266	-3.011300	3.674500	-11.065000	25.347610	0.000504	20.902094
857.219827	-2.982900	3.676700	-10.966000	25.354221	0.000504	20.911102
858.218360	-3.011600	3.674100	-11.064000	25.408078	0.000504	20.894533
859.224671	-3.007200	3.674600	-11.050000	25.392571	0.000503	20.893186
860.216918	-3.003300	3.672800	-11.029000	25.374403	0.000505	20.903391
861.223235	-3.010700	3.673300	-11.058000	25.342441	0.000504	20.903541
862.219291	-3.003300	3.674100	-11.034000	25.318431	0.000503	20.904564
863.218781	-2.991000	3.673600	-10.987000	25.270808	0.000500	20.898475
864.222005	-3.011600	3.672800	-11.060000	25.282143	0.000503	20.900846
865.222779	-3.016700	3.671900	-11.076000	25.272573	0.000501	20.884127
866.223988	-3.008800	3.672200	-11.048000	25.290643	0.000500	20.884252
867.225016	-2.986000	3.673000	-10.967000	25.288033	0.000502	20.893484
868.222826	-2.992800	3.672800	-10.991000	25.329416	0.000502	20.898525
869.220267	-3.026300	3.671600	-11.111000	25.330634	0.000502	20.886472
870.226138	-3.003800	3.671000	-11.025000	25.366697	0.000501	20.904663
871.224492	-3.002800	3.671400	-11.024000	25.393365	0.000500	20.885923
872.225131	-3.006700	3.670700	-11.035000	25.366995	0.000499	20.878412
873.223752	-2.994700	3.671200	-10.993000	25.379397	0.000499	20.891338
874.226592	-3.006500	3.670900	-11.036000	25.392644	0.000500	20.887570
875.225113	-2.956400	3.671600	-10.853000	25.388518	0.000499	20.893384
876.224071	-2.986300	3.671100	-10.962000	25.381286	0.000500	20.908406
877.226142	-2.987900	3.669600	-10.964000	25.354320	0.000498	20.878012
878.229046	-2.998200	3.669700	-11.001000	25.355090	0.000497	20.870251
879.227772	-2.974700	3.669500	-10.915000	25.361055	0.000498	20.890938
880.224289	-2.990900	3.669600	-10.975000	25.351784	0.000498	20.882104
881.229467	-3.014400	3.667600	-11.055000	25.365777	0.000497	20.898524
882.223804	-3.012100	3.667600	-11.045000	25.402361	0.000495	20.887370
883.225715	-3.000500	3.669100	-11.008000	25.459595	0.000497	20.874668
884.226506	-2.986900	3.668200	-10.956000	25.444758	0.000496	20.893907
885.229020	-2.995100	3.668900	-10.988000	25.466479	0.000497	20.882529
886.227698	-2.985400	3.668500	-10.950000	25.397092	0.000496	20.903414
887.225552	-2.995200	3.666700	-10.982000	25.385286	0.000495	20.878760
888.234894	-3.006800	3.667300	-11.026000	25.330111	0.000496	20.874094
889.227985	-3.018300	3.665500	-11.064000	25.324543	0.000494	20.887469
890.227147	-2.999500	3.665900	-10.995000	25.327749	0.000493	20.885472
891.227983	-3.006100	3.665400	-11.017000	25.318404	0.000494	20.880357
892.225574	-2.986900	3.666200	-10.949000	25.303118	0.000494	20.886346
893.227930	-2.996800	3.665800	-10.985000	25.297227	0.000494	20.885173
894.229219	-2.992200	3.665100	-10.965000	25.367938	0.000496	20.886944
895.225174	-3.011900	3.664000	-11.034000	25.396618	0.000495	20.862639
896.227895	-2.987000	3.665200	-10.947000	25.404919	0.000494	20.890887
897.224827	-2.990800	3.664800	-10.959000	25.401738	0.000491	20.882951
898.227143	-3.000200	3.664800	-10.994000	25.369802	0.000492	20.869376
899.227645	-2.993500	3.664100	-10.967000	25.391846	0.000494	20.892932
900.225852	-2.991700	3.662500	-10.957000	25.364458	0.000491	20.884872
901.229594	-2.994600	3.663100	-10.969000	25.380066	0.000489	20.884423
902.230258	-2.999500	3.663700	-10.987000	25.360481	0.000492	20.887517
903.231793	-2.997600	3.663800	-10.982000	25.388764	0.000489	20.888416
904.233369	-2.987100	3.663200	-10.941000	25.413567	0.000491	20.875864
905.230708	-3.011800	3.662700	-11.031000	25.441974	0.000490	20.870249
906.231998	-2.987000	3.663200	-10.941000	25.409118	0.000491	20.903162
907.231263	-2.982600	3.662600	-10.923000	25.373628	0.000488	20.872270
908.230258	-2.990700	3.663000	-10.954000	25.384862	0.000489	20.878334
909.232992	-2.984800	3.662300	-10.930000	25.400296	0.000487	20.876762
910.231733	-3.001100	3.661300	-10.987000	25.391522	0.000489	20.876487
911.228950	-2.990200	3.661800	-10.949000	25.376908	0.000489	20.862762
912.231342	-3.007200	3.660500	-11.008000	25.390081	0.000489	20.863186
913.237788	-3.010200	3.659600	-11.015000	25.373926	0.000488	20.878259
914.232983	-2.996700	3.661300	-10.971000	25.369228	0.000488	20.881602
915.230209	-3.006300	3.659900	-11.002000	25.344424	0.000489	20.871396
916.232990	-3.016500	3.659400	-11.037000	25.329785	0.000486	20.875189
917.233136	-3.011000	3.660800	-11.021000	25.364953	0.000487	20.866879
918.234087	-2.986900	3.660400	-10.932000	25.390404	0.000487	20.865882
919.234905	-2.966300	3.660100	-10.856000	25.381332	0.000485	20.861988
920.234783	-3.016900	3.657600	-11.034000	25.387570	0.000487	20.862562
921.236065	-3.009800	3.657000	-11.006000	25.390329	0.000486	20.853005
922.237267	-3.007200	3.658200	-11.000000	25.374944	0.000487	20.847989
923.237288	-3.008600	3.657200	-11.003000	25.383022	0.000485	20.855625
924.237360	-2.984800	3.657900	-10.917000	25.376436	0.000483	20.859917
925.238375	-2.995900	3.658700	-10.960000	25.397809	0.000484	20.875214
926.240054	-2.984200	3.658100	-10.916000	25.417046	0.000485	20.867978
927.236290	-2.997600	3.657400	-10.962000	25.433572	0.000482	20.858494
928.243908	-3.013100	3.656700	-11.017000	25.417567	0.000482	20.850010
929.238038	-2.985400	3.656100	-10.914000	25.493513	0.000482	20.850409
930.241866	-2.997300	3.655700	-10.956000	25.540331	0.000482	20.850958
931.237364	-2.992600	3.656400	-10.941000	25.492445	0.000482	20.853129
932.242486	-2.987000	3.655900	-10.919000	25.463592	0.000480	20.851656
933.243545	-2.989300	3.656400	-10.930000	25.428949	0.000482	20.870922
934.243650	-2.985600	3.655600	-10.913000	25.416399	0.000482	20.864957
935.242453	-2.994600	3.654600	-10.943000	25.411602	0.000482	20.841176
936.244716	-3.003400	3.654600	-10.975000	25.435783	0.000479	20.868775
937.241665	-3.015700	3.653700	-11.018000	25.469955	0.000482	20.862313
938.239415	-3.007200	3.654300	-10.988000	25.453851	0.000482	20.866056
939.244060	-3.015700	3.653700	-11.017000	25.427135	0.000480	20.845867
940.239918	-2.997900	3.652500	-10.948000	25.430738	0.000480	20.852330
941.243474	-3.001400	3.652000	-10.960000	25.423159	0.000480	20.836185
942.242443	-2.997800	3.653000	-10.949000	25.415032	0.000480	20.859318
943.246003	-2.998300	3.652200	-10.950000	25.389259	0.000479	20.870422
944.250842	-3.020700	3.651500	-11.029000	25.434789	0.000479	20.860191
945.245895	-3.000900	3.652900	-10.961000	25.437001	0.000479	20.863360
946.246811	-2.999200	3.652600	-10.954000	25.444954	0.000478	20.855226
947.245841	-2.996100	3.651800	-10.940000	25.432950	0.000477	20.840802
948.249481	-3.014400	3.651600	-11.006000	25.403700	0.000477	20.863585
949.245030	-2.992400	3.651000	-10.924000	25.428974	0.000476	20.864783
950.248902	-3.009600	3.651300	-10.988000	25.439785	0.000478	20.850983
951.254287	-2.994800	3.651000	-10.933000	25.440332	0.000477	20.840153
952.246414	-2.995400	3.650700	-10.935000	25.489015	0.000478	20.846367
953.250762	-3.006000	3.649900	-10.971000	25.457031	0.000476	20.860715
954.251807	-2.992100	3.650400	-10.922000	25.477360	0.000475	20.854102
955.243263	-3.011500	3.649300	-10.988000	25.472862	0.000476	20.819715
956.246754	-2.990400	3.649700	-10.913000	25.506112	0.000476	20.852630
957.252590	-3.016000	3.648800	-11.004000	25.457802	0.000476	20.845843
958.245711	-3.002200	3.648700	-10.953000	25.459343	0.000476	20.854976
959.260902	-3.003400	3.649400	-10.959000	25.501142	0.000474	20.840052
960.252323	-2.992500	3.649500	-10.920000	25.503726	0.000472	20.867303
961.247776	-3.009100	3.648800	-10.979000	25.538243	0.000475	20.837482
962.250749	-3.003500	3.647400	-10.955000	25.521893	0.000474	20.830071
963.252295	-3.011500	3.648300	-10.986000	25.513443	0.000474	20.841500
964.244579	-2.998100	3.647500	-10.935000	25.505566	0.000470	20.847814
965.253522	-3.009500	3.645700	-10.971000	25.542170	0.000473	20.857546
966.245295	-3.009900	3.646000	-10.973000	25.522340	0.000473	20.819141
967.249536	-3.002400	3.645700	-10.945000	25.519234	0.000473	20.839255
968.251406	-3.004600	3.645500	-10.952000	25.467668	0.000470	20.823034
969.248283	-3.007400	3.647100	-10.967000	25.449104	0.000471	20.828100
970.254851	-3.000300	3.645400	-10.936000	25.468141	0.000470	20.826828
971.250757	-3.019100	3.645400	-11.005000	25.492371	0.000470	20.844521
972.247501	-2.991700	3.646400	-10.907000	25.457157	0.000468	20.825281
973.261751	-3.006100	3.644100	-10.954000	25.471869	0.000469	20.831046
974.251008	-3.006500	3.643300	-10.952000	25.524254	0.000469	20.835762
975.255737	-3.011700	3.643400	-10.972000	25.555118	0.000469	20.841627
976.254119	-3.002300	3.643700	-10.939000	25.552534	0.000468	20.820066
977.249143	-3.013500	3.643800	-10.980000	25.619575	0.000465	20.843299
978.248571	-2.988900	3.644100	-10.890000	25.552782	0.000468	20.829325
979.256000	-3.003800	3.643700	-10.944000	25.591025	0.000466	20.826480
980.249904	-3.004400	3.643200	-10.945000	25.556137	0.000466	20.826530
981.251230	-3.020100	3.642000	-10.997000	25.490732	0.000466	20.832444
982.255339	-3.007000	3.640900	-10.947000	25.521771	0.000467	20.809561
983.251425	-3.003500	3.640600	-10.934000	25.485787	0.000466	20.814202
984.252259	-3.013200	3.640700	-10.969000	25.469908	0.000465	20.823860
985.258015	-3.018700	3.639700	-10.986000	25.476866	0.000465	20.817097
986.248640	-3.001100	3.641200	-10.927000	25.452412	0.000463	20.845646
987.247798	-2.992700	3.641300	-10.896000	25.485092	0.000465	20.818720
988.257370	-3.014500	3.639900	-10.972000	25.541453	0.000463	20.818895
989.249043	-3.002000	3.641000	-10.929000	25.556784	0.000463	20.820067
990.251881	-3.009900	3.638900	-10.951000	25.589435	0.000464	20.824883
991.257711	-3.030800	3.639100	-11.027000	25.583323	0.000464	20.837236
992.252495	-2.980100	3.639600	-10.845000	25.587820	0.000463	20.801451
993.253531	-3.003300	3.638000	-10.925000	25.566276	0.000464	20.825807
994.255596	-2.995500	3.639500	-10.902000	25.583695	0.000466	20.825757
995.251325	-2.999100	3.638200	-10.910000	25.606904	0.000462	20.829151
996.252740	-3.006100	3.636300	-10.930000	25.555989	0.000463	20.819742
997.253463	-2.995900	3.638100	-10.898000	25.546944	0.000461	20.831047
998.252235	-3.007400	3.636700	-10.936000	25.559094	0.000460	20.826654
999.251856	-3.012300	3.636700	-10.954000	25.546595	0.000461	20.838283
1000.253415	-2.995000	3.637400	-10.893000	25.629167	0.000459	20.823061
1001.251719	-3.019100	3.636200	-10.976000	25.575867	0.000460	20.839232
1002.254247	-2.979700	3.636800	-10.836000	25.584986	0.000461	20.811880
1003.254308	-2.986100	3.635900	-10.856000	25.597534	0.000461	20.808836
1004.255127	-2.997400	3.634700	-10.893000	25.564138	0.000459	20.800900
1005.254918	-2.997100	3.634900	-10.893000	25.533051	0.000460	20.813302
1006.255438	-2.981400	3.635400	-10.838000	25.547017	0.000459	20.815000
1007.256014	-2.999300	3.634400	-10.900000	25.579171	0.000459	20.813627
1008.254662	-2.980900	3.634600	-10.833000	25.583396	0.000458	20.822611
1009.254378	-2.994900	3.633100	-10.879000	25.546419	0.000458	20.813452
1010.257697	-2.994800	3.632600	-10.878000	25.555614	0.000457	20.815099
1011.259613	-2.972100	3.633600	-10.799000	25.544332	0.000457	20.803769
1012.258855	-2.974100	3.633400	-10.805000	25.511207	0.000458	20.808909
1013.257630	-2.984500	3.633900	-10.844000	25.560335	0.000455	20.810357
1014.258349	-2.966900	3.633300	-10.779000	25.561030	0.000456	20.800624
1015.257604	-3.004200	3.631900	-10.910000	25.541127	0.000457	20.819990
1016.264856	-2.998300	3.631300	-10.887000	25.575045	0.000457	20.809958
1017.257238	-2.988600	3.633100	-10.857000	25.604019	0.000454	20.807762
1018.262665	-3.006400	3.631200	-10.916000	25.622158	0.000455	20.795633
1019.265632	-2.988900	3.631400	-10.853000	25.644272	0.000456	20.789394
1020.258579	-3.011300	3.631400	-10.934000	25.620468	0.000453	20.798678
1021.263807	-3.002200	3.631800	-10.903000	25.542070	0.000453	20.800075
1022.262397	-2.982400	3.632000	-10.830000	25.461903	0.000454	20.802546
1023.263506	-2.982000	3.631500	-10.828000	25.526912	0.000454	20.791016
1024.263159	-2.992100	3.630100	-10.861000	25.554718	0.000453	20.807561
1025.262676	-3.023100	3.628700	-10.969000	25.591445	0.000452	20.803194
1026.260235	-2.981800	3.630500	-10.824000	25.594427	0.000453	20.792913
1027.261776	-3.017200	3.627800	-10.945000	25.581381	0.000449	20.809208
1028.279274	-3.029200	3.627900	-10.988000	25.560732	0.000451	20.824980
1029.263419	-2.998800	3.628600	-10.881000	25.547537	0.000452	20.815996
1030.266030	-2.993400	3.627900	-10.860000	25.552631	0.000451	20.799301
1031.265478	-2.979600	3.628400	-10.810000	25.611696	0.000451	20.790342
1032.266559	-3.004900	3.628100	-10.901000	25.594178	0.000451	20.815422
1033.266067	-2.994900	3.628700	-10.867000	25.590078	0.000450	20.792813
1034.265671	-2.982500	3.627100	-10.817000	25.601583	0.000450	20.811480
1035.271971	-2.983000	3.626100	-10.816000	25.560136	0.000451	20.815847
1036.265949	-3.017300	3.625000	-10.936000	25.575939	0.000451	20.804692
1037.266415	-3.015300	3.624400	-10.928000	25.560807	0.000449	20.817943
1038.266011	-2.995400	3.626700	-10.863000	25.517916	0.000449	20.809009
1039.268915	-2.980900	3.627400	-10.812000	25.495924	0.000447	20.810157
1040.267711	-2.984100	3.625200	-10.817000	25.555911	0.000447	20.800699
1041.271222	-2.984000	3.626200	-10.820000	25.612939	0.000448	20.807237
1042.267703	-3.014900	3.623200	-10.923000	25.663801	0.000447	20.799526
1043.270372	-3.002800	3.624300	-10.882000	25.653862	0.000446	20.806613
1044.270320	-2.982200	3.624300	-10.807000	25.641190	0.000447	20.799101
1045.270273	-2.996000	3.622800	-10.854000	25.625909	0.000447	20.802720
1046.271409	-2.991700	3.623700	-10.840000	25.610851	0.000446	20.798503
1047.270802	-2.989000	3.622600	-10.827000	25.627674	0.000446	20.822036
1048.272599	-2.981300	3.623200	-10.801000	25.647501	0.000445	20.812078
1049.268819	-2.993300	3.622900	-10.844000	25.655428	0.000445	20.798702
1050.272158	-3.006300	3.621000	-10.885000	25.617834	0.000443	20.806463
1051.273972	-2.998500	3.622800	-10.862000	25.548829	0.000444	20.820613
1052.272239	-2.994000	3.621900	-10.843000	25.563341	0.000443	20.817169
1053.273236	-2.990700	3.621800	-10.831000	25.628171	0.000442	20.822535
1054.274933	-2.984300	3.621200	-10.805000	25.636022	0.000444	20.812403
1055.271414	-2.995300	3.620500	-10.843000	25.634804	0.000443	20.812602
1056.273557	-3.010500	3.620000	-10.897000	25.599670	0.000444	20.823782
1057.271236	-3.016900	3.619900	-10.920000	25.567888	0.000442	20.818417
1058.268046	-3.008200	3.619400	-10.887000	25.621809	0.000441	20.810456
1059.270980	-2.981400	3.620000	-10.790000	25.647576	0.000441	20.804092
1060.274043	-2.994800	3.618600	-10.837000	25.635276	0.000442	20.821611
1061.273148	-2.993400	3.618400	-10.831000	25.637537	0.000440	20.813450
1062.275156	-2.995900	3.619300	-10.842000	25.592215	0.000439	20.806812
1063.273847	-2.993500	3.619100	-10.832000	25.584114	0.000438	20.819065
1064.278581	-2.998400	3.616800	-10.843000	25.573280	0.000440	20.792063
1065.273098	-2.995400	3.617100	-10.834000	25.534788	0.000437	20.809831
1066.273617	-2.997100	3.616900	-10.839000	25.519730	0.000437	20.833589
1067.273214	-2.999500	3.617900	-10.850000	25.520077	0.000438	20.796955
1068.271267	-2.999600	3.616900	-10.848000	25.543485	0.000437	20.825204
1069.270224	-3.015400	3.616600	-10.904000	25.598178	0.000437	20.819914
1070.276716	-2.989000	3.616700	-10.810000	25.609534	0.000435	20.814723
1071.273632	-3.013900	3.614100	-10.891000	25.587568	0.000436	20.836758
1072.273083	-2.990800	3.615900	-10.814000	25.508149	0.000433	20.809158
1073.273680	-2.982000	3.616800	-10.784000	25.557699	0.000434	20.833788
1074.275855	-3.003600	3.614700	-10.856000	25.602949	0.000434	20.819015
1075.271517	-2.987800	3.615400	-10.801000	25.550890	0.000435	20.825528
1076.271393	-3.001700	3.614200	-10.848000	25.518884	0.000435	20.809507
1077.275590	-3.019400	3.614100	-10.912000	25.534763	0.000432	20.808384
1078.274372	-3.029200	3.612600	-10.942000	25.512026	0.000433	20.803568
1079.270968	-3.001400	3.614500	-10.847000	25.543510	0.000432	20.813849
1080.276722	-3.019400	3.612600	-10.907000	25.539385	0.000434	20.817293
1081.277335	-3.008200	3.613700	-10.869000	25.558171	0.000433	20.817667
1082.274598	-2.998200	3.612700	-10.831000	25.580436	0.000432	20.832914
1083.272730	-3.020700	3.612800	-10.912000	25.567117	0.000432	20.825703
1084.278944	-3.007700	3.610700	-10.859000	25.584934	0.000433	20.837431
1085.275473	-2.994300	3.612700	-10.817000	25.590674	0.000431	20.825179
1086.277266	-2.998800	3.611400	-10.829000	25.655203	0.000431	20.816494
1087.274336	-2.981500	3.612000	-10.769000	25.673217	0.000431	20.814672
1088.280023	-2.977100	3.611600	-10.751000	25.692274	0.000430	20.824804
1089.275324	-3.004200	3.611300	-10.848000	25.669267	0.000428	20.812127
1090.275844	-3.009900	3.609700	-10.864000	25.643227	0.000426	20.822483
1091.282572	-3.004600	3.610600	-10.847000	25.662111	0.000429	20.840027
1092.281140	-3.013100	3.608900	-10.873000	25.688374	0.000428	20.820887
1093.284548	-3.012200	3.608400	-10.868000	25.688747	0.000426	20.826477
1094.280073	-2.992600	3.608800	-10.799000	25.710412	0.000427	20.839703
1095.279597	-2.992700	3.607500	-10.795000	25.663006	0.000427	20.819115
1096.277331	-2.995600	3.608100	-10.807000	25.673019	0.000427	20.808310
1097.280570	-3.015800	3.606900	-10.876000	25.681541	0.000426	20.836309
1098.277431	-2.993600	3.609000	-10.804000	25.676596	0.000426	20.835610
1099.286126	-3.004800	3.606600	-10.836000	25.732525	0.000425	20.830145
1100.285223	-2.987100	3.608500	-10.778000	25.759158	0.000428	20.835086
1101.280754	-3.016400	3.607100	-10.878000	25.722636	0.000425	20.827325
1102.281146	-3.016500	3.606400	-10.877000	25.762736	0.000426	20.804067
1103.282945	-3.010900	3.607200	-10.860000	25.747928	0.000426	20.809582
1104.286637	-3.007800	3.606000	-10.844000	25.749792	0.000425	20.836109
1105.283034	-2.992500	3.605800	-10.789000	25.711157	0.000424	20.844718
1106.285131	-2.982500	3.605400	-10.752000	25.698585	0.000423	20.833514
1107.282176	-3.000200	3.605800	-10.817000	25.666832	0.000425	20.839079
1108.287660	-2.998500	3.604100	-10.806000	25.656048	0.000425	20.852903
1109.282397	-3.008000	3.603000	-10.837000	25.676373	0.000423	20.854351
1110.283930	-3.001400	3.604000	-10.816000	25.704101	0.000421	20.839054
1111.283455	-2.985000	3.604400	-10.758000	25.708151	0.000420	20.845018
1112.287905	-2.975900	3.604000	-10.724000	25.645538	0.000419	20.840451
1113.288826	-3.001500	3.602700	-10.813000	25.622032	0.000421	20.845292
1114.287468	-3.008800	3.602600	-10.839000	25.590649	0.000422	20.822309
1115.289216	-2.994800	3.603900	-10.792000	25.652023	0.000422	20.833688
1116.288933	-3.008200	3.602300	-10.835000	25.642332	0.000421	20.849559
1117.292330	-2.997300	3.603100	-10.798000	25.656842	0.000420	20.838054
1118.292611	-3.019600	3.601700	-10.874000	25.649985	0.000419	20.861512
1119.288402	-3.010400	3.600800	-10.839000	25.599818	0.000418	20.840526
1120.289722	-2.997700	3.601100	-10.794000	25.625162	0.000419	20.824255
1121.290155	-2.998200	3.600000	-10.792000	25.669639	0.000418	20.847587
1122.289478	-3.012900	3.600000	-10.845000	25.690311	0.000419	20.844169
1123.286644	-3.019100	3.599900	-10.868000	25.689963	0.000419	20.837181
1124.287438	-3.012700	3.599600	-10.844000	25.703429	0.000417	20.855448
1125.293260	-2.994200	3.599800	-10.777000	25.683403	0.000416	20.841498
1126.291990	-2.992400	3.598300	-10.767000	25.691802	0.000418	20.839976
1127.286445	-3.013600	3.597600	-10.840000	25.732449	0.000417	20.849509
1128.286145	-3.009700	3.599000	-10.831000	25.664073	0.000417	20.841049
1129.289184	-2.994900	3.597700	-10.774000	25.662184	0.000416	20.837730
1130.286108	-2.987100	3.598800	-10.749000	25.644046	0.000414	20.846539
1131.288567	-2.996900	3.597800	-10.781000	25.620317	0.000416	20.855423
1132.286232	-3.011500	3.596700	-10.831000	25.604066	0.000415	20.848111
1133.286311	-3.010600	3.596900	-10.828000	25.670335	0.000413	20.858243
1134.286366	-2.989000	3.597000	-10.751000	25.652942	0.000413	20.837930
1135.286901	-2.971400	3.596100	-10.684000	25.645264	0.000413	20.849185
1136.289144	-2.996300	3.596500	-10.775000	25.697442	0.000414	20.851805
1137.286850	-2.995600	3.596100	-10.771000	25.728723	0.000414	20.855249
1138.288234	-3.013600	3.595600	-10.835000	25.735704	0.000415	20.865105
1139.289322	-3.008700	3.594900	-10.815000	25.750686	0.000413	20.852180
1140.288265	-2.993900	3.595100	-10.763000	25.752500	0.000414	20.865854
1141.288970	-3.008800	3.594800	-10.815000	25.758935	0.000413	20.851457
1142.294964	-3.004900	3.594400	-10.799000	25.729618	0.000413	20.871794
1143.290375	-2.975900	3.594200	-10.694000	25.712599	0.000411	20.853752
1144.292355	-2.997800	3.593300	-10.771000	25.707331	0.000413	20.858893
1145.293299	-2.995500	3.593100	-10.762000	25.716699	0.000412	20.854077
1146.292722	-2.990900	3.593300	-10.746000	25.745619	0.000413	20.848987
1147.290402	-2.980800	3.593200	-10.710000	25.751581	0.000410	20.868725
1148.296002	-2.998200	3.591500	-10.767000	25.762215	0.000410	20.856173
1149.293262	-3.015800	3.590800	-10.828000	25.738141	0.000409	20.875613
1150.290451	-2.995100	3.591600	-10.756000	25.751830	0.000408	20.860441
1151.296574	-3.019200	3.591700	-10.843000	25.706835	0.000411	20.855075
1152.291893	-3.016300	3.591700	-10.833000	25.724277	0.000407	20.860266
1153.295588	-3.011200	3.590600	-10.811000	25.742613	0.000408	20.852131
1154.293012	-3.019100	3.591300	-10.841000	25.744750	0.000409	20.869450
1155.299793	-3.001800	3.588800	-10.772000	25.763011	0.000407	20.853654
1156.294153	-2.992900	3.589400	-10.742000	25.792203	0.000407	20.864958
1157.300068	-3.002400	3.589300	-10.775000	25.795234	0.000405	20.862787
1158.311036	-3.007800	3.589200	-10.795000	25.759955	0.000405	20.871920
1159.297278	-2.991300	3.589000	-10.735000	25.728600	0.000405	20.862712
1160.294232	-2.982600	3.589700	-10.705000	25.693071	0.000404	20.849312
1161.293830	-2.999700	3.589900	-10.767000	25.661118	0.000405	20.896399
1162.297222	-2.997300	3.587300	-10.751000	25.637017	0.000402	20.887840
1163.298724	-2.998400	3.588400	-10.758000	25.662138	0.000406	20.870398
1164.307884	-3.012500	3.586800	-10.804000	25.661939	0.000401	20.882525
1165.297662	-3.011200	3.587600	-10.801000	25.689046	0.000404	20.878458
1166.298186	-3.032800	3.586400	-10.876000	25.722191	0.000403	20.878084
1167.304335	-3.027700	3.585200	-10.854000	25.721172	0.000402	20.879905
1168.305676	-3.017700	3.585600	-10.819000	25.715458	0.000403	20.894553
1169.299404	-2.995400	3.585300	-10.739000	25.685220	0.000402	20.866081
1170.297171	-2.998200	3.585700	-10.750000	25.699382	0.000402	20.874141
1171.305646	-3.009300	3.585500	-10.789000	25.720253	0.000401	20.868077
1172.304967	-3.007600	3.584900	-10.781000	25.730514	0.000400	20.880754
1173.299783	-3.005500	3.584000	-10.771000	25.752377	0.000399	20.877585
1174.303906	-3.050200	3.583100	-10.928000	25.746912	0.000399	20.862613
1175.303232	-3.010200	3.584300	-10.789000	25.745322	0.000401	20.873343
1176.299523	-2.996300	3.584800	-10.740000	25.727657	0.000400	20.876936
1177.304699	-2.986200	3.584400	-10.703000	25.704849	0.000398	20.871572
1178.302660	-2.980100	3.585100	-10.683000	25.750266	0.000398	20.899170
1179.304033	-2.956700	3.584000	-10.596000	25.762788	0.000398	20.875239
1180.307068	-3.005100	3.583700	-10.769000	25.767906	0.000397	20.890811
1181.303275	-3.003100	3.582200	-10.757000	25.775259	0.000397	20.874965
1182.303841	-2.991700	3.583200	-10.719000	25.767657	0.000399	20.874440
1183.300171	-3.019800	3.580500	-10.811000	25.786638	0.000397	20.865532
1184.304300	-2.999800	3.580800	-10.740000	25.714712	0.000395	20.878159
1185.300611	-3.000300	3.581700	-10.745000	25.717892	0.000395	20.906481
1186.303774	-2.983800	3.580900	-10.684000	25.731160	0.000396	20.893730
1187.305757	-2.998600	3.580600	-10.736000	25.738141	0.000395	20.871346
1188.302375	-3.002800	3.580600	-10.751000	25.721396	0.000396	20.891509
1189.303871	-2.994700	3.580400	-10.721000	25.707383	0.000398	20.874590
1190.306454	-3.001100	3.581000	-10.746000	25.706588	0.000393	20.888489
1191.303394	-3.016000	3.577900	-10.789000	25.732253	0.000394	20.889613
1192.301730	-3.012700	3.578300	-10.780000	25.778737	0.000396	20.898371
1193.306670	-3.022900	3.578300	-10.816000	25.778166	0.000395	20.906331
1194.300696	-3.005500	3.579400	-10.758000	25.805668	0.000393	20.887017
1195.301283	-3.011300	3.576800	-10.770000	25.801520	0.000393	20.898496
1196.300878	-3.029200	3.575500	-10.830000	25.852001	0.000393	20.936874
1197.302539	-2.980300	3.577900	-10.662000	25.836076	0.000391	20.889114
1198.304093	-2.987100	3.578000	-10.687000	25.815507	0.000390	20.904959
1199.304237	-3.012800	3.575500	-10.770000	25.813122	0.000391	20.906357
1200.304900	-3.016200	3.575200	-10.783000	25.797396	0.000391	20.908103
1201.303780	-3.022800	3.574600	-10.804000	25.782713	0.000391	20.895253
1202.308848	-3.018300	3.575600	-10.792000	25.785942	0.000391	20.908927
1203.312234	-2.990500	3.575800	-10.691000	25.743856	0.000389	20.918808
1204.303726	-3.008300	3.575000	-10.753000	25.765745	0.000391	20.911872
1205.304769	-3.013300	3.575100	-10.772000	25.777993	0.000390	20.902365
1206.309987	-2.989500	3.575000	-10.687000	25.811060	0.000389	20.903812
1207.306592	-2.995900	3.572900	-10.703000	25.843406	0.000388	20.884623
1208.307059	-2.989000	3.573400	-10.681000	25.852747	0.000387	20.910600
1209.311242	-2.990700	3.574300	-10.689000	25.819036	0.000389	20.910874
1210.306231	-2.993900	3.574200	-10.700000	25.841791	0.000388	20.897224
1211.309372	-3.009300	3.573800	-10.754000	25.852623	0.000386	20.915216
1212.308355	-3.009100	3.573100	-10.752000	25.863553	0.000387	20.899645
1213.319963	-2.997000	3.572700	-10.706000	25.861641	0.000387	20.925696
1214.312442	-3.017900	3.571200	-10.776000	25.837246	0.000385	20.900244
1215.305508	-3.010300	3.571400	-10.750000	25.816278	0.000382	20.895303
1216.311320	-2.991800	3.571900	-10.686000	25.839010	0.000384	20.911973
1217.304628	-3.017200	3.571200	-10.773000	25.847059	0.000385	20.897774
1218.311557	-3.002100	3.570200	-10.717000	25.829644	0.000386	20.922004
1219.309706	-3.002100	3.568500	-10.712000	25.856374	0.000384	20.916139
1220.308959	-2.998600	3.570200	-10.705000	25.880198	0.000385	20.927269
1221.308396	-2.987500	3.569700	-10.664000	25.858486	0.000384	20.909727
1222.316276	-3.000400	3.569200	-10.708000	25.839705	0.000384	20.915516
1223.307882	-2.973400	3.570300	-10.615000	25.834240	0.000383	20.919982
1224.311501	-2.984300	3.569300	-10.651000	25.853592	0.000381	20.930412
1225.314087	-2.992000	3.568400	-10.676000	25.841369	0.000383	20.920032
1226.311658	-3.004400	3.568700	-10.720000	25.830637	0.000381	20.920156
1227.307848	-2.988800	3.569200	-10.666000	25.806291	0.000381	20.924623
1228.315256	-3.015000	3.568400	-10.758000	25.838015	0.000382	20.908603
1229.311757	-3.017400	3.567000	-10.763000	25.854089	0.000380	20.938497
1230.310372	-3.005500	3.567100	-10.720000	25.892470	0.000380	20.916364
1231.313234	-2.995400	3.566900	-10.684000	25.857865	0.000379	20.926171
1232.309693	-3.016600	3.565600	-10.754000	25.897289	0.000380	20.915990
1233.311955	-2.974700	3.567300	-10.611000	25.919547	0.000380	20.922228
1234.313538	-3.016200	3.564200	-10.749000	25.858412	0.000379	20.925771
1235.312602	-3.001500	3.566000	-10.703000	25.881589	0.000377	20.941941
1236.319617	-3.012800	3.565000	-10.739000	25.863554	0.000376	20.944685
1237.312263	-2.998100	3.565100	-10.688000	25.851307	0.000377	20.937599
1238.314056	-2.996100	3.564500	-10.679000	25.829595	0.000376	20.939970
1239.313789	-3.006000	3.564300	-10.713000	25.813744	0.000377	20.929739
1240.317225	-3.026400	3.563000	-10.783000	25.792255	0.000377	20.938497
1241.314105	-2.989700	3.563000	-10.652000	25.817322	0.000376	20.922428
1242.315411	-2.985300	3.562800	-10.635000	25.777547	0.000378	20.936526
1243.321634	-2.988300	3.563800	-10.649000	25.774889	0.000374	20.931486
1244.317921	-3.001200	3.563400	-10.694000	25.780926	0.000376	20.937075
1245.318184	-2.995700	3.563500	-10.674000	25.804205	0.000375	20.934380
1246.325812	-2.989400	3.562800	-10.650000	25.787261	0.000375	20.950549
1247.323289	-2.983200	3.562100	-10.626000	25.785199	0.000374	20.929514
1248.320709	-2.984800	3.562600	-10.633000	25.804353	0.000378	20.948278
1249.322365	-3.001900	3.560900	-10.689000	25.791013	0.000374	20.939620
1250.318617	-2.976400	3.562600	-10.603000	25.795807	0.000372	20.944436
1251.326359	-3.032500	3.561200	-10.798000	25.779361	0.000373	20.952571
1252.338934	-3.016100	3.559300	-10.734000	25.808651	0.000373	20.956388
1253.323763	-2.991400	3.559600	-10.646000	25.813397	0.000372	20.954517
1254.324076	-3.007200	3.558900	-10.702000	25.782590	0.000374	20.935428
1255.324303	-3.003600	3.559700	-10.691000	25.798242	0.000372	20.947356
1256.327530	-2.983600	3.557800	-10.614000	25.775287	0.000373	20.948953
1257.325035	-2.986900	3.559900	-10.632000	25.796752	0.000372	20.946333
1258.327759	-2.999500	3.558800	-10.674000	25.817446	0.000370	20.949576
1259.322067	-2.996300	3.558000	-10.660000	25.856275	0.000371	20.941641
1260.324961	-2.983800	3.559100	-10.618000	25.885589	0.000369	20.952595
1261.327622	-3.004100	3.556200	-10.682000	25.887154	0.000370	20.953220
1262.322392	-2.989800	3.557400	-10.635000	25.828402	0.000370	20.934031
1263.330075	-3.003400	3.556800	-10.682000	25.828700	0.000369	20.961353
1264.327444	-3.003400	3.556100	-10.680000	25.874113	0.000368	20.953869
1265.326076	-3.000300	3.555900	-10.668000	25.853294	0.000367	20.954767
1266.330285	-3.005000	3.554000	-10.679000	25.861766	0.000369	20.969438
1267.330035	-2.976500	3.556900	-10.586000	25.900842	0.000369	20.948953
1268.325512	-2.980200	3.556400	-10.598000	25.933607	0.000368	20.952471
1269.328667	-2.996300	3.555600	-10.652000	25.928937	0.000367	20.952521
1270.333895	-3.023900	3.553500	-10.745000	25.900246	0.000366	20.942665
1271.333679	-3.004800	3.554900	-10.680000	25.884919	0.000367	20.943863
1272.329576	-3.024500	3.554100	-10.748000	25.889067	0.000368	20.930014
1273.329670	-3.025500	3.554300	-10.753000	25.922007	0.000365	20.942715
1274.331076	-3.005600	3.553100	-10.678000	25.881267	0.000366	20.943988
1275.331284	-2.998000	3.552500	-10.649000	25.849171	0.000365	20.926446
1276.325977	-2.981600	3.552700	-10.592000	25.866984	0.000365	20.938648
1277.327216	-2.982400	3.553100	-10.596000	25.858438	0.000364	20.942391
1278.330444	-2.984700	3.553400	-10.604000	25.866338	0.000365	20.937052
1279.334352	-3.010200	3.552600	-10.693000	25.848278	0.000365	20.928393
1280.332259	-3.002900	3.553300	-10.669000	25.846638	0.000365	20.915842
1281.330893	-3.004600	3.551500	-10.670000	25.814565	0.000362	20.921556
1282.331014	-2.994900	3.552000	-10.637000	25.868549	0.000364	20.943539
1283.330416	-2.991300	3.550800	-10.621000	25.898482	0.000363	20.916715
1284.335939	-2.992400	3.550200	-10.623000	25.918480	0.000363	20.920683
1285.335363	-2.990700	3.549600	-10.615000	25.955865	0.000362	20.934532
1286.330086	-2.990200	3.549500	-10.613000	25.977600	0.000360	20.935979
1287.333579	-3.000200	3.548800	-10.647000	25.984505	0.000359	20.934382
1288.335771	-3.016700	3.550500	-10.708000	25.965678	0.000363	20.910253
1289.335662	-3.000100	3.548600	-10.646000	25.954921	0.000362	20.928842
1290.328546	-2.998300	3.548100	-10.637000	25.903278	0.000361	20.935280
1291.333996	-2.999900	3.548000	-10.642000	25.868525	0.000359	20.933559
1292.331697	-2.998500	3.546700	-10.633000	25.842937	0.000359	20.921132
1293.335569	-2.992100	3.546900	-10.611000	25.853744	0.000358	20.925350
1294.338777	-2.978900	3.547800	-10.568000	25.845670	0.000359	20.908706
1295.337886	-3.007100	3.546700	-10.664000	25.863134	0.000358	20.934781
1296.340364	-2.977700	3.547200	-10.562000	25.907328	0.000359	20.932237
1297.338115	-3.001200	3.545400	-10.640000	25.939869	0.000358	20.935056
1298.335993	-3.011300	3.545700	-10.677000	25.985922	0.000357	20.909255
1299.338370	-3.000500	3.546200	-10.639000	25.917065	0.000356	20.926847
1300.340392	-3.008300	3.545500	-10.665000	25.883057	0.000356	20.902642
1301.336133	-3.014100	3.544700	-10.683000	25.908296	0.000355	20.917565
1302.335738	-3.013100	3.543300	-10.676000	25.915227	0.000358	20.930690
1303.334070	-3.021900	3.542600	-10.704000	25.871879	0.000356	20.902318
1304.336134	-3.008200	3.544000	-10.658000	25.881368	0.000355	20.901420
1305.342772	-3.011700	3.542400	-10.667000	25.867731	0.000355	20.890566
1306.339520	-3.005200	3.544200	-10.650000	25.916048	0.000354	20.914920
1307.338727	-3.031200	3.541900	-10.735000	25.895405	0.000353	20.906512
1308.337375	-3.000900	3.541700	-10.627000	25.922184	0.000354	20.891690
1309.340060	-3.012600	3.541500	-10.668000	25.963543	0.000353	20.897205
1310.342070	-2.981200	3.542600	-10.560000	26.000057	0.000355	20.909706
1311.341011	-2.990200	3.542000	-10.591000	25.964785	0.000353	20.896082
1312.338552	-3.003400	3.541200	-10.634000	25.983539	0.000351	20.904965
1313.343164	-2.991700	3.541300	-10.594000	25.953310	0.000354	20.896881
1314.340340	-2.998200	3.540200	-10.613000	25.996481	0.000351	20.882408
1315.347783	-2.995200	3.540400	-10.603000	25.983341	0.000350	20.877268
1316.344454	-3.015200	3.539800	-10.673000	26.027903	0.000352	20.892639
1317.346019	-3.011600	3.538200	-10.655000	25.973803	0.000349	20.883332
1318.340794	-2.965300	3.540000	-10.495000	25.978423	0.000350	20.881335
1319.352636	-2.989300	3.539100	-10.579000	25.955099	0.000351	20.887300
1320.342752	-2.977700	3.540200	-10.541000	25.952640	0.000352	20.895260
1321.341755	-3.025000	3.537900	-10.701000	25.920298	0.000349	20.904493
1322.350918	-3.006800	3.537200	-10.634000	25.902512	0.000349	20.886153
1323.342035	-3.002400	3.537400	-10.619000	25.857747	0.000348	20.881960
1324.351808	-3.004500	3.538000	-10.628000	25.853971	0.000348	20.903295
1325.345537	-3.006700	3.537300	-10.635000	25.852432	0.000347	20.900327
1326.344897	-2.992100	3.536600	-10.581000	25.885148	0.000347	20.892416
1327.353911	-2.983600	3.535400	-10.547000	25.870815	0.000346	20.878967
1328.343256	-2.980500	3.536300	-10.539000	25.873672	0.000347	20.879940
1329.346754	-2.999800	3.536000	-10.607000	25.901867	0.000348	20.866540
1330.348335	-3.012700	3.536300	-10.652000	25.900849	0.000345	20.883533
1331.349368	-2.999300	3.535300	-10.602000	25.949586	0.000346	20.872753
1332.344246	-3.020800	3.533500	-10.673000	25.917443	0.000345	20.892142
1333.345248	-2.983100	3.536100	-10.547000	25.950952	0.000347	20.883608
1334.359685	-2.996800	3.534000	-10.590000	25.867487	0.000345	20.883209
1335.347953	-3.001000	3.534700	-10.607000	25.886342	0.000345	20.882710
1336.344983	-2.997300	3.533400	-10.590000	25.915455	0.000342	20.869284
1337.343206	-3.008400	3.532900	-10.626000	25.888180	0.000342	20.882660
1338.360977	-2.977500	3.533600	-10.520000	25.895955	0.000345	20.879092
1339.346439	-3.002800	3.532300	-10.606000	25.923429	0.000343	20.875398
1340.356660	-2.998000	3.531500	-10.587000	25.909171	0.000341	20.866765
1341.356766	-2.967300	3.533000	-10.483000	25.863810	0.000343	20.881412
1342.356863	-2.997600	3.530500	-10.582000	25.905544	0.000341	20.888724
1343.348295	-2.983700	3.530900	-10.534000	25.907705	0.000342	20.849646
1344.347379	-2.993000	3.531700	-10.570000	25.882814	0.000342	20.867314
1345.350269	-2.998900	3.529600	-10.585000	25.920573	0.000342	20.851194
1346.356563	-3.001300	3.530000	-10.594000	25.877001	0.000340	20.876172
1347.348344	-2.993500	3.530100	-10.566000	25.930087	0.000339	20.867863
1348.359150	-3.021300	3.529700	-10.663000	25.950381	0.000342	20.866914
1349.347647	-2.999300	3.528700	-10.582000	25.967272	0.000338	20.850694
1350.346872	-3.003200	3.528700	-10.597000	25.962230	0.000342	20.860801
1351.348804	-3.003500	3.528800	-10.597000	25.981531	0.000340	20.878294
1352.355745	-2.995100	3.527200	-10.563000	25.996086	0.000341	20.873951
1353.362203	-2.986200	3.528500	-10.536000	25.932174	0.000339	20.874226
1354.347178	-2.998200	3.527000	-10.574000	25.946605	0.000339	20.890146
1355.350064	-2.997100	3.526500	-10.568000	25.916822	0.000339	20.853589
1356.351744	-3.002600	3.528200	-10.594000	25.840855	0.000337	20.870208
1357.362079	-3.000600	3.526300	-10.580000	25.898390	0.000335	20.882011
1358.351508	-3.013100	3.525400	-10.621000	25.898712	0.000336	20.861948
1359.366190	-2.991200	3.526500	-10.548000	25.912202	0.000335	20.866490
1360.354272	-2.973700	3.526200	-10.485000	25.921567	0.000336	20.850769
1361.359515	-2.990700	3.524500	-10.539000	25.918610	0.000335	20.861074
1362.361818	-3.015800	3.524000	-10.627000	25.931279	0.000337	20.847250
1363.352999	-3.016200	3.523300	-10.625000	25.897967	0.000334	20.875897
1364.353394	-2.995500	3.524100	-10.555000	25.881149	0.000335	20.857107
1365.354642	-2.979100	3.524500	-10.499000	25.868877	0.000333	20.859003
1366.352324	-3.017500	3.522800	-10.628000	25.893967	0.000335	20.864294
1367.351021	-3.000500	3.522800	-10.569000	25.861301	0.000331	20.842858
1368.353711	-2.997000	3.524000	-10.560000	25.867213	0.000334	20.866340
1369.351340	-2.988000	3.523100	-10.527000	25.875610	0.000333	20.864818
1370.354296	-2.998400	3.523000	-10.562000	25.872480	0.000332	20.881587
1371.355693	-3.007700	3.521300	-10.591000	25.896700	0.000330	20.859453
1372.353976	-2.992700	3.522800	-10.541000	25.918238	0.000329	20.851693
1373.358236	-3.000800	3.522300	-10.569000	25.890813	0.000328	20.861599
1374.349801	-3.008200	3.520900	-10.590000	25.872555	0.000330	20.852267
1375.359756	-2.995900	3.519900	-10.544000	25.844955	0.000331	20.859154
1376.356030	-2.996200	3.520500	-10.547000	25.880703	0.000331	20.854762
1377.352164	-2.992200	3.520000	-10.532000	25.887684	0.000327	20.854663
1378.357975	-2.978300	3.519600	-10.482000	25.896826	0.000329	20.851519
1379.352790	-3.011900	3.517400	-10.593000	25.927033	0.000331	20.855312
1380.351096	-3.004400	3.517900	-10.569000	25.926537	0.000330	20.841064
1381.350266	-3.014300	3.518300	-10.604000	25.948968	0.000330	20.856960
1382.354323	-2.985200	3.519300	-10.505000	25.948869	0.000329	20.864921
1383.351466	-3.003700	3.518300	-10.568000	25.924005	0.000328	20.850373
1384.353550	-2.996600	3.518500	-10.542000	25.936102	0.000326	20.867267
1385.351390	-3.033100	3.515700	-10.663000	25.898394	0.000325	20.833654
1386.352014	-3.010600	3.516200	-10.585000	25.904630	0.000327	20.847031
1387.353916	-3.001300	3.516800	-10.554000	25.906195	0.000328	20.848129
1388.355856	-2.995100	3.515300	-10.528000	25.948474	0.000327	20.850775
1389.352533	-2.993600	3.516300	-10.526000	25.971948	0.000328	20.828839
1390.357038	-3.012800	3.514600	-10.588000	26.025526	0.000326	20.838098
1391.360941	-2.945300	3.517300	-10.358000	26.042590	0.000327	20.832958
1392.357755	-3.016100	3.515700	-10.602000	26.047980	0.000324	20.832683
1393.356962	-2.986700	3.514900	-10.497000	25.995025	0.000324	20.846808
1394.368617	-2.993700	3.514200	-10.520000	25.996987	0.000324	20.849727
1395.356005	-2.992100	3.514900	-10.516000	26.011444	0.000325	20.840545
1396.356319	-2.995400	3.514300	-10.526000	26.003471	0.000324	20.820681
1397.364860	-3.021700	3.513100	-10.615000	25.975627	0.000323	20.836328
1398.355460	-3.013200	3.512800	-10.584000	26.001907	0.000324	20.837601
1399.369664	-3.011700	3.511800	-10.576000	25.993163	0.000324	20.844463
1400.359274	-3.015600	3.512900	-10.592000	26.044008	0.000324	20.834382
1401.369727	-2.984400	3.511800	-10.480000	26.031192	0.000322	20.835256
1402.366228	-2.966800	3.513100	-10.421000	26.008937	0.000323	20.829966
1403.360248	-3.010400	3.510200	-10.567000	25.957942	0.000319	20.850329
1404.365628	-2.995700	3.511500	-10.518000	25.941249	0.000319	20.833559
1405.364037	-2.987600	3.510400	-10.487000	25.941572	0.000322	20.832462
1406.366857	-2.996000	3.512000	-10.521000	25.977540	0.000318	20.841096
1407.367935	-3.009100	3.510800	-10.563000	25.955806	0.000321	20.844865
1408.366778	-2.999600	3.508700	-10.524000	25.924382	0.000321	20.832262
1409.365394	-3.004200	3.509000	-10.541000	25.891965	0.000319	20.847110
1410.363613	-2.979100	3.510000	-10.455000	25.860516	0.000320	20.826897
1411.362923	-3.009500	3.507000	-10.553000	25.892114	0.000320	20.846312
1412.367944	-3.001900	3.507700	-10.529000	25.937152	0.000320	20.815219
1413.364303	-3.018400	3.506600	-10.582000	25.951907	0.000319	20.840947
1414.363885	-3.006300	3.506900	-10.542000	26.010080	0.000319	20.829218
1415.368036	-2.998400	3.508900	-10.520000	25.990532	0.000321	20.811949
1416.363736	-2.993000	3.509300	-10.502000	25.991824	0.000320	20.817989
1417.364837	-2.981400	3.507000	-10.455000	25.958216	0.000317	20.824527
1418.369544	-2.992900	3.507300	-10.496000	25.924185	0.000319	20.816417
1419.365691	-3.004300	3.506000	-10.532000	25.929029	0.000316	20.823654
1420.379703	-3.020900	3.505200	-10.587000	25.950094	0.000318	20.817789
1421.368923	-2.990900	3.507400	-10.488000	25.953347	0.000320	20.808730
1422.364888	-3.025900	3.504400	-10.603000	25.967680	0.000317	20.813647
1423.368799	-2.999700	3.504000	-10.510000	25.961743	0.000316	20.836605
1424.370710	-3.027400	3.503200	-10.605000	25.959781	0.000316	20.820409
1425.371761	-3.007000	3.503800	-10.535000	25.946566	0.000316	20.831315
1426.370330	-2.992400	3.502700	-10.480000	25.932258	0.000315	20.816941
1427.371227	-3.007300	3.502700	-10.533000	25.960353	0.000316	20.803914
1428.369035	-3.002700	3.503200	-10.518000	25.955684	0.000315	20.817715
1429.372138	-3.027400	3.500800	-10.597000	26.001859	0.000315	20.817165
1430.370598	-2.998600	3.502500	-10.502000	26.016738	0.000313	20.819312
1431.372270	-2.990200	3.502400	-10.472000	26.038993	0.000314	20.806584
1432.366980	-2.989600	3.501800	-10.467000	26.032063	0.000313	20.823803
1433.367444	-2.986800	3.501700	-10.458000	26.012664	0.000314	20.826124
1434.372284	-3.001300	3.501300	-10.508000	26.034621	0.000314	20.827796
1435.370571	-3.011000	3.501000	-10.541000	26.003945	0.000311	20.820683
1436.368540	-2.996600	3.499800	-10.486000	26.002058	0.000312	20.836805
1437.368802	-3.006700	3.500100	-10.523000	25.986161	0.000312	20.789066
1438.369638	-3.000100	3.498700	-10.496000	25.980771	0.000311	20.828695
1439.369373	-2.983400	3.499600	-10.440000	25.986906	0.000313	20.809728
1440.375487	-2.997800	3.497500	-10.484000	25.930246	0.000310	20.823454
1441.372754	-3.001700	3.498800	-10.502000	25.948156	0.000311	20.816791
1442.368458	-2.990100	3.498400	-10.460000	25.974982	0.000310	20.821931
1443.372031	-3.006700	3.498000	-10.516000	26.028411	0.000309	20.818238
1444.369368	-3.011000	3.497800	-10.531000	26.078807	0.000310	20.808655
1445.369844	-3.005100	3.497700	-10.511000	26.055483	0.000309	20.840222
1446.369814	-2.991000	3.497200	-10.459000	26.014029	0.000308	20.801891
1447.372195	-2.976700	3.497300	-10.409000	25.948030	0.000308	20.814768
1448.371390	-2.967000	3.497500	-10.377000	25.929152	0.000308	20.831363
1449.375335	-3.011000	3.495400	-10.523000	25.961096	0.000307	20.784273
1450.373131	-3.016000	3.496300	-10.544000	25.935834	0.000307	20.803937
1451.369605	-2.995000	3.494500	-10.465000	25.920060	0.000308	20.803264
1452.373358	-3.012300	3.493800	-10.523000	25.972820	0.000309	20.806482
1453.374295	-2.999900	3.493900	-10.481000	25.972994	0.000306	20.823726
1454.370205	-3.014500	3.494200	-10.532000	25.927288	0.000306	20.798671
1455.374209	-3.006700	3.494200	-10.505000	25.911986	0.000304	20.804161
1456.371162	-3.004300	3.492700	-10.492000	25.943956	0.000304	20.812571
1457.373476	-3.012000	3.493300	-10.521000	25.980842	0.000305	20.813594
1458.372783	-2.992700	3.493500	-10.454000	26.051111	0.000306	20.809751
1459.369925	-3.004300	3.491700	-10.488000	26.048453	0.000302	20.803761
1460.373777	-2.996600	3.492500	-10.465000	26.039088	0.000304	20.818060
1461.370762	-2.985800	3.491700	-10.425000	26.004265	0.000304	20.821479
1462.372599	-2.993000	3.492000	-10.450000	25.987250	0.000303	20.816713
1463.373503	-3.009600	3.490000	-10.503000	25.964546	0.000303	20.807653
1464.377383	-3.005400	3.489700	-10.487000	25.990429	0.000305	20.807579
1465.371988	-3.019000	3.489400	-10.534000	26.026693	0.000302	20.801813
1466.375364	-2.992500	3.489700	-10.442000	26.002028	0.000302	20.826344
1467.381835	-3.002300	3.490200	-10.478000	26.026346	0.000302	20.789136
1468.374714	-2.979000	3.489800	-10.395000	26.053195	0.000300	20.793827
1469.374785	-2.982800	3.488600	-10.404000	26.055157	0.000301	20.807652
1470.378596	-3.007200	3.487900	-10.488000	26.039434	0.000300	20.794700
1471.375383	-2.995500	3.488900	-10.450000	26.050586	0.000303	20.794051
1472.375712	-2.999900	3.488600	-10.463000	26.083819	0.000300	20.783819
1473.376766	-3.003800	3.487900	-10.476000	26.059154	0.000299	20.812143
1474.377001	-2.987000	3.488900	-10.420000	26.048276	0.000299	20.786039
1475.379224	-3.006500	3.485900	-10.479000	26.046463	0.000298	20.789908
1476.381486	-2.971200	3.486800	-10.358000	26.059478	0.000296	20.814364
1477.381688	-2.997500	3.486500	-10.449000	26.030019	0.000298	20.809896
1478.379555	-3.004100	3.485000	-10.468000	26.057192	0.000297	20.796420
1479.380994	-3.004400	3.485800	-10.472000	26.024902	0.000300	20.809971
1480.381764	-3.007400	3.487000	-10.485000	25.973411	0.000297	20.805654
1481.378695	-3.007300	3.485000	-10.479000	25.969759	0.000298	20.788234
1482.378893	-2.997900	3.484900	-10.447000	25.958357	0.000297	20.791004
1483.383212	-2.987400	3.485600	-10.412000	26.021648	0.000296	20.810020
1484.380337	-2.989500	3.486000	-10.420000	26.014767	0.000298	20.802633
1485.380585	-3.001500	3.482800	-10.453000	26.011240	0.000295	20.796245
1486.380273	-2.984200	3.483800	-10.395000	26.001578	0.000293	20.794123
1487.383817	-3.002100	3.483500	-10.457000	26.046461	0.000295	20.779474
1488.383887	-3.003400	3.483500	-10.461000	26.097899	0.000293	20.833527
1489.382593	-3.021400	3.480800	-10.516000	26.114465	0.000295	20.782844
1490.384573	-3.018000	3.480900	-10.505000	26.100929	0.000292	20.789157
1491.382376	-3.003500	3.482500	-10.459000	26.086002	0.000292	20.797867
1492.382413	-2.991700	3.481300	-10.414000	26.065387	0.000293	20.787585
1493.385614	-3.009100	3.481200	-10.474000	25.996932	0.000292	20.774283
1494.384249	-3.023300	3.480400	-10.522000	26.006968	0.000292	20.778202
1495.384070	-2.994700	3.480200	-10.422000	26.019487	0.000293	20.798840
1496.383210	-3.002300	3.480300	-10.448000	26.023536	0.000293	20.799589
1497.387615	-2.978800	3.480400	-10.366000	26.017823	0.000290	20.808074
1498.386240	-2.993900	3.480000	-10.417000	25.995791	0.000291	20.764601
1499.385804	-2.977500	3.479600	-10.359000	25.995741	0.000288	20.802009
1500.388308	-3.001800	3.479100	-10.442000	25.999467	0.000290	20.789158
1501.390710	-2.997200	3.478400	-10.424000	26.020630	0.000291	20.785764
1502.386706	-2.992600	3.478200	-10.408000	26.011912	0.000289	20.782221
1503.389895	-3.030100	3.477100	-10.535000	26.069312	0.000288	20.795796
1504.389442	-3.027300	3.476200	-10.523000	26.071995	0.000291	20.780948
1505.388029	-3.016700	3.476700	-10.487000	26.087344	0.000290	20.776456
1506.396628	-2.989600	3.477300	-10.395000	26.086177	0.000286	20.781921
1507.392018	-3.001000	3.475300	-10.429000	26.055950	0.000289	20.784267
1508.390050	-3.032300	3.474000	-10.532000	26.048648	0.000289	20.793526
1509.388831	-3.033500	3.474600	-10.540000	25.997580	0.000287	20.786788
1510.390231	-3.009700	3.475300	-10.459000	26.015514	0.000287	20.790107
1511.389429	-3.038600	3.473200	-10.553000	26.034465	0.000286	20.788759
1512.388877	-3.011900	3.474100	-10.463000	26.004336	0.000287	20.797843
1513.391343	-2.988600	3.474600	-10.383000	26.057565	0.000287	20.790157
1514.390593	-2.995600	3.474100	-10.406000	26.037371	0.000285	20.777928
1515.390897	-2.992900	3.473700	-10.395000	26.019190	0.000287	20.796646
1516.391429	-2.981300	3.475000	-10.359000	25.994922	0.000284	20.790281
1517.393735	-2.973600	3.474400	-10.330000	26.004113	0.000285	20.790507
1518.391410	-2.991900	3.472800	-10.389000	26.029398	0.000284	20.799789
1519.392018	-3.000300	3.472000	-10.416000	25.998773	0.000285	20.777555
1520.393553	-2.992000	3.471300	-10.385000	25.999692	0.000283	20.776581
1521.393032	-2.997500	3.471500	-10.404000	26.006821	0.000283	20.803658
1522.399376	-3.002400	3.471000	-10.420000	26.045494	0.000285	20.788935
1523.396542	-2.994100	3.471100	-10.392000	26.060049	0.000282	20.786489
1524.392526	-2.994400	3.470700	-10.392000	26.096212	0.000284	20.789633
1525.396134	-3.008900	3.469900	-10.439000	26.108705	0.000280	20.794125
1526.395545	-2.991500	3.471000	-10.383000	26.165132	0.000283	20.804357
1527.392425	-3.000400	3.470900	-10.413000	26.128178	0.000281	20.797570
1528.393111	-2.991400	3.469800	-10.379000	26.085409	0.000280	20.809599
1529.393654	-2.988900	3.470000	-10.370000	26.108159	0.000280	20.809698
1530.395618	-3.002100	3.467800	-10.410000	26.111588	0.000280	20.798919
1531.393713	-3.020500	3.467400	-10.472000	26.130935	0.000277	20.785642
1532.394983	-3.023100	3.469000	-10.486000	26.098351	0.000280	20.802213
1533.399228	-3.011000	3.467200	-10.438000	26.074681	0.000278	20.785069
1534.396926	-3.011300	3.468500	-10.444000	26.097308	0.000278	20.788364
1535.393712	-3.021700	3.467700	-10.477000	26.063282	0.000276	20.789263
1536.396223	-3.012700	3.466900	-10.444000	26.032632	0.000275	20.791185
1537.394549	-3.008900	3.465600	-10.426000	26.039438	0.000274	20.789014
1538.398847	-2.991800	3.467000	-10.371000	26.098602	0.000273	20.795828
1539.395591	-3.001000	3.465900	-10.400000	26.098130	0.000276	20.799147
1540.394295	-2.991300	3.465500	-10.366000	26.120807	0.000274	20.805337
1541.395715	-2.979000	3.465900	-10.324000	26.122223	0.000274	20.796329
1542.399507	-2.988800	3.464000	-10.353000	26.153368	0.000273	20.784475
1543.401137	-2.987300	3.464000	-10.347000	26.139808	0.000275	20.787446
1544.397027	-2.996200	3.464400	-10.379000	26.110304	0.000272	20.795732
1545.397704	-3.006300	3.463200	-10.410000	26.062121	0.000272	20.803744
1546.398189	-2.983800	3.463600	-10.333000	26.053181	0.000273	20.799502
1547.400332	-3.000500	3.463400	-10.391000	26.041384	0.000272	20.808987
1548.398202	-3.003400	3.462200	-10.398000	26.033188	0.000268	20.804546
1549.399287	-3.012400	3.462400	-10.429000	26.048638	0.000271	20.782136
1550.401627	-2.995600	3.462200	-10.371000	26.069279	0.000274	20.809039
1551.406019	-3.016700	3.462500	-10.445000	26.096403	0.000270	20.798834
1552.402814	-2.995800	3.462700	-10.372000	26.129162	0.000270	20.801879
1553.401464	-3.011300	3.460600	-10.420000	26.107606	0.000269	20.795392
1554.403503	-2.984100	3.461300	-10.327000	26.060641	0.000271	20.782816
1555.407027	-2.994600	3.460800	-10.363000	26.107607	0.000270	20.778323
1556.401840	-3.009800	3.460900	-10.416000	26.096309	0.000270	20.796368
1557.406211	-2.996600	3.461500	-10.372000	26.083742	0.000268	20.772362
1558.406770	-3.041200	3.459200	-10.519000	26.026120	0.000267	20.814987
1559.403571	-3.006100	3.460300	-10.401000	26.070382	0.000270	20.804931
1560.406806	-2.983100	3.459700	-10.320000	26.071673	0.000268	20.789160
1561.402697	-3.007900	3.457900	-10.400000	26.100361	0.000268	20.787638
1562.404739	-3.003500	3.459100	-10.388000	26.098127	0.000270	20.793928
1563.411108	-3.017900	3.458400	-10.436000	26.072545	0.000267	20.801889
1564.408414	-3.021200	3.457300	-10.445000	26.055930	0.000268	20.807954
1565.405700	-3.009000	3.456100	-10.398000	26.071653	0.000265	20.777760
1566.409257	-3.017200	3.455800	-10.426000	26.100986	0.000268	20.783524
1567.408126	-3.020400	3.456200	-10.438000	26.045649	0.000266	20.787668
1568.406870	-2.997400	3.456200	-10.359000	26.015298	0.000266	20.784200
1569.411343	-3.013400	3.454700	-10.409000	26.011572	0.000267	20.793733
1570.408038	-2.997500	3.455000	-10.356000	26.033258	0.000267	20.797503
1571.407682	-3.004400	3.454600	-10.378000	26.020889	0.000265	20.784128
1572.412772	-3.013400	3.454800	-10.410000	26.077793	0.000266	20.790567
1573.407281	-2.996200	3.454800	-10.350000	26.113012	0.000266	20.791341
1574.410461	-3.009300	3.454300	-10.394000	26.153943	0.000266	20.813028
1575.411358	-3.007600	3.453200	-10.385000	26.188612	0.000263	20.808511
1576.410190	-2.995400	3.453900	-10.345000	26.176097	0.000263	20.802099
1577.411520	-2.977800	3.453900	-10.285000	26.118901	0.000264	20.801051
1578.412631	-2.998000	3.453600	-10.353000	26.104223	0.000264	20.787251
1579.411302	-2.979200	3.452400	-10.284000	26.057753	0.000264	20.788923
1580.412659	-3.005300	3.452800	-10.375000	26.085448	0.000263	20.784033
1581.410593	-3.006300	3.451400	-10.375000	26.024694	0.000263	20.807866
1582.410339	-3.033100	3.450500	-10.465000	26.073601	0.000264	20.806269
1583.432714	-2.994500	3.451900	-10.335000	26.068633	0.000263	20.821666
1584.413384	-3.008600	3.450700	-10.380000	26.090913	0.000265	20.796637
1585.410584	-3.014500	3.449400	-10.397000	26.175604	0.000262	20.805397
1586.413123	-2.984100	3.450600	-10.296000	26.131770	0.000263	20.812560
1587.413327	-2.994400	3.450500	-10.332000	26.145231	0.000261	20.808067
1588.411979	-2.981700	3.450000	-10.287000	26.181094	0.000261	20.803327
1589.412088	-2.996400	3.448600	-10.333000	26.208636	0.000263	20.809666
1590.414950	-3.009600	3.448000	-10.377000	26.133609	0.000261	20.802080
1591.416494	-3.019800	3.447700	-10.409000	26.087935	0.000262	20.814507
1592.413629	-2.999100	3.448700	-10.342000	26.075368	0.000259	20.796191
1593.420203	-2.996400	3.449500	-10.335000	26.100056	0.000258	20.817203
1594.416566	-2.995100	3.448800	-10.328000	26.129363	0.000261	20.831952
1595.413769	-3.013400	3.447900	-10.389000	26.148338	0.000259	20.809293
1596.413816	-3.003400	3.447700	-10.355000	26.203398	0.000258	20.805351
1597.414566	-3.002000	3.448600	-10.352000	26.192024	0.000258	20.807672
1598.411778	-3.016500	3.445600	-10.393000	26.180202	0.000259	20.797215
1599.413320	-2.963300	3.447500	-10.215000	26.168953	0.000259	20.824791
1600.414516	-3.025300	3.445800	-10.424000	26.204988	0.000258	20.785611
1601.416728	-3.009000	3.445300	-10.366000	26.190708	0.000257	20.798763
1602.413459	-3.014300	3.445200	-10.383000	26.169797	0.000258	20.820425
1603.414468	-3.023300	3.443900	-10.411000	26.196545	0.000258	20.834025
1604.415567	-3.008200	3.444400	-10.360000	26.234392	0.000256	20.799986
1605.412155	-2.994600	3.444900	-10.316000	26.152014	0.000257	20.819625
1606.412279	-3.011800	3.443500	-10.371000	26.103411	0.000256	20.825790
1607.414898	-3.022200	3.443200	-10.404000	26.095313	0.000256	20.825240
1608.413354	-3.018700	3.443400	-10.394000	26.120721	0.000256	20.817579
1609.413107	-3.020600	3.442500	-10.398000	26.112549	0.000254	20.821222
1610.418107	-2.984300	3.444500	-10.278000	26.138528	0.000257	20.824566
1611.415260	-3.003000	3.442400	-10.337000	26.133760	0.000255	20.814559
1612.416432	-3.015800	3.442900	-10.382000	26.125638	0.000255	20.815406
1613.416683	-2.997900	3.440900	-10.315000	26.108178	0.000255	20.804501
1614.416459	-2.996700	3.442800	-10.316000	26.108649	0.000254	20.825363
1615.419284	-3.011700	3.440700	-10.361000	26.099137	0.000254	20.829556
1616.416633	-3.011400	3.439500	-10.356000	26.128071	0.000255	20.824490
1617.416784	-2.971200	3.441400	-10.224000	26.109617	0.000253	20.825388
1618.422099	-2.985800	3.439900	-10.270000	26.104674	0.000253	20.850766
1619.416384	-2.998100	3.439000	-10.309000	26.093547	0.000252	20.822043
1620.425281	-2.988400	3.439800	-10.279000	26.118856	0.000250	20.819972
1621.421233	-2.991600	3.439200	-10.287000	26.127771	0.000253	20.824188
1622.417406	-2.994200	3.439900	-10.298000	26.139866	0.000250	20.831125
1623.418619	-2.994800	3.438400	-10.297000	26.146373	0.000252	20.824388
1624.418467	-2.999800	3.439200	-10.316000	26.169519	0.000250	20.831050
1625.421010	-3.004500	3.438500	-10.330000	26.182333	0.000249	20.838711
1626.422542	-2.997300	3.437900	-10.303000	26.126553	0.000249	20.829602
1627.428235	-2.994200	3.437900	-10.293000	26.155386	0.000248	20.837712
1628.421622	-3.027600	3.436400	-10.403000	26.128589	0.000249	20.813631
1629.419788	-2.990100	3.436000	-10.273000	26.099977	0.000248	20.846520
1630.428064	-3.001700	3.437100	-10.316000	26.112172	0.000246	20.845497
1631.420854	-2.990800	3.434700	-10.272000	26.166487	0.000247	20.840806
1632.421826	-3.028800	3.433800	-10.398000	26.180395	0.000247	20.839607
1633.423169	-3.006100	3.433600	-10.321000	26.153572	0.000245	20.854853
1634.423269	-3.001200	3.435600	-10.310000	26.133008	0.000245	20.848416
1635.425268	-2.993900	3.434400	-10.281000	26.132063	0.000246	20.834665
1636.421977	-2.989900	3.434700	-10.269000	26.147164	0.000245	20.837036
1637.427968	-3.014400	3.434300	-10.352000	26.156104	0.000245	20.870200
1638.422310	-2.977600	3.434800	-10.226000	26.195418	0.000243	20.848065
1639.423163	-2.999800	3.433800	-10.300000	26.239771	0.000242	20.838108
1640.426702	-2.975800	3.433700	-10.217000	26.254621	0.000245	20.840229
1641.425934	-2.986000	3.432900	-10.248000	26.260110	0.000241	20.836736
1642.429748	-2.986400	3.432400	-10.250000	26.216030	0.000243	20.852656
1643.432696	-2.992900	3.432100	-10.271000	26.212156	0.000242	20.846867
1644.429001	-2.983900	3.431900	-10.240000	26.212454	0.000241	20.872296
1645.426637	-3.016600	3.431100	-10.349000	26.182901	0.000241	20.845919
1646.430666	-3.007400	3.430400	-10.316000	26.173588	0.000242	20.856475
1647.425428	-2.993500	3.431500	-10.271000	26.168795	0.000241	20.839805
1648.425063	-2.989100	3.430900	-10.255000	26.229887	0.000240	20.841452
1649.428988	-3.017000	3.429200	-10.345000	26.200607	0.000240	20.855176
1650.425432	-2.987700	3.431100	-10.250000	26.206593	0.000238	20.855501
1651.427929	-2.999100	3.430300	-10.287000	26.217744	0.000241	20.868128
1652.429183	-3.006900	3.427900	-10.307000	26.252658	0.000240	20.873342
1653.430513	-3.003600	3.427100	-10.292000	26.258842	0.000237	20.871022
1654.430277	-2.991500	3.427900	-10.254000	26.272550	0.000238	20.847815
1655.433724	-3.003900	3.427600	-10.295000	26.284716	0.000238	20.877583
1656.427175	-3.003300	3.426900	-10.291000	26.225491	0.000237	20.865008
1657.430310	-2.988700	3.428300	-10.245000	26.199936	0.000237	20.858295
1658.428578	-2.996100	3.425800	-10.263000	26.220796	0.000237	20.874040
1659.427803	-2.991000	3.426300	-10.247000	26.234728	0.000237	20.873816
1660.432160	-3.011100	3.426200	-10.316000	26.233263	0.000236	20.849586
1661.430428	-2.980500	3.425600	-10.209000	26.288889	0.000233	20.877035
1662.431426	-3.002200	3.425100	-10.282000	26.243868	0.000236	20.878732
1663.431599	-3.010400	3.424100	-10.307000	26.230357	0.000235	20.870846
1664.433114	-3.009300	3.423800	-10.302000	26.220499	0.000235	20.859517
1665.429013	-2.997600	3.425800	-10.268000	26.252137	0.000234	20.872344
1666.431286	-2.979600	3.424900	-10.204000	26.253801	0.000235	20.864534
1667.433444	-3.007100	3.424200	-10.296000	26.214861	0.000233	20.871870
1668.430828	-3.000000	3.423300	-10.269000	26.206567	0.000234	20.886767
1669.431457	-2.983800	3.424700	-10.218000	26.226334	0.000231	20.890510
1670.437410	-2.972600	3.424700	-10.179000	26.209821	0.000233	20.876761
1671.437196	-2.993100	3.422900	-10.244000	26.157667	0.000232	20.866555
1672.436904	-2.982300	3.422800	-10.206000	26.184514	0.000233	20.877884
1673.438505	-3.011800	3.422100	-10.305000	26.138023	0.000233	20.881428
1674.438632	-2.982000	3.421300	-10.201000	26.148503	0.000233	20.862088
1675.433791	-2.971400	3.421700	-10.166000	26.174530	0.000234	20.887765
1676.433806	-2.988300	3.422200	-10.226000	26.179597	0.000232	20.884796
1677.441578	-3.006200	3.421300	-10.285000	26.176791	0.000232	20.881976
1678.436082	-2.982000	3.420300	-10.198000	26.203786	0.000232	20.887766
1679.433008	-2.966200	3.421400	-10.148000	26.207114	0.000232	20.870723
1680.441050	-2.976000	3.420700	-10.179000	26.201923	0.000230	20.884946
1681.431855	-2.999500	3.419000	-10.254000	26.210839	0.000229	20.893904
1682.436724	-2.995000	3.419100	-10.239000	26.261945	0.000232	20.880777
1683.438848	-2.987200	3.418100	-10.210000	26.311113	0.000232	20.891782
1684.437946	-3.001300	3.418100	-10.258000	26.335224	0.000232	20.892780
1685.435831	-3.010000	3.418400	-10.289000	26.309524	0.000233	20.902986
1686.446374	-2.998500	3.417900	-10.248000	26.266439	0.000232	20.887664
1687.441104	-3.018600	3.415700	-10.310000	26.288292	0.000230	20.892555
1688.436257	-2.980500	3.417500	-10.184000	26.295294	0.000230	20.886790
1689.446037	-3.018200	3.415600	-10.308000	26.289458	0.000231	20.888986
1690.435654	-2.998800	3.415700	-10.242000	26.321590	0.000229	20.891880
1691.439374	-2.978500	3.416900	-10.176000	26.305077	0.000231	20.895199
1692.440959	-2.987300	3.416600	-10.205000	26.281585	0.000228	20.900988
1693.437707	-3.009700	3.415300	-10.279000	26.261620	0.000227	20.921225
1694.436577	-2.972200	3.417000	-10.154000	26.255933	0.000230	20.894176
1695.441442	-3.023800	3.413800	-10.322000	26.285235	0.000229	20.919827
1696.440235	-3.011700	3.415100	-10.284000	26.270981	0.000230	20.903606
1697.441315	-3.023300	3.412400	-10.316000	26.232564	0.000226	20.902933
1698.448925	-2.999500	3.414100	-10.239000	26.268348	0.000228	20.899539
1699.439665	-3.011100	3.413300	-10.276000	26.296756	0.000228	20.890156
1700.441607	-3.006300	3.413100	-10.259000	26.308279	0.000227	20.898416
1701.442157	-3.010800	3.412200	-10.272000	26.355458	0.000226	20.902208
1702.438787	-2.987300	3.412900	-10.195000	26.370678	0.000229	20.911341
1703.444839	-2.994900	3.413400	-10.222000	26.342718	0.000227	20.899837
1704.441158	-3.004400	3.411100	-10.247000	26.348876	0.000224	20.906973
1705.439447	-3.006600	3.410800	-10.255000	26.338894	0.000223	20.895519
1706.443758	-3.006100	3.411700	-10.255000	26.357964	0.000225	20.910891
1707.448053	-3.010000	3.410200	-10.264000	26.356747	0.000226	20.889755
1708.443284	-3.018900	3.409600	-10.293000	26.382323	0.000223	20.921146
1709.442261	-2.998200	3.410600	-10.225000	26.365562	0.000224	20.902880
1710.445449	-2.996400	3.410500	-10.219000	26.353717	0.000225	20.911363
1711.442042	-2.991000	3.410800	-10.200000	26.362060	0.000225	20.910740
1712.442303	-2.995400	3.411000	-10.216000	26.372265	0.000223	20.929055
1713.445619	-2.991300	3.409200	-10.197000	26.381774	0.000222	20.919647
1714.440891	-3.004800	3.408100	-10.240000	26.411520	0.000221	20.932946
1715.446082	-3.005900	3.409400	-10.248000	26.364840	0.000222	20.920645
1716.445455	-2.981900	3.409200	-10.165000	26.326426	0.000221	20.928504
1717.442204	-2.974600	3.408300	-10.137000	26.268963	0.000221	20.910587
1718.442986	-2.997100	3.408500	-10.214000	26.249966	0.000220	20.925160
1719.444647	-2.977800	3.408000	-10.146000	26.284185	0.000221	20.914505
1720.443811	-2.985900	3.406200	-10.169000	26.317709	0.000221	20.906945
1721.446990	-2.996500	3.405700	-10.205000	26.307007	0.000220	20.935066
1722.445791	-2.992700	3.406700	-10.194000	26.267796	0.000221	20.939282
1723.442037	-2.996300	3.405800	-10.204000	26.280187	0.000220	20.936088
1724.449156	-2.994800	3.406600	-10.202000	26.289251	0.000217	20.925758
1725.456542	-2.985600	3.404700	-10.164000	26.334619	0.000218	20.924885
1726.445696	-3.008900	3.404500	-10.243000	26.321681	0.000217	20.937960
1727.446724	-2.983300	3.405600	-10.159000	26.309390	0.000218	20.929875
1728.450505	-2.999500	3.405000	-10.213000	26.361139	0.000216	20.912659
1729.444824	-2.983700	3.404800	-10.158000	26.393939	0.000216	20.945621
1730.446917	-3.009500	3.404300	-10.244000	26.368762	0.000217	20.929327
1731.449899	-3.000300	3.403800	-10.211000	26.388105	0.000217	20.938809
1732.446276	-3.009200	3.403700	-10.242000	26.394114	0.000216	20.933469
1733.458999	-3.013200	3.402400	-10.252000	26.353739	0.000217	20.946469
1734.449103	-3.011800	3.401800	-10.245000	26.332658	0.000214	20.911536
1735.447241	-3.027900	3.401800	-10.299000	26.310409	0.000215	20.935166
1736.445769	-3.009100	3.402400	-10.237000	26.291884	0.000213	20.934093
1737.445278	-2.970100	3.402300	-10.104000	26.235290	0.000214	20.927955
1738.443911	-3.014200	3.400100	-10.248000	26.243037	0.000211	20.921991
1739.443851	-2.974500	3.401900	-10.119000	26.284013	0.000213	20.947044
1740.448932	-2.997200	3.401400	-10.193000	26.353019	0.000215	20.945271
1741.444634	-2.992200	3.398500	-10.168000	26.380680	0.000212	20.946519
1742.448818	-2.984800	3.401800	-10.153000	26.401141	0.000212	20.941005
1743.452954	-3.011200	3.399800	-10.236000	26.382666	0.000213	20.933344
1744.447964	-2.981800	3.400000	-10.137000	26.386838	0.000211	20.950811
1745.452667	-3.008300	3.398100	-10.222000	26.356942	0.000212	20.958221
1746.453126	-3.001200	3.399000	-10.199000	26.350362	0.000210	20.948765
1747.450969	-2.995600	3.397400	-10.176000	26.394361	0.000209	20.954578
1748.452116	-3.005100	3.396700	-10.206000	26.392995	0.000210	20.947042
1749.454463	-3.015200	3.396200	-10.239000	26.381177	0.000208	20.929002
1750.449033	-2.994900	3.396900	-10.173000	26.381225	0.000209	20.952755
1751.452189	-2.988400	3.396900	-10.150000	26.395974	0.000209	20.960940
1752.454781	-2.990700	3.397200	-10.159000	26.421150	0.000209	20.937883
1753.453075	-3.009800	3.396600	-10.222000	26.418346	0.000207	20.943598
1754.452840	-2.969000	3.396500	-10.084000	26.401114	0.000208	20.953305
1755.453936	-3.013100	3.395400	-10.229000	26.404118	0.000207	20.950635
1756.454122	-3.011200	3.395000	-10.222000	26.431679	0.000209	20.947990
1757.454232	-2.995600	3.393900	-10.166000	26.454173	0.000207	20.951632
1758.454271	-2.979400	3.394600	-10.112000	26.419934	0.000205	20.953729
1759.450586	-2.976700	3.393800	-10.101000	26.464725	0.000207	20.950384
1760.456164	-2.980700	3.394800	-10.118000	26.473887	0.000206	20.940154
1761.459210	-2.998100	3.394200	-10.175000	26.422019	0.000205	20.944445
1762.458727	-3.010100	3.394800	-10.218000	26.408214	0.000206	20.943372
1763.450342	-3.011400	3.392300	-10.214000	26.425124	0.000207	20.940928
1764.456076	-3.006300	3.392800	-10.199000	26.421398	0.000204	20.927228
1765.457147	-3.001400	3.391500	-10.178000	26.447989	0.000205	20.926928
1766.455577	-3.012900	3.392100	-10.218000	26.437660	0.000204	20.935037
1767.455961	-3.005500	3.392400	-10.194000	26.424079	0.000205	20.934190
1768.469278	-3.018700	3.390700	-10.235000	26.424948	0.000205	20.917995
1769.457026	-2.984000	3.391500	-10.120000	26.433563	0.000203	20.923808
1770.458263	-2.984900	3.390300	-10.119000	26.426959	0.000204	20.936609
1771.456647	-2.981000	3.390300	-10.106000	26.425196	0.000203	20.926778
1772.456336	-3.005100	3.391300	-10.191000	26.424028	0.000202	20.929871
1773.457171	-2.997400	3.390200	-10.161000	26.404239	0.000202	20.930370
1774.458065	-3.003400	3.388700	-10.176000	26.405158	0.000201	20.933664
1775.459230	-2.984300	3.390500	-10.117000	26.413228	0.000203	20.916647
1776.457992	-3.007100	3.388800	-10.189000	26.414568	0.000202	20.910408
1777.454013	-2.996900	3.388000	-10.152000	26.420851	0.000200	20.944694
1778.456632	-3.006500	3.385900	-10.179000	26.463109	0.000203	20.913677
1779.462316	-3.003700	3.388200	-10.176000	26.508221	0.000200	20.937208
1780.458084	-3.002100	3.387700	-10.169000	26.510456	0.000200	20.935187
1781.460121	-3.006700	3.388400	-10.186000	26.434730	0.000201	20.905543
1782.458864	-3.005900	3.388000	-10.183000	26.428647	0.000199	20.915549
1783.459779	-2.999800	3.386400	-10.157000	26.420404	0.000198	20.911532
1784.459442	-3.000800	3.387100	-10.164000	26.421298	0.000198	20.903423
1785.460193	-2.976800	3.386200	-10.079000	26.448337	0.000198	20.930596
1786.470040	-2.989600	3.386100	-10.123000	26.468373	0.000198	20.907115
1787.463191	-3.000900	3.386800	-10.163000	26.444215	0.000199	20.905119
1788.471907	-2.983600	3.385600	-10.100000	26.443296	0.000196	20.931219
1789.465875	-2.991200	3.384100	-10.122000	26.457349	0.000198	20.926852
1790.464321	-3.000500	3.383900	-10.153000	26.462712	0.000195	20.910907
1791.472244	-3.006000	3.383900	-10.171000	26.497223	0.000195	20.902923
1792.461419	-2.978900	3.384700	-10.081000	26.535680	0.000196	20.897009
1793.466708	-3.002400	3.383900	-10.159000	26.497496	0.000195	20.897982
1794.465244	-2.999900	3.383100	-10.148000	26.478925	0.000194	20.905393
1795.466091	-2.980400	3.382400	-10.080000	26.430211	0.000196	20.899104
1796.462391	-2.975700	3.383100	-10.066000	26.397958	0.000193	20.886603
1797.461996	-2.997700	3.381500	-10.136000	26.411936	0.000193	20.930994
1798.468322	-3.006000	3.382200	-10.166000	26.455238	0.000195	20.905293
1799.467587	-3.000300	3.381000	-10.143000	26.473860	0.000191	20.891768
1800.471321	-3.007100	3.380700	-10.165000	26.506409	0.000195	20.911207
1801.464653	-2.993400	3.381000	-10.119000	26.474505	0.000191	20.904270
1802.461704	-3.023600	3.379100	-10.216000	26.481581	0.000192	20.905218
1803.464334	-3.005900	3.379100	-10.156000	26.533693	0.000190	20.903072
1804.463512	-2.991100	3.379400	-10.108000	26.530094	0.000191	20.892816
1805.468266	-2.973800	3.379700	-10.050000	26.523961	0.000190	20.893764
1806.464954	-2.985800	3.379000	-10.087000	26.485926	0.000189	20.864544
1807.468138	-2.978300	3.380000	-10.065000	26.460676	0.000191	20.897009
1808.463579	-2.969100	3.377500	-10.028000	26.464375	0.000191	20.897881
1809.467700	-3.000900	3.378400	-10.137000	26.437858	0.000191	20.893989
1810.466439	-2.992000	3.378300	-10.107000	26.413228	0.000191	20.915698
1811.466530	-3.023900	3.376600	-10.210000	26.478104	0.000191	20.890345
1812.475253	-3.005200	3.378200	-10.151000	26.460974	0.000189	20.881662
1813.468153	-2.987200	3.377600	-10.089000	26.469589	0.000189	20.891743
1814.468668	-2.971200	3.377300	-10.034000	26.479147	0.000189	20.892815
1815.465758	-2.990900	3.376900	-10.099000	26.544169	0.000189	20.879465
1816.469352	-3.008300	3.375700	-10.154000	26.539254	0.000187	20.900126
1817.468975	-2.990800	3.375800	-10.094000	26.550003	0.000189	20.896708
1818.471741	-3.003300	3.375700	-10.137000	26.558395	0.000188	20.894712
1819.474040	-2.986200	3.375100	-10.078000	26.531507	0.000187	20.878591
1820.471498	-2.983100	3.374600	-10.066000	26.574655	0.000188	20.888772
1821.472857	-3.020800	3.374600	-10.193000	26.590344	0.000186	20.868035
1822.475117	-2.989200	3.373900	-10.084000	26.635948	0.000186	20.879265
1823.472530	-3.005600	3.372900	-10.137000	26.609534	0.000187	20.881635
1824.468372	-2.993300	3.375100	-10.102000	26.606655	0.000186	20.894861
1825.470088	-3.008200	3.371800	-10.142000	26.559535	0.000187	20.869307
1826.469569	-2.996400	3.373600	-10.108000	26.569838	0.000186	20.902421
1827.471779	-3.020900	3.370700	-10.182000	26.566659	0.000186	20.888321
1828.473406	-3.003000	3.371900	-10.125000	26.483415	0.000185	20.888096
1829.475207	-2.994100	3.372200	-10.096000	26.465514	0.000183	20.883380
1830.471020	-2.992800	3.372600	-10.092000	26.445700	0.000184	20.877690
1831.471057	-2.987000	3.371000	-10.068000	26.422162	0.000183	20.892437
1832.472575	-2.987100	3.371800	-10.071000	26.492078	0.000185	20.884477
1833.473777	-3.003800	3.371500	-10.127000	26.526116	0.000184	20.876492
1834.475893	-2.979700	3.372300	-10.048000	26.478771	0.000183	20.879162
1835.473936	-3.010100	3.370800	-10.146000	26.412501	0.000183	20.904064
1836.472924	-3.009100	3.370400	-10.141000	26.400930	0.000181	20.884375
1837.482456	-3.005400	3.368900	-10.124000	26.435444	0.000181	20.878287
1838.475748	-2.980800	3.369800	-10.043000	26.499499	0.000182	20.880082
1839.472181	-2.975200	3.369400	-10.023000	26.513676	0.000184	20.870625
1840.474809	-2.975900	3.369700	-10.026000	26.567351	0.000181	20.871000
1841.472772	-2.976600	3.369400	-10.028000	26.617224	0.000181	20.887468
1842.472291	-3.000100	3.367300	-10.101000	26.567847	0.000184	20.876240
1843.479427	-2.992900	3.367100	-10.076000	26.565686	0.000179	20.867904
1844.476922	-2.990900	3.367300	-10.069000	26.537185	0.000180	20.860118
1845.477639	-3.010200	3.366500	-10.132000	26.539519	0.000178	20.880006
1846.478530	-3.019900	3.367500	-10.168000	26.536242	0.000177	20.879083
1847.475795	-2.999100	3.366800	-10.097000	26.554167	0.000178	20.877661
1848.474108	-2.997300	3.364900	-10.084000	26.593242	0.000178	20.882801
1849.479736	-2.998900	3.365200	-10.090000	26.610297	0.000177	20.885721
1850.478452	-2.986700	3.364600	-10.048000	26.628046	0.000176	20.859469
1851.475784	-2.977300	3.364200	-10.015000	26.650065	0.000178	20.900567
1852.481482	-3.007600	3.363300	-10.114000	26.619978	0.000178	20.871746
1853.479566	-3.002100	3.364100	-10.098000	26.637479	0.000176	20.856149
1854.477820	-3.008800	3.364300	-10.122000	26.655476	0.000178	20.884671
1855.482205	-2.986500	3.364900	-10.049000	26.629982	0.000175	20.864259
1856.475939	-2.993800	3.363100	-10.068000	26.593837	0.000176	20.878657
1857.485299	-3.016200	3.362800	-10.142000	26.634822	0.000173	20.878133
1858.483430	-2.993300	3.362500	-10.063000	26.660168	0.000175	20.896974
1859.480480	-3.001400	3.362100	-10.090000	26.694473	0.000174	20.879780
1860.478423	-3.003400	3.362700	-10.099000	26.688392	0.000174	20.869399
1861.477816	-3.017500	3.361600	-10.143000	26.641971	0.000174	20.872518
1862.477923	-3.007200	3.362700	-10.112000	26.621466	0.000175	20.856648
1863.480932	-3.019100	3.361000	-10.147000	26.621317	0.000173	20.884945
1864.484283	-3.008400	3.361600	-10.112000	26.651726	0.000174	20.873316
1865.482532	-2.998300	3.360100	-10.074000	26.675334	0.000174	20.855798
1866.484666	-2.989800	3.360700	-10.047000	26.666670	0.000173	20.877433
1867.483547	-2.992100	3.360000	-10.053000	26.684444	0.000172	20.869698
1868.483502	-2.988400	3.360200	-10.041000	26.670617	0.000172	20.869073
1869.482298	-3.002500	3.357300	-10.079000	26.678287	0.000173	20.887215
1870.487786	-2.990300	3.360300	-10.047000	26.650311	0.000167	20.874738
1871.484027	-2.982800	3.359200	-10.019000	26.634026	0.000172	20.874962
1872.488229	-2.999200	3.358800	-10.073000	26.634200	0.000171	20.874663
1873.489740	-3.022500	3.357400	-10.147000	26.632561	0.000170	20.863059
1874.485363	-3.012400	3.357600	-10.114000	26.651998	0.000168	20.873115
1875.490608	-2.984300	3.357500	-10.019000	26.709960	0.000169	20.839876
1876.488638	-2.984800	3.356000	-10.016000	26.673793	0.000170	20.865629
1877.490304	-3.005100	3.356700	-10.087000	26.659991	0.000166	20.873564
1878.487761	-3.007600	3.355600	-10.092000	26.631021	0.000169	20.868149
1879.491130	-3.004700	3.355800	-10.083000	26.616648	0.000166	20.838528
1880.491524	-3.023200	3.355400	-10.144000	26.580552	0.000167	20.872890
1881.491472	-2.989500	3.354900	-10.029000	26.595795	0.000166	20.866876
1882.489280	-3.011600	3.355000	-10.104000	26.598153	0.000167	20.864979
1883.489232	-3.013000	3.354600	-10.106000	26.650259	0.000168	20.855721
1884.490740	-2.996800	3.353600	-10.049000	26.691765	0.000165	20.856670
1885.487380	-2.986300	3.355000	-10.017000	26.679328	0.000165	20.867400
1886.489511	-2.998800	3.352700	-10.053000	26.697101	0.000164	20.860138
1887.486158	-2.968200	3.355300	-9.957500	26.715917	0.000165	20.872416
1888.489631	-2.983900	3.354700	-10.009000	26.713286	0.000164	20.854598
1889.489476	-3.001600	3.352500	-10.061000	26.721502	0.000163	20.852902
1890.489916	-2.995400	3.353900	-10.045000	26.708072	0.000162	20.859314
1891.491962	-3.026800	3.351300	-10.143000	26.695785	0.000164	20.855496
1892.489917	-3.005200	3.351700	-10.072000	26.663714	0.000161	20.837006
1893.492780	-3.025300	3.350300	-10.135000	26.670639	0.000163	20.861510
1894.491294	-2.991600	3.352200	-10.028000	26.699558	0.000163	20.873987
1895.493712	-3.014500	3.351400	-10.102000	26.733565	0.000163	20.856969
1896.489153	-2.989600	3.351000	-10.017000	26.734061	0.000162	20.857467
1897.495120	-3.013800	3.350700	-10.097000	26.728575	0.000160	20.844840
1898.498042	-3.002300	3.350300	-10.057000	26.725820	0.000161	20.843967
1899.491026	-3.001000	3.349900	-10.052000	26.730537	0.000161	20.855347
1900.491451	-2.992200	3.349000	-10.020000	26.717355	0.000160	20.843992
1901.493379	-2.981900	3.349100	-9.985900	26.741408	0.000161	20.851578
1902.488952	-2.997500	3.349200	-10.038000	26.706905	0.000161	20.840598
1903.497783	-3.009500	3.348400	-10.076000	26.729270	0.000158	20.853599
1904.494277	-3.007800	3.348800	-10.071000	26.719689	0.000158	20.854872
1905.494475	-3.015400	3.348200	-10.095000	26.732893	0.000157	20.849182
1906.499570	-2.993100	3.348500	-10.022000	26.774495	0.000158	20.853075
1907.491924	-2.991000	3.347500	-10.012000	26.795220	0.000157	20.850679
1908.499869	-2.992700	3.347700	-10.018000	26.755606	0.000157	20.853998
1909.495552	-2.999000	3.345800	-10.033000	26.783281	0.000157	20.831090
1910.497259	-2.988200	3.346200	-9.999100	26.835701	0.000156	20.844914
1911.496810	-2.990100	3.344500	-9.999900	26.897997	0.000155	20.864878
1912.498831	-2.982500	3.345800	-9.977600	26.898914	0.000156	20.831663
1913.496534	-2.984500	3.346400	-9.986400	26.851163	0.000155	20.863779
1914.498327	-2.982300	3.345100	-9.975500	26.830116	0.000154	20.835980
1915.499938	-3.011700	3.343600	-10.070000	26.731875	0.000153	20.833459
1916.497888	-2.991300	3.344200	-10.002000	26.749101	0.000151	20.842717
1917.495420	-3.021600	3.343400	-10.101000	26.790279	0.000152	20.838600
1918.498899	-2.993800	3.344100	-10.011000	26.810855	0.000155	20.839373
1919.495768	-3.003300	3.344300	-10.043000	26.797849	0.000152	20.824400
1920.500699	-3.009700	3.341700	-10.056000	26.783279	0.000153	20.829665
1921.493447	-3.010500	3.341800	-10.060000	26.818177	0.000152	20.834407
1922.499357	-3.016700	3.342200	-10.082000	26.807132	0.000151	20.853173
1923.499188	-2.996700	3.342600	-10.016000	26.807430	0.000150	20.825972
1924.508507	-2.979500	3.341600	-9.955300	26.817382	0.000152	20.846410
1925.499752	-2.972900	3.341300	-9.932400	26.846421	0.000150	20.846210
1926.500625	-2.988000	3.341800	-9.984000	26.846272	0.000148	20.837525
1927.496415	-2.989900	3.340700	-9.986700	26.863000	0.000152	20.823051
1928.500040	-2.982700	3.340700	-9.964000	26.872902	0.000150	20.831586
1929.499925	-2.965500	3.341400	-9.908100	26.886900	0.000151	20.824324
1930.507166	-3.028300	3.339100	-10.111000	26.917277	0.000152	20.839221
1931.498382	-2.998100	3.339400	-10.011000	26.909286	0.000147	20.847307
1932.500769	-3.015000	3.338300	-10.064000	26.880720	0.000150	20.856515
1933.499955	-2.996900	3.338300	-10.004000	26.880696	0.000148	20.822827
1934.502946	-2.968300	3.341200	-9.917200	26.879951	0.000146	20.832983
1935.502474	-2.989400	3.338600	-9.978800	26.852700	0.000146	20.836876
1936.507758	-3.018600	3.336700	-10.071000	26.854933	0.000146	20.848605
1937.503232	-2.999000	3.336300	-10.005000	26.849175	0.000145	20.837125
1938.498854	-3.022900	3.336800	-10.086000	26.825497	0.000146	20.813318
1939.506889	-3.007100	3.337600	-10.035000	26.871190	0.000147	20.832708
1940.503758	-2.991600	3.337500	-9.984000	26.842896	0.000146	20.830812
1941.504594	-3.004000	3.335300	-10.019000	26.818796	0.000145	20.827917
1942.503809	-2.962400	3.336300	-9.882000	26.835822	0.000145	20.830812
1943.504379	-2.979000	3.335900	-9.937000	26.888190	0.000145	20.822302
1944.504786	-2.993800	3.336100	-9.986100	26.814974	0.000146	20.831186
1945.509146	-3.003700	3.334500	-10.015000	26.762999	0.000145	20.839620
1946.500863	-2.989200	3.334500	-9.965900	26.754585	0.000142	20.802713
1947.501812	-3.009300	3.333400	-10.030000	26.773299	0.000144	20.825321
1948.506945	-3.006200	3.333600	-10.020000	26.843517	0.000145	20.827643
1949.507597	-2.987700	3.333600	-9.959200	26.878561	0.000141	20.829215
1950.505640	-2.980700	3.333900	-9.936100	26.824902	0.000140	20.804659
1951.512283	-2.998000	3.332700	-9.989800	26.847487	0.000143	20.820730
1952.505415	-2.992300	3.331700	-9.968300	26.817431	0.000141	20.800941
1953.510861	-3.005100	3.331600	-10.011000	26.783724	0.000140	20.829164
1954.514396	-3.000100	3.332600	-9.997400	26.809488	0.000140	20.813817
1955.511732	-3.003500	3.332200	-10.007000	26.798915	0.000139	20.823575
1956.507213	-3.016900	3.331200	-10.049000	26.779133	0.000140	20.825971
1957.512785	-2.980300	3.330900	-9.926300	26.781069	0.000140	20.808951
1958.507857	-2.986200	3.330300	-9.943300	26.849994	0.000136	20.813293
1959.513583	-2.996800	3.329400	-9.976500	26.830610	0.000138	20.808028
1960.509415	-2.998300	3.330600	-9.984900	26.870817	0.000139	20.800566
1961.513246	-2.986900	3.329700	-9.944300	26.890250	0.000138	20.804459
1962.516271	-2.998100	3.329300	-9.979500	26.928643	0.000138	20.814141
1963.520504	-3.034100	3.327700	-10.096000	26.897100	0.000137	20.817036
1964.514257	-2.989800	3.329900	-9.954700	26.869154	0.000138	20.809325
1965.515109	-2.988500	3.329600	-9.948900	26.848778	0.000138	20.819657
1966.516382	-3.021300	3.327400	-10.052000	26.880173	0.000137	20.818034
1967.510639	-2.993900	3.326900	-9.959700	26.881116	0.000136	20.813292
1968.515750	-3.007500	3.324900	-9.998800	26.916879	0.000136	20.823649
1969.520687	-3.017000	3.325700	-10.033000	26.962742	0.000136	20.813817
1970.526191	-2.986500	3.326200	-9.932800	26.948918	0.000135	20.836900
1971.517537	-2.985900	3.326600	-9.932000	26.950680	0.000134	20.817335
1972.517395	-3.000800	3.324800	-9.976300	26.916134	0.000133	20.817684
1973.513580	-3.022300	3.325700	-10.050000	26.862278	0.000133	20.822800
1974.515692	-3.006200	3.324100	-9.991800	26.804026	0.000134	20.815438
1975.516271	-2.997700	3.325200	-9.966100	26.778461	0.000133	20.823399
1976.512451	-3.020000	3.323000	-10.035000	26.748576	0.000134	20.811844
1977.516293	-3.008300	3.323100	-9.995900	26.727204	0.000131	20.796995
1978.520038	-2.970900	3.323800	-9.873800	26.758801	0.000132	20.819754
1979.517282	-2.974500	3.323600	-9.884800	26.803752	0.000130	20.811369
1980.518103	-2.974300	3.323000	-9.883000	26.849594	0.000129	20.822849
1981.515550	-2.996700	3.322400	-9.954400	26.852473	0.000131	20.817682
1982.515355	-2.995300	3.322900	-9.951900	26.861284	0.000130	20.807101
1983.519280	-2.998300	3.322900	-9.961200	26.818867	0.000130	20.821351
1984.518332	-3.016200	3.320900	-10.015000	26.831004	0.000127	20.814588
1985.517387	-3.004300	3.321700	-9.978700	26.824055	0.000129	20.817084
1986.517675	-3.036600	3.321800	-10.086000	26.832791	0.000127	20.824445
1987.516753	-2.994400	3.320200	-9.941200	26.868655	0.000127	20.805504
1988.517828	-3.035200	3.319100	-10.072000	26.877788	0.000126	20.812317
1989.519801	-3.016400	3.320700	-10.016000	26.827232	0.000126	20.819330
1990.521382	-3.009300	3.318300	-9.984900	26.843786	0.000125	20.806103
1991.516058	-3.000500	3.320100	-9.961000	26.893225	0.000124	20.811718
1992.518809	-2.987500	3.319200	-9.915500	26.910796	0.000127	20.815161
1993.521678	-3.006800	3.318400	-9.976700	26.987879	0.000125	20.807326
1994.517009	-3.004500	3.318100	-9.968500	27.016068	0.000126	20.811967
1995.518008	-3.005600	3.317500	-9.969900	27.021379	0.000123	20.824894
1996.522044	-3.002700	3.316800	-9.958600	27.012916	0.000124	20.810694
1997.519298	-3.008400	3.316900	-9.976900	26.959264	0.000122	20.817906
1998.520868	-3.004000	3.316700	-9.962200	26.990135	0.000122	20.828561
1999.521111	-3.022400	3.315000	-10.019000	26.965568	0.000122	20.824719
2000.518779	-2.992500	3.316000	-9.922100	26.967006	0.000123	20.835649
2001.525234	-3.006500	3.316900	-9.971300	26.947600	0.000121	20.827039
2002.521542	-3.000600	3.315300	-9.947100	27.015944	0.000120	20.809945
2003.520275	-2.991900	3.316600	-9.921700	27.004627	0.000121	20.822272
2004.526062	-3.035300	3.315300	-10.062000	26.983311	0.000120	20.812216
2005.528074	-3.000100	3.315200	-9.945500	27.039145	0.000120	20.815260
2006.523316	-2.985600	3.314200	-9.893900	27.072818	0.000119	20.806925
2007.534311	-2.987400	3.315100	-9.903000	27.091428	0.000118	20.827063
2008.527067	-2.970700	3.315000	-9.846700	26.989489	0.000119	20.817955
2009.523241	-2.983900	3.313500	-9.886500	27.031626	0.000119	20.822871
2010.525090	-3.040200	3.312900	-10.071000	27.054182	0.000118	20.839391
2011.528231	-2.986600	3.313400	-9.894300	27.100907	0.000118	20.833277
2012.525994	-3.009700	3.312300	-9.967800	27.094877	0.000118	20.837169
2013.525389	-3.016500	3.311500	-9.988200	27.107309	0.000119	20.816482
2014.528892	-3.005400	3.311700	-9.951800	27.138373	0.000116	20.811689
2015.525242	-3.010300	3.311900	-9.968700	27.081601	0.000118	20.804852
2016.522476	-3.012700	3.310800	-9.973800	27.044454	0.000115	20.823444
2017.532712	-3.007000	3.311300	-9.956400	26.985914	0.000117	20.810567
2018.523263	-3.002100	3.309600	-9.935300	27.001176	0.000115	20.829707
2019.526639	-3.019800	3.309300	-9.992800	27.010308	0.000113	20.827036
2020.532286	-2.998300	3.309700	-9.922400	26.990803	0.000113	20.826388
2021.522003	-3.015900	3.308500	-9.977300	26.959559	0.000115	20.834324
2022.526619	-2.999600	3.309000	-9.925200	27.015767	0.000114	20.814035
2023.531364	-3.003900	3.309400	-9.940100	27.013658	0.000115	20.831354
2024.525407	-3.000400	3.307600	-9.923100	27.064156	0.000114	20.820498
2025.535126	-3.013300	3.309400	-9.971700	27.127183	0.000115	20.845952
2026.532587	-3.003600	3.307000	-9.932200	27.200428	0.000111	20.827635
2027.527262	-2.994300	3.307500	-9.902100	27.181844	0.000112	20.818901
2028.530537	-3.009400	3.306600	-9.950300	27.164401	0.000112	20.810366
2029.529939	-3.038700	3.306300	-10.045000	27.117357	0.000111	20.850768
2030.529371	-2.975400	3.307000	-9.838200	27.127157	0.000111	20.842134
2031.535375	-2.979700	3.306100	-9.850000	27.144204	0.000107	20.827984
2032.529673	-3.005300	3.306500	-9.936200	27.106166	0.000108	20.834298
2033.534697	-3.008600	3.304700	-9.940800	27.066339	0.000112	20.825539
2034.530007	-2.995200	3.304300	-9.895900	27.065123	0.000109	20.832850
2035.539002	-3.003500	3.304700	-9.923400	27.080136	0.000110	20.827086
2036.528966	-3.000700	3.305900	-9.918600	27.116265	0.000109	20.843980
2037.534363	-2.983300	3.304400	-9.857500	27.087257	0.000108	20.844679
2038.538353	-2.992800	3.302900	-9.884200	27.057083	0.000109	20.856058
2039.531793	-2.988600	3.303000	-9.869800	27.011498	0.000106	20.849570
2040.534798	-3.013500	3.301700	-9.948200	27.029117	0.000107	20.845477
2041.533974	-3.001600	3.303400	-9.914100	27.094528	0.000106	20.830180
2042.534485	-3.005600	3.301700	-9.922400	27.108770	0.000107	20.855409
2043.541173	-2.969800	3.303100	-9.808800	27.122641	0.000107	20.838540
2044.540771	-3.026400	3.301300	-9.990300	27.126660	0.000105	20.839737
2045.531299	-2.998100	3.302300	-9.899000	27.168742	0.000104	20.837965
2046.535251	-2.978200	3.301200	-9.831000	27.118323	0.000104	20.856482
2047.536416	-3.025500	3.302100	-9.988800	27.078051	0.000105	20.827359
2048.534065	-3.024700	3.300300	-9.981800	27.080730	0.000105	20.872252
2049.538358	-3.009300	3.299100	-9.927100	27.102839	0.000104	20.847073
2050.537000	-2.975600	3.300900	-9.820800	27.143110	0.000102	20.831152
2051.535242	-2.970600	3.300000	-9.802200	27.187027	0.000104	20.849718
2052.535338	-3.018900	3.297600	-9.954200	27.188740	0.000104	20.824888
2053.536842	-3.020300	3.298300	-9.961400	27.193479	0.000102	20.859525
2054.533700	-2.999900	3.299500	-9.896900	27.151695	0.000103	20.849743
2055.535543	-3.000400	3.297700	-9.893500	27.135791	0.000100	20.866463
2056.542319	-3.030600	3.297300	-9.991300	27.151472	0.000101	20.846673
2057.536782	-2.998100	3.296900	-9.882700	27.180651	9.938679E-5	20.857529
2058.542110	-3.010200	3.295900	-9.920400	27.177003	9.819870E-5	20.826360
2059.543431	-3.013200	3.294600	-9.926300	27.223624	9.885875E-5	20.850492
2060.540180	-2.996800	3.295500	-9.875200	27.219828	9.892475E-5	20.844777
2061.538368	-3.007700	3.295300	-9.910500	27.260814	9.803369E-5	20.866562
2062.539307	-3.000000	3.295000	-9.883600	27.213377	9.773667E-5	20.861996
2063.537690	-3.002300	3.294900	-9.891200	27.155119	9.697761E-5	20.853661
2064.540839	-2.973000	3.295500	-9.796600	27.172488	9.602054E-5	20.850741
2065.542819	-2.982100	3.295200	-9.825400	27.213153	9.981582E-5	20.850391
2066.545038	-2.989900	3.295000	-9.850700	27.245184	9.615255E-5	20.847522
2067.541912	-2.994500	3.293900	-9.862700	27.235036	9.704362E-5	20.861496
2068.539101	-2.984800	3.294200	-9.831900	27.207744	9.585553E-5	20.855856
2069.540265	-3.002000	3.292300	-9.882700	27.172686	9.565751E-5	20.876069
2070.544361	-3.015600	3.292300	-9.927200	27.192014	9.364437E-5	20.859001
2071.548073	-3.020500	3.291500	-9.941100	27.199978	9.562451E-5	20.862269
2072.537756	-2.991100	3.291200	-9.842200	27.196281	9.344635E-5	20.863292
2073.543169	-2.991300	3.292400	-9.847100	27.205983	9.443643E-5	20.873049
2074.543784	-3.011400	3.291400	-9.910600	27.210622	9.255529E-5	20.867285
2075.541822	-2.985500	3.290700	-9.823200	27.242082	9.041013E-5	20.856255
2076.544243	-3.001400	3.289500	-9.871800	27.216874	9.163122E-5	20.862194
2077.548095	-2.996500	3.290600	-9.859800	27.214244	9.311633E-5	20.860497
2078.543390	-3.008200	3.288600	-9.891500	27.184768	9.192824E-5	20.864989
2079.544652	-3.019300	3.288200	-9.927000	27.242255	9.087217E-5	20.856904
2080.549022	-3.022300	3.287300	-9.933700	27.242354	9.387538E-5	20.861271
2081.544936	-2.998700	3.288200	-9.859400	27.233249	9.017911E-5	20.869181
2082.547303	-2.993500	3.286700	-9.837800	27.278254	9.113618E-5	20.845700
2083.547533	-3.006100	3.287800	-9.883100	27.339606	9.143321E-5	20.864265
2084.544489	-3.016500	3.285500	-9.910300	27.286590	8.951907E-5	20.850291
2085.545051	-2.984800	3.287800	-9.811800	27.308596	9.090517E-5	20.852512
2086.550778	-3.005400	3.286500	-9.876700	27.374162	8.998110E-5	20.841182
2087.546829	-3.019900	3.285800	-9.922500	27.378405	9.169723E-5	20.878165
2088.548690	-3.002900	3.285300	-9.864100	27.444340	9.054214E-5	20.866262
2089.550613	-3.024000	3.285400	-9.933700	27.446398	9.074016E-5	20.876393
2090.546491	-2.980100	3.284900	-9.789200	27.427967	8.826497E-5	20.862593
2091.551156	-2.983600	3.286000	-9.803700	27.437890	8.852899E-5	20.876841
2092.548984	-3.010700	3.283400	-9.884700	27.441164	8.932105E-5	20.885825
2093.548767	-2.986900	3.284600	-9.809800	27.408619	8.750592E-5	20.894334
2094.551950	-3.020700	3.283000	-9.916300	27.347643	8.664786E-5	20.861445
2095.555264	-2.981900	3.282900	-9.789000	27.324522	8.697788E-5	20.877066
2096.547106	-2.991600	3.284200	-9.823500	27.326507	8.618582E-5	20.875269
2097.548996	-2.981400	3.282400	-9.785200	27.371409	8.730790E-5	20.884876
2098.554664	-3.022100	3.280400	-9.912000	27.438237	8.588880E-5	20.888569
2099.546583	-3.009400	3.282400	-9.877200	27.444934	8.684587E-5	20.887721
2100.551950	-3.013900	3.281400	-9.887800	27.446571	8.654885E-5	20.881307
2101.547246	-3.009900	3.280600	-9.873600	27.425189	8.608682E-5	20.874495
2102.547351	-2.998300	3.280500	-9.834900	27.375998	8.483272E-5	20.870528
2103.550615	-3.007600	3.280600	-9.865600	27.362726	8.433769E-5	20.894159
2104.553822	-3.010300	3.279700	-9.872400	27.330004	8.565778E-5	20.876891
2105.548491	-3.009800	3.280500	-9.873000	27.263888	8.288558E-5	20.874395
2106.554134	-3.000700	3.279700	-9.840800	27.284058	8.423868E-5	20.882355
2107.550170	-2.995500	3.278300	-9.819400	27.293609	8.450270E-5	20.882480
2108.551821	-2.995200	3.277500	-9.814600	27.337842	8.186251E-5	20.889516
2109.553054	-2.972400	3.278200	-9.742800	27.384803	8.371064E-5	20.903091
2110.554220	-2.991100	3.277000	-9.801100	27.334543	8.130147E-5	20.885249
2111.550760	-2.986900	3.277500	-9.789200	27.285248	8.341362E-5	20.873595
2112.551555	-2.992500	3.277200	-9.806500	27.255427	8.143348E-5	20.875841
2113.553718	-2.991700	3.276400	-9.800500	27.289961	8.169749E-5	20.885448
2114.555728	-3.007700	3.276000	-9.852800	27.308643	7.951934E-5	20.890015
2115.555171	-2.990200	3.275400	-9.792900	27.333451	8.037740E-5	20.879410
2116.557662	-3.021500	3.274800	-9.893900	27.329059	8.070742E-5	20.889216
2117.552681	-3.008000	3.273700	-9.845800	27.326579	8.014638E-5	20.902366
2118.555969	-2.996700	3.275300	-9.814100	27.336725	7.862827E-5	20.893134
2119.559139	-2.975800	3.274600	-9.743700	27.297156	7.876028E-5	20.896952
2120.550920	-2.970500	3.273500	-9.722200	27.273488	7.757219E-5	20.889740
2121.550690	-2.967500	3.273700	-9.713300	27.328042	7.813323E-5	20.888667
2122.561685	-2.982400	3.274200	-9.764000	27.373663	7.668113E-5	20.886670
2123.549714	-2.998100	3.272300	-9.810200	27.402166	7.625210E-5	20.920557
2124.553438	-2.992000	3.271300	-9.787100	27.420126	7.658212E-5	20.895953
2125.553496	-3.004700	3.273000	-9.833100	27.471969	7.819924E-5	20.875091
2126.554639	-2.991000	3.271700	-9.784400	27.464850	7.869428E-5	20.891636
2127.554454	-3.004200	3.272700	-9.831100	27.508233	7.595507E-5	20.887394
2128.555192	-2.992300	3.271800	-9.789600	27.512227	7.767120E-5	20.915591
2129.548606	-3.021700	3.269300	-9.877400	27.530284	7.945333E-5	20.892983
2130.550119	-2.997500	3.271100	-9.804100	27.547918	7.410694E-5	20.907406
2131.553125	-3.004400	3.270000	-9.823400	27.552507	7.572406E-5	20.897799
2132.551523	-2.999500	3.268300	-9.802400	27.611115	7.529503E-5	20.905559
2133.550876	-3.016500	3.268400	-9.858700	27.627260	7.466798E-5	20.885771
2134.554276	-2.999100	3.269700	-9.805200	27.601367	7.446997E-5	20.919932
2135.554550	-2.995800	3.267700	-9.789000	27.602434	7.318287E-5	20.903464
2136.555937	-2.999000	3.267900	-9.799800	27.610520	7.199478E-5	20.907805
2137.553826	-3.011100	3.265800	-9.831700	27.616397	7.314987E-5	20.890962
2138.555084	-2.996600	3.266000	-9.785300	27.584799	7.499800E-5	20.889040
2139.551676	-3.006400	3.266700	-9.819700	27.540204	7.189578E-5	20.901068
2140.555645	-3.023000	3.264800	-9.868600	27.589289	7.212679E-5	20.902091
2141.552176	-2.994200	3.266100	-9.778700	27.511730	7.113672E-5	20.905135
2142.559335	-2.998700	3.265200	-9.789900	27.551539	7.242382E-5	20.917212
2143.558366	-3.016500	3.263400	-9.842900	27.607716	6.965161E-5	20.911623
2144.561574	-2.996600	3.264400	-9.781200	27.668032	7.186278E-5	20.908304
2145.557114	-3.005800	3.264200	-9.811100	27.603823	7.133474E-5	20.915291
2146.558592	-3.007400	3.263700	-9.814100	27.557269	6.889256E-5	20.922976
2147.560091	-3.013000	3.263800	-9.832800	27.518203	6.790249E-5	20.911647
2148.557275	-3.003700	3.263200	-9.799600	27.555235	6.813350E-5	20.932308
2149.556757	-2.994300	3.263500	-9.771200	27.535690	6.862854E-5	20.901741
2150.555549	-3.016900	3.262000	-9.840200	27.486330	6.740745E-5	20.944060
2151.558153	-2.966500	3.262900	-9.678500	27.465444	6.671440E-5	20.907405
2152.555213	-3.010000	3.260400	-9.812500	27.498806	6.559232E-5	20.912995
2153.558098	-2.966300	3.260800	-9.671400	27.493647	6.856253E-5	20.926769
2154.558176	-3.002400	3.260900	-9.789300	27.433470	6.539430E-5	20.921703
2155.556790	-2.990400	3.260600	-9.749100	27.424812	6.793549E-5	20.920106
2156.561286	-3.008900	3.260100	-9.808100	27.514953	6.678040E-5	20.922127
2157.560572	-3.009700	3.258100	-9.805300	27.611560	6.707742E-5	20.914067
2158.562716	-2.986600	3.260100	-9.735700	27.628722	6.674740E-5	20.926593
2159.560989	-2.984300	3.257600	-9.720800	27.588023	6.522929E-5	20.921203
2160.562466	-2.988800	3.258500	-9.738500	27.606996	6.473425E-5	20.936973
2161.558939	-2.990900	3.258400	-9.744800	27.667089	6.493227E-5	20.917785
2162.564973	-2.986900	3.257300	-9.728200	27.723682	6.648338E-5	20.931110
2163.563748	-3.020200	3.255800	-9.831400	27.704834	6.324914E-5	20.921154
2164.566000	-3.017500	3.254900	-9.820800	27.695063	6.206106E-5	20.934553
2165.566552	-3.003000	3.255600	-9.775000	27.664386	6.245709E-5	20.942089
2166.565302	-3.007700	3.254500	-9.787700	27.666296	6.404120E-5	20.928839
2167.563834	-3.004500	3.253800	-9.775500	27.625746	6.272111E-5	20.917436
2168.563090	-3.020200	3.254500	-9.828300	27.639412	6.282011E-5	20.948253
2169.563738	-3.016000	3.253600	-9.812300	27.701313	6.212706E-5	20.942738
2170.563057	-3.015900	3.253500	-9.811600	27.699255	6.252309E-5	20.953467
2171.563974	-3.006400	3.254300	-9.782500	27.750713	6.113699E-5	20.936974
2172.559895	-3.004300	3.252600	-9.770700	27.794754	6.083997E-5	20.949052
2173.562723	-2.991700	3.253500	-9.732600	27.774941	5.951987E-5	20.925322
2174.559923	-3.008400	3.253000	-9.784500	27.664362	6.001491E-5	20.952495
2175.566399	-2.991500	3.255000	-9.736500	27.621878	5.852980E-5	20.925397
2176.566383	-2.993200	3.252100	-9.732900	27.663047	5.664866E-5	20.926519
2177.566888	-3.013000	3.251300	-9.795300	27.710713	5.645065E-5	20.922802
2178.567666	-2.992800	3.250600	-9.727800	27.690551	5.744072E-5	20.945658
2179.568631	-2.989700	3.250400	-9.716200	27.707910	5.839779E-5	20.955539
2180.571097	-2.977800	3.250900	-9.679600	27.690154	5.777074E-5	20.931985
2181.568988	-3.019200	3.249600	-9.810200	27.681251	5.621963E-5	20.950998
2182.570063	-3.006400	3.249300	-9.768200	27.703199	5.661566E-5	20.954591
2183.570479	-2.984800	3.250800	-9.702500	27.733057	5.734171E-5	20.960929
2184.568050	-3.007800	3.248100	-9.769200	27.749995	5.562559E-5	20.946682
2185.565027	-2.992100	3.247500	-9.716300	27.774049	5.387646E-5	20.944810
2186.572307	-2.991600	3.248500	-9.717300	27.745754	5.697869E-5	20.950000
2187.566375	-3.015100	3.246800	-9.788800	27.773156	5.397547E-5	20.930638
2188.568617	-2.982000	3.247200	-9.682800	27.714880	5.437149E-5	20.934580
2189.570928	-2.977700	3.246300	-9.665900	27.736058	5.361244E-5	20.953519
2190.565596	-2.996200	3.244800	-9.721700	27.753740	5.338142E-5	20.945709
2191.569054	-3.006600	3.244400	-9.754000	27.778017	5.387646E-5	20.942640
2192.575449	-3.005000	3.244300	-9.748200	27.757460	5.453651E-5	20.957038
2193.569870	-2.991800	3.244400	-9.705000	27.688767	5.311740E-5	20.951922
2194.569848	-3.017300	3.244800	-9.789100	27.645317	5.163229E-5	20.942815
2195.570607	-3.001600	3.244800	-9.738900	27.715352	5.331542E-5	20.963500
2196.568801	-3.000000	3.242700	-9.726300	27.772488	5.318341E-5	20.932336
2197.572238	-3.003200	3.243200	-9.739200	27.745731	5.318341E-5	20.940495
2198.572361	-2.997000	3.243100	-9.719000	27.713765	5.433849E-5	20.952897
2199.576902	-2.996200	3.244100	-9.719300	27.659430	5.186331E-5	20.952273
2200.577555	-2.992500	3.241000	-9.698300	27.679344	5.318341E-5	20.949079
2201.571508	-3.014800	3.239500	-9.765000	27.673120	5.249036E-5	20.957040
2202.580802	-2.994000	3.242000	-9.705600	27.730779	5.097225E-5	20.965748
2203.572950	-3.018800	3.239500	-9.777700	27.756496	5.308440E-5	20.962705
2204.576547	-2.980300	3.240500	-9.656600	27.788584	5.123626E-5	20.963703
2205.580504	-3.001500	3.239100	-9.721600	27.823449	5.282038E-5	20.963229
2206.576940	-3.012600	3.239500	-9.758900	27.868355	5.186331E-5	20.961483
2207.577466	-2.995600	3.239400	-9.702500	27.920525	5.288639E-5	20.942396
2208.580359	-2.984300	3.237700	-9.661900	27.919954	5.018019E-5	20.933762
2209.575381	-3.012000	3.236800	-9.748900	27.971104	5.156629E-5	20.959638
2210.576612	-3.028300	3.236600	-9.800000	28.000559	5.196232E-5	20.967473
2211.579576	-2.986700	3.236600	-9.665600	27.943089	5.060922E-5	20.953251
2212.580525	-2.984300	3.236600	-9.657500	27.858315	4.869508E-5	20.959914
2213.578458	-2.990000	3.235400	-9.673200	27.817476	4.895910E-5	20.953901
2214.578870	-3.003500	3.235400	-9.716900	27.791414	4.925612E-5	20.975084
2215.575894	-2.980600	3.236100	-9.644900	27.810930	4.783702E-5	20.969595
2216.577486	-3.006900	3.234000	-9.723100	27.779661	4.872808E-5	20.962310
2217.577865	-2.986100	3.235500	-9.660700	27.758881	4.826605E-5	20.957519
2218.577340	-3.009700	3.233800	-9.731900	27.785960	4.952014E-5	20.963433
2219.578887	-2.994600	3.235600	-9.687800	27.781175	4.806803E-5	20.973789
2220.584620	-2.997300	3.232600	-9.688000	27.819313	4.687994E-5	20.948637
2221.578124	-3.003200	3.233000	-9.708500	27.875054	4.796902E-5	20.949735
2222.584784	-3.014700	3.231700	-9.742200	27.870145	4.820004E-5	20.953328
2223.582279	-3.011200	3.232400	-9.732200	27.830745	4.800203E-5	20.953029
2224.585911	-2.997300	3.232400	-9.687500	27.843490	4.704496E-5	20.935513
2225.578967	-3.022300	3.230900	-9.763800	27.919066	4.555985E-5	20.947091
2226.582885	-3.001200	3.230400	-9.693600	27.940067	4.740798E-5	20.935513
2227.580125	-3.003300	3.229600	-9.698500	27.909570	4.978416E-5	20.952231
2228.580686	-3.011900	3.230000	-9.727700	27.836870	4.965215E-5	20.959667
2229.584558	-2.989000	3.229900	-9.653700	27.897247	4.661593E-5	20.945519
2230.580285	-2.992800	3.229600	-9.664800	27.948671	4.595588E-5	20.964084
2231.583420	-2.988000	3.228700	-9.646100	27.963101	4.536183E-5	20.938783
2232.584063	-2.998900	3.229500	-9.684300	27.893678	4.529583E-5	20.947616
2233.581441	-3.006100	3.228500	-9.704800	27.893231	4.651692E-5	20.942426
2234.583766	-2.986900	3.228200	-9.641300	27.882719	4.555985E-5	20.948440
2235.586637	-3.026000	3.225400	-9.759100	27.862436	4.631890E-5	20.937511
2236.582150	-3.001200	3.226200	-9.681100	27.879744	4.427275E-5	20.928379
2237.583198	-3.000900	3.226500	-9.681100	27.866007	4.552685E-5	20.939208
2238.583878	-3.011400	3.225000	-9.710900	27.881504	4.588987E-5	20.934417
2239.583262	-2.998100	3.226400	-9.672600	27.901613	4.473479E-5	20.941379
2240.583375	-3.007900	3.223400	-9.695000	27.919043	4.542784E-5	20.911985
2241.584487	-2.998200	3.224300	-9.665800	27.873793	4.179757E-5	20.925235
2242.585599	-3.011600	3.222700	-9.704800	27.856362	4.229261E-5	20.933295
2243.595855	-2.988100	3.223700	-9.632500	27.815696	4.262263E-5	20.952109
2244.590072	-2.986100	3.222000	-9.620200	27.870123	4.397573E-5	20.945721
2245.583166	-3.007800	3.221500	-9.689100	27.908085	4.351370E-5	20.928928
2246.595851	-2.995500	3.221000	-9.647600	27.960251	4.229261E-5	20.924062
2247.598494	-3.003700	3.220700	-9.672800	27.965582	4.318367E-5	20.909515
2248.586744	-3.026200	3.221000	-9.746800	27.986284	4.176457E-5	20.936514
2249.590418	-2.995700	3.221500	-9.650500	27.966698	4.011445E-5	20.915853
2250.589627	-2.969300	3.221200	-9.563400	27.932656	4.084050E-5	20.925684
2251.585498	-2.993900	3.220600	-9.641100	27.902630	3.938840E-5	20.919172
2252.588669	-2.998800	3.220700	-9.657500	27.955640	4.153355E-5	20.920370
2253.590522	-2.973700	3.219300	-9.571700	28.030836	4.074149E-5	20.903601
2254.589486	-2.993700	3.217400	-9.631100	28.089343	4.156656E-5	20.928355
2255.593843	-3.010300	3.217800	-9.685000	28.129107	4.192958E-5	20.929503
2256.595610	-2.999900	3.219000	-9.656300	28.132850	4.014745E-5	20.925685
2257.590316	-3.001400	3.216000	-9.650900	28.157812	4.034547E-5	20.896764
2258.588967	-2.989200	3.215600	-9.611000	28.170504	4.133554E-5	20.914282
2259.594788	-2.971500	3.217500	-9.560400	28.139865	4.021346E-5	20.923264
2260.592039	-3.009400	3.215200	-9.674700	28.092318	3.928939E-5	20.907170
2261.600574	-2.991500	3.217300	-9.623400	28.037852	3.988343E-5	20.908293
2262.595713	-3.005400	3.214800	-9.661300	27.966600	4.064249E-5	20.914333
2263.593762	-3.016900	3.213300	-9.691800	27.944756	3.971842E-5	20.909416
2264.597656	-3.010400	3.212100	-9.668700	27.877712	3.909137E-5	20.914482
2265.597591	-2.988300	3.212900	-9.600200	27.838336	3.866234E-5	20.916103
2266.595130	-3.003800	3.212900	-9.650800	27.850908	3.942140E-5	20.911213
2267.592458	-3.011300	3.211300	-9.669300	27.873125	3.737525E-5	20.923140
2268.598427	-3.012000	3.212400	-9.675200	27.876299	3.608815E-5	20.898362
2269.596236	-2.986000	3.212200	-9.591000	27.905011	3.674820E-5	20.916352
2270.599433	-2.959500	3.212200	-9.505500	27.899309	3.638517E-5	20.905399
2271.600244	-2.981200	3.212500	-9.576500	27.889912	3.694622E-5	20.923440
2272.597580	-3.015300	3.208600	-9.673900	27.897746	3.658319E-5	20.918998
2273.596436	-3.000500	3.208800	-9.627200	27.943344	3.589014E-5	20.892349
2274.599525	-3.017100	3.209300	-9.681700	27.960351	3.750726E-5	20.906147
2275.595668	-2.992900	3.209600	-9.605100	27.889539	3.404200E-5	20.901731
2276.602462	-3.025500	3.208100	-9.704500	27.890035	3.628617E-5	20.893696
2277.601764	-3.012700	3.206800	-9.660500	27.927401	3.348096E-5	20.914232
2278.597841	-2.990700	3.207400	-9.590600	27.949145	3.496607E-5	20.920471
2279.605292	-3.006200	3.207100	-9.640500	28.041324	3.450404E-5	20.914158
2280.598499	-2.997400	3.207300	-9.612300	28.043158	3.496607E-5	20.896091
2281.594652	-2.997100	3.204400	-9.603200	28.072387	3.437203E-5	20.900383
2282.605126	-3.004600	3.204700	-9.627300	28.086443	3.605515E-5	20.901256
2283.603680	-2.995900	3.205500	-9.602300	28.089121	3.658319E-5	20.914382
2284.599710	-3.001700	3.204200	-9.617100	28.136395	3.589014E-5	20.911238
2285.596273	-2.992800	3.204200	-9.588700	28.185080	3.417401E-5	20.915680
2286.602374	-2.993400	3.203500	-9.588600	28.224939	3.364597E-5	20.906971
2287.599471	-3.000200	3.202800	-9.608400	28.186345	3.278791E-5	20.900833
2288.601879	-2.992400	3.202300	-9.581900	28.139544	3.242488E-5	20.892124
2289.602728	-3.014600	3.200900	-9.648400	28.105259	3.318394E-5	20.912610
2290.608485	-3.004700	3.202000	-9.619200	28.106846	3.093978E-5	20.878649
2291.604858	-3.015700	3.200400	-9.650700	28.081634	3.404200E-5	20.893097
2292.608057	-2.994600	3.201000	-9.583700	28.130198	3.394300E-5	20.912112
2293.602991	-2.984200	3.200900	-9.551200	28.106945	3.179784E-5	20.886335
2294.605890	-3.015200	3.200600	-9.648800	28.095988	3.044474E-5	20.908967
2295.605456	-3.014400	3.199000	-9.642000	28.082973	3.047774E-5	20.882591
2296.603498	-2.992800	3.198700	-9.572200	28.041002	3.077476E-5	20.901507
2297.603511	-2.981000	3.198500	-9.533800	28.016285	3.150082E-5	20.903652
2298.605586	-2.983400	3.199300	-9.542300	28.033564	2.919065E-5	20.903502
2299.603771	-3.004500	3.198100	-9.608000	28.042614	3.117079E-5	20.893172
2300.603560	-3.022200	3.196200	-9.658500	28.075982	3.004871E-5	20.904950
2301.603799	-3.020700	3.194200	-9.647200	28.090931	2.922365E-5	20.890602
2302.603488	-2.980100	3.194900	-9.520200	28.091576	2.909164E-5	20.892674
2303.609985	-2.992300	3.195100	-9.560100	28.094600	2.988370E-5	20.900458
2304.608754	-3.028000	3.192900	-9.666500	28.155335	3.060975E-5	20.883840
2305.604322	-3.004600	3.193000	-9.592900	28.206944	2.829958E-5	20.893596
2306.605946	-3.032500	3.191400	-9.677500	28.274042	2.859660E-5	20.880546
2307.606179	-3.006300	3.192500	-9.596200	28.262095	2.681447E-5	20.902654
2308.603764	-3.013000	3.192100	-9.617200	28.269506	2.935566E-5	20.905849
2309.603117	-2.983300	3.192600	-9.523600	28.242439	3.126980E-5	20.880970
2310.602398	-2.991200	3.190400	-9.542300	28.248239	2.866261E-5	20.879698
2311.605148	-2.970600	3.190300	-9.475700	28.169315	2.889362E-5	20.871837
2312.607255	-3.000900	3.190400	-9.572800	28.100500	2.707849E-5	20.894545
2313.608185	-3.011200	3.188900	-9.602400	28.112027	2.519735E-5	20.891924
2314.607748	-2.992500	3.189300	-9.543200	28.111383	2.714450E-5	20.885586
2315.607239	-3.020100	3.186800	-9.623100	28.041200	2.826658E-5	20.889379
2316.606690	-2.996600	3.188000	-9.552100	27.985765	2.826658E-5	20.875779
2317.615073	-2.992900	3.187300	-9.538300	28.008847	2.453730E-5	20.879098
2318.603366	-3.013100	3.185800	-9.597900	28.032573	2.843159E-5	20.879273
2319.603967	-3.009700	3.186500	-9.589800	28.090088	2.664946E-5	20.884064
2320.604811	-3.004600	3.184000	-9.565700	28.117779	2.958668E-5	20.882068
2321.607214	-3.037400	3.185400	-9.673300	28.140164	2.612142E-5	20.866197
2322.607809	-2.976900	3.184100	-9.478000	28.151021	2.664946E-5	20.897040
2323.608754	-3.002900	3.183300	-9.558700	28.201218	2.499934E-5	20.872186
2324.607959	-2.968700	3.183100	-9.449400	28.232574	2.773854E-5	20.879572
2325.607743	-2.982900	3.182600	-9.492200	28.224096	2.556038E-5	20.885736
2326.609862	-2.996700	3.182100	-9.534800	28.198589	2.361324E-5	20.884238
2327.608463	-2.995700	3.181000	-9.528800	28.173157	2.473532E-5	20.866696
2328.608797	-3.009100	3.180600	-9.569700	28.222337	2.486733E-5	20.892973
2329.606715	-2.996200	3.178900	-9.523700	28.285318	2.443830E-5	20.869615
2330.608997	-3.002000	3.178500	-9.541700	28.193980	2.348123E-5	20.862055
2331.607804	-3.018500	3.179100	-9.595800	28.177322	2.704549E-5	20.872785
2332.607177	-3.012500	3.177300	-9.570800	28.197920	2.381125E-5	20.878349
2333.608096	-3.008600	3.179100	-9.563300	28.281155	2.433929E-5	20.876802
2334.610520	-3.006200	3.176800	-9.549800	28.323910	2.450430E-5	20.876703
2335.612188	-2.969600	3.176100	-9.431400	28.288367	2.364624E-5	20.876478
2336.611665	-2.978800	3.175900	-9.459600	28.214033	2.354723E-5	20.858536
2337.616063	-2.970500	3.174800	-9.430500	28.210785	1.961994E-5	20.864749
2338.610833	-3.008100	3.173000	-9.542900	28.187088	2.255716E-5	20.880246
2339.614886	-2.988800	3.173100	-9.483100	28.149062	2.420728E-5	20.859983
2340.613473	-3.011900	3.172000	-9.553100	28.132280	2.249115E-5	20.874855
2341.618397	-2.971500	3.173500	-9.429100	28.116365	2.282118E-5	20.866895
2342.614766	-2.980500	3.173400	-9.457100	28.111333	2.328321E-5	20.862304
2343.620519	-3.033700	3.170100	-9.615600	28.065297	2.113806E-5	20.883290
2344.617865	-2.994900	3.170200	-9.493600	28.112597	2.169910E-5	20.851723
2345.619809	-2.994000	3.169500	-9.489000	28.101763	2.193011E-5	20.867369
2346.616353	-2.996600	3.169700	-9.497900	28.127099	2.268917E-5	20.859683
2347.621828	-2.999700	3.168400	-9.503000	28.125214	2.196312E-5	20.859209
2348.618196	-2.997700	3.168900	-9.499100	28.108209	1.975195E-5	20.850625
2349.620715	-2.997000	3.168000	-9.493800	28.104762	2.163309E-5	20.858535
2350.620247	-2.971000	3.166600	-9.407300	28.060412	2.179810E-5	20.874580
2351.617050	-2.979500	3.167700	-9.436600	28.135377	2.120406E-5	20.849526
2352.615258	-2.966000	3.164700	-9.385600	28.200497	1.991697E-5	20.865772
2353.618518	-2.996900	3.164300	-9.481400	28.189540	2.024699E-5	20.852844
2354.624269	-3.008400	3.163300	-9.515300	28.234976	2.295319E-5	20.856388
2355.621423	-2.991500	3.162900	-9.460600	28.296371	2.163309E-5	20.874579
2356.620146	-3.011400	3.162800	-9.523800	28.337712	1.902590E-5	20.868790
2357.622764	-3.000300	3.161200	-9.483400	28.331367	2.094004E-5	20.860031
2358.620306	-3.019300	3.160500	-9.541200	28.324972	2.001597E-5	20.864023
2359.621492	-2.991700	3.161000	-9.455200	28.354987	1.998297E-5	20.857261
2360.619855	-2.996600	3.159300	-9.466300	28.411988	2.077503E-5	20.846854
2361.619134	-2.993200	3.158900	-9.454900	28.462618	2.024699E-5	20.862275
2362.623483	-2.984900	3.158400	-9.426800	28.517483	2.077503E-5	20.845456
2363.619991	-2.995500	3.158200	-9.460000	28.503606	1.760680E-5	20.870360
2364.624922	-2.994300	3.155900	-9.449100	28.487449	1.836585E-5	20.843186
2365.619972	-3.012000	3.156100	-9.505300	28.451045	1.872888E-5	20.862475
2366.623234	-2.999700	3.155700	-9.465300	28.417985	1.905890E-5	20.847202
2367.622722	-3.008800	3.154900	-9.491400	28.396126	1.902590E-5	20.851270
2368.624869	-2.994800	3.154000	-9.444700	28.385345	1.651772E-5	20.850845
2369.619575	-3.007000	3.152300	-9.478200	28.374886	1.671573E-5	20.855960
2370.623739	-3.001900	3.152700	-9.463500	28.338627	1.674873E-5	20.848374
2371.621438	-2.993700	3.151400	-9.433800	28.330621	1.506561E-5	20.848848
2372.621397	-2.997000	3.151100	-9.443200	28.346086	1.552764E-5	20.849721
2373.625000	-2.977400	3.150700	-9.380400	28.274209	1.655072E-5	20.855585
2374.621331	-2.974800	3.150300	-9.370400	28.274803	1.628670E-5	20.865193
2375.627963	-2.982900	3.148900	-9.391600	28.280083	1.622069E-5	20.861499
2376.621283	-3.012000	3.147500	-9.479800	28.344896	1.483459E-5	20.844730
2377.623009	-3.017200	3.145800	-9.490000	28.354363	1.407554E-5	20.846202
2378.625334	-3.003600	3.146600	-9.450100	28.309825	1.437256E-5	20.832651
2379.633393	-3.008500	3.146400	-9.465300	28.299117	1.387752E-5	20.863120
2380.622396	-3.011000	3.144800	-9.467900	28.303554	1.559365E-5	20.847199
2381.622677	-3.011000	3.144000	-9.465300	28.358502	1.430655E-5	20.848946
2382.623460	-2.979100	3.143200	-9.362900	28.428366	1.430655E-5	20.854811
2383.622956	-3.008300	3.142600	-9.453000	28.410101	1.496660E-5	20.866763
2384.626869	-2.971100	3.142500	-9.336100	28.436915	1.387752E-5	20.865790
2385.625230	-2.987900	3.141900	-9.386900	28.400608	1.443856E-5	20.846301
2386.627636	-3.011500	3.139600	-9.453900	28.361202	1.414154E-5	20.851665
2387.628180	-3.006100	3.139700	-9.437000	28.334980	1.034626E-5	20.834272
2388.628873	-3.012400	3.137700	-9.451100	28.304049	1.222740E-5	20.861448
2389.624993	-2.994400	3.138100	-9.395500	28.339639	1.245842E-5	20.850816
2390.627815	-2.998100	3.136100	-9.401200	28.414834	1.295345E-5	20.837392
2391.629844	-2.996100	3.136400	-9.395700	28.364350	9.785220E-6	20.835870
2392.631930	-2.996000	3.135500	-9.393300	28.410100	1.232641E-5	20.816030
2393.630528	-3.009900	3.134300	-9.432700	28.366952	1.103931E-5	20.834696
2394.632379	-2.991400	3.133600	-9.373200	28.365465	1.199638E-5	20.845053
2395.634120	-3.023100	3.132500	-9.468400	28.398155	1.123733E-5	20.833399
2396.633373	-2.993500	3.132300	-9.376000	28.364846	1.087430E-5	20.853437
2397.635678	-2.979300	3.131000	-9.327500	28.433990	1.051127E-5	20.853836
2398.629681	-3.006700	3.129900	-9.409700	28.531653	1.054428E-5	20.847398
2399.636131	-2.990700	3.130600	-9.362400	28.509128	9.884227E-6	20.828982
2400.637947	-2.993200	3.128400	-9.363400	28.439592	7.706067E-6	20.835296
2401.631883	-3.002500	3.127000	-9.388500	28.413222	1.087430E-5	20.830554
2402.637569	-2.986900	3.127100	-9.340000	28.399840	8.762145E-6	20.839837
2403.637012	-2.956000	3.127600	-9.243900	28.368563	1.047827E-5	20.836792
2404.636268	-3.001300	3.125300	-9.378700	28.390224	9.059167E-6	20.823991
2405.640172	-3.009500	3.123800	-9.399600	28.459416	8.564130E-6	20.840086
2406.639281	-2.995300	3.123400	-9.354700	28.485040	7.640062E-6	20.845501
2407.636641	-2.996400	3.122300	-9.354100	28.558985	8.861152E-6	20.827983
2408.637555	-3.017300	3.121900	-9.418100	28.622715	9.587206E-6	20.829106
2409.632441	-2.983600	3.122000	-9.313700	28.569640	6.781999E-6	20.823541
2410.632820	-2.986800	3.119700	-9.316800	28.604454	7.178028E-6	20.832999
2411.636929	-2.992700	3.119100	-9.333700	28.593750	7.574058E-6	20.836443
2412.638982	-3.001500	3.119100	-9.361600	28.541812	7.640062E-6	20.819698
2413.638569	-3.007700	3.117700	-9.376100	28.466999	8.630135E-6	20.826860
2414.640687	-3.038400	3.113100	-9.457700	28.505509	5.395897E-6	20.799260
2415.639896	-3.000100	3.115600	-9.345100	28.509871	6.088948E-6	20.810290
2416.634543	-3.017000	3.113900	-9.393900	28.517677	7.046019E-6	20.820522
2417.638690	-2.984100	3.114600	-9.293200	28.483157	5.989941E-6	20.820372
2418.635838	-3.009600	3.113200	-9.368700	28.530414	4.867858E-6	20.827185
2419.635470	-2.978200	3.112100	-9.267600	28.548950	5.956939E-6	20.810765
2420.634745	-2.991200	3.111000	-9.305000	28.475674	4.834856E-6	20.820897
2421.637675	-3.002100	3.110100	-9.335800	28.508657	4.735849E-6	20.837043
2422.639566	-3.050100	3.106800	-9.475200	28.557450	5.362895E-6	20.838291
2423.641942	-3.008700	3.107900	-9.350100	28.635007	5.329892E-6	20.813985
2424.638001	-2.992900	3.107500	-9.300200	28.640880	5.527907E-6	20.805676
2425.636950	-2.986300	3.105600	-9.273900	28.699378	4.504832E-6	20.829034
2426.639449	-2.984500	3.105300	-9.266800	28.660876	5.758924E-6	20.826763
2427.642328	-3.008000	3.103200	-9.333200	28.665534	4.570836E-6	20.811541
2428.639837	-2.992100	3.103200	-9.284400	28.730869	5.164880E-6	20.817606
2429.639043	-2.999700	3.100900	-9.300800	28.745537	4.174807E-6	20.813414
2430.640835	-3.001900	3.100800	-9.307500	28.672448	3.547761E-6	20.809971
2431.644713	-3.001400	3.101600	-9.308000	28.608697	2.326671E-6	20.814513
2432.640404	-3.010200	3.099300	-9.328400	28.529205	4.933863E-6	20.820752
2433.636232	-3.008100	3.096300	-9.313400	28.562510	4.042798E-6	20.818257
2434.637368	-3.008800	3.095800	-9.314100	28.522565	4.372822E-6	20.810272
2435.640919	-3.006200	3.095100	-9.303500	28.494737	5.626914E-6	20.830137
2436.649031	-2.981300	3.096100	-9.230100	28.509928	8.036092E-6	20.798494
2437.642721	-3.008600	3.093000	-9.304500	28.547669	4.834856E-6	20.812794
2438.640550	-2.981900	3.093400	-9.223100	28.533347	4.801853E-6	20.799793
2439.650033	-3.007600	3.091400	-9.296200	28.549405	4.174807E-6	20.798421
2440.644129	-2.998100	3.090500	-9.264300	28.551561	4.339819E-6	20.797748
2441.646845	-2.972900	3.090500	-9.187100	28.518951	7.706067E-6	20.804261
2442.646036	-3.026900	3.088400	-9.347000	28.451944	5.593912E-6	20.807457
2443.643268	-2.982700	3.087900	-9.210000	28.436058	4.669844E-6	20.806134
2444.648118	-3.009600	3.085800	-9.286100	28.528419	4.273815E-6	20.807158
2445.644529	-2.981500	3.086600	-9.201700	28.554958	5.725922E-6	20.792160
2446.648163	-3.004100	3.084700	-9.266100	28.628873	5.032870E-6	20.785522
2447.649417	-2.962000	3.083600	-9.132700	28.566183	4.636841E-6	20.810578
2448.655314	-2.996000	3.082700	-9.235200	28.503316	3.283742E-6	20.791836
2449.647952	-3.002700	3.081800	-9.253100	28.578846	5.065873E-6	20.799623
2450.647846	-2.990000	3.080800	-9.210100	28.607069	4.471829E-6	20.790115
2451.653896	-3.021000	3.077900	-9.296900	28.613785	3.877785E-6	20.787869
2452.654084	-3.028200	3.078600	-9.321700	28.641362	5.593912E-6	20.805688
2453.671570	-2.986000	3.077600	-9.189300	28.728699	4.438827E-6	20.789342
2454.656979	-2.965700	3.076700	-9.123700	28.704891	2.986720E-6	20.804715
2455.649981	-2.998500	3.075100	-9.219400	28.718368	1.501611E-6	20.800747
2456.654984	-3.006800	3.073400	-9.240300	28.749239	1.534613E-6	20.811454
2457.653785	-2.995400	3.074300	-9.208000	28.808450	5.428900E-6	20.794285
2458.653686	-3.005200	3.071000	-9.228500	28.819548	4.471829E-6	20.804042
2459.653336	-2.986200	3.071000	-9.170000	28.818557	4.372822E-6	20.799725
2460.660745	-3.013200	3.068400	-9.244400	28.844272	4.570836E-6	20.801447
2461.651906	-2.986700	3.068800	-9.164600	28.871052	1.138584E-6	20.803294
2462.655635	-3.000700	3.067600	-9.204400	28.902611	4.207810E-6	20.780085
2463.656268	-3.012700	3.065800	-9.235500	28.946505	4.834856E-6	20.796806
2464.656971	-3.007100	3.065300	-9.217000	28.893669	1.996647E-6	20.802846
2465.653948	-2.981900	3.064200	-9.135700	28.828220	5.445401E-7	20.788122
2466.659467	-2.984300	3.061700	-9.136000	28.829757	8.415620E-7	20.802472
2467.657194	-2.985700	3.060800	-9.136300	28.891886	1.732628E-6	20.800575
2468.657583	-2.993300	3.060200	-9.159100	28.939274	3.283742E-6	20.809909
2469.657232	-3.000400	3.058800	-9.176300	28.908359	2.491683E-6	20.808162
2470.657587	-2.996200	3.057900	-9.160700	28.884704	1.732628E-6	20.809935
2471.660568	-2.985700	3.056900	-9.126400	28.838305	1.270594E-6	20.794488
2472.661868	-2.973500	3.056200	-9.086500	28.832037	2.788705E-6	20.808562
2473.660854	-2.989200	3.053100	-9.125700	28.711312	3.910788E-6	20.797907
2474.657705	-2.994700	3.052000	-9.139100	28.656952	1.930642E-6	20.791044
2475.660835	-3.000000	3.051800	-9.154300	28.687676	1.501611E-6	20.789747
2476.658484	-3.006000	3.050300	-9.168000	28.676403	1.105581E-6	20.794514
2477.659284	-3.003900	3.048300	-9.156300	28.671373	8.250607E-8	20.788499
2478.659677	-2.994400	3.048900	-9.128900	28.749542	5.445401E-7	20.813655
2479.660919	-2.993500	3.045900	-9.117300	28.822180	1.798632E-6	20.795313
2480.662118	-3.000900	3.045600	-9.138600	28.894985	2.194662E-6	20.791844
2481.661386	-2.971800	3.044700	-9.047500	28.856044	9.405693E-7	20.808564
2482.663208	-3.008200	3.042900	-9.152500	28.819505	1.237591E-6	20.789299
2483.665255	-2.955800	3.043100	-8.993100	28.771542	-1.485109E-7	20.815902
2484.663418	-3.020700	3.039200	-9.179800	28.746842	1.567615E-6	20.803349
2485.659848	-2.998100	3.040600	-9.114700	28.814253	-6.435474E-7	20.806768
2486.664479	-2.984200	3.037600	-9.064200	28.836500	2.227664E-6	20.802152
2487.659832	-3.001000	3.035500	-9.109100	28.823642	-1.501611E-6	20.799631
2488.661118	-2.983400	3.034700	-9.053200	28.735570	1.485109E-7	20.801004
2489.660812	-2.983300	3.034300	-9.051600	28.719540	1.485109E-7	20.801453
2490.660678	-2.976100	3.032300	-9.023500	28.705963	3.795279E-7	20.818123
2491.660030	-3.000100	3.031200	-9.092800	28.779843	-1.039577E-6	20.819521
2492.665700	-3.021800	3.030400	-9.155800	28.860753	8.745644E-7	20.796239
2493.663003	-2.998100	3.029900	-9.083000	28.934473	2.475182E-7	20.792270
2494.658652	-3.012400	3.026300	-9.114500	28.898554	-8.250608E-8	20.809664
2495.664739	-3.015700	3.026200	-9.125200	28.858399	5.775425E-7	20.820420
2496.661736	-3.011000	3.025300	-9.107800	28.791982	-5.445401E-7	20.800930
2497.665920	-2.998800	3.023000	-9.063800	28.694171	-1.633620E-6	20.803875
2498.662619	-2.997300	3.021600	-9.055300	28.719864	-3.019722E-6	20.807469
2499.667404	-2.981500	3.021900	-9.009100	28.668428	-1.435606E-6	20.834844
2500.664391	-3.021100	3.018000	-9.116200	28.689340	-2.524686E-6	20.815605
2501.663184	-3.000200	3.018800	-9.056300	28.690357	-1.699625E-6	20.824689
2502.671569	-2.979700	3.017700	-8.990700	28.701977	-1.204589E-6	20.805574
2503.665760	-3.016500	3.015800	-9.096400	28.771968	8.250607E-8	20.813960
2504.665275	-3.016400	3.014500	-9.092000	28.715407	-3.151732E-6	20.801557
2505.662346	-3.032500	3.012400	-9.133400	28.797932	-1.897640E-6	20.807871
2506.665690	-3.006700	3.012400	-9.056000	28.871483	1.369601E-6	20.816056
2507.670108	-2.975400	3.010300	-8.955300	28.900862	4.125304E-7	20.820998
2508.670218	-3.001500	3.008800	-9.030400	28.981764	-8.250608E-8	20.817156
2509.667459	-2.972500	3.009200	-8.944200	28.973862	3.135231E-7	20.812514
2510.663713	-2.998400	3.005900	-9.012100	28.985801	-7.425547E-7	20.811266
2511.667847	-2.999000	3.004000	-9.008000	28.994100	-2.145158E-7	20.822946
2512.673635	-3.003300	3.002600	-9.016700	29.001456	-1.650122E-8	20.830832
2513.670219	-3.028100	3.001200	-9.087200	29.001283	-2.557688E-6	20.818330
2514.669905	-3.002100	3.000700	-9.007000	29.031204	-1.171586E-6	20.809122
2515.672515	-3.027600	2.998500	-9.077600	29.002249	-1.534613E-6	20.808872
2516.667165	-3.000300	2.997400	-8.991900	28.947534	-2.805207E-7	20.819654
2517.671297	-2.994500	2.997000	-8.974000	28.955808	-1.633620E-6	20.822774
2518.667899	-2.990700	2.995300	-8.957400	28.870224	-4.950365E-8	20.826642
2519.674736	-3.010800	2.992700	-9.009400	28.802396	-1.402603E-6	20.820903
2520.671643	-2.949200	2.993100	-8.826600	28.747918	-2.920715E-6	20.821502
2521.668708	-2.997800	2.990100	-8.962800	28.722747	-2.491683E-6	20.808476
2522.676399	-2.987200	2.990000	-8.930500	28.777277	-2.359674E-6	20.804609
2523.670336	-2.981500	2.988000	-8.907800	28.850211	-1.765630E-6	20.812645
2524.675771	-2.995700	2.986100	-8.943900	28.936441	-1.600618E-6	20.814168
2525.668730	-3.001900	2.984400	-8.957600	28.989845	-1.732628E-6	20.831462
2526.671578	-3.001700	2.984600	-8.957200	29.066058	1.485109E-7	20.819584
2527.677052	-3.001200	2.983300	-8.952400	29.043347	-3.349747E-6	20.822779
2528.675879	-2.979700	2.980300	-8.880000	29.026876	-6.765498E-7	20.813770
2529.673467	-3.000000	2.979800	-8.938500	29.056525	-1.798632E-6	20.818513
2530.672450	-3.005300	2.978200	-8.949500	29.106926	-1.270594E-6	20.805761
2531.674743	-3.040400	2.975800	-9.046900	29.026234	2.145158E-7	20.828770
2532.674273	-2.994800	2.975100	-8.909000	29.002011	-1.006574E-6	20.811477
2533.671044	-3.034500	2.973900	-9.023700	29.018854	5.775425E-7	20.821334
2534.670143	-2.976900	2.973500	-8.850300	29.077877	-1.105581E-6	20.837656
2535.674735	-3.012700	2.970300	-8.946700	29.077554	-9.735717E-7	20.834011
2536.669731	-3.029800	2.969200	-8.995500	29.019277	2.805207E-7	20.835510
2537.673003	-3.007200	2.967300	-8.921900	29.070051	-9.075668E-7	20.826452
2538.674248	-3.006000	2.965300	-8.912700	29.023239	-2.062652E-6	20.820063
2539.671937	-2.979600	2.964100	-8.831000	28.993072	-2.557688E-6	20.826179
2540.671886	-2.976500	2.963000	-8.817900	28.950593	-1.815134E-7	20.813252
2541.673192	-2.987900	2.960900	-8.846000	29.017024	-1.072579E-6	20.830870
2542.674222	-2.988200	2.961900	-8.850200	29.046771	-1.815134E-7	20.828599
2543.673321	-2.992700	2.957700	-8.850500	29.056481	-1.336598E-6	20.834115
2544.675418	-2.989900	2.958000	-8.842700	29.069235	-1.171586E-6	20.831794
2545.675924	-3.000900	2.954900	-8.866600	29.066982	-1.402603E-6	20.836161
2546.676803	-3.012800	2.953100	-8.896500	29.080728	-1.963645E-6	20.827252
2547.677207	-2.991500	2.952100	-8.830100	29.057099	-2.425679E-6	20.826678
2548.686782	-2.982300	2.951900	-8.802900	29.066808	-2.755703E-6	20.826029
2549.679213	-2.991900	2.949400	-8.823200	29.075749	-7.425547E-7	20.829348
2550.677670	-2.984300	2.948400	-8.798300	29.053781	-6.435474E-7	20.829498
2551.679336	-3.015100	2.945800	-8.881200	29.158072	-1.303596E-6	20.852082
2552.675020	-2.990500	2.945000	-8.805600	29.159930	6.765498E-7	20.824083
2553.677900	-2.994900	2.943800	-8.815300	29.154655	-3.415752E-6	20.845319
2554.679799	-3.004700	2.941500	-8.837600	29.097767	-6.765498E-7	20.856274
2555.687232	-2.983500	2.939600	-8.769300	29.094523	-1.699625E-6	20.843522
2556.679650	-3.040700	2.936900	-8.928600	29.099897	-1.798632E-6	20.818592
2557.680001	-2.988300	2.936900	-8.775300	29.099526	8.085595E-7	20.840029
2558.686813	-3.012100	2.933800	-8.836000	29.116491	-2.524686E-6	20.824407
2559.679370	-3.000400	2.933400	-8.800900	29.176943	-8.745644E-7	20.845494
2560.685062	-2.961300	2.932700	-8.683300	29.155894	-4.455328E-7	20.843248
2561.681025	-3.001200	2.928900	-8.789100	29.131276	-2.425679E-6	20.839779
2562.681894	-2.970900	2.928200	-8.698600	29.141851	-2.095654E-6	20.857546
2563.686635	-3.005900	2.925000	-8.791600	29.158840	-1.336598E-6	20.847165
2564.683615	-3.006300	2.924000	-8.788400	29.152030	3.795279E-7	20.845519
2565.677866	-2.997300	2.922400	-8.758200	29.140439	-1.666623E-6	20.858494
2566.685289	-3.005100	2.921400	-8.778800	29.072404	-1.815134E-7	20.856322
2567.682797	-3.020300	2.920000	-8.818600	29.063638	-1.765630E-6	20.840852
2568.683420	-2.973200	2.918700	-8.676400	29.066832	-1.468608E-6	20.837907
2569.684483	-3.001500	2.915400	-8.749600	29.126099	-8.085595E-7	20.848313
2570.687489	-2.996100	2.913700	-8.728300	29.218497	-1.468608E-6	20.848487
2571.682457	-2.984400	2.913300	-8.693300	29.188235	-1.204589E-6	20.862087
2572.684169	-3.029400	2.909400	-8.812100	29.215847	-1.831635E-6	20.848187
2573.686388	-3.024900	2.909200	-8.798200	29.215896	-2.227664E-6	20.864832
2574.686258	-2.981100	2.907800	-8.667700	29.166713	-1.996647E-6	20.861736
2575.685997	-3.002700	2.904600	-8.720800	29.224910	2.475182E-7	20.853527
2576.686779	-2.982500	2.904400	-8.661700	29.178476	-2.557688E-6	20.842297
2577.687660	-3.013300	2.901200	-8.741100	29.203859	8.085595E-7	20.851754
2578.684826	-3.004300	2.899400	-8.709700	29.271563	-1.435606E-6	20.852179
2579.690876	-2.997600	2.898400	-8.687300	29.295756	-1.600618E-6	20.864231
2580.688482	-3.017900	2.897700	-8.744300	29.293278	-3.283742E-6	20.863157
2581.685394	-3.022600	2.894300	-8.747300	29.304793	-1.534613E-6	20.869546
2582.687874	-2.979500	2.894100	-8.621500	29.264282	-2.491683E-6	20.852901
2583.692668	-3.029500	2.889900	-8.753800	29.193556	-1.402603E-6	20.868397
2584.687012	-2.994500	2.889800	-8.652700	29.158860	-3.415752E-6	20.831539
2585.686526	-3.003400	2.887100	-8.669700	29.155764	-6.765498E-7	20.856394
2586.688778	-2.989500	2.885900	-8.625700	29.148705	-2.557688E-6	20.863031
2587.686036	-2.982100	2.884300	-8.599400	29.077378	-2.194662E-6	20.854222
2588.690960	-2.979700	2.882200	-8.587200	29.096448	-2.788705E-6	20.877229
2589.689086	-2.985200	2.880700	-8.598500	29.119555	3.135231E-7	20.874434
2590.688303	-2.988000	2.878300	-8.600100	29.178051	-1.171586E-6	20.851351
2591.689728	-3.003900	2.875000	-8.635800	29.257098	-1.435606E-6	20.867946
2592.691444	-2.972700	2.874500	-8.543700	29.271212	-6.765498E-7	20.879324
2593.698406	-3.012300	2.870600	-8.645800	29.221314	-3.135231E-7	20.886885
2594.709365	-2.994000	2.871400	-8.594700	29.281686	-4.125304E-7	20.889879
2595.692662	-3.020100	2.867700	-8.660200	29.359685	5.115377E-7	20.881719
2596.693479	-2.992300	2.866300	-8.576200	29.365998	-8.415620E-7	20.867220
2597.693291	-3.001900	2.865300	-8.600300	29.335394	-1.039577E-6	20.876677
2598.690204	-3.029600	2.861900	-8.669600	29.351686	-1.468608E-6	20.885036
2599.693629	-3.009600	2.860300	-8.608000	29.411060	1.138584E-6	20.869964
2600.693039	-3.006200	2.859000	-8.593100	29.426609	7.425547E-7	20.872360
2601.697762	-3.006600	2.856100	-8.586400	29.375703	-6.435474E-7	20.882691
2602.691247	-2.998200	2.853900	-8.555700	29.326058	-3.135231E-7	20.872958
2603.693787	-2.985400	2.852900	-8.515800	29.338760	5.775425E-7	20.855416
2604.700473	-2.992100	2.850500	-8.527500	29.336110	-1.072579E-6	20.877400
2605.693058	-3.001500	2.848800	-8.549700	29.379591	-1.435606E-6	20.879971
2606.695535	-2.986800	2.847400	-8.504100	29.413561	-5.775425E-7	20.897613
2607.691433	-3.002700	2.844600	-8.541200	29.376248	2.128657E-6	20.877550
2608.695282	-3.011800	2.841600	-8.557700	29.325562	-1.600618E-6	20.915130
2609.694612	-3.018700	2.839900	-8.571300	29.211974	1.534613E-6	20.894542
2610.690492	-3.020700	2.837500	-8.569800	29.182976	-2.260666E-6	20.882864
2611.695346	-3.007300	2.836600	-8.529700	29.284407	1.485109E-7	20.886457
2612.692470	-3.006900	2.832200	-8.515600	29.356042	-1.831635E-6	20.898909
2613.691545	-2.977000	2.832300	-8.430600	29.415640	-2.128657E-6	20.908716
2614.698396	-2.985300	2.829200	-8.445000	29.434753	-2.425679E-6	20.896214
2615.693736	-3.002700	2.826400	-8.485700	29.444459	-1.336598E-6	20.899358
2616.691211	-3.010500	2.823600	-8.499900	29.432549	4.950364E-8	20.897785
2617.696742	-2.984400	2.823200	-8.424500	29.504051	-2.425679E-6	20.894941
2618.693038	-3.011900	2.818900	-8.489500	29.524252	-1.633620E-6	20.897760
2619.696479	-2.980900	2.817600	-8.398000	29.540666	-5.445401E-7	20.915253
2620.698014	-3.009300	2.814300	-8.467200	29.581810	-2.458681E-6	20.890349
2621.694678	-3.007400	2.811200	-8.453400	29.600030	3.135231E-7	20.924360
2622.700189	-2.998200	2.810500	-8.425700	29.590178	-1.485109E-7	20.899258
2623.702624	-3.003700	2.807300	-8.431200	29.529056	-1.534613E-6	20.904498
2624.697054	-3.001300	2.804300	-8.415800	29.521158	-1.996647E-6	20.922613
2625.702075	-2.989500	2.802900	-8.378800	29.490979	-3.250739E-6	20.921116
2626.705281	-3.036000	2.797300	-8.491400	29.480531	-1.336598E-6	20.894941
2627.698706	-3.009400	2.796900	-8.416000	29.470431	-3.085727E-6	20.900407
2628.705072	-2.981100	2.793300	-8.326400	29.486128	-1.765630E-6	20.897737
2629.698608	-3.019200	2.791900	-8.428900	29.499101	-3.250739E-6	20.916976
2630.698522	-2.998200	2.789200	-8.361600	29.495191	-8.415620E-7	20.913509
2631.701641	-2.999000	2.783900	-8.348100	29.464664	-2.755703E-6	20.918774
2632.698036	-2.995000	2.783700	-8.335900	29.427874	-3.795279E-7	20.897814
2633.700566	-3.018600	2.778800	-8.386300	29.478777	1.650122E-8	20.919249
2634.701651	-2.979900	2.778500	-8.278300	29.544360	-1.006574E-6	20.912812
2635.711446	-2.999700	2.775200	-8.323200	29.620532	-2.029649E-6	20.928433
2636.702123	-3.000500	2.770000	-8.310200	29.580974	-1.204589E-6	20.917478
2637.702627	-3.003900	2.768300	-8.314900	29.549956	-1.798632E-6	20.910393
2638.702700	-2.986100	2.766100	-8.259700	29.526611	1.650122E-8	20.910568
2639.703467	-3.004500	2.760700	-8.293800	29.533964	-5.775425E-7	20.919401
2640.702418	-2.972800	2.758700	-8.200400	29.579936	-1.732628E-6	20.909321
2641.703369	-3.007100	2.756500	-8.288300	29.642764	-1.105581E-6	20.920500
2642.704956	-2.996100	2.752400	-8.245500	29.732740	-8.415620E-7	20.893625
2643.703555	-3.004200	2.748800	-8.257000	29.782862	1.006574E-6	20.928984
2644.699794	-3.031100	2.745700	-8.322200	29.780362	-1.633620E-6	20.906552
2645.705453	-3.008000	2.743500	-8.251900	29.775140	-8.250608E-8	20.942533
2646.699676	-3.036400	2.739400	-8.316500	29.754423	-1.402603E-6	20.906003
2647.702862	-2.987600	2.735800	-8.172200	29.738286	-7.425547E-7	20.948996
2648.703059	-3.030900	2.731900	-8.278300	29.654077	-8.085595E-7	20.924793
2649.702817	-2.986700	2.729500	-8.151200	29.583007	-5.115377E-7	20.916210
2650.705773	-2.981200	2.726800	-8.128400	29.634522	-3.465255E-7	20.937793
2651.711070	-2.984700	2.723100	-8.126800	29.672272	2.475182E-7	20.914688
2652.707510	-3.008100	2.718400	-8.176700	29.713014	-7.755571E-7	20.940588
2653.703366	-3.014900	2.714800	-8.184000	29.740663	8.250607E-8	20.909673
2654.705447	-3.004500	2.711200	-8.144600	29.807318	-1.237591E-6	20.923771
2655.701058	-3.007900	2.707100	-8.141300	29.769201	1.732628E-6	20.915686
2656.705383	-3.025000	2.702800	-8.174700	29.760687	9.405693E-7	20.927014
2657.705603	-2.971100	2.700200	-8.021800	29.745959	1.600618E-6	20.917856
2658.703592	-2.980700	2.695900	-8.034800	29.768756	-2.458681E-6	20.929934
2659.707122	-3.002300	2.692200	-8.081100	29.817144	5.445401E-7	20.918506
2660.704427	-3.000200	2.686800	-8.060500	29.894015	4.785352E-7	20.932006
2661.706612	-3.033400	2.680700	-8.130200	29.914604	-9.075668E-7	20.923846
2662.711558	-2.996900	2.678200	-8.025200	29.859539	-1.138584E-6	20.934700
2663.708204	-2.983200	2.675500	-7.981000	29.856867	-2.260666E-6	20.922050
2664.709713	-2.997700	2.668800	-7.998700	29.851249	-6.435474E-7	20.920179
2665.712857	-3.006900	2.665400	-8.013500	29.823306	-1.039577E-6	20.933253
2666.706870	-3.029600	2.661200	-8.061300	29.731160	-3.052725E-6	20.945605
2667.713341	-3.002400	2.655700	-7.971400	29.607170	-1.815134E-7	20.954313
2668.715308	-3.004500	2.652600	-7.969100	29.678387	-3.283742E-6	20.931283
2669.706461	-3.018100	2.646100	-7.985200	29.730194	-6.105450E-7	20.928987
2670.727141	-3.003800	2.642300	-7.935300	29.712472	-2.491683E-6	20.941937
2671.714130	-3.006900	2.636000	-7.925200	29.768832	1.485109E-7	20.942812
2672.712229	-2.978900	2.632500	-7.841200	29.787766	1.155085E-7	20.938669
2673.713370	-2.980000	2.627100	-7.827800	29.855605	-1.567615E-6	20.942112
2674.715278	-3.016000	2.622000	-7.907400	29.872187	-7.095522E-7	20.955037
2675.709066	-3.048200	2.615700	-7.971900	29.887457	-1.402603E-6	20.953840
2676.712518	-3.056200	2.610500	-7.977300	29.852612	-2.062652E-6	20.942887
2677.709426	-3.027700	2.606600	-7.890700	29.836276	-1.996647E-6	20.958182
2678.711611	-3.012800	2.601600	-7.836900	29.838776	-9.735717E-7	20.949798
2679.713359	-3.012200	2.595100	-7.816600	29.925766	-1.138584E-6	20.931782
2680.710758	-3.045800	2.590000	-7.888000	29.987287	2.475182E-7	20.948776
2681.713331	-3.020500	2.584600	-7.805500	30.028240	-1.402603E-6	20.962099
2682.717410	-3.008500	2.579200	-7.758800	30.047813	2.095654E-6	20.945331
2683.716160	-2.995400	2.572800	-7.706300	30.090942	-6.765498E-7	20.953740
2684.717540	-3.021800	2.566600	-7.754900	30.119124	3.465255E-7	20.953715
2685.715703	-2.987900	2.562100	-7.654200	30.179372	-5.115377E-7	20.953790
2686.715260	-2.978500	2.556100	-7.612500	30.186744	-1.501611E-6	20.968811
2687.715047	-3.008100	2.547500	-7.661800	30.182638	-7.095522E-7	20.962773
2688.711486	-2.995200	2.542400	-7.614600	30.251564	5.775425E-7	20.955961
2689.713234	-3.004600	2.535500	-7.617400	30.264528	-7.095522E-7	20.960028
2690.715143	-3.014200	2.529400	-7.623500	30.309429	5.115377E-7	20.962648
2691.712434	-3.026300	2.523900	-7.637200	30.327265	-1.600618E-6	20.952193
2692.713052	-2.982500	2.517500	-7.507600	30.278456	-1.501611E-6	20.953690
2693.714360	-2.974900	2.512700	-7.474100	30.329171	-7.095522E-7	20.947004
2694.713816	-2.965000	2.505600	-7.427100	30.330951	5.115377E-7	20.957333
2695.718803	-3.010500	2.497600	-7.518700	30.326721	-3.135231E-7	20.979615
