LabVIEW Measurement	
Writer_Version	2
Reader_Version	2
Separator	Tab
Decimal_Separator	.
Multi_Headings	No
X_Columns	One
Time_Pref	Absolute
Operator	admin
Description	Clolumns are: time, Current, Voltage, Power, Battery Temp, and Chamber Temp
Date	2024/08/16
Time	13:07:17.8513970375061035156
***End_of_Header***	
	
Channels	6						
Samples	1	1	1	1	1	1	
Date	2024/09/20	2024/09/20	2024/09/20	2024/09/20	2024/09/20	2024/09/20	
Time	07:09:42.9378657341003417969	07:09:42.9497809410095214844	07:09:42.9578967094421386719	07:09:42.9198217391967773438	07:09:42.9198217391967773438	07:09:42.9198217391967773438	
X_Dimension	Time	Time	Time	Time	Time	Time	
X0	0.0000000000000000E+0	0.0000000000000000E+0	0.0000000000000000E+0	0.0000000000000000E+0	0.0000000000000000E+0	0.0000000000000000E+0	
Delta_X	1.000000	1.000000	1.000000	1.000000	1.000000	1.000000	
***End_of_Header***							
X_Value	Untitled	Untitled 1	Untitled 2	Untitled 3	Untitled 4	Untitled 5	Comment
0.000000	0.006551	4.089200	0.026826	20.759741	0.000470	20.761638
1.000218	-2.988900	3.914800	-11.701000	20.749219	0.000467	20.736891
2.000764	-3.009500	3.907300	-11.758000	20.767377	0.000469	20.742246
3.005816	-2.997800	3.904100	-11.703000	20.758842	0.000468	20.757893
4.000839	-2.996100	3.901200	-11.687000	20.747625	0.000466	20.736719
5.000187	-3.005500	3.897800	-11.713000	20.768121	0.000467	20.747257
6.000795	-3.019200	3.895200	-11.759000	20.776860	0.000466	20.730391
7.002502	-3.006200	3.893100	-11.703000	20.778479	0.000465	20.750977
8.002357	-3.018600	3.889600	-11.741000	20.786466	0.000464	20.745687
9.001156	-3.000300	3.889100	-11.668000	20.795753	0.000464	20.748810
10.006203	-2.984700	3.887600	-11.602000	20.791477	0.000463	20.747854
11.005176	-3.005400	3.884900	-11.675000	20.814359	0.000462	20.738019
12.002888	-2.995500	3.884700	-11.635000	20.822452	0.000462	20.751328
12.998223	-2.988400	3.882600	-11.601000	20.839300	0.000464	20.741150
14.004246	-3.005600	3.881600	-11.666000	20.821725	0.000461	20.744437
15.001296	-3.011700	3.878900	-11.681000	20.825591	0.000461	20.740243
16.007636	-2.999100	3.879600	-11.635000	20.830635	0.000460	20.761883
17.004712	-2.993700	3.878500	-11.610000	20.851268	0.000460	20.746955
18.001861	-2.995700	3.876700	-11.612000	20.839448	0.000460	20.737978
19.001001	-2.991800	3.878100	-11.601000	20.872064	0.000458	20.730293
20.003498	-2.989300	3.875600	-11.585000	20.879250	0.000457	20.754550
21.012607	-2.992200	3.874700	-11.593000	20.883566	0.000459	20.728519
22.004335	-3.001700	3.874600	-11.630000	20.890236	0.000456	20.744199
23.009059	-2.985000	3.874000	-11.563000	20.886639	0.000456	20.735860
24.001446	-3.024400	3.871900	-11.709000	20.892680	0.000456	20.754705
25.005187	-2.988900	3.872300	-11.573000	20.929857	0.000457	20.731666
26.002623	-3.018600	3.870800	-11.683000	20.926612	0.000455	20.740275
27.009944	-2.996200	3.870600	-11.596000	20.944137	0.000456	20.748794
28.003366	-2.994300	3.871900	-11.593000	20.948232	0.000454	20.741510
29.003527	-2.990200	3.870800	-11.574000	20.977225	0.000455	20.744428
30.008481	-2.975600	3.869800	-11.515000	20.967040	0.000455	20.750838
31.010652	-2.997700	3.870000	-11.601000	20.960575	0.000455	20.738681
32.011335	-2.993000	3.868800	-11.578000	20.984213	0.000455	20.730554
33.013356	-3.001700	3.868500	-11.611000	20.982619	0.000452	20.746505
34.007259	-3.015400	3.867500	-11.661000	21.004075	0.000455	20.742360
35.006993	-3.001600	3.869000	-11.612000	20.996834	0.000454	20.737962
36.010994	-3.005200	3.868100	-11.623000	21.031367	0.000454	20.741207
37.010390	-3.025400	3.866000	-11.695000	21.025956	0.000452	20.728682
38.010519	-2.998900	3.866200	-11.592000	21.042025	0.000452	20.749497
39.010874	-3.011200	3.864900	-11.636000	21.055674	0.000452	20.738967
40.012753	-3.021900	3.864000	-11.676000	21.057072	0.000453	20.732304
41.013966	-3.006300	3.865700	-11.620000	21.071318	0.000453	20.721897
42.016217	-3.022100	3.865300	-11.681000	21.081477	0.000452	20.726843
43.016902	-2.995900	3.863800	-11.574000	21.072217	0.000454	20.712364
44.021725	-3.003200	3.864500	-11.604000	21.082425	0.000450	20.767622
45.010709	-3.018000	3.863000	-11.657000	21.100160	0.000450	20.728936
46.011179	-3.011000	3.863700	-11.633000	21.135385	0.000450	20.719599
47.021914	-2.997000	3.864800	-11.582000	21.123036	0.000450	20.736171
48.014589	-3.005400	3.863500	-11.610000	21.122946	0.000452	20.736081
49.017884	-2.989900	3.862700	-11.549000	21.158170	0.000453	20.717261
50.014910	-2.996500	3.863900	-11.577000	21.148690	0.000449	20.718209
51.017867	-2.961300	3.863400	-11.440000	21.154100	0.000450	20.717931
52.019142	-3.009200	3.861400	-11.618000	21.168655	0.000448	20.725379
53.019310	-3.013800	3.861000	-11.635000	21.176910	0.000450	20.701392
54.017073	-2.972800	3.862900	-11.483000	21.184959	0.000449	20.712764
55.011517	-2.977100	3.861400	-11.495000	21.189503	0.000450	20.722526
56.014018	-2.977300	3.861900	-11.497000	21.186014	0.000450	20.710500
57.018196	-3.002200	3.862000	-11.594000	21.227626	0.000452	20.736956
58.014114	-2.994700	3.860500	-11.561000	21.236452	0.000448	20.722076
59.020519	-3.001000	3.859800	-11.582000	21.234883	0.000449	20.724300
60.021578	-3.010400	3.861200	-11.622000	21.239402	0.000450	20.724079
61.016329	-3.019900	3.860600	-11.658000	21.264825	0.000450	20.709682
62.020061	-3.016200	3.859800	-11.641000	21.256293	0.000449	20.716321
63.021188	-3.011000	3.859400	-11.619000	21.271379	0.000452	20.708178
64.021141	-2.981600	3.861000	-11.511000	21.293940	0.000450	20.706567
65.018153	-2.999200	3.859300	-11.574000	21.295477	0.000448	20.746513
66.020641	-2.994800	3.858100	-11.553000	21.314908	0.000447	20.712372
67.021329	-2.982100	3.859500	-11.509000	21.275473	0.000450	20.721757
68.018901	-2.998600	3.858500	-11.569000	21.299718	0.000450	20.731315
69.024686	-2.992900	3.858000	-11.546000	21.303019	0.000451	20.709486
70.018205	-2.988000	3.858700	-11.529000	21.334593	0.000450	20.715945
71.022100	-2.987500	3.859900	-11.530000	21.346115	0.000449	20.710402
72.024349	-3.007400	3.857900	-11.601000	21.362073	0.000451	20.710720
73.020120	-3.002300	3.857100	-11.579000	21.367989	0.000449	20.712372
74.023039	-3.008400	3.857000	-11.602000	21.353412	0.000450	20.730031
75.021265	-2.987500	3.858200	-11.525000	21.371870	0.000449	20.704875
76.023381	-3.002400	3.857500	-11.581000	21.386422	0.000449	20.707107
77.022318	-3.012200	3.856300	-11.614000	21.382198	0.000449	20.702880
78.026673	-3.001800	3.856800	-11.576000	21.404921	0.000450	20.709968
79.026502	-3.013800	3.857300	-11.624000	21.432849	0.000449	20.713255
80.025340	-3.004600	3.856100	-11.585000	21.419759	0.000450	20.704425
81.020178	-2.985700	3.858000	-11.518000	21.426811	0.000451	20.711481
82.024731	-3.010700	3.854600	-11.604000	21.422023	0.000451	20.698629
83.023232	-3.008200	3.856400	-11.601000	21.446665	0.000452	20.710958
84.024481	-2.993800	3.857600	-11.548000	21.440055	0.000450	20.698179
85.018857	-3.002900	3.854900	-11.575000	21.462450	0.000450	20.690240
86.021448	-2.998100	3.853700	-11.553000	21.473701	0.000449	20.695808
87.022865	-3.011000	3.855000	-11.607000	21.477092	0.000450	20.707262
88.022800	-2.993100	3.856100	-11.540000	21.486112	0.000450	20.709650
89.026224	-3.015200	3.854200	-11.620000	21.510630	0.000452	20.701466
90.020792	-2.997800	3.854200	-11.553000	21.521864	0.000452	20.689472
91.020909	-2.999900	3.855000	-11.563000	21.530156	0.000451	20.712944
92.022165	-2.993800	3.855700	-11.542000	21.546545	0.000453	20.715119
93.021661	-2.999400	3.854500	-11.560000	21.532174	0.000452	20.716386
94.025991	-2.997700	3.854500	-11.553000	21.531954	0.000452	20.717114
95.023277	-2.978900	3.855600	-11.485000	21.546643	0.000453	20.708104
96.022316	-2.994500	3.853800	-11.539000	21.557158	0.000453	20.697762
97.023358	-2.998800	3.854400	-11.558000	21.579763	0.000453	20.713271
98.030833	-3.010400	3.852900	-11.598000	21.593798	0.000453	20.707876
99.022616	-2.986300	3.853000	-11.506000	21.590007	0.000454	20.703134
100.026854	-2.964600	3.854400	-11.425000	21.609385	0.000454	20.701662
101.022229	-2.982500	3.853400	-11.492000	21.607261	0.000454	20.699536
102.027609	-3.000300	3.852500	-11.557000	21.615267	0.000452	20.694271
103.042503	-3.009800	3.853300	-11.596000	21.631622	0.000455	20.704000
104.029239	-3.017400	3.850800	-11.617000	21.620103	0.000455	20.697689
105.032104	-2.997200	3.851900	-11.544000	21.650721	0.000455	20.684706
106.025373	-2.991500	3.853600	-11.527000	21.661725	0.000455	20.703305
107.030839	-2.989300	3.852400	-11.515000	21.665009	0.000454	20.706592
108.032733	-2.999300	3.852300	-11.553000	21.675914	0.000457	20.685261
109.030057	-2.999500	3.850200	-11.548000	21.684009	0.000456	20.683880
110.030855	-2.992200	3.852100	-11.525000	21.671495	0.000455	20.702177
111.034666	-2.999500	3.850300	-11.547000	21.692758	0.000455	20.695481
112.030105	-3.002700	3.849700	-11.558000	21.670964	0.000456	20.697852
113.030885	-2.997500	3.849300	-11.538000	21.707519	0.000455	20.693658
114.037834	-2.978700	3.851500	-11.472000	21.699089	0.000454	20.696601
115.035981	-3.025000	3.850500	-11.647000	21.707797	0.000456	20.701523
116.034542	-2.990300	3.851000	-11.515000	21.748484	0.000456	20.679179
117.029939	-2.999100	3.849500	-11.544000	21.761700	0.000457	20.691459
118.034261	-2.999000	3.849800	-11.544000	21.762468	0.000458	20.691279
119.039847	-3.004700	3.850400	-11.568000	21.778584	0.000457	20.684174
120.034674	-3.017200	3.848600	-11.611000	21.778625	0.000458	20.681844
121.034773	-3.017800	3.849600	-11.617000	21.769574	0.000457	20.667095
122.038097	-3.015000	3.849600	-11.604000	21.808724	0.000458	20.683046
123.037866	-3.004000	3.848700	-11.561000	21.812579	0.000458	20.695441
124.033590	-2.999500	3.849100	-11.545000	21.830458	0.000458	20.678721
125.035480	-3.011900	3.848300	-11.589000	21.811583	0.000460	20.697288
126.035227	-3.000000	3.848800	-11.544000	21.836486	0.000461	20.692816
127.038025	-2.997800	3.848500	-11.536000	21.818092	0.000461	20.672033
128.031895	-2.987100	3.848300	-11.495000	21.842539	0.000461	20.685597
129.036836	-3.002400	3.848400	-11.554000	21.845389	0.000459	20.679441
130.038999	-3.012400	3.847300	-11.589000	21.858245	0.000460	20.680455
131.035197	-3.005500	3.847600	-11.563000	21.849694	0.000459	20.705088
132.033558	-2.975200	3.848700	-11.450000	21.873600	0.000462	20.688712
133.036026	-2.999500	3.847800	-11.540000	21.872579	0.000462	20.682474
134.034508	-2.991900	3.849100	-11.516000	21.872726	0.000460	20.694950
135.040352	-2.989500	3.847100	-11.500000	21.910892	0.000462	20.681943
136.040205	-2.996200	3.847000	-11.525000	21.907159	0.000459	20.681051
137.038166	-2.982900	3.848300	-11.478000	21.922563	0.000461	20.675606
138.037366	-3.008400	3.846300	-11.570000	21.950551	0.000462	20.687977
139.038128	-3.011100	3.846000	-11.580000	21.945839	0.000464	20.683733
140.044848	-3.000400	3.845600	-11.537000	21.961348	0.000460	20.679343
141.038901	-2.982700	3.847800	-11.476000	21.968992	0.000461	20.664234
142.042891	-3.008700	3.846700	-11.572000	21.957803	0.000464	20.668682
143.041708	-3.020700	3.844600	-11.611000	21.965153	0.000464	20.675092
144.042383	-2.972600	3.846100	-11.432000	21.961037	0.000462	20.686145
145.049692	-2.980500	3.846900	-11.465000	21.968012	0.000463	20.677953
146.044569	-2.985400	3.845400	-11.479000	21.980474	0.000464	20.658658
147.040454	-2.983700	3.846000	-11.474000	21.968527	0.000464	20.653810
148.042513	-3.011700	3.845500	-11.581000	22.004901	0.000463	20.670783
149.045506	-2.997600	3.845100	-11.526000	21.988347	0.000462	20.669385
150.046597	-2.999600	3.843900	-11.529000	22.018236	0.000465	20.679867
151.047382	-2.983600	3.844300	-11.469000	22.032234	0.000466	20.691509
152.041763	-3.006000	3.842900	-11.551000	22.058782	0.000466	20.682524
153.048814	-3.014800	3.843600	-11.587000	22.062645	0.000465	20.675485
154.048180	-3.002100	3.843900	-11.538000	22.068745	0.000464	20.694395
155.049243	-2.981900	3.843900	-11.462000	22.087739	0.000465	20.673105
156.050161	-3.014500	3.842300	-11.582000	22.072885	0.000466	20.678150
157.049904	-2.993200	3.843200	-11.503000	22.073800	0.000466	20.677169
158.047888	-2.988400	3.842300	-11.481000	22.069358	0.000465	20.656598
159.048886	-3.006900	3.843100	-11.555000	22.092786	0.000469	20.667726
160.050517	-3.015300	3.843600	-11.589000	22.114874	0.000467	20.673719
161.048005	-3.032100	3.841000	-11.645000	22.124036	0.000466	20.671037
162.049311	-3.009200	3.842600	-11.563000	22.131116	0.000466	20.662003
163.047969	-3.007700	3.841400	-11.553000	22.116156	0.000468	20.664570
164.049687	-3.019500	3.840500	-11.595000	22.135321	0.000468	20.660523
165.047492	-3.004900	3.841100	-11.542000	22.137804	0.000470	20.674390
166.049219	-2.994900	3.841300	-11.503000	22.160291	0.000469	20.675567
167.051409	-2.994600	3.841300	-11.502000	22.164047	0.000469	20.667473
168.050607	-3.018200	3.840500	-11.591000	22.171951	0.000470	20.645512
169.053209	-2.971700	3.842800	-11.418000	22.193410	0.000472	20.690709
170.047880	-2.992600	3.841400	-11.495000	22.180746	0.000469	20.677080
171.056193	-2.993800	3.839600	-11.494000	22.186551	0.000472	20.662502
172.050729	-2.988800	3.840500	-11.477000	22.198333	0.000471	20.674774
173.048131	-3.002400	3.840200	-11.529000	22.201567	0.000471	20.673270
174.056945	-3.009800	3.840300	-11.557000	22.200195	0.000471	20.661464
175.058970	-3.012200	3.838300	-11.561000	22.222576	0.000471	20.673442
176.054530	-2.981800	3.839600	-11.448000	22.220306	0.000473	20.676860
177.050198	-2.989400	3.839600	-11.477000	22.242163	0.000473	20.660336
178.054623	-2.976400	3.840800	-11.432000	22.259358	0.000471	20.671864
179.051434	-2.972100	3.839800	-11.411000	22.264682	0.000472	20.655856
180.052719	-2.983400	3.839000	-11.452000	22.278464	0.000473	20.686728
181.054496	-2.993700	3.839000	-11.491000	22.266070	0.000474	20.683327
182.057011	-2.990000	3.838100	-11.475000	22.264911	0.000474	20.693073
183.050920	-3.000300	3.838100	-11.514000	22.279395	0.000475	20.687661
184.057805	-2.993000	3.838800	-11.489000	22.282383	0.000475	20.680221
185.054532	-2.977800	3.838400	-11.429000	22.305758	0.000475	20.685134
186.055285	-3.002000	3.837000	-11.517000	22.322552	0.000474	20.665913
187.055719	-2.974200	3.838600	-11.414000	22.336504	0.000476	20.665185
188.050519	-2.966700	3.838200	-11.386000	22.338170	0.000476	20.686296
189.054804	-2.996600	3.836400	-11.496000	22.387635	0.000477	20.688888
190.054551	-2.992800	3.836400	-11.481000	22.363911	0.000475	20.656118
191.054849	-2.994700	3.837800	-11.492000	22.387227	0.000477	20.665717
192.051130	-2.993100	3.837200	-11.484000	22.359070	0.000474	20.684939
193.055624	-2.980900	3.837800	-11.439000	22.369487	0.000477	20.689207
194.057616	-2.977100	3.836500	-11.421000	22.378108	0.000478	20.674605
195.057510	-3.000300	3.836300	-11.510000	22.382770	0.000479	20.676428
196.055108	-2.990200	3.836600	-11.471000	22.377112	0.000479	20.696369
197.054314	-2.982900	3.836900	-11.444000	22.406020	0.000479	20.679322
198.059680	-2.998200	3.834100	-11.495000	22.415131	0.000479	20.693663
199.055845	-2.995100	3.836000	-11.488000	22.409424	0.000482	20.675144
200.057916	-2.991200	3.834600	-11.469000	22.380043	0.000478	20.674646
201.060314	-3.005300	3.835200	-11.525000	22.380762	0.000480	20.675365
202.059039	-3.022400	3.834500	-11.588000	22.394346	0.000479	20.673795
203.056493	-3.011400	3.834400	-11.546000	22.421458	0.000479	20.677712
204.073956	-3.006700	3.834000	-11.526000	22.445703	0.000480	20.698200
205.059473	-2.994600	3.833900	-11.480000	22.461197	0.000483	20.666298
206.062999	-2.988300	3.835300	-11.459000	22.456691	0.000482	20.676486
207.062739	-3.010500	3.833300	-11.539000	22.488535	0.000481	20.691308
208.059426	-3.005600	3.832100	-11.517000	22.471564	0.000481	20.674785
209.066444	-3.011300	3.833300	-11.542000	22.502714	0.000481	20.673738
210.067282	-3.015800	3.833000	-11.558000	22.532067	0.000481	20.701242
211.062293	-2.992500	3.833500	-11.471000	22.517309	0.000483	20.697841
212.059280	-2.966400	3.833000	-11.370000	22.490519	0.000482	20.690924
213.060374	-3.002500	3.832700	-11.506000	22.499090	0.000482	20.671057
214.060024	-3.012500	3.831100	-11.540000	22.520469	0.000482	20.704325
215.064188	-3.006200	3.832400	-11.520000	22.545365	0.000483	20.700809
216.075154	-2.981800	3.831900	-11.425000	22.542720	0.000483	20.684883
217.062973	-2.973300	3.832900	-11.395000	22.547128	0.000486	20.695936
218.062148	-3.006300	3.831100	-11.517000	22.544108	0.000485	20.694808
219.058890	-3.015600	3.829500	-11.547000	22.581141	0.000485	20.702976
220.062612	-3.003400	3.831600	-11.507000	22.582112	0.000485	20.678342
221.062077	-2.988200	3.830500	-11.445000	22.565739	0.000484	20.685651
222.061519	-3.000000	3.830200	-11.490000	22.586765	0.000485	20.698651
223.062220	-2.992100	3.830000	-11.459000	22.604885	0.000484	20.703998
224.065599	-3.019800	3.827900	-11.559000	22.592372	0.000488	20.705690
225.063170	-2.996000	3.830800	-11.476000	22.598225	0.000487	20.681678
226.073050	-3.000300	3.828700	-11.486000	22.613970	0.000488	20.696975
227.066111	-3.001100	3.829600	-11.492000	22.619707	0.000488	20.687548
228.060025	-3.004300	3.829600	-11.504000	22.613374	0.000488	20.720087
229.064218	-2.997000	3.829500	-11.476000	22.652616	0.000489	20.705339
230.069390	-3.026000	3.826900	-11.579000	22.657848	0.000488	20.704415
231.059996	-3.002000	3.829800	-11.496000	22.666042	0.000489	20.705510
232.073035	-3.010700	3.827200	-11.521000	22.672441	0.000489	20.676356
233.065082	-3.006400	3.827000	-11.504000	22.692242	0.000488	20.678171
234.059556	-2.995700	3.828600	-11.469000	22.674604	0.000488	20.697964
235.065120	-3.020500	3.826900	-11.557000	22.681901	0.000489	20.716180
236.075816	-2.993800	3.827300	-11.458000	22.715428	0.000491	20.686224
237.070630	-2.972400	3.828800	-11.379000	22.711878	0.000491	20.713016
238.063629	-3.010200	3.827800	-11.520000	22.702966	0.000491	20.711201
239.059936	-3.002000	3.827200	-11.489000	22.671577	0.000490	20.695406
240.067152	-2.991200	3.826800	-11.445000	22.704035	0.000491	20.710376
241.071908	-2.989200	3.828100	-11.442000	22.729466	0.000490	20.705029
242.070223	-3.003500	3.825700	-11.490000	22.743683	0.000492	20.689397
243.066934	-3.007900	3.826100	-11.507000	22.753852	0.000494	20.705274
244.067548	-2.988400	3.826200	-11.433000	22.746850	0.000490	20.695889
245.062896	-2.998000	3.824600	-11.465000	22.748572	0.000492	20.699036
246.068842	-2.990400	3.826100	-11.440000	22.758431	0.000492	20.706068
247.065782	-3.005000	3.825900	-11.496000	22.757280	0.000494	20.701122
248.074589	-2.999500	3.824800	-11.471000	22.764152	0.000495	20.719386
249.065653	-2.998700	3.825000	-11.469000	22.794347	0.000493	20.727349
250.062583	-3.012400	3.824000	-11.518000	22.791483	0.000495	20.694131
251.067947	-2.999500	3.825200	-11.472000	22.804605	0.000495	20.722452
252.069876	-2.979000	3.823900	-11.390000	22.831959	0.000497	20.719509
253.068758	-3.010100	3.824600	-11.511000	22.835591	0.000495	20.713663
254.063414	-2.994900	3.823700	-11.450000	22.828141	0.000496	20.691499
255.064595	-2.997700	3.824400	-11.463000	22.852206	0.000496	20.727938
256.073621	-2.986900	3.823500	-11.420000	22.838227	0.000498	20.705398
257.067537	-2.985700	3.823400	-11.414000	22.848321	0.000496	20.710769
258.064421	-2.978200	3.823400	-11.386000	22.861492	0.000497	20.705472
259.065293	-2.996000	3.823600	-11.455000	22.848909	0.000498	20.702823
260.067420	-2.965300	3.823000	-11.336000	22.856996	0.000497	20.691483
261.076153	-3.007000	3.821700	-11.490000	22.865908	0.000497	20.723173
262.083206	-2.986800	3.821900	-11.415000	22.872093	0.000498	20.729369
263.078169	-3.006100	3.822900	-11.492000	22.874876	0.000499	20.704655
264.080477	-2.991000	3.822600	-11.433000	22.895651	0.000499	20.723099
265.069136	-2.992800	3.822100	-11.438000	22.915546	0.000497	20.727383
266.071294	-2.993900	3.821600	-11.441000	22.910960	0.000499	20.704295
267.072921	-2.989500	3.822000	-11.425000	22.894542	0.000498	20.712504
268.072282	-3.005500	3.820700	-11.482000	22.919944	0.000499	20.718513
269.075256	-2.995700	3.820300	-11.444000	22.930136	0.000501	20.710705
270.077033	-2.971700	3.823200	-11.360000	22.964374	0.000500	20.720353
271.079274	-3.010700	3.818900	-11.497000	22.958948	0.000501	20.727719
272.078998	-2.996700	3.819800	-11.445000	22.979069	0.000502	20.724645
273.084650	-2.998300	3.819400	-11.451000	22.986764	0.000502	20.724294
274.074427	-2.980300	3.818600	-11.380000	22.991545	0.000503	20.730981
275.075130	-3.006600	3.820000	-11.484000	23.026883	0.000501	20.723713
276.070312	-3.008000	3.819300	-11.487000	23.004992	0.000504	20.736394
277.073944	-3.003000	3.818900	-11.467000	23.013853	0.000503	20.723460
278.075595	-3.016000	3.818300	-11.514000	23.043046	0.000500	20.727106
279.070369	-3.010400	3.818900	-11.495000	23.068918	0.000503	20.707510
280.072588	-2.989600	3.818600	-11.415000	23.036070	0.000503	20.723436
281.071985	-2.999000	3.818300	-11.450000	23.033598	0.000502	20.720485
282.073490	-2.989000	3.817500	-11.410000	23.051679	0.000502	20.742395
283.073962	-3.017200	3.817000	-11.516000	23.040844	0.000505	20.730590
284.074465	-3.024800	3.816900	-11.545000	23.075869	0.000504	20.704517
285.071576	-2.978400	3.817400	-11.369000	23.072892	0.000505	20.730933
286.072405	-3.014300	3.816000	-11.502000	23.051597	0.000504	20.742313
287.075354	-3.014100	3.816300	-11.502000	23.101161	0.000505	20.764003
288.076592	-2.972200	3.818200	-11.347000	23.111189	0.000505	20.746074
289.073901	-3.007000	3.816500	-11.476000	23.110054	0.000507	20.757266
290.072723	-3.043600	3.815000	-11.610000	23.119486	0.000506	20.740638
291.075861	-2.989300	3.815500	-11.405000	23.116214	0.000505	20.759172
292.081001	-2.988900	3.816000	-11.405000	23.134024	0.000507	20.731972
293.074640	-2.979000	3.815800	-11.365000	23.146726	0.000508	20.743279
294.078569	-3.026900	3.813500	-11.542000	23.127448	0.000507	20.720166
295.077022	-3.006100	3.814900	-11.467000	23.150683	0.000509	20.752934
296.074766	-3.025200	3.813300	-11.535000	23.151703	0.000509	20.735937
297.081786	-3.025900	3.814000	-11.539000	23.132303	0.000507	20.714599
298.079575	-3.039300	3.811700	-11.583000	23.146294	0.000510	20.725301
299.076860	-2.996900	3.812700	-11.425000	23.145976	0.000507	20.735888
300.081694	-3.002600	3.814200	-11.452000	23.177548	0.000509	20.722955
301.075653	-2.990800	3.813600	-11.404000	23.207087	0.000510	20.733117
302.081369	-2.993100	3.812900	-11.411000	23.228126	0.000508	20.752305
303.083388	-3.017400	3.811500	-11.499000	23.201434	0.000509	20.736935
304.083436	-3.006600	3.812900	-11.462000	23.186987	0.000511	20.748536
305.077445	-3.007900	3.812900	-11.468000	23.216053	0.000511	20.757275
306.077838	-2.975500	3.813400	-11.345000	23.208524	0.000511	20.729340
307.078157	-2.999000	3.811900	-11.430000	23.228167	0.000512	20.742388
308.077866	-3.009400	3.811400	-11.469000	23.215817	0.000512	20.737123
309.082952	-2.984500	3.811800	-11.375000	23.203278	0.000512	20.752533
310.079680	-3.033900	3.811100	-11.561000	23.206280	0.000512	20.737049
311.079149	-3.010600	3.810800	-11.471000	23.207512	0.000513	20.758673
312.079946	-3.018500	3.809900	-11.499000	23.218337	0.000513	20.760513
313.081250	-2.980800	3.811200	-11.360000	23.246081	0.000511	20.757496
314.079783	-2.994900	3.811100	-11.414000	23.248520	0.000513	20.745715
315.080316	-2.997600	3.811500	-11.424000	23.256906	0.000513	20.738472
316.082466	-3.020000	3.809900	-11.505000	23.278074	0.000515	20.730762
317.089702	-3.009900	3.810300	-11.468000	23.255658	0.000516	20.737221
318.084952	-2.989300	3.811100	-11.392000	23.295808	0.000515	20.760390
319.083079	-3.015700	3.809000	-11.485000	23.321372	0.000513	20.756139
320.084859	-2.995300	3.810800	-11.413000	23.341674	0.000514	20.763685
321.085676	-2.976600	3.810300	-11.341000	23.350182	0.000515	20.745658
322.086298	-2.982500	3.809400	-11.360000	23.340541	0.000515	20.746901
323.084262	-2.990000	3.808700	-11.388000	23.341659	0.000517	20.740435
324.083477	-2.982300	3.808200	-11.356000	23.327245	0.000517	20.757758
325.083257	-2.974500	3.808100	-11.327000	23.352849	0.000514	20.765402
326.088527	-3.009700	3.808300	-11.461000	23.352189	0.000516	20.757627
327.082012	-2.990200	3.808300	-11.386000	23.389016	0.000518	20.762296
328.095968	-3.008500	3.807700	-11.455000	23.392229	0.000516	20.753188
329.084114	-3.029900	3.806100	-11.531000	23.383910	0.000514	20.768084
330.085382	-3.010900	3.805900	-11.459000	23.377654	0.000517	20.760865
331.090298	-2.990500	3.806600	-11.383000	23.354457	0.000520	20.763693
332.089749	-2.989400	3.807400	-11.381000	23.359677	0.000517	20.743795
333.088339	-2.989300	3.807600	-11.381000	23.386023	0.000517	20.779684
334.085464	-3.010400	3.806700	-11.459000	23.376831	0.000518	20.772368
335.087008	-2.995800	3.806000	-11.401000	23.401414	0.000518	20.759075
336.090062	-3.012500	3.805100	-11.462000	23.402197	0.000518	20.765076
337.092654	-3.001800	3.805500	-11.422000	23.411519	0.000521	20.755927
338.086687	-2.988200	3.805100	-11.370000	23.424937	0.000521	20.769850
339.089240	-2.970400	3.807100	-11.308000	23.452814	0.000518	20.754644
340.092704	-2.973300	3.804400	-11.311000	23.443826	0.000518	20.760808
341.089124	-2.998700	3.805400	-11.410000	23.453238	0.000520	20.777355
342.093738	-3.012300	3.803200	-11.455000	23.432172	0.000519	20.771886
343.089724	-3.001700	3.803500	-11.415000	23.430304	0.000520	20.782816
344.089065	-2.995000	3.803700	-11.391000	23.434284	0.000518	20.777323
345.089229	-2.988600	3.802800	-11.364000	23.455351	0.000521	20.782792
346.089843	-2.987500	3.803900	-11.363000	23.461452	0.000523	20.761879
347.087850	-2.975900	3.802100	-11.314000	23.456941	0.000521	20.793395
348.091370	-3.020400	3.801600	-11.482000	23.477184	0.000523	20.777175
349.090941	-2.992600	3.801800	-11.376000	23.477682	0.000519	20.767717
350.088776	-2.995000	3.802300	-11.387000	23.468515	0.000523	20.769908
351.090330	-2.997400	3.801500	-11.394000	23.490095	0.000524	20.781108
352.092165	-3.009200	3.802200	-11.441000	23.501921	0.000522	20.792962
353.090319	-3.011700	3.802000	-11.449000	23.491188	0.000523	20.765134
354.093657	-3.004100	3.800500	-11.416000	23.556097	0.000522	20.769981
355.091645	-2.994700	3.800400	-11.378000	23.560998	0.000523	20.769205
356.092863	-2.992900	3.800900	-11.375000	23.548399	0.000522	20.784550
357.089954	-3.001600	3.799700	-11.404000	23.555641	0.000522	20.765257
358.090034	-2.991000	3.801100	-11.369000	23.592167	0.000527	20.779587
359.092381	-3.008800	3.800800	-11.435000	23.592363	0.000525	20.779784
360.091019	-3.014700	3.800000	-11.454000	23.568664	0.000524	20.786847
361.088778	-3.008800	3.800000	-11.432000	23.568811	0.000527	20.771821
362.094846	-3.005800	3.800000	-11.421000	23.551906	0.000524	20.790910
363.090270	-2.993700	3.798700	-11.372000	23.553072	0.000525	20.782596
364.094266	-2.989600	3.799000	-11.357000	23.553545	0.000524	20.767423
365.090782	-2.998800	3.798800	-11.391000	23.567735	0.000525	20.777381
366.094102	-3.016600	3.798100	-11.456000	23.578459	0.000524	20.798563
367.092568	-3.017800	3.797400	-11.459000	23.576192	0.000524	20.791074
368.093920	-3.005300	3.797800	-11.412000	23.587389	0.000526	20.783333
369.099206	-3.003300	3.796300	-11.400000	23.574430	0.000527	20.779351
370.091221	-3.004800	3.796500	-11.407000	23.610899	0.000527	20.781297
371.093947	-2.990700	3.797900	-11.358000	23.609872	0.000527	20.779793
372.092176	-3.009100	3.796600	-11.423000	23.653883	0.000525	20.796887
373.095390	-2.993100	3.797000	-11.364000	23.653459	0.000528	20.789349
374.094717	-2.997400	3.796900	-11.379000	23.660374	0.000529	20.794860
375.095373	-2.969600	3.796500	-11.272000	23.653402	0.000525	20.795931
376.093458	-3.013600	3.795300	-11.437000	23.625179	0.000528	20.802724
377.099163	-2.992600	3.796900	-11.362000	23.657144	0.000528	20.787829
378.099256	-3.001100	3.795500	-11.390000	23.645981	0.000528	20.809354
379.097169	-2.981800	3.797100	-11.322000	23.648427	0.000529	20.796159
380.097987	-3.001300	3.795300	-11.389000	23.693725	0.000528	20.801743
381.100936	-2.992300	3.794100	-11.352000	23.656533	0.000528	20.817088
382.101093	-2.990400	3.794300	-11.345000	23.659445	0.000531	20.816687
383.099175	-3.009000	3.793600	-11.414000	23.686199	0.000531	20.787560
384.105878	-3.001100	3.793900	-11.385000	23.726276	0.000530	20.800239
385.101624	-2.976200	3.794500	-11.292000	23.721670	0.000529	20.793724
386.100853	-2.992100	3.792500	-11.347000	23.704661	0.000529	20.819819
387.101274	-3.019100	3.792700	-11.449000	23.741606	0.000531	20.800910
388.100296	-3.009100	3.793400	-11.414000	23.751456	0.000531	20.796087
389.108446	-3.017100	3.791900	-11.440000	23.740130	0.000530	20.805120
390.101289	-2.982400	3.793200	-11.312000	23.730745	0.000530	20.796659
391.101246	-2.977900	3.792100	-11.292000	23.743514	0.000529	20.790021
392.101704	-3.023500	3.790100	-11.459000	23.759985	0.000531	20.806061
393.101767	-3.004500	3.790100	-11.387000	23.746214	0.000530	20.810271
394.101584	-3.001400	3.791100	-11.376000	23.760198	0.000530	20.819550
395.100437	-2.995000	3.791100	-11.353000	23.752786	0.000533	20.817809
396.099468	-2.994500	3.791500	-11.352000	23.766370	0.000532	20.821471
397.100691	-2.989800	3.790900	-11.333000	23.765750	0.000532	20.825117
398.101653	-3.012400	3.789700	-11.415000	23.789885	0.000530	20.800952
399.101346	-3.009400	3.789200	-11.402000	23.771369	0.000533	20.823638
400.105085	-2.996600	3.790000	-11.356000	23.783142	0.000530	20.835916
401.101602	-2.986300	3.790400	-11.318000	23.780476	0.000533	20.811907
402.102372	-3.016700	3.789000	-11.429000	23.758617	0.000532	20.822232
403.104829	-3.015900	3.789100	-11.426000	23.766909	0.000532	20.808261
404.103454	-3.019100	3.788400	-11.436000	23.774948	0.000533	20.811106
405.105097	-2.983800	3.789100	-11.306000	23.814892	0.000533	20.800896
406.111402	-2.992800	3.788500	-11.338000	23.812528	0.000532	20.823181
407.105546	-3.011600	3.787000	-11.404000	23.859277	0.000534	20.822166
408.109191	-2.985800	3.788100	-11.309000	23.860884	0.000533	20.825200
409.107555	-3.005700	3.787900	-11.384000	23.859360	0.000533	20.819404
410.106602	-3.009700	3.787400	-11.398000	23.862596	0.000536	20.819805
411.106269	-2.986300	3.786400	-11.306000	23.859710	0.000533	20.815488
412.106739	-2.988800	3.787200	-11.318000	23.824090	0.000535	20.806799
413.108118	-3.006700	3.785300	-11.381000	23.810824	0.000535	20.823369
414.109179	-3.003400	3.785400	-11.368000	23.842980	0.000536	20.824792
415.109284	-3.006500	3.786600	-11.383000	23.867342	0.000537	20.817451
416.111485	-3.016200	3.786700	-11.421000	23.881381	0.000534	20.821097
417.107355	-3.014500	3.786300	-11.413000	23.851566	0.000536	20.812537
418.109664	-3.012300	3.785400	-11.402000	23.846682	0.000534	20.806693
419.106139	-3.009000	3.786500	-11.393000	23.866095	0.000536	20.810036
420.105518	-3.005400	3.785600	-11.377000	23.845435	0.000535	20.825830
421.107931	-3.002100	3.783600	-11.358000	23.855985	0.000536	20.820288
422.107991	-2.995100	3.785000	-11.335000	23.877810	0.000537	20.812301
423.111161	-3.000000	3.783900	-11.351000	23.934447	0.000537	20.797971
424.114467	-3.001600	3.783500	-11.356000	23.962491	0.000537	20.809972
425.108970	-2.995800	3.784500	-11.336000	23.973798	0.000537	20.786697
426.108413	-2.998500	3.784300	-11.346000	23.952961	0.000535	20.795673
427.109300	-3.019400	3.782400	-11.419000	23.936860	0.000537	20.800390
428.109275	-3.001200	3.782700	-11.351000	23.963111	0.000535	20.810593
429.111520	-2.993200	3.783100	-11.323000	23.945885	0.000537	20.790000
430.109042	-3.004600	3.781200	-11.360000	23.930583	0.000538	20.786984
431.109039	-3.012100	3.782300	-11.392000	23.938793	0.000537	20.779569
432.116460	-2.998100	3.782700	-11.340000	23.947622	0.000537	20.788897
433.112047	-2.983500	3.781300	-11.280000	23.956655	0.000539	20.784679
434.116484	-3.009000	3.779800	-11.372000	23.932067	0.000538	20.810757
435.108580	-2.988600	3.781500	-11.300000	23.926516	0.000539	20.784327
436.110059	-3.022500	3.779900	-11.423000	23.943538	0.000540	20.786224
437.109376	-2.994900	3.781600	-11.325000	23.972797	0.000539	20.797547
438.109043	-3.011700	3.780000	-11.383000	23.992077	0.000540	20.778000
439.111149	-3.003700	3.781300	-11.357000	23.974656	0.000539	20.805575
440.111308	-3.023300	3.778300	-11.423000	24.002699	0.000539	20.781066
441.114316	-2.991900	3.779000	-11.305000	24.007476	0.000538	20.783960
442.107746	-3.008900	3.778500	-11.369000	24.013110	0.000541	20.784869
443.113191	-3.018300	3.778600	-11.404000	24.030652	0.000538	20.783021
444.116537	-2.993500	3.779000	-11.311000	24.033562	0.000541	20.767922
445.111483	-2.997400	3.778900	-11.326000	24.041347	0.000541	20.779523
446.113213	-3.014500	3.777900	-11.388000	24.023920	0.000537	20.779588
447.109872	-2.996400	3.777300	-11.317000	24.080304	0.000539	20.773547
448.112295	-3.013700	3.777200	-11.383000	24.078388	0.000540	20.783006
449.111166	-3.010700	3.776900	-11.370000	24.077810	0.000541	20.789538
450.114342	-3.001000	3.777100	-11.334000	24.100300	0.000539	20.765152
451.112416	-2.994200	3.778200	-11.312000	24.077533	0.000542	20.775036
452.112451	-3.004800	3.777000	-11.348000	24.060954	0.000541	20.760304
453.115532	-3.002500	3.776500	-11.337000	24.064834	0.000541	20.781266
454.111530	-2.997700	3.777100	-11.320000	24.086410	0.000541	20.774930
455.113539	-3.024700	3.775800	-11.419000	24.121338	0.000540	20.762545
456.114700	-3.017600	3.775700	-11.392000	24.085807	0.000540	20.780963
457.111942	-3.002100	3.776000	-11.335000	24.083835	0.000539	20.779934
458.114373	-3.007100	3.774000	-11.348000	24.085694	0.000540	20.771366
459.115166	-3.010800	3.773400	-11.359000	24.072814	0.000541	20.746120
460.116161	-2.990900	3.775800	-11.292000	24.067859	0.000539	20.762488
461.115976	-3.000200	3.774200	-11.322000	24.079426	0.000540	20.764605
462.113621	-2.994200	3.774800	-11.301000	24.096494	0.000538	20.751852
463.116606	-2.983500	3.774300	-11.260000	24.107067	0.000540	20.756291
464.117786	-2.993700	3.774600	-11.299000	24.135473	0.000540	20.766764
465.116201	-2.993300	3.773100	-11.294000	24.132669	0.000540	20.774383
466.122808	-3.017200	3.772800	-11.383000	24.145409	0.000540	20.760134
467.114892	-3.014200	3.773000	-11.371000	24.181851	0.000540	20.767762
468.117587	-2.996200	3.773000	-11.304000	24.173798	0.000542	20.743088
469.116099	-2.991000	3.772600	-11.283000	24.140128	0.000542	20.780916
470.116025	-3.001400	3.771800	-11.320000	24.121820	0.000541	20.749277
471.118192	-2.997900	3.772000	-11.308000	24.127583	0.000543	20.758851
472.117894	-3.005800	3.770300	-11.332000	24.162094	0.000542	20.736565
473.116909	-3.011900	3.771200	-11.358000	24.162844	0.000543	20.769560
474.117536	-3.006100	3.771300	-11.336000	24.116514	0.000541	20.760077
475.123155	-2.974100	3.771400	-11.216000	24.115260	0.000540	20.765931
476.123281	-3.002000	3.769700	-11.315000	24.146780	0.000542	20.735903
477.117484	-3.007500	3.771400	-11.341000	24.147929	0.000541	20.751281
478.125346	-2.989400	3.769300	-11.267000	24.154645	0.000542	20.752802
479.123048	-2.966600	3.770100	-11.183000	24.178853	0.000543	20.757168
480.122293	-3.004300	3.768500	-11.321000	24.203035	0.000540	20.752499
481.124928	-2.984500	3.768700	-11.247000	24.194004	0.000542	20.744389
482.120436	-3.003400	3.768300	-11.317000	24.197811	0.000541	20.755794
483.121614	-2.995000	3.769500	-11.289000	24.173978	0.000541	20.738053
484.128990	-2.989700	3.767900	-11.264000	24.169366	0.000541	20.748600
485.128729	-3.004600	3.768900	-11.323000	24.168306	0.000542	20.745640
486.127079	-3.017800	3.768000	-11.370000	24.163791	0.000541	20.730680
487.121669	-2.997600	3.768000	-11.294000	24.179937	0.000544	20.748772
488.122526	-2.992200	3.767600	-11.272000	24.207307	0.000542	20.760577
489.122339	-3.020300	3.766100	-11.374000	24.196165	0.000542	20.743237
490.122930	-2.981800	3.767400	-11.233000	24.174769	0.000544	20.742640
491.123901	-2.988500	3.766100	-11.254000	24.210640	0.000543	20.754912
492.122502	-2.991900	3.766500	-11.268000	24.218000	0.000543	20.740482
493.126405	-2.991400	3.767000	-11.268000	24.254259	0.000542	20.748878
494.125117	-3.025000	3.767300	-11.395000	24.259557	0.000543	20.755140
495.130315	-3.007500	3.766000	-11.325000	24.232319	0.000542	20.729714
496.135146	-3.012100	3.765800	-11.342000	24.228008	0.000543	20.741986
497.131804	-2.995600	3.766500	-11.282000	24.256420	0.000542	20.742510
498.128552	-3.014400	3.765000	-11.349000	24.265531	0.000544	20.729837
499.126234	-3.022000	3.763000	-11.371000	24.245075	0.000542	20.728284
500.131517	-2.993300	3.765500	-11.270000	24.224780	0.000541	20.718359
501.128642	-2.999200	3.764000	-11.289000	24.217959	0.000542	20.716258
502.132514	-3.007400	3.762900	-11.316000	24.213313	0.000541	20.733884
503.132621	-3.004400	3.762700	-11.304000	24.233093	0.000542	20.724327
504.130325	-3.002600	3.763200	-11.299000	24.245433	0.000542	20.739549
505.132163	-3.020400	3.761400	-11.360000	24.230176	0.000544	20.751748
506.131193	-3.025000	3.762200	-11.379000	24.240380	0.000542	20.734007
507.130762	-2.993200	3.762600	-11.262000	24.273232	0.000544	20.729501
508.133984	-3.001700	3.761700	-11.290000	24.281260	0.000544	20.752728
509.133648	-3.002800	3.761000	-11.293000	24.321364	0.000541	20.738429
510.136302	-3.011300	3.762100	-11.328000	24.318178	0.000542	20.723378
511.130589	-3.005500	3.761600	-11.305000	24.323923	0.000545	20.744790
512.138162	-3.006600	3.760900	-11.306000	24.339056	0.000544	20.729624
513.135408	-2.992800	3.761800	-11.257000	24.332806	0.000543	20.745166
514.131507	-2.974200	3.761100	-11.186000	24.352683	0.000544	20.735707
515.136745	-2.993800	3.760800	-11.257000	24.322008	0.000541	20.738601
516.134174	-2.988100	3.761700	-11.239000	24.330345	0.000542	20.752180
517.135124	-3.006100	3.760200	-11.303000	24.335772	0.000542	20.737710
518.139165	-2.978000	3.760900	-11.199000	24.340589	0.000542	20.732584
519.137212	-2.994400	3.758900	-11.255000	24.352861	0.000544	20.740154
520.135113	-3.015700	3.758600	-11.334000	24.371368	0.000544	20.744021
521.140026	-2.991400	3.758000	-11.241000	24.349154	0.000543	20.716993
522.138011	-2.997100	3.759700	-11.267000	24.331315	0.000543	20.720909
523.135338	-2.985600	3.759200	-11.222000	24.351835	0.000544	20.731063
524.140018	-2.997800	3.758500	-11.266000	24.342422	0.000543	20.742009
525.135371	-3.010600	3.758100	-11.312000	24.356920	0.000542	20.743277
526.137200	-2.995200	3.758200	-11.256000	24.363463	0.000544	20.724710
527.138469	-3.000200	3.756600	-11.270000	24.396304	0.000545	20.738690
528.136991	-3.015900	3.755100	-11.324000	24.418868	0.000545	20.714384
529.136270	-3.010700	3.757100	-11.311000	24.416554	0.000545	20.710640
530.142518	-2.992700	3.755800	-11.239000	24.447372	0.000543	20.745827
531.136583	-3.011500	3.755600	-11.309000	24.433446	0.000544	20.734226
532.137183	-3.001100	3.756100	-11.272000	24.424165	0.000544	20.714008
533.136567	-3.008200	3.756400	-11.298000	24.425558	0.000544	20.716354
534.136752	-3.006400	3.755500	-11.289000	24.425909	0.000545	20.726190
535.136177	-3.018500	3.755100	-11.335000	24.410613	0.000544	20.727440
536.138627	-2.981500	3.755700	-11.197000	24.369567	0.000542	20.707124
537.138489	-2.996000	3.756000	-11.252000	24.401356	0.000543	20.732853
538.141844	-3.008300	3.755300	-11.296000	24.391935	0.000543	20.721505
539.144022	-3.013800	3.755500	-11.317000	24.412234	0.000543	20.724325
540.146425	-3.002400	3.754500	-11.272000	24.410075	0.000543	20.719313
541.139611	-3.000500	3.754100	-11.263000	24.446288	0.000544	20.712495
542.141496	-2.996600	3.755000	-11.252000	24.440543	0.000544	20.699144
543.140836	-2.989900	3.753600	-11.222000	24.448227	0.000543	20.704957
544.143885	-3.004000	3.753500	-11.275000	24.431735	0.000543	20.721603
545.143597	-2.986700	3.752300	-11.206000	24.486460	0.000544	20.701114
546.141510	-3.015600	3.753000	-11.317000	24.537157	0.000544	20.706935
547.142642	-3.007500	3.752200	-11.284000	24.495447	0.000543	20.713925
548.142677	-2.998400	3.751800	-11.248000	24.479256	0.000544	20.708586
549.145981	-3.017000	3.751600	-11.317000	24.478727	0.000543	20.720384
550.148982	-2.995700	3.751800	-11.238000	24.479680	0.000545	20.724660
551.142928	-2.973900	3.752700	-11.159000	24.499277	0.000543	20.688368
552.145550	-2.997700	3.751400	-11.245000	24.503138	0.000544	20.709788
553.144680	-3.000200	3.751100	-11.253000	24.489328	0.000545	20.719640
554.142444	-3.018100	3.750800	-11.318000	24.553631	0.000544	20.713982
555.146978	-3.000100	3.750200	-11.251000	24.550389	0.000544	20.699348
556.146908	-3.013900	3.748600	-11.297000	24.565267	0.000543	20.689145
557.142301	-3.004300	3.750400	-11.266000	24.527257	0.000543	20.691786
558.144568	-2.992300	3.748900	-11.217000	24.501167	0.000543	20.731045
559.145526	-2.983800	3.750400	-11.190000	24.479102	0.000543	20.711751
560.153341	-2.996100	3.750000	-11.235000	24.482581	0.000543	20.707655
561.146798	-2.996900	3.749900	-11.237000	24.501689	0.000544	20.708807
562.149312	-2.981300	3.749600	-11.177000	24.493956	0.000543	20.697255
563.145781	-3.004100	3.747800	-11.258000	24.544319	0.000544	20.717915
564.148481	-2.988500	3.748900	-11.203000	24.517879	0.000545	20.715095
565.149499	-2.995400	3.747600	-11.225000	24.488904	0.000545	20.717318
566.148159	-2.988200	3.748000	-11.199000	24.496417	0.000544	20.697353
567.146371	-2.990400	3.748200	-11.208000	24.545183	0.000542	20.693176
568.146986	-2.991300	3.747200	-11.208000	24.548516	0.000543	20.707900
569.150233	-3.017400	3.745900	-11.301000	24.543447	0.000544	20.710402
570.146137	-3.013700	3.745700	-11.287000	24.515834	0.000544	20.711620
571.149117	-3.012600	3.744900	-11.281000	24.542649	0.000543	20.698694
572.149359	-3.019000	3.744700	-11.304000	24.555254	0.000543	20.703281
573.152208	-2.986400	3.746500	-11.187000	24.584007	0.000545	20.711743
574.148265	-2.994200	3.745300	-11.213000	24.550333	0.000543	20.724897
575.155125	-2.992000	3.744500	-11.203000	24.519248	0.000541	20.690388
576.151762	-2.993100	3.744900	-11.208000	24.534770	0.000544	20.694582
577.146641	-3.022000	3.744000	-11.313000	24.575232	0.000543	20.690609
578.153299	-3.006900	3.744900	-11.259000	24.585905	0.000543	20.695154
579.156012	-2.995600	3.743500	-11.213000	24.562171	0.000541	20.699316
580.151606	-2.973600	3.745200	-11.136000	24.537867	0.000542	20.688205
581.152621	-3.014600	3.743600	-11.284000	24.512330	0.000542	20.690559
582.155445	-2.996600	3.744100	-11.219000	24.548425	0.000542	20.703068
583.151587	-3.010200	3.742500	-11.265000	24.574857	0.000544	20.696871
584.155008	-3.009000	3.742000	-11.259000	24.548792	0.000543	20.686365
585.151393	-3.013900	3.743300	-11.281000	24.563743	0.000542	20.692832
586.152924	-2.996700	3.742800	-11.215000	24.536131	0.000541	20.697370
587.151525	-2.997100	3.742900	-11.217000	24.551978	0.000542	20.685294
588.154953	-3.007200	3.742000	-11.252000	24.563124	0.000540	20.672768
589.156063	-3.009300	3.742400	-11.261000	24.611048	0.000542	20.673439
590.152864	-3.019100	3.741200	-11.294000	24.623097	0.000543	20.681263
591.152290	-2.986500	3.741500	-11.173000	24.612522	0.000541	20.684403
592.155212	-2.997200	3.741200	-11.212000	24.581008	0.000541	20.677911
593.158894	-2.985000	3.740300	-11.164000	24.582149	0.000541	20.690911
594.152635	-3.007600	3.740600	-11.249000	24.560492	0.000543	20.677240
595.160741	-3.002300	3.739900	-11.227000	24.589791	0.000544	20.686250
596.152640	-3.006000	3.738400	-11.236000	24.608742	0.000541	20.682506
597.152041	-2.979300	3.740000	-11.142000	24.603691	0.000543	20.667479
598.158173	-3.009100	3.740000	-11.253000	24.631400	0.000543	20.668729
599.156985	-3.019600	3.738200	-11.287000	24.664648	0.000543	20.691189
600.156685	-3.007200	3.739400	-11.244000	24.676787	0.000544	20.667331
601.157370	-3.009700	3.737300	-11.247000	24.680665	0.000542	20.681656
602.159222	-2.994700	3.738800	-11.195000	24.665170	0.000539	20.690289
603.158406	-2.995000	3.738300	-11.196000	24.655156	0.000542	20.690199
604.161043	-3.008400	3.737900	-11.244000	24.656289	0.000539	20.673791
605.164862	-3.001000	3.738200	-11.217000	24.681186	0.000543	20.685972
606.159953	-2.999700	3.738000	-11.211000	24.683622	0.000542	20.667552
607.161901	-3.001400	3.738000	-11.218000	24.696103	0.000542	20.677707
608.156651	-3.012500	3.736400	-11.254000	24.694238	0.000542	20.678206
609.161471	-3.002000	3.737300	-11.218000	24.710898	0.000543	20.678328
610.162762	-3.010800	3.735900	-11.247000	24.701211	0.000541	20.669555
611.161253	-2.992900	3.735200	-11.178000	24.671214	0.000543	20.675017
612.157484	-2.987600	3.736700	-11.163000	24.642562	0.000541	20.680405
613.163641	-3.018400	3.735800	-11.275000	24.639792	0.000539	20.690429
614.159038	-2.997300	3.735200	-11.195000	24.597295	0.000540	20.687142
615.160894	-3.007300	3.734400	-11.229000	24.634325	0.000540	20.662181
616.165337	-3.023800	3.733400	-11.287000	24.630276	0.000538	20.671395
617.159956	-2.999300	3.734000	-11.198000	24.621566	0.000540	20.685891
618.163195	-3.024500	3.734400	-11.294000	24.654000	0.000541	20.673864
619.162086	-2.997400	3.733900	-11.191000	24.668494	0.000540	20.684616
620.164980	-2.992000	3.735400	-11.176000	24.721668	0.000540	20.691508
621.167340	-2.991800	3.733300	-11.168000	24.644973	0.000539	20.674764
622.169826	-2.983800	3.733500	-11.138000	24.655711	0.000540	20.677952
623.162829	-2.975700	3.734400	-11.110000	24.653951	0.000540	20.679506
624.167204	-2.991100	3.731600	-11.161000	24.670433	0.000539	20.689881
625.167494	-2.980300	3.732500	-11.123000	24.697594	0.000539	20.703387
626.168185	-3.013900	3.731300	-11.245000	24.696454	0.000540	20.681378
627.168333	-3.000800	3.732100	-11.199000	24.694042	0.000539	20.677061
628.166073	-3.024100	3.732400	-11.286000	24.711231	0.000539	20.661592
629.173624	-3.003600	3.732100	-11.209000	24.750717	0.000540	20.650481
630.169648	-3.006200	3.730500	-11.214000	24.766904	0.000539	20.667201
631.169898	-3.004700	3.730900	-11.208000	24.766155	0.000539	20.668820
632.179212	-2.987000	3.731400	-11.144000	24.785950	0.000540	20.666874
633.179962	-3.011100	3.730600	-11.232000	24.782961	0.000540	20.682368
634.167485	-2.995200	3.730800	-11.174000	24.762913	0.000537	20.651814
635.171234	-2.974100	3.731200	-11.096000	24.816611	0.000537	20.673464
636.171278	-3.012900	3.728900	-11.234000	24.785698	0.000537	20.672785
637.171887	-2.996800	3.729200	-11.175000	24.795245	0.000536	20.660080
638.177784	-2.996500	3.728400	-11.171000	24.782863	0.000539	20.686063
639.171171	-3.015100	3.728400	-11.241000	24.823145	0.000538	20.675279
640.169454	-3.027300	3.727400	-11.283000	24.838736	0.000541	20.673857
641.175478	-3.009200	3.726800	-11.214000	24.836723	0.000539	20.682744
642.177169	-3.024900	3.727300	-11.274000	24.812222	0.000537	20.681387
643.169214	-3.000700	3.729100	-11.189000	24.804288	0.000538	20.662991
644.173539	-3.021000	3.727000	-11.259000	24.790985	0.000539	20.679989
645.172801	-2.995800	3.728000	-11.167000	24.790309	0.000538	20.670775
646.170306	-2.991700	3.726900	-11.149000	24.781430	0.000537	20.672296
647.172965	-2.983500	3.727700	-11.120000	24.759346	0.000536	20.691387
648.174487	-3.002200	3.726900	-11.188000	24.756430	0.000537	20.672811
649.173590	-2.999100	3.725500	-11.172000	24.759346	0.000536	20.665305
650.170382	-2.979200	3.727100	-11.103000	24.735388	0.000537	20.657384
651.172251	-3.002500	3.726700	-11.189000	24.718777	0.000536	20.659207
652.174148	-2.988100	3.726700	-11.135000	24.693034	0.000536	20.697863
653.172729	-3.017600	3.724700	-11.239000	24.724961	0.000536	20.677268
654.174193	-3.002900	3.724800	-11.185000	24.774523	0.000535	20.699506
655.178164	-2.984300	3.725600	-11.118000	24.775542	0.000535	20.653582
656.172887	-3.019000	3.723900	-11.241000	24.756023	0.000536	20.694216
657.175213	-2.985300	3.724800	-11.119000	24.732293	0.000536	20.667555
658.180948	-2.995400	3.724100	-11.154000	24.757433	0.000534	20.653427
659.176945	-2.991200	3.724700	-11.141000	24.772601	0.000534	20.678135
660.177944	-2.988800	3.723200	-11.127000	24.781228	0.000536	20.683000
661.182362	-3.006200	3.723100	-11.192000	24.787346	0.000534	20.675388
662.177950	-3.005000	3.723100	-11.187000	24.800233	0.000536	20.685951
663.174104	-2.966900	3.724900	-11.051000	24.829265	0.000534	20.698019
664.176455	-2.972500	3.723500	-11.067000	24.848342	0.000535	20.683973
665.178942	-2.959000	3.724000	-11.018000	24.858638	0.000536	20.676762
666.179475	-3.003200	3.722500	-11.178000	24.873381	0.000535	20.661685
667.185657	-2.997100	3.723200	-11.157000	24.876216	0.000534	20.687292
668.181840	-3.023700	3.721600	-11.252000	24.898192	0.000534	20.675209
669.180427	-3.012400	3.721700	-11.210000	24.877388	0.000535	20.678037
670.185386	-3.012700	3.721200	-11.210000	24.885664	0.000533	20.686818
671.187165	-2.990700	3.722400	-11.132000	24.899658	0.000534	20.670990
672.177881	-2.985400	3.721600	-11.110000	24.883270	0.000533	20.674457
673.188047	-3.002600	3.722700	-11.176000	24.845084	0.000532	20.675960
674.180545	-2.994700	3.720500	-11.141000	24.833990	0.000536	20.693751
675.182402	-3.006900	3.721000	-11.188000	24.835593	0.000534	20.690145
676.180790	-3.009900	3.721100	-11.199000	24.793113	0.000533	20.677383
677.180928	-3.005300	3.719800	-11.178000	24.790083	0.000533	20.693309
678.183753	-2.995900	3.721200	-11.147000	24.788820	0.000532	20.695361
679.183973	-2.977500	3.721000	-11.078000	24.834568	0.000534	20.687219
680.187086	-3.007100	3.720100	-11.186000	24.853407	0.000533	20.668192
681.182004	-2.989000	3.719900	-11.117000	24.883114	0.000535	20.680939
682.186765	-3.022400	3.717600	-11.235000	24.881469	0.000533	20.691143
683.185378	-3.022200	3.718500	-11.237000	24.873022	0.000533	20.701632
684.187804	-3.016100	3.718300	-11.213000	24.876875	0.000532	20.694592
685.188997	-3.015700	3.718800	-11.214000	24.905025	0.000532	20.679222
686.186949	-3.003900	3.716900	-11.164000	24.909773	0.000533	20.696791
687.186140	-2.989400	3.716900	-11.110000	24.904136	0.000531	20.680701
688.186848	-2.987200	3.718800	-11.108000	24.892350	0.000531	20.697797
689.188630	-2.988100	3.717300	-11.106000	24.907517	0.000532	20.692630
690.183803	-3.005500	3.716300	-11.168000	24.874724	0.000532	20.691485
691.185272	-3.005300	3.717100	-11.170000	24.860176	0.000533	20.702015
692.191797	-3.007200	3.716300	-11.174000	24.869967	0.000532	20.708049
693.192849	-2.997000	3.717000	-11.139000	24.883252	0.000532	20.700519
694.183981	-3.004600	3.715200	-11.160000	24.871319	0.000531	20.689016
695.193268	-3.006000	3.715700	-11.168000	24.896862	0.000530	20.680512
696.187794	-2.997000	3.716400	-11.137000	24.911695	0.000531	20.701091
697.190226	-3.011000	3.713900	-11.181000	24.889996	0.000531	20.693062
698.191082	-3.008700	3.714500	-11.175000	24.927716	0.000529	20.688721
699.189695	-3.016200	3.715100	-11.205000	24.986692	0.000529	20.690070
700.190090	-3.006400	3.715100	-11.168000	24.987018	0.000530	20.679490
701.185982	-2.996900	3.714500	-11.131000	24.966453	0.000530	20.693937
702.187579	-3.001200	3.712900	-11.142000	24.959839	0.000529	20.705318
703.190927	-2.985900	3.714800	-11.091000	24.916630	0.000531	20.697035
704.188565	-2.991400	3.714500	-11.111000	24.929931	0.000530	20.705170
705.188320	-3.007700	3.712800	-11.166000	24.918243	0.000530	20.696758
706.188658	-3.010200	3.713300	-11.177000	24.924669	0.000531	20.697043
707.188139	-2.993300	3.713800	-11.115000	24.914944	0.000529	20.693920
708.189244	-2.988600	3.713600	-11.098000	24.915367	0.000530	20.678223
709.191834	-3.014300	3.711400	-11.186000	24.932773	0.000529	20.699962
710.189068	-2.987800	3.713200	-11.093000	24.943362	0.000529	20.709168
711.190697	-3.009200	3.711300	-11.166000	24.919815	0.000529	20.677945
712.192165	-2.994200	3.713200	-11.117000	24.917184	0.000529	20.694746
713.193850	-3.007100	3.710800	-11.158000	24.948509	0.000528	20.673554
714.195560	-3.012700	3.710800	-11.178000	24.926306	0.000527	20.692048
715.194324	-2.999800	3.710500	-11.131000	24.955400	0.000527	20.706552
716.195827	-2.987500	3.710300	-11.083000	24.956915	0.000526	20.708547
717.197829	-2.984700	3.710800	-11.074000	24.930981	0.000528	20.689628
718.195868	-3.000800	3.711000	-11.135000	24.881052	0.000528	20.702104
719.196253	-3.008300	3.708800	-11.156000	24.883470	0.000526	20.709748
720.201061	-2.986500	3.710200	-11.079000	24.910993	0.000526	20.703232
721.204424	-2.990700	3.709200	-11.092000	24.942564	0.000528	20.681812
722.195298	-2.991400	3.709000	-11.094000	24.956670	0.000527	20.700714
723.197030	-2.982300	3.711000	-11.065000	24.956841	0.000524	20.706102
724.197489	-3.003900	3.708600	-11.139000	24.992792	0.000526	20.693348
725.195052	-2.960400	3.709400	-10.980000	25.018048	0.000525	20.705424
726.202120	-2.975100	3.709400	-11.035000	25.004007	0.000527	20.708873
727.204035	-3.005700	3.708500	-11.146000	24.992173	0.000525	20.693675
728.201365	-3.002200	3.707000	-11.128000	25.011207	0.000526	20.714205
729.197932	-2.998200	3.708600	-11.118000	25.046277	0.000524	20.692981
730.199049	-3.007700	3.707700	-11.151000	25.028065	0.000525	20.696038
731.198003	-2.983600	3.707800	-11.061000	25.064885	0.000525	20.708817
732.194754	-2.990700	3.706400	-11.084000	25.034052	0.000525	20.719118
733.210665	-3.017900	3.705300	-11.182000	24.979704	0.000526	20.721939
734.201910	-3.002000	3.706900	-11.127000	24.981464	0.000526	20.714221
735.198188	-2.995000	3.706900	-11.101000	24.964710	0.000525	20.708784
736.197044	-3.002300	3.705100	-11.122000	25.005783	0.000527	20.727253
737.197598	-3.000000	3.705800	-11.116000	25.037302	0.000525	20.694878
738.199746	-3.015500	3.704400	-11.169000	25.012161	0.000522	20.718481
739.205044	-2.993100	3.705300	-11.089000	25.027252	0.000524	20.725095
740.199438	-2.985600	3.705500	-11.062000	25.014547	0.000523	20.711867
741.200915	-3.012300	3.704600	-11.159000	25.035429	0.000525	20.705801
742.200636	-2.971400	3.704600	-11.005000	25.032367	0.000522	20.718850
743.201688	-3.002800	3.702800	-11.118000	25.011965	0.000523	20.702637
744.201384	-3.014300	3.703600	-11.162000	25.009074	0.000524	20.719651
745.201571	-2.969900	3.703100	-10.997000	25.013252	0.000522	20.722896
746.199344	-3.013100	3.703600	-11.159000	25.076516	0.000521	20.721442
747.200310	-3.009400	3.703400	-11.144000	25.055684	0.000522	20.728031
748.201777	-3.005200	3.704400	-11.132000	25.051083	0.000524	20.722464
749.199885	-2.998100	3.703300	-11.102000	25.004970	0.000520	20.715530
750.205912	-3.027000	3.702100	-11.205000	25.039624	0.000520	20.710486
751.214911	-3.006700	3.701500	-11.128000	25.017097	0.000520	20.717746
752.202857	-3.011900	3.701900	-11.149000	25.024711	0.000520	20.715432
753.207486	-3.002700	3.701900	-11.115000	25.058885	0.000520	20.737409
754.203835	-3.006300	3.700800	-11.124000	25.049364	0.000520	20.731171
755.199998	-3.006000	3.702200	-11.128000	25.077314	0.000522	20.713707
756.208430	-2.991900	3.701800	-11.075000	25.060872	0.000520	20.713798
757.201069	-2.977800	3.700700	-11.017000	25.066247	0.000520	20.712081
758.205574	-2.988300	3.702300	-11.062000	25.063038	0.000520	20.731620
759.208206	-2.998900	3.701300	-11.099000	25.025127	0.000522	20.714901
760.205443	-2.994500	3.701500	-11.082000	25.022513	0.000519	20.723658
761.206470	-3.017100	3.699600	-11.161000	25.048680	0.000518	20.721000
762.207048	-2.997600	3.699800	-11.089000	25.047157	0.000517	20.742706
763.207969	-3.026700	3.698100	-11.192000	25.066898	0.000517	20.734073
764.205122	-3.006900	3.699400	-11.123000	25.111966	0.000518	20.717198
765.205884	-3.024800	3.698600	-11.186000	25.110223	0.000518	20.732994
766.205872	-3.002000	3.699500	-11.105000	25.097356	0.000517	20.727663
767.205342	-3.001100	3.699100	-11.100000	25.074977	0.000517	20.729380
768.211205	-2.986000	3.698100	-11.042000	25.093251	0.000519	20.736819
769.206433	-2.994200	3.698300	-11.073000	25.108968	0.000518	20.726992
770.207145	-2.980700	3.698200	-11.023000	25.130769	0.000518	20.715685
771.207964	-3.018800	3.697800	-11.161000	25.177584	0.000517	20.711000
772.206209	-2.988700	3.697600	-11.050000	25.154466	0.000516	20.710551
773.204359	-3.003400	3.697200	-11.103000	25.141542	0.000516	20.735511
774.208359	-3.019500	3.696300	-11.160000	25.134156	0.000516	20.744692
775.207250	-3.016500	3.697000	-11.151000	25.124294	0.000515	20.715349
776.209242	-3.011700	3.696600	-11.132000	25.087704	0.000517	20.738837
777.210957	-3.010900	3.696200	-11.128000	25.113039	0.000516	20.731079
778.207708	-2.991400	3.697100	-11.059000	25.091189	0.000514	20.739017
779.209613	-2.991700	3.694500	-11.052000	25.098348	0.000516	20.748100
780.205367	-3.003900	3.694900	-11.098000	25.085196	0.000514	20.726361
781.209127	-3.010900	3.694300	-11.123000	25.109765	0.000513	20.738224
782.214794	-3.005300	3.695000	-11.104000	25.109309	0.000515	20.723067
783.207734	-2.997700	3.696000	-11.078000	25.097859	0.000515	20.746186
784.206965	-3.008400	3.693900	-11.112000	25.085610	0.000515	20.732942
785.210037	-3.011400	3.694200	-11.123000	25.095399	0.000513	20.724276
786.206000	-3.017100	3.693300	-11.142000	25.118274	0.000514	20.741551
787.208923	-3.007300	3.693900	-11.108000	25.098094	0.000514	20.731723
788.210136	-2.997200	3.693100	-11.068000	25.138755	0.000513	20.748835
789.208710	-2.999300	3.693600	-11.078000	25.116752	0.000513	20.737177
790.209104	-2.992600	3.693400	-11.052000	25.089991	0.000515	20.760574
791.210176	-3.011000	3.692700	-11.119000	25.041804	0.000512	20.760092
792.216257	-3.019400	3.692600	-11.149000	25.037731	0.000513	20.740357
793.214851	-2.999500	3.692000	-11.073000	25.072808	0.000513	20.735738
794.214387	-3.022200	3.691200	-11.155000	25.050387	0.000512	20.752587
795.216032	-2.989900	3.693100	-11.041000	25.075422	0.000512	20.736465
796.223030	-2.988900	3.692800	-11.036000	25.062970	0.000512	20.715903
797.211515	-3.013000	3.691100	-11.120000	25.080145	0.000512	20.744052
798.215903	-3.012900	3.691400	-11.121000	25.076839	0.000510	20.752587
799.211559	-2.985100	3.691400	-11.018000	25.099585	0.000513	20.762618
800.212309	-3.004200	3.690100	-11.085000	25.083403	0.000512	20.763444
801.216955	-3.003100	3.692200	-11.087000	25.099959	0.000510	20.760623
802.216993	-2.982200	3.690900	-11.006000	25.122834	0.000512	20.749922
803.217084	-3.011200	3.689600	-11.109000	25.153926	0.000512	20.739883
804.216869	-3.000100	3.690600	-11.071000	25.151947	0.000510	20.770139
805.216963	-3.007400	3.689400	-11.094000	25.153706	0.000510	20.768112
806.216653	-2.989700	3.690200	-11.031000	25.121466	0.000509	20.769886
807.216604	-3.025000	3.689100	-11.158000	25.161222	0.000507	20.769019
808.217173	-3.006200	3.688400	-11.087000	25.168478	0.000509	20.757811
809.214900	-3.001800	3.687400	-11.068000	25.196913	0.000508	20.759331
810.216073	-2.986100	3.688300	-11.012000	25.136857	0.000509	20.755464
811.216990	-2.995800	3.688200	-11.048000	25.108826	0.000508	20.748662
812.222404	-2.993900	3.688300	-11.041000	25.138428	0.000507	20.791182
813.218954	-2.996700	3.687700	-11.050000	25.142956	0.000508	20.771545
814.223392	-2.999000	3.687100	-11.057000	25.135732	0.000506	20.759077
815.223211	-3.015600	3.686300	-11.115000	25.128192	0.000506	20.748188
816.215691	-2.994700	3.688000	-11.044000	25.129535	0.000507	20.778461
817.216923	-2.997900	3.686900	-11.052000	25.117165	0.000506	20.785008
818.222956	-3.003700	3.686300	-11.072000	25.115503	0.000506	20.752994
819.218345	-3.010800	3.684900	-11.094000	25.111081	0.000507	20.767047
820.219174	-3.003300	3.685000	-11.065000	25.140072	0.000508	20.778606
821.220894	-2.999400	3.685400	-11.053000	25.147100	0.000508	20.754367
822.217241	-3.000900	3.684800	-11.057000	25.165755	0.000506	20.774044
823.217931	-3.005000	3.684600	-11.071000	25.172571	0.000505	20.779938
824.223142	-3.006900	3.684900	-11.079000	25.196545	0.000505	20.751375
825.220955	-3.012800	3.685600	-11.102000	25.227609	0.000503	20.762173
826.218570	-3.009200	3.684000	-11.085000	25.251044	0.000504	20.789021
827.221673	-3.011900	3.684000	-11.095000	25.244391	0.000505	20.776652
828.226123	-3.013100	3.682300	-11.094000	25.219840	0.000505	20.771918
829.219493	-2.997500	3.682800	-11.038000	25.201918	0.000505	20.783796
830.218422	-3.007300	3.683700	-11.078000	25.198392	0.000504	20.783101
831.223048	-2.983600	3.684000	-10.990000	25.201967	0.000504	20.775311
832.224100	-2.991500	3.683600	-11.018000	25.177716	0.000504	20.772776
833.222179	-2.988500	3.684600	-11.011000	25.133368	0.000504	20.791791
834.225406	-2.989000	3.682900	-11.007000	25.112211	0.000506	20.799002
835.222964	-2.991300	3.681800	-11.012000	25.073732	0.000502	20.769857
836.225585	-2.972900	3.683000	-10.948000	25.126389	0.000504	20.794268
837.225994	-3.006300	3.682200	-11.069000	25.146030	0.000502	20.772260
838.225454	-2.971900	3.682900	-10.945000	25.161169	0.000504	20.779397
839.228528	-3.002300	3.681800	-11.053000	25.145761	0.000504	20.758239
840.227573	-2.997600	3.680600	-11.032000	25.163587	0.000504	20.773764
841.224443	-2.975600	3.682300	-10.956000	25.180825	0.000501	20.780165
842.223422	-2.992200	3.681700	-11.015000	25.205605	0.000503	20.783705
843.226572	-2.974800	3.680400	-10.947000	25.236824	0.000499	20.777590
844.226106	-2.977300	3.681000	-10.957000	25.246351	0.000501	20.767239
845.227063	-2.981800	3.680300	-10.973000	25.226197	0.000499	20.800111
846.224215	-2.978700	3.680500	-10.962000	25.198063	0.000499	20.782772
847.224151	-2.958200	3.681100	-10.887000	25.167389	0.000500	20.788486
848.229245	-2.994800	3.679200	-11.017000	25.179546	0.000500	20.794053
849.223992	-3.000300	3.680200	-11.041000	25.188405	0.000500	20.805792
850.227420	-2.989800	3.677900	-10.994000	25.191834	0.000498	20.779836
851.230984	-3.007500	3.677700	-11.060000	25.195986	0.000500	20.787325
852.227218	-2.984200	3.680000	-10.980000	25.238199	0.000499	20.801729
853.230626	-3.023000	3.677600	-11.116000	25.285229	0.000499	20.799636
854.233056	-2.999400	3.677900	-11.031000	25.312473	0.000499	20.783842
855.232481	-2.995700	3.677700	-11.015000	25.311561	0.000498	20.790512
856.230313	-2.999000	3.678400	-11.030000	25.279847	0.000499	20.798499
857.233701	-3.014200	3.676600	-11.081000	25.246064	0.000498	20.777383
858.229258	-2.989400	3.679000	-10.997000	25.270923	0.000497	20.777685
859.232734	-3.008000	3.677300	-11.061000	25.276565	0.000498	20.787144
860.229815	-3.000400	3.676800	-11.030000	25.260215	0.000497	20.798229
861.231154	-2.993500	3.677100	-11.005000	25.247863	0.000497	20.784405
862.233238	-2.997300	3.676000	-11.018000	25.244354	0.000496	20.815495
863.230489	-2.996600	3.676200	-11.015000	25.237245	0.000495	20.796030
864.234689	-2.997600	3.676600	-11.020000	25.239142	0.000496	20.792719
865.231974	-2.996800	3.675400	-11.013000	25.252936	0.000496	20.836913
866.239133	-3.009500	3.674100	-11.056000	25.275034	0.000495	20.784184
867.237664	-2.995100	3.674400	-11.004000	25.289177	0.000495	20.789375
868.234123	-3.008100	3.672800	-11.048000	25.306479	0.000496	20.811963
869.230448	-2.980500	3.674700	-10.951000	25.296293	0.000493	20.796520
870.233444	-2.982900	3.674500	-10.960000	25.283909	0.000494	20.799733
871.238894	-2.999400	3.673000	-11.016000	25.286621	0.000494	20.791075
872.231811	-2.998400	3.673700	-11.013000	25.299648	0.000493	20.787086
873.235702	-2.999800	3.672900	-11.016000	25.284389	0.000493	20.814914
874.232692	-2.983000	3.673300	-10.957000	25.272159	0.000494	20.807850
875.235396	-2.993200	3.672200	-10.990000	25.229159	0.000491	20.799765
876.245364	-2.993800	3.673700	-10.998000	25.222774	0.000491	20.820856
877.234052	-3.026300	3.671300	-11.109000	25.267371	0.000494	20.812052
878.236120	-2.981800	3.671900	-10.947000	25.301569	0.000492	20.813197
879.237217	-2.999500	3.671700	-11.012000	25.316828	0.000492	20.807180
880.233648	-2.999700	3.672300	-11.014000	25.319799	0.000493	20.814430
881.237111	-3.001000	3.671500	-11.017000	25.318309	0.000491	20.815779
882.232619	-2.998100	3.670500	-11.003000	25.299761	0.000492	20.809959
883.233786	-3.011900	3.670300	-11.054000	25.290072	0.000491	20.812084
884.234739	-2.998700	3.670800	-11.007000	25.261036	0.000490	20.803795
885.234866	-2.999800	3.669400	-11.007000	25.244490	0.000491	20.823692
886.235547	-2.994900	3.668700	-10.987000	25.292962	0.000491	20.821624
887.242338	-2.999000	3.668600	-11.002000	25.288541	0.000488	20.823823
888.238193	-3.001900	3.669000	-11.013000	25.311681	0.000489	20.814814
889.238761	-2.995600	3.668400	-10.988000	25.277231	0.000488	20.815787
890.239320	-2.988400	3.670100	-10.967000	25.296072	0.000488	20.840393
891.235830	-3.006900	3.669500	-11.032000	25.281115	0.000488	20.815893
892.239409	-2.987300	3.669000	-10.959000	25.312552	0.000487	20.845086
893.243196	-2.998100	3.668200	-10.997000	25.300347	0.000489	20.817659
894.238562	-2.998200	3.667300	-10.994000	25.324635	0.000488	20.819760
895.238985	-2.982800	3.668400	-10.941000	25.341342	0.000487	20.831319
896.242587	-3.005500	3.668400	-11.024000	25.325327	0.000487	20.836576
897.240025	-3.013500	3.667700	-11.051000	25.338777	0.000485	20.805985
898.240984	-2.993200	3.668000	-10.977000	25.372883	0.000486	20.812255
899.241457	-2.987700	3.668100	-10.958000	25.424996	0.000487	20.824280
900.240724	-3.019700	3.666900	-11.072000	25.422041	0.000486	20.807563
901.241995	-3.020100	3.666400	-11.072000	25.435531	0.000485	20.829643
902.247581	-3.008400	3.665900	-11.027000	25.416171	0.000484	20.831540
903.243142	-3.007300	3.665000	-11.021000	25.402730	0.000484	20.810457
904.238413	-3.014100	3.665000	-11.046000	25.354442	0.000483	20.832144
905.238687	-3.008300	3.664300	-11.022000	25.319643	0.000484	20.800050
906.246176	-2.987500	3.665600	-10.951000	25.291813	0.000482	20.821419
907.242507	-3.007900	3.663500	-11.019000	25.296910	0.000483	20.808519
908.249075	-2.999200	3.664400	-10.990000	25.313960	0.000482	20.822318
909.245599	-3.001000	3.663100	-10.992000	25.298001	0.000485	20.821942
910.240997	-2.996700	3.664800	-10.982000	25.282889	0.000482	20.817201
911.241533	-2.997400	3.664000	-10.981000	25.330838	0.000483	20.799910
912.243328	-2.980200	3.664400	-10.920000	25.318063	0.000483	20.814110
913.242090	-3.008900	3.662600	-11.019000	25.283988	0.000482	20.815933
914.241272	-2.989300	3.663100	-10.949000	25.325700	0.000483	20.798071
915.242254	-3.000400	3.662700	-10.988000	25.346503	0.000481	20.812794
916.240281	-3.021200	3.661100	-11.060000	25.364130	0.000483	20.807733
917.238452	-3.004200	3.662900	-11.003000	25.354563	0.000479	20.801921
918.241965	-3.002300	3.662100	-10.994000	25.335755	0.000481	20.810063
919.245426	-2.985600	3.661600	-10.931000	25.351167	0.000480	20.792821
920.245276	-3.004100	3.660700	-10.995000	25.360710	0.000479	20.798135
921.241163	-2.993400	3.661500	-10.959000	25.361914	0.000480	20.800293
922.249102	-2.998800	3.661200	-10.979000	25.367108	0.000479	20.790810
923.248186	-3.008500	3.660400	-11.011000	25.333580	0.000481	20.789862
924.245277	-3.004700	3.659800	-10.996000	25.327197	0.000478	20.802418
925.243981	-3.014200	3.659800	-11.030000	25.347430	0.000480	20.783379
926.242828	-3.001900	3.660000	-10.985000	25.346314	0.000478	20.800276
927.249529	-2.983900	3.659800	-10.920000	25.345842	0.000478	20.790319
928.250511	-3.016200	3.659200	-11.036000	25.316612	0.000478	20.811705
929.246291	-3.017600	3.658800	-11.039000	25.348357	0.000476	20.780517
930.246781	-3.011300	3.658600	-11.016000	25.397492	0.000476	20.782438
931.245458	-2.997800	3.658400	-10.967000	25.412733	0.000478	20.800587
932.243548	-2.993300	3.657700	-10.947000	25.444166	0.000476	20.788054
933.243567	-3.020900	3.656100	-11.044000	25.457322	0.000476	20.785618
934.249278	-3.000800	3.656300	-10.970000	25.446616	0.000476	20.802842
935.244934	-3.012700	3.657100	-11.017000	25.467375	0.000474	20.781015
936.242501	-3.007000	3.657000	-10.996000	25.466456	0.000477	20.776772
937.244874	-2.993700	3.657100	-10.948000	25.473978	0.000474	20.783378
938.244946	-2.988800	3.655900	-10.925000	25.421525	0.000474	20.792345
939.245921	-2.999800	3.656900	-10.969000	25.385784	0.000473	20.784432
940.248084	-3.001700	3.655600	-10.972000	25.430301	0.000473	20.772708
941.246674	-3.013200	3.654300	-11.010000	25.444963	0.000473	20.804027
942.247521	-2.994500	3.655900	-10.946000	25.451745	0.000474	20.775276
943.246884	-3.011400	3.654600	-11.005000	25.448219	0.000472	20.775055
944.247437	-3.009900	3.653900	-10.997000	25.418472	0.000472	20.790228
945.246922	-2.987300	3.655400	-10.918000	25.405250	0.000471	20.776003
946.250886	-3.013500	3.654900	-11.013000	25.372545	0.000473	20.785364
947.245486	-3.014300	3.655100	-11.016000	25.429063	0.000472	20.763879
948.251551	-3.007900	3.654100	-10.990000	25.429609	0.000472	20.765849
949.249909	-3.020200	3.652000	-11.029000	25.425782	0.000474	20.791405
950.247562	-3.008600	3.653300	-10.991000	25.453739	0.000471	20.790081
951.250182	-3.000800	3.652800	-10.960000	25.479188	0.000471	20.765849
952.246616	-3.019800	3.653000	-11.031000	25.489086	0.000472	20.770100
953.247618	-3.008100	3.652100	-10.985000	25.470395	0.000473	20.778831
954.250232	-2.997300	3.651900	-10.945000	25.472822	0.000474	20.770362
955.248133	-3.002600	3.652300	-10.965000	25.401350	0.000468	20.786786
956.244731	-2.985200	3.651600	-10.900000	25.354674	0.000470	20.780221
957.248500	-2.998700	3.650400	-10.946000	25.327562	0.000469	20.768645
958.251686	-3.011100	3.650500	-10.990000	25.377341	0.000468	20.781170
959.250626	-3.009700	3.650800	-10.987000	25.420458	0.000470	20.782739
960.251380	-2.986100	3.650400	-10.899000	25.477739	0.000469	20.767714
961.250286	-2.996700	3.649600	-10.936000	25.495315	0.000467	20.773035
962.247670	-3.000000	3.651100	-10.953000	25.501673	0.000467	20.782265
963.251822	-2.987400	3.651100	-10.907000	25.532639	0.000467	20.790130
964.249516	-2.994000	3.649900	-10.927000	25.526558	0.000466	20.774539
965.252475	-2.988200	3.649700	-10.905000	25.485602	0.000465	20.766127
966.253426	-3.001800	3.649200	-10.954000	25.485928	0.000466	20.771196
967.249717	-3.009900	3.647600	-10.979000	25.452648	0.000467	20.763854
968.250516	-2.990300	3.648500	-10.908000	25.475410	0.000465	20.778178
969.252253	-3.003600	3.647500	-10.955000	25.423226	0.000465	20.755172
970.256496	-3.003300	3.647900	-10.955000	25.448154	0.000464	20.782576
971.254250	-2.982100	3.647800	-10.878000	25.474278	0.000463	20.773247
972.253427	-2.988400	3.648700	-10.903000	25.471152	0.000465	20.776746
973.249523	-2.981200	3.646300	-10.869000	25.451247	0.000462	20.761025
974.251782	-3.008800	3.647000	-10.972000	25.447820	0.000464	20.759480
975.252495	-3.008300	3.646400	-10.969000	25.414734	0.000462	20.775095
976.251991	-3.011800	3.645200	-10.978000	25.419488	0.000462	20.757583
977.249818	-3.023600	3.645100	-11.020000	25.432465	0.000464	20.770615
978.250369	-3.020100	3.645000	-11.008000	25.480424	0.000462	20.763772
979.253603	-2.998600	3.645500	-10.930000	25.483925	0.000463	20.767762
980.259979	-3.007700	3.645800	-10.965000	25.487262	0.000461	20.751198
981.255065	-2.994200	3.645000	-10.913000	25.504334	0.000463	20.753168
982.256754	-3.000800	3.645300	-10.937000	25.485691	0.000460	20.779493
983.258084	-3.024200	3.643300	-11.017000	25.528340	0.000460	20.741241
984.252937	-2.994800	3.643800	-10.911000	25.516536	0.000461	20.757362
985.261097	-2.989500	3.644400	-10.894000	25.531173	0.000460	20.775381
986.257674	-3.005200	3.642500	-10.945000	25.517749	0.000459	20.758107
987.261704	-3.006500	3.643200	-10.952000	25.464500	0.000458	20.734504
988.261997	-3.010800	3.643400	-10.969000	25.436772	0.000460	20.758343
989.260458	-2.994800	3.643300	-10.909000	25.429282	0.000457	20.764099
990.253726	-3.017200	3.642500	-10.990000	25.492106	0.000458	20.745157
991.259984	-3.004900	3.641600	-10.941000	25.522723	0.000459	20.744609
992.251589	-3.006500	3.640900	-10.945000	25.526476	0.000456	20.746481
993.255277	-2.981000	3.642600	-10.857000	25.457589	0.000458	20.763126
994.256400	-2.995800	3.640800	-10.906000	25.469092	0.000459	20.762349
995.261057	-2.997800	3.642600	-10.919000	25.520362	0.000457	20.770688
996.260006	-3.015100	3.640200	-10.975000	25.555814	0.000459	20.754133
997.259115	-3.020700	3.641000	-10.998000	25.486790	0.000455	20.765897
998.255205	-3.010300	3.640100	-10.957000	25.488549	0.000454	20.741584
999.258046	-2.992700	3.639500	-10.890000	25.440696	0.000456	20.748533
1000.255284	-3.025500	3.638400	-11.007000	25.447697	0.000453	20.748925
1001.256573	-2.991500	3.639200	-10.886000	25.448397	0.000454	20.760534
1002.257217	-3.000400	3.640200	-10.921000	25.456425	0.000452	20.734455
1003.255981	-2.989400	3.638400	-10.876000	25.485626	0.000456	20.732010
1004.256343	-3.003100	3.636600	-10.919000	25.518359	0.000454	20.757297
1005.259934	-2.992200	3.639700	-10.890000	25.492562	0.000454	20.750356
1006.257834	-3.012300	3.638500	-10.960000	25.518180	0.000453	20.746685
1007.257268	-2.994600	3.638300	-10.895000	25.516747	0.000454	20.762790
1008.260602	-3.014600	3.637200	-10.962000	25.511969	0.000450	20.747560
1009.260387	-3.013700	3.636900	-10.960000	25.551060	0.000452	20.763584
1010.260225	-2.991800	3.635800	-10.877000	25.578630	0.000451	20.746701
1011.262442	-3.018100	3.634800	-10.970000	25.546696	0.000452	20.762995
1012.261042	-2.981300	3.636500	-10.841000	25.524310	0.000452	20.743357
1013.261560	-2.985500	3.636200	-10.855000	25.539972	0.000449	20.732058
1014.264030	-2.982200	3.637000	-10.844000	25.518823	0.000452	20.753495
1015.262649	-3.000900	3.634700	-10.906000	25.497600	0.000451	20.760157
1016.259064	-2.986200	3.634600	-10.853000	25.487213	0.000451	20.744510
1017.262179	-2.994100	3.635000	-10.883000	25.500938	0.000451	20.748810
1018.260682	-3.011100	3.635000	-10.944000	25.512017	0.000450	20.747608
1019.262690	-3.018100	3.634900	-10.970000	25.545767	0.000448	20.721757
1020.264384	-2.989200	3.633400	-10.860000	25.534534	0.000448	20.736555
1021.262391	-2.981100	3.635000	-10.836000	25.494628	0.000447	20.751009
1022.260024	-3.004200	3.633100	-10.914000	25.455536	0.000450	20.733088
1023.266524	-2.987200	3.632400	-10.850000	25.465883	0.000449	20.749643
1024.261208	-2.986400	3.632800	-10.848000	25.490387	0.000449	20.745327
1025.266435	-3.005200	3.631900	-10.914000	25.529942	0.000448	20.741901
1026.263187	-2.991500	3.632500	-10.865000	25.581934	0.000446	20.759029
1027.270246	-3.022300	3.630700	-10.972000	25.592939	0.000447	20.737838
1028.269613	-2.993600	3.631500	-10.870000	25.572670	0.000445	20.744035
1029.263781	-3.010600	3.630600	-10.930000	25.547094	0.000445	20.754385
1030.265316	-3.002700	3.631500	-10.904000	25.565605	0.000446	20.758751
1031.262705	-3.006500	3.630000	-10.913000	25.564416	0.000446	20.739538
1032.267760	-3.004800	3.629800	-10.906000	25.563203	0.000443	20.757761
1033.263405	-3.012900	3.630100	-10.936000	25.588226	0.000445	20.756813
1034.270151	-2.987800	3.629900	-10.845000	25.629072	0.000445	20.742833
1035.266995	-3.001100	3.629400	-10.891000	25.636927	0.000443	20.730807
1036.268008	-3.029700	3.628700	-10.992000	25.605841	0.000446	20.741787
1037.271737	-2.999400	3.629700	-10.886000	25.605320	0.000442	20.754540
1038.279007	-3.003100	3.627800	-10.894000	25.593973	0.000443	20.738876
1039.266832	-3.019400	3.627000	-10.950000	25.580428	0.000443	20.730962
1040.266530	-2.994900	3.627100	-10.862000	25.585865	0.000443	20.735001
1041.268102	-2.996300	3.627800	-10.869000	25.542608	0.000443	20.754622
1042.270719	-2.993100	3.628400	-10.858000	25.551351	0.000442	20.741590
1043.269993	-3.006400	3.626800	-10.902000	25.529958	0.000441	20.737650
1044.273171	-2.998100	3.627700	-10.875000	25.565995	0.000440	20.735434
1045.274378	-2.991200	3.627400	-10.850000	25.558913	0.000441	20.749185
1046.270706	-2.998600	3.627300	-10.876000	25.515712	0.000439	20.708642
1047.273634	-2.983900	3.626900	-10.822000	25.501515	0.000440	20.730422
1048.275677	-2.994000	3.624700	-10.851000	25.537960	0.000438	20.744264
1049.267938	-2.981600	3.626200	-10.811000	25.557334	0.000439	20.742857
1050.271473	-2.995000	3.624900	-10.856000	25.565678	0.000439	20.738434
1051.274260	-2.986000	3.625700	-10.825000	25.571270	0.000437	20.734567
1052.268411	-2.989700	3.624600	-10.836000	25.584619	0.000438	20.735172
1053.273815	-3.003100	3.624100	-10.882000	25.595600	0.000437	20.707318
1054.272931	-3.001100	3.624700	-10.877000	25.631806	0.000437	20.733725
1055.273158	-2.996100	3.623400	-10.854000	25.661581	0.000438	20.717635
1056.274937	-2.992500	3.624000	-10.844000	25.627044	0.000437	20.725148
1057.273966	-2.996100	3.623400	-10.855000	25.607989	0.000435	20.724028
1058.273213	-3.000400	3.622300	-10.868000	25.571457	0.000436	20.739971
1059.277712	-2.975200	3.623200	-10.779000	25.566393	0.000435	20.704063
1060.269713	-2.974500	3.622200	-10.773000	25.544512	0.000433	20.714806
1061.269164	-2.985400	3.622700	-10.814000	25.538748	0.000434	20.716130
1062.273309	-2.977100	3.622400	-10.783000	25.559612	0.000435	20.721436
1063.275610	-2.990900	3.621400	-10.830000	25.551944	0.000434	20.723693
1064.270716	-2.992200	3.621200	-10.834000	25.514351	0.000434	20.717234
1065.275620	-2.979600	3.620900	-10.787000	25.533058	0.000431	20.706148
1066.277165	-2.998100	3.621400	-10.857000	25.544943	0.000431	20.716661
1067.276634	-3.001700	3.620400	-10.866000	25.518055	0.000432	20.709099
1068.281116	-3.000100	3.619900	-10.858000	25.533945	0.000430	20.716048
1069.277939	-3.012100	3.619700	-10.902000	25.560157	0.000432	20.720561
1070.276045	-2.993300	3.618700	-10.831000	25.580393	0.000432	20.715279
1071.275746	-2.990600	3.619900	-10.824000	25.598936	0.000431	20.723471
1072.274541	-2.993700	3.618700	-10.832000	25.607239	0.000432	20.715688
1073.274902	-2.989400	3.618300	-10.816000	25.581940	0.000431	20.695968
1074.285598	-3.006900	3.617500	-10.876000	25.613278	0.000429	20.710374
1075.275656	-3.001900	3.617000	-10.857000	25.557519	0.000430	20.700366
1076.277291	-3.006200	3.616900	-10.872000	25.545349	0.000431	20.700473
1077.277928	-2.987500	3.618000	-10.808000	25.593986	0.000428	20.713758
1078.279810	-2.997600	3.616700	-10.841000	25.622785	0.000430	20.718974
1079.279202	-3.036100	3.616200	-10.977000	25.653748	0.000427	20.717355
1080.289757	-3.037100	3.615500	-10.980000	25.661660	0.000429	20.695428
1081.285019	-2.999300	3.615900	-10.845000	25.657907	0.000427	20.710626
1082.276547	-3.001200	3.616300	-10.852000	25.613880	0.000428	20.716668
1083.287295	-3.003600	3.615100	-10.857000	25.624470	0.000428	20.700750
1084.281969	-2.993300	3.615500	-10.821000	25.646740	0.000427	20.693244
1085.282236	-3.017300	3.614300	-10.904000	25.645722	0.000428	20.696964
1086.287381	-2.998000	3.614000	-10.834000	25.639984	0.000425	20.690726
1087.289719	-3.011300	3.613500	-10.881000	25.682602	0.000425	20.694176
1088.282710	-2.989000	3.615200	-10.805000	25.641131	0.000426	20.684292
1089.285917	-2.993700	3.613100	-10.816000	25.609378	0.000427	20.705982
1090.286854	-2.990700	3.612300	-10.803000	25.643150	0.000423	20.694380
1091.284320	-2.986700	3.613700	-10.792000	25.666877	0.000426	20.713471
1092.286086	-2.996800	3.613300	-10.828000	25.671483	0.000423	20.692966
1093.282679	-3.007000	3.611900	-10.860000	25.672493	0.000424	20.696351
1094.287233	-3.004700	3.610700	-10.848000	25.681820	0.000425	20.689123
1095.286022	-3.008300	3.611200	-10.861000	25.658452	0.000422	20.686041
1096.286074	-3.010900	3.612100	-10.875000	25.650426	0.000423	20.702637
1097.286118	-3.012700	3.611600	-10.880000	25.633374	0.000424	20.706374
1098.283101	-3.005800	3.610700	-10.852000	25.607066	0.000422	20.704608
1099.284127	-2.992900	3.610600	-10.805000	25.660959	0.000421	20.691878
1100.291472	-3.016100	3.609600	-10.886000	25.655025	0.000421	20.681650
1101.283405	-3.017600	3.608500	-10.888000	25.673713	0.000420	20.686196
1102.286748	-3.025800	3.609300	-10.920000	25.675007	0.000421	20.694609
1103.289353	-3.020500	3.608200	-10.897000	25.714368	0.000421	20.691469
1104.286917	-2.989800	3.608900	-10.789000	25.720977	0.000422	20.693840
1105.285882	-3.010000	3.607500	-10.858000	25.713896	0.000421	20.700953
1106.288085	-2.964900	3.609100	-10.700000	25.704406	0.000417	20.680988
1107.286571	-3.011300	3.607500	-10.862000	25.707539	0.000419	20.682713
1108.287931	-3.021900	3.606500	-10.897000	25.648212	0.000419	20.697094
1109.293156	-3.001500	3.607100	-10.826000	25.620683	0.000417	20.692679
1110.290905	-3.020100	3.605900	-10.890000	25.604110	0.000419	20.672239
1111.288199	-2.998900	3.606900	-10.816000	25.597802	0.000418	20.661635
1112.289771	-2.992000	3.606000	-10.789000	25.629279	0.000418	20.669067
1113.294878	-2.995600	3.606600	-10.803000	25.589857	0.000416	20.683530
1114.287924	-2.991600	3.604800	-10.783000	25.582295	0.000416	20.684944
1115.292616	-2.967200	3.605800	-10.698000	25.631493	0.000417	20.676033
1116.289210	-2.986600	3.604900	-10.766000	25.642017	0.000417	20.682336
1117.295168	-2.993900	3.604300	-10.790000	25.653461	0.000415	20.679131
1118.293039	-2.990000	3.604500	-10.776000	25.691635	0.000414	20.680963
1119.294063	-2.999200	3.604600	-10.810000	25.704601	0.000413	20.668854
1120.290402	-3.015200	3.603900	-10.866000	25.675609	0.000414	20.657751
1121.291643	-3.003900	3.605000	-10.828000	25.676056	0.000414	20.662469
1122.292190	-3.005600	3.602700	-10.827000	25.635554	0.000415	20.676793
1123.292035	-3.004900	3.602000	-10.823000	25.628277	0.000413	20.688452
1124.290881	-3.003300	3.602900	-10.820000	25.624484	0.000414	20.668044
1125.289261	-3.006900	3.601400	-10.827000	25.662097	0.000413	20.666467
1126.298631	-2.978000	3.601000	-10.723000	25.641878	0.000413	20.655641
1127.293657	-2.989700	3.602800	-10.771000	25.629702	0.000413	20.679924
1128.293114	-2.985500	3.603300	-10.757000	25.630141	0.000410	20.665665
1129.297922	-3.007800	3.601000	-10.830000	25.604688	0.000412	20.671871
1130.293797	-2.987200	3.601400	-10.756000	25.639494	0.000411	20.700666
1131.292458	-3.020000	3.600000	-10.870000	25.690813	0.000408	20.671127
1132.296885	-2.993800	3.600600	-10.778000	25.721017	0.000409	20.683448
1133.297596	-2.966400	3.600500	-10.679000	25.681640	0.000409	20.678509
1134.302726	-3.003400	3.599800	-10.811000	25.670912	0.000410	20.677692
1135.299838	-2.972100	3.598800	-10.695000	25.675315	0.000409	20.663621
1136.304065	-2.998400	3.599000	-10.791000	25.661722	0.000406	20.696913
1137.299323	-2.983600	3.598800	-10.737000	25.704014	0.000407	20.669687
1138.295393	-3.027200	3.599400	-10.895000	25.710078	0.000406	20.663923
1139.300842	-2.998000	3.598500	-10.787000	25.686132	0.000407	20.665003
1140.296484	-2.999400	3.597000	-10.788000	25.695500	0.000409	20.665403
1141.302607	-2.989200	3.598700	-10.756000	25.685758	0.000404	20.662730
1142.302534	-3.008100	3.596500	-10.817000	25.674631	0.000404	20.682376
1143.299629	-2.994800	3.597900	-10.773000	25.661136	0.000406	20.670718
1144.299596	-3.006400	3.595300	-10.807000	25.651304	0.000407	20.661789
1145.299670	-2.999400	3.596700	-10.786000	25.706041	0.000405	20.672671
1146.300915	-3.003600	3.595400	-10.799000	25.683259	0.000402	20.662116
1147.303698	-3.023600	3.594800	-10.867000	25.694963	0.000405	20.663915
1148.304354	-3.018300	3.594500	-10.849000	25.653819	0.000404	20.660996
1149.302942	-2.988300	3.595500	-10.743000	25.658165	0.000402	20.688598
1150.302171	-2.983600	3.596000	-10.728000	25.655634	0.000403	20.669458
1151.301625	-2.985700	3.595600	-10.735000	25.703542	0.000400	20.668264
1152.302632	-2.991200	3.593500	-10.748000	25.691024	0.000404	20.659958
1153.302869	-2.975700	3.594800	-10.696000	25.698430	0.000402	20.656491
1154.300102	-3.003400	3.592600	-10.790000	25.698373	0.000402	20.664495
1155.303103	-2.986400	3.594100	-10.733000	25.703794	0.000400	20.651446
1156.301898	-3.015100	3.592100	-10.829000	25.687198	0.000402	20.669393
1157.302581	-3.008600	3.592300	-10.807000	25.702777	0.000402	20.657063
1158.305459	-3.033300	3.591700	-10.894000	25.723490	0.000400	20.654635
1159.304051	-2.995300	3.592700	-10.760000	25.720300	0.000399	20.664233
1160.309415	-2.993500	3.591800	-10.751000	25.713520	0.000399	20.683504
1161.309528	-2.994600	3.590200	-10.751000	25.732574	0.000400	20.671347
1162.305349	-3.006300	3.592100	-10.798000	25.738539	0.000401	20.670701
1163.307485	-3.017900	3.590300	-10.834000	25.654502	0.000399	20.690135
1164.304040	-3.011000	3.589600	-10.807000	25.658287	0.000399	20.658371
1165.305130	-3.003900	3.590100	-10.784000	25.640176	0.000397	20.667209
1166.307972	-3.020200	3.588400	-10.836000	25.615928	0.000397	20.658028
1167.305704	-3.034400	3.589300	-10.890000	25.635243	0.000397	20.685491
1168.307727	-2.986900	3.589200	-10.720000	25.609180	0.000397	20.663579
1169.309031	-3.003300	3.588600	-10.777000	25.628357	0.000396	20.676677
1170.309894	-3.005500	3.588400	-10.784000	25.654819	0.000397	20.677176
1171.315908	-3.019900	3.588500	-10.836000	25.697909	0.000395	20.673513
1172.314530	-3.010100	3.586800	-10.795000	25.669910	0.000395	20.679530
1173.309575	-3.003900	3.587100	-10.774000	25.687010	0.000392	20.650710
1174.306871	-2.999100	3.587600	-10.759000	25.660492	0.000396	20.655845
1175.315788	-2.987700	3.586700	-10.715000	25.698438	0.000394	20.676889
1176.313384	-2.989000	3.587000	-10.720000	25.682762	0.000394	20.679162
1177.313291	-2.978600	3.586000	-10.680000	25.646867	0.000393	20.666817
1178.310973	-3.003500	3.585600	-10.769000	25.657578	0.000392	20.686586
1179.311677	-3.004100	3.584700	-10.768000	25.655568	0.000390	20.668444
1180.309450	-3.009400	3.584800	-10.787000	25.639818	0.000392	20.666849
1181.308141	-2.997000	3.584900	-10.743000	25.653158	0.000391	20.678353
1182.315621	-2.999100	3.584800	-10.750000	25.694140	0.000391	20.670201
1183.309145	-3.008100	3.584700	-10.782000	25.664546	0.000392	20.671297
1184.312822	-2.994000	3.585100	-10.733000	25.689517	0.000392	20.685000
1185.314227	-3.014700	3.584100	-10.804000	25.714293	0.000391	20.667209
1186.315225	-3.027900	3.582400	-10.847000	25.741924	0.000391	20.677421
1187.312537	-3.017900	3.582700	-10.811000	25.712062	0.000391	20.671133
1188.313355	-3.009200	3.583400	-10.782000	25.691438	0.000388	20.648518
1189.312136	-3.007400	3.583500	-10.777000	25.655136	0.000390	20.668010
1190.316391	-3.009500	3.581600	-10.778000	25.688605	0.000389	20.677445
1191.316379	-2.995100	3.581900	-10.728000	25.690990	0.000388	20.666089
1192.311280	-3.006700	3.582700	-10.772000	25.651832	0.000386	20.670855
1193.314993	-2.992000	3.581100	-10.714000	25.665823	0.000388	20.685858
1194.315478	-3.006000	3.580900	-10.763000	25.681370	0.000386	20.688671
1195.315934	-2.998400	3.580500	-10.735000	25.671928	0.000385	20.686300
1196.317738	-3.010300	3.581100	-10.779000	25.659532	0.000387	20.672899
1197.315432	-3.018700	3.578400	-10.801000	25.693717	0.000386	20.687322
1198.312810	-2.996100	3.579500	-10.724000	25.673564	0.000386	20.680356
1199.314568	-2.992200	3.579500	-10.709000	25.681606	0.000386	20.677053
1200.317462	-3.005500	3.579500	-10.758000	25.712054	0.000387	20.691990
1201.317492	-3.001700	3.578600	-10.740000	25.704371	0.000386	20.672891
1202.314677	-2.994800	3.578200	-10.714000	25.722009	0.000384	20.698195
1203.317038	-2.996500	3.579700	-10.725000	25.741037	0.000386	20.663726
1204.318438	-2.969500	3.577500	-10.623000	25.738954	0.000383	20.696250
1205.315365	-3.001200	3.576800	-10.734000	25.759154	0.000383	20.680029
1206.316443	-2.982200	3.578100	-10.670000	25.711119	0.000383	20.682040
1207.317291	-2.977000	3.577800	-10.650000	25.663667	0.000382	20.691279
1208.315586	-2.975700	3.577000	-10.643000	25.675868	0.000383	20.683144
1209.318347	-2.979500	3.577200	-10.657000	25.687393	0.000382	20.711318
1210.318991	-3.004800	3.575500	-10.743000	25.713650	0.000381	20.680315
1211.318242	-2.990300	3.576400	-10.693000	25.689924	0.000382	20.696789
1212.319066	-3.010600	3.574700	-10.761000	25.660354	0.000380	20.687477
1213.317163	-3.006600	3.574500	-10.746000	25.650367	0.000379	20.685981
1214.319371	-2.989500	3.575200	-10.687000	25.674508	0.000378	20.702643
1215.319503	-3.002900	3.573600	-10.730000	25.712633	0.000382	20.681664
1216.318834	-2.996700	3.575400	-10.714000	25.749697	0.000380	20.715577
1217.318773	-2.990300	3.573800	-10.686000	25.756583	0.000380	20.690249
1218.320458	-3.014900	3.572200	-10.769000	25.756298	0.000378	20.693282
1219.319125	-2.998900	3.572700	-10.713000	25.742958	0.000380	20.710230
1220.322526	-2.997400	3.573800	-10.711000	25.723108	0.000378	20.699774
1221.322805	-3.012500	3.572400	-10.761000	25.693872	0.000378	20.681787
1222.322410	-3.010900	3.571700	-10.753000	25.661640	0.000378	20.708685
1223.323998	-3.007300	3.571500	-10.740000	25.675819	0.000378	20.693053
1224.324200	-3.018700	3.572600	-10.784000	25.697551	0.000376	20.702079
1225.323914	-3.003800	3.572400	-10.730000	25.663284	0.000376	20.697533
1226.325453	-3.027000	3.570200	-10.807000	25.651115	0.000376	20.694794
1227.326392	-2.981400	3.572100	-10.649000	25.649154	0.000374	20.692350
1228.321248	-3.006400	3.571200	-10.736000	25.663333	0.000375	20.705170
1229.330013	-3.004400	3.570800	-10.728000	25.703834	0.000376	20.706494
1230.327818	-3.008000	3.570600	-10.740000	25.724581	0.000377	20.714531
1231.326274	-3.010000	3.570200	-10.744000	25.767749	0.000375	20.695302
1232.336885	-3.014200	3.570400	-10.760000	25.772225	0.000376	20.703592
1233.320704	-2.996200	3.569500	-10.694000	25.786761	0.000375	20.700648
1234.329110	-2.992700	3.569400	-10.681000	25.833833	0.000375	20.716166
1235.323919	-2.980800	3.569500	-10.639000	25.808320	0.000373	20.723728
1236.325583	-2.989400	3.568500	-10.667000	25.809907	0.000373	20.703984
1237.324302	-2.988900	3.567500	-10.662000	25.807189	0.000372	20.705521
1238.325442	-2.973500	3.568500	-10.610000	25.827111	0.000372	20.712258
1239.328691	-3.009700	3.566800	-10.733000	25.802517	0.000371	20.706993
1240.328835	-2.993600	3.566300	-10.675000	25.790098	0.000370	20.728184
1241.328736	-3.000300	3.567600	-10.702000	25.758659	0.000371	20.701344
1242.326234	-2.993000	3.567700	-10.678000	25.748990	0.000373	20.722928
1243.328870	-3.014500	3.566100	-10.749000	25.769988	0.000371	20.727424
1244.330568	-2.989100	3.567400	-10.663000	25.781431	0.000369	20.716632
1245.330297	-3.010600	3.565600	-10.733000	25.752668	0.000371	20.726149
1246.328409	-2.988000	3.563900	-10.648000	25.777850	0.000367	20.714458
1247.331429	-2.994200	3.564500	-10.672000	25.739760	0.000370	20.717450
1248.332401	-2.977100	3.565900	-10.615000	25.699236	0.000368	20.711359
1249.333084	-3.008900	3.563100	-10.719000	25.731630	0.000370	20.742950
1250.334342	-2.995700	3.564900	-10.677000	25.707050	0.000368	20.722053
1251.332972	-2.980000	3.565200	-10.623000	25.679002	0.000366	20.735608
1252.334942	-2.997400	3.562200	-10.676000	25.714774	0.000367	20.715112
1253.336578	-2.989200	3.563200	-10.650000	25.735960	0.000367	20.743506
1254.335109	-2.996200	3.561300	-10.670000	25.759782	0.000367	20.730924
1255.331594	-2.995200	3.561700	-10.668000	25.765716	0.000365	20.730245
1256.336874	-2.996100	3.562100	-10.672000	25.715458	0.000366	20.741879
1257.331941	-2.994400	3.561000	-10.662000	25.710314	0.000367	20.721538
1258.339913	-3.001200	3.561800	-10.689000	25.688216	0.000365	20.735854
1259.337840	-3.018100	3.560500	-10.745000	25.704137	0.000365	20.715808
1260.338452	-3.009300	3.560800	-10.715000	25.731118	0.000364	20.726787
1261.340639	-3.003500	3.559800	-10.691000	25.709745	0.000364	20.726657
1262.339645	-3.021800	3.559200	-10.754000	25.757472	0.000364	20.734293
1263.336825	-3.001400	3.559000	-10.681000	25.795056	0.000361	20.730319
1264.336597	-3.027300	3.558300	-10.771000	25.784370	0.000364	20.739501
1265.339306	-2.994700	3.559400	-10.657000	25.782262	0.000362	20.733590
1266.342512	-3.020900	3.560000	-10.754000	25.811894	0.000360	20.745338
1267.346382	-3.023600	3.557800	-10.756000	25.793436	0.000362	20.713045
1268.338011	-3.016300	3.558400	-10.733000	25.780716	0.000363	20.764754
1269.344793	-2.994500	3.557700	-10.653000	25.821383	0.000359	20.735903
1270.337166	-2.998100	3.558300	-10.667000	25.814946	0.000361	20.753145
1271.340355	-2.974400	3.558600	-10.584000	25.780586	0.000359	20.745183
1272.340072	-2.996200	3.557700	-10.659000	25.812065	0.000360	20.758312
1273.344700	-2.999200	3.556800	-10.666000	25.825094	0.000359	20.727303
1274.340719	-3.000900	3.556200	-10.671000	25.831296	0.000357	20.728791
1275.343196	-2.985100	3.557100	-10.618000	25.823459	0.000359	20.751265
1276.341269	-2.987400	3.556400	-10.624000	25.855840	0.000360	20.766250
1277.338267	-2.996300	3.555800	-10.652000	25.878741	0.000359	20.747055
1278.347287	-2.997400	3.555800	-10.657000	25.873671	0.000357	20.760928
1279.342630	-3.004100	3.553900	-10.675000	25.898515	0.000356	20.744161
1280.344937	-2.983500	3.553800	-10.600000	25.922261	0.000357	20.761852
1281.340999	-3.014800	3.554200	-10.714000	25.930577	0.000359	20.752663
1282.344990	-2.990800	3.554800	-10.631000	25.863213	0.000356	20.728611
1283.342368	-2.999200	3.553700	-10.658000	25.803072	0.000356	20.751649
1284.345212	-3.014000	3.552500	-10.706000	25.775792	0.000358	20.741790
1285.351736	-3.021100	3.552400	-10.731000	25.791044	0.000354	20.739566
1286.343421	-3.000500	3.552500	-10.658000	25.783849	0.000356	20.756048
1287.342586	-2.986300	3.552000	-10.606000	25.812513	0.000354	20.738847
1288.348258	-3.012300	3.551500	-10.697000	25.837408	0.000354	20.741095
1289.346801	-2.997700	3.552900	-10.650000	25.826275	0.000354	20.750775
1290.351598	-3.003400	3.551300	-10.665000	25.878822	0.000355	20.761362
1291.347384	-3.008100	3.550400	-10.679000	25.908956	0.000353	20.758443
1292.346017	-3.000700	3.551300	-10.655000	25.922594	0.000355	20.767877
1293.346168	-2.998200	3.550300	-10.643000	25.914847	0.000353	20.755827
1294.348482	-3.018800	3.550900	-10.717000	25.917508	0.000351	20.741904
1295.347664	-3.000300	3.549900	-10.650000	25.867054	0.000352	20.753333
1296.350672	-2.987500	3.549500	-10.603000	25.860625	0.000351	20.749245
1297.345680	-2.981000	3.549700	-10.581000	25.883883	0.000353	20.755540
1298.348174	-2.990400	3.548500	-10.610000	25.868104	0.000350	20.749646
1299.348288	-2.993900	3.548800	-10.623000	25.850217	0.000350	20.773403
1300.349711	-2.995000	3.548000	-10.625000	25.793078	0.000351	20.762473
1301.346558	-2.983300	3.547400	-10.582000	25.770949	0.000351	20.755892
1302.346481	-2.993900	3.546700	-10.618000	25.781130	0.000351	20.752843
1303.346062	-2.986200	3.546600	-10.590000	25.782099	0.000347	20.776575
1304.348798	-3.013800	3.546300	-10.687000	25.750236	0.000348	20.747414
1305.348905	-2.997200	3.545400	-10.625000	25.747721	0.000350	20.769070
1306.346755	-2.990800	3.546500	-10.606000	25.782213	0.000349	20.776215
1307.355504	-2.984700	3.546700	-10.584000	25.825883	0.000348	20.780254
1308.348155	-2.990000	3.546400	-10.602000	25.838603	0.000347	20.745141
1309.355751	-2.968900	3.544600	-10.523000	25.855449	0.000346	20.769651
1310.353639	-2.992700	3.544100	-10.605000	25.906880	0.000348	20.785282
1311.353087	-3.011400	3.544800	-10.673000	25.918907	0.000347	20.758957
1312.353147	-3.001500	3.545100	-10.640000	25.918858	0.000346	20.757960
1313.352932	-3.014300	3.543000	-10.679000	25.945037	0.000347	20.767664
1314.351879	-2.990400	3.544600	-10.599000	25.934881	0.000346	20.768841
1315.350233	-3.018000	3.544200	-10.696000	25.903633	0.000345	20.758786
1316.357994	-3.003400	3.542900	-10.640000	25.833655	0.000344	20.764353
1317.351078	-2.993100	3.542700	-10.603000	25.787299	0.000347	20.783695
1318.351488	-3.013800	3.542400	-10.675000	25.810209	0.000347	20.761189
1319.358881	-2.998200	3.540900	-10.616000	25.844218	0.000346	20.782077
1320.353721	-3.008700	3.540700	-10.651000	25.856938	0.000346	20.782526
1321.360152	-3.006600	3.540700	-10.644000	25.884761	0.000344	20.758794
1322.358934	-3.004800	3.541500	-10.640000	25.865190	0.000347	20.763789
1323.360286	-3.010500	3.541300	-10.660000	25.838839	0.000345	20.779044
1324.353652	-3.000400	3.540900	-10.623000	25.814009	0.000343	20.762636
1325.361678	-2.989500	3.541400	-10.585000	25.825964	0.000341	20.775594
1326.353661	-2.999700	3.541500	-10.622000	25.841614	0.000342	20.764761
1327.359627	-3.012000	3.539400	-10.660000	25.872717	0.000342	20.789843
1328.354856	-3.003600	3.539600	-10.631000	25.919119	0.000342	20.755850
1329.354058	-2.985400	3.538500	-10.563000	25.903617	0.000340	20.782951
1330.355395	-3.039400	3.537900	-10.751000	25.865605	0.000341	20.793604
1331.356522	-3.013300	3.536800	-10.656000	25.897586	0.000340	20.774997
1332.356026	-3.027600	3.537300	-10.708000	25.918899	0.000343	20.760845
1333.357147	-2.993600	3.536800	-10.587000	25.895218	0.000340	20.780205
1334.357414	-2.991000	3.537200	-10.579000	25.924416	0.000339	20.794364
1335.357745	-3.016300	3.537800	-10.671000	25.901020	0.000341	20.793146
1336.364182	-2.997800	3.536300	-10.600000	25.915571	0.000338	20.783107
1337.364440	-3.034300	3.534400	-10.724000	25.884428	0.000337	20.780270
1338.362507	-2.984100	3.535400	-10.548000	25.844055	0.000339	20.778120
1339.363648	-3.011700	3.534600	-10.644000	25.838912	0.000337	20.785755
1340.363362	-3.019300	3.534200	-10.670000	25.847872	0.000339	20.792860
1341.361739	-3.008400	3.534800	-10.634000	25.913829	0.000336	20.789418
1342.360514	-2.998400	3.534800	-10.598000	25.937403	0.000336	20.791764
1343.363823	-3.003800	3.535000	-10.618000	25.875403	0.000337	20.796808
1344.366945	-3.003500	3.534600	-10.615000	25.898758	0.000336	20.783761
1345.362381	-3.011200	3.533700	-10.640000	25.850476	0.000333	20.789786
1346.369908	-3.000300	3.532400	-10.598000	25.807922	0.000335	20.804411
1347.368073	-3.004300	3.533100	-10.614000	25.846554	0.000334	20.806708
1348.367809	-3.005500	3.532200	-10.615000	25.885502	0.000334	20.779453
1349.365795	-3.002500	3.532100	-10.605000	25.910672	0.000332	20.805212
1350.364379	-2.998300	3.532000	-10.589000	25.948552	0.000334	20.791584
1351.368172	-2.981200	3.531200	-10.526000	25.996422	0.000334	20.788470
1352.367712	-3.006900	3.530400	-10.615000	25.985739	0.000334	20.818513
1353.370462	-2.987900	3.531100	-10.549000	26.031248	0.000330	20.808286
1354.370093	-2.983100	3.531100	-10.532000	26.027521	0.000333	20.800749
1355.370554	-3.007400	3.530900	-10.618000	26.075161	0.000332	20.824905
1356.371778	-3.002200	3.528500	-10.593000	25.979237	0.000333	20.777842
1357.370534	-2.976700	3.529800	-10.506000	25.948242	0.000330	20.793170
1358.368281	-2.986600	3.528900	-10.539000	25.944361	0.000331	20.793064
1359.369941	-2.990800	3.528400	-10.551000	25.892476	0.000330	20.807795
1360.369503	-2.993000	3.530300	-10.565000	25.869967	0.000330	20.794192
1361.369990	-3.026600	3.527900	-10.676000	25.880782	0.000329	20.795099
1362.371138	-3.017700	3.526800	-10.642000	25.924757	0.000330	20.821259
1363.368837	-2.993600	3.526900	-10.558000	25.877331	0.000328	20.812496
1364.367860	-2.991400	3.527400	-10.552000	25.895495	0.000329	20.813673
1365.369931	-3.009700	3.527700	-10.617000	25.924090	0.000328	20.810632
1366.376600	-3.007200	3.525600	-10.601000	25.924733	0.000328	20.810803
1367.378339	-2.975000	3.526500	-10.489000	25.970107	0.000328	20.799015
1368.374644	-2.997500	3.526200	-10.569000	25.943213	0.000326	20.826998
1369.373839	-2.988700	3.525700	-10.537000	25.948396	0.000328	20.818455
1370.376391	-2.982500	3.525600	-10.514000	25.864668	0.000325	20.815896
1371.371912	-3.003700	3.524800	-10.587000	25.883402	0.000326	20.814801
1372.378121	-3.031300	3.523300	-10.678000	25.912364	0.000325	20.832041
1373.375169	-2.976200	3.525600	-10.492000	25.940487	0.000326	20.813828
1374.375477	-3.004400	3.524000	-10.587000	25.948111	0.000323	20.791616
1375.371691	-2.993600	3.524400	-10.549000	25.974671	0.000324	20.808816
1376.374496	-3.008700	3.522200	-10.596000	25.943432	0.000325	20.802088
1377.376806	-2.964500	3.523300	-10.443000	25.921575	0.000324	20.833235
1378.376395	-2.990200	3.523100	-10.534000	25.945597	0.000323	20.824177
1379.375794	-3.006800	3.521900	-10.588000	25.971660	0.000323	20.819068
1380.376324	-2.995600	3.522700	-10.552000	25.962791	0.000323	20.830545
1381.377887	-3.008600	3.522300	-10.596000	25.955467	0.000322	20.806118
1382.379969	-3.012800	3.520400	-10.606000	25.957607	0.000322	20.802104
1383.379408	-3.008100	3.521100	-10.591000	25.986502	0.000322	20.838246
1384.376635	-3.015200	3.520300	-10.613000	26.004786	0.000321	20.824373
1385.380900	-2.977700	3.521500	-10.485000	26.003647	0.000321	20.821332
1386.379193	-2.992700	3.519900	-10.533000	26.006356	0.000322	20.786122
1387.380305	-2.996700	3.519400	-10.545000	26.012264	0.000320	20.817187
1388.375606	-3.030700	3.518500	-10.662000	26.032044	0.000322	20.810982
1389.381476	-2.975200	3.519900	-10.470000	26.011385	0.000320	20.843804
1390.380630	-2.998500	3.519100	-10.551000	25.980757	0.000319	20.784585
1391.381664	-3.002500	3.517800	-10.561000	25.965752	0.000318	20.814081
1392.381501	-2.988000	3.517400	-10.509000	25.988219	0.000319	20.809625
1393.376928	-3.005700	3.516700	-10.569000	25.991352	0.000318	20.803764
1394.381474	-2.993800	3.517300	-10.529000	26.016682	0.000320	20.821152
1395.379992	-3.012300	3.516900	-10.593000	26.015477	0.000318	20.799079
1396.379796	-3.009500	3.515800	-10.580000	25.992059	0.000319	20.813484
1397.376710	-3.023000	3.516000	-10.627000	25.922877	0.000318	20.789024
1398.378106	-2.998200	3.514900	-10.538000	25.871137	0.000317	20.798213
1399.380910	-2.990400	3.515000	-10.510000	25.869029	0.000317	20.789457
1400.385150	-3.028300	3.513400	-10.639000	25.871316	0.000317	20.808350
1401.384897	-3.005700	3.514600	-10.563000	25.892133	0.000317	20.791803
1402.385349	-3.006000	3.513500	-10.561000	25.897227	0.000318	20.791705
1403.386463	-3.015400	3.512700	-10.592000	25.967510	0.000316	20.778388
1404.380201	-3.004100	3.513400	-10.554000	25.994452	0.000314	20.801663
1405.389716	-2.999800	3.513400	-10.537000	26.001913	0.000315	20.792089
1406.383114	-2.991900	3.512900	-10.509000	26.007178	0.000315	20.805913
1407.387588	-2.971200	3.513100	-10.437000	26.013297	0.000316	20.791198
1408.389681	-3.018200	3.511900	-10.599000	25.980757	0.000315	20.788852
1409.380144	-2.979200	3.513100	-10.466000	25.959796	0.000313	20.794820
1410.384599	-3.007200	3.511600	-10.559000	25.966753	0.000312	20.788533
1411.386685	-3.002600	3.512400	-10.545000	26.000318	0.000314	20.790013
1412.388431	-3.012200	3.510700	-10.574000	25.998251	0.000314	20.795997
1413.385664	-2.994900	3.512000	-10.517000	26.003548	0.000312	20.795155
1414.380345	-3.019800	3.509400	-10.596000	25.987877	0.000312	20.775142
1415.389988	-3.008900	3.511300	-10.564000	25.959234	0.000311	20.768177
1416.385844	-3.000700	3.510000	-10.533000	25.986266	0.000310	20.785378
1417.387255	-3.012900	3.509100	-10.571000	25.983287	0.000312	20.778118
1418.387675	-3.031200	3.509200	-10.635000	25.985248	0.000309	20.772502
1419.382947	-2.994400	3.508900	-10.506000	25.922209	0.000312	20.790724
1420.390059	-2.997200	3.508200	-10.514000	25.972709	0.000311	20.780767
1421.384734	-2.980200	3.509200	-10.457000	25.999789	0.000309	20.796120
1422.383886	-3.008600	3.508700	-10.555000	25.996754	0.000308	20.789751
1423.384347	-3.017100	3.507100	-10.580000	25.991970	0.000309	20.777832
1424.398664	-3.013000	3.508200	-10.569000	26.017625	0.000308	20.789383
1425.382377	-2.999700	3.506400	-10.518000	25.995542	0.000308	20.778576
1426.384284	-2.998900	3.507000	-10.516000	26.025778	0.000309	20.781453
1427.386467	-3.014300	3.506000	-10.568000	26.014077	0.000309	20.759740
1428.385143	-3.012400	3.505600	-10.559000	25.972677	0.000307	20.762716
1429.386328	-3.007200	3.506300	-10.543000	25.916602	0.000306	20.768970
1430.388194	-3.011500	3.504900	-10.554000	25.967933	0.000307	20.755105
1431.385587	-3.006500	3.504900	-10.537000	25.978307	0.000305	20.769321
1432.390553	-3.013400	3.504200	-10.558000	26.010359	0.000306	20.766436
1433.386930	-2.986300	3.503600	-10.462000	25.986884	0.000304	20.762291
1434.387833	-3.010500	3.503600	-10.546000	25.950071	0.000304	20.735737
1435.390886	-3.009400	3.502600	-10.539000	25.941674	0.000304	20.780407
1436.390631	-2.991300	3.503000	-10.478000	25.931844	0.000304	20.758677
1437.392291	-3.002400	3.503700	-10.519000	25.923617	0.000304	20.767008
1438.392877	-2.986900	3.502300	-10.460000	25.940437	0.000305	20.771578
1439.388429	-3.002000	3.501200	-10.510000	25.964548	0.000304	20.749807
1440.392697	-3.019500	3.501700	-10.572000	25.980749	0.000303	20.773671
1441.393193	-3.027100	3.499800	-10.594000	25.994183	0.000305	20.770098
1442.390282	-3.014700	3.502500	-10.558000	25.968380	0.000305	20.740855
1443.397542	-3.014500	3.500400	-10.551000	25.914104	0.000303	20.746071
1444.394318	-3.000200	3.499200	-10.497000	25.921631	0.000303	20.755530
1445.395398	-3.009700	3.500000	-10.533000	25.943985	0.000302	20.745744
1446.396153	-3.022600	3.498700	-10.574000	25.956679	0.000301	20.749488
1447.396970	-3.005000	3.497900	-10.510000	26.003003	0.000302	20.755252
1448.396708	-2.964300	3.500800	-10.377000	26.004647	0.000300	20.737936
1449.397912	-2.997900	3.498800	-10.488000	25.973197	0.000300	20.740005
1450.391636	-3.012800	3.498100	-10.538000	25.949974	0.000301	20.781159
1451.395596	-3.003400	3.497600	-10.503000	25.925228	0.000301	20.761988
1452.393672	-3.004000	3.496800	-10.504000	25.938565	0.000296	20.749782
1453.392777	-3.007800	3.496400	-10.515000	25.972603	0.000297	20.747943
1454.395194	-2.995700	3.497200	-10.475000	25.947858	0.000297	20.757696
1455.393447	-3.014800	3.496900	-10.542000	25.898651	0.000298	20.748564
1456.392662	-3.018700	3.496000	-10.553000	25.874530	0.000297	20.749938
1457.391250	-2.995300	3.497100	-10.474000	25.862478	0.000296	20.751107
1458.399498	-3.012100	3.494600	-10.524000	25.937874	0.000297	20.755252
1459.394415	-3.023100	3.493100	-10.559000	25.943431	0.000298	20.743291
1460.398853	-3.020500	3.494700	-10.554000	26.000668	0.000295	20.741525
1461.394267	-3.011500	3.493800	-10.521000	25.997039	0.000296	20.731240
1462.398168	-3.018300	3.493600	-10.544000	25.998487	0.000295	20.761146
1463.396577	-3.012300	3.493200	-10.522000	25.996974	0.000296	20.743504
1464.398885	-3.005400	3.493800	-10.499000	25.971969	0.000295	20.740667
1465.403803	-3.001100	3.494100	-10.485000	25.977160	0.000294	20.733080
1466.400179	-2.986700	3.493000	-10.432000	26.009334	0.000295	20.742171
1467.401347	-3.033300	3.491800	-10.591000	26.048431	0.000293	20.745891
1468.400863	-3.001900	3.491800	-10.481000	26.061522	0.000294	20.743397
1469.401912	-2.998400	3.493000	-10.472000	26.036193	0.000291	20.734069
1470.413183	-3.025800	3.490800	-10.562000	26.034200	0.000293	20.742498
1471.401732	-2.991900	3.491800	-10.446000	26.041856	0.000294	20.726482
1472.402800	-3.004200	3.492000	-10.489000	26.014737	0.000292	20.741435
1473.399698	-3.028000	3.489100	-10.564000	26.006022	0.000291	20.737895
1474.406310	-3.012400	3.489600	-10.512000	26.054631	0.000291	20.740740
1475.406354	-2.999300	3.490800	-10.469000	26.090699	0.000291	20.728616
1476.405600	-2.989800	3.490100	-10.433000	26.045672	0.000291	20.745964
1477.407764	-3.006900	3.489100	-10.491000	25.998731	0.000289	20.735312
1478.406613	-2.988300	3.490200	-10.429000	26.007177	0.000289	20.738108
1479.408852	-2.994400	3.491500	-10.453000	26.019448	0.000291	20.735263
1480.408998	-3.008300	3.487100	-10.489000	26.013394	0.000291	20.732974
1481.407549	-2.958400	3.488600	-10.320000	25.999480	0.000287	20.720890
1482.409169	-2.996600	3.488100	-10.451000	25.993027	0.000289	20.723891
1483.407620	-2.997900	3.487600	-10.455000	25.961716	0.000286	20.732262
1484.407727	-2.982000	3.486600	-10.397000	25.911663	0.000289	20.740773
1485.411602	-3.004400	3.487600	-10.477000	25.904306	0.000286	20.726270
1486.406813	-2.990500	3.487300	-10.427000	25.899847	0.000287	20.718944
1487.409986	-2.985600	3.487800	-10.412000	25.916391	0.000287	20.759748
1488.411370	-3.012000	3.486100	-10.500000	25.961537	0.000286	20.732557
1489.414103	-3.010900	3.485600	-10.493000	25.983092	0.000287	20.726711
1490.408470	-2.996300	3.486200	-10.444000	25.998723	0.000286	20.743365
1491.414056	-3.003700	3.484300	-10.463000	26.002621	0.000289	20.729262
1492.411030	-2.977000	3.485100	-10.374000	25.973189	0.000284	20.730039
1493.409751	-2.956500	3.484600	-10.301000	25.976127	0.000285	20.719239
1494.411005	-2.983200	3.484400	-10.394000	25.964369	0.000283	20.733031
1495.412836	-3.000800	3.483100	-10.451000	25.982441	0.000285	20.736489
1496.417943	-3.011600	3.484000	-10.492000	25.965142	0.000284	20.712944
1497.413981	-3.031100	3.481800	-10.552000	25.975102	0.000287	20.741444
1498.418518	-3.014100	3.482800	-10.497000	25.937703	0.000284	20.735165
1499.419722	-2.985600	3.482300	-10.395000	25.944636	0.000285	20.720318
1500.412318	-3.005100	3.481900	-10.462000	25.993272	0.000282	20.745948
1501.418199	-2.997300	3.480900	-10.433000	26.040669	0.000282	20.715331
1502.413353	-2.998400	3.482200	-10.441000	26.091358	0.000283	20.714579
1503.410876	-2.994700	3.480300	-10.422000	26.080586	0.000283	20.705651
1504.411803	-2.989800	3.480200	-10.404000	26.071058	0.000283	20.700345
1505.414738	-2.980100	3.482400	-10.377000	26.044786	0.000282	20.720891
1506.417578	-3.007200	3.479900	-10.464000	25.983638	0.000280	20.723940
1507.415660	-3.013500	3.479900	-10.485000	25.979390	0.000282	20.698808
1508.416161	-2.999500	3.479800	-10.436000	25.998195	0.000281	20.714857
1509.419474	-3.011700	3.479200	-10.478000	25.961619	0.000281	20.720310
1510.416796	-2.998900	3.478300	-10.430000	25.933993	0.000279	20.685915
1511.416430	-3.005800	3.478300	-10.454000	25.970065	0.000283	20.720735
1512.418854	-3.009000	3.478200	-10.465000	25.991555	0.000281	20.705815
1513.412697	-3.002900	3.476800	-10.440000	26.038008	0.000284	20.710761
1514.417768	-3.002700	3.476100	-10.437000	26.079887	0.000278	20.706371
1515.419157	-2.992600	3.477200	-10.405000	26.067170	0.000277	20.711612
1516.419523	-3.006000	3.475900	-10.447000	26.069960	0.000280	20.704458
1517.416757	-3.006300	3.475300	-10.446000	26.046885	0.000279	20.697394
1518.421441	-3.000100	3.476400	-10.429000	26.020230	0.000277	20.709968
1519.419837	-2.996700	3.476100	-10.416000	25.984395	0.000277	20.720907
1520.421341	-3.008500	3.474100	-10.451000	25.990555	0.000279	20.717613
1521.421019	-2.964100	3.476500	-10.304000	26.025079	0.000275	20.729541
1522.419205	-2.975800	3.474900	-10.340000	26.013956	0.000275	20.681852
1523.416148	-2.991100	3.474600	-10.391000	25.965997	0.000276	20.711906
1524.416418	-2.991900	3.474200	-10.392000	26.002915	0.000276	20.710116
1525.419046	-3.032600	3.471900	-10.528000	26.021670	0.000275	20.718529
1526.422026	-2.995600	3.474100	-10.406000	26.043428	0.000275	20.702455
1527.420338	-3.019200	3.472200	-10.481000	26.079317	0.000275	20.691573
1528.418356	-3.007900	3.472300	-10.443000	26.088983	0.000273	20.695596
1529.422402	-3.028500	3.471200	-10.512000	26.061304	0.000275	20.707614
1530.423862	-3.026000	3.472000	-10.506000	26.075778	0.000273	20.695604
1531.423888	-3.008500	3.471300	-10.443000	26.089740	0.000273	20.707263
1532.424774	-3.023900	3.469600	-10.491000	26.061060	0.000275	20.705946
1533.432011	-3.000300	3.470800	-10.412000	26.018855	0.000274	20.711906
1534.421365	-2.978400	3.470800	-10.336000	25.965737	0.000271	20.698368
1535.424123	-2.998000	3.470100	-10.403000	25.964769	0.000271	20.706404
1536.426648	-2.974000	3.471400	-10.323000	26.017203	0.000271	20.695547
1537.427040	-3.001600	3.470900	-10.418000	26.027122	0.000270	20.705988
1538.446190	-3.006900	3.469400	-10.431000	25.993297	0.000270	20.702824
1539.428924	-3.008400	3.467800	-10.431000	25.961701	0.000269	20.681984
1540.429229	-2.993000	3.470000	-10.385000	25.947599	0.000271	20.691051
1541.427246	-2.998300	3.468800	-10.399000	25.964199	0.000271	20.695874
1542.425834	-2.985200	3.468200	-10.353000	26.018294	0.000269	20.708024
1543.427979	-3.004500	3.467500	-10.417000	26.035194	0.000267	20.677585
1544.423740	-3.002700	3.467100	-10.410000	26.011175	0.000272	20.698025
1545.423086	-2.978200	3.468000	-10.327000	26.002908	0.000268	20.706315
1546.430831	-3.009300	3.466800	-10.431000	25.995609	0.000266	20.680962
1547.424885	-3.011700	3.465800	-10.437000	25.997480	0.000268	20.702285
1548.428275	-3.004900	3.465700	-10.412000	25.986081	0.000267	20.705530
1549.425594	-3.007000	3.465100	-10.418000	25.987700	0.000267	20.694828
1550.428317	-3.004000	3.464100	-10.406000	26.002631	0.000266	20.682328
1551.429860	-2.986200	3.465800	-10.349000	26.055463	0.000268	20.692735
1552.429472	-3.010100	3.465300	-10.430000	26.084925	0.000265	20.679662
1553.425858	-3.020200	3.464000	-10.462000	26.113564	0.000262	20.688525
1554.427558	-2.985800	3.465300	-10.346000	26.122855	0.000265	20.682688
1555.436114	-2.990400	3.463500	-10.356000	26.144017	0.000265	20.676924
1556.430305	-2.994600	3.464100	-10.372000	26.147825	0.000264	20.686915
1557.432456	-2.979400	3.464200	-10.320000	26.158507	0.000264	20.690062
1558.437664	-2.998500	3.464100	-10.386000	26.117974	0.000264	20.681576
1559.434237	-3.006000	3.462200	-10.406000	26.105193	0.000264	20.669206
1560.433224	-2.990100	3.463200	-10.354000	26.072281	0.000265	20.680235
1561.433403	-3.002900	3.462600	-10.397000	26.073575	0.000262	20.682958
1562.433552	-3.001300	3.461200	-10.387000	26.062331	0.000263	20.677349
1563.429700	-2.987100	3.462600	-10.341000	26.000687	0.000265	20.676107
1564.433192	-3.046100	3.461100	-10.542000	26.008906	0.000263	20.676303
1565.431210	-3.007900	3.461100	-10.410000	26.004243	0.000263	20.678731
1566.432354	-3.010400	3.459100	-10.412000	26.017970	0.000260	20.667865
1567.430304	-3.008900	3.458800	-10.407000	26.060427	0.000262	20.686817
1568.432809	-2.991200	3.459400	-10.347000	26.030574	0.000261	20.690488
1569.429838	-2.987200	3.460000	-10.335000	26.014561	0.000260	20.684356
1570.429686	-3.009400	3.458300	-10.407000	25.995228	0.000261	20.668724
1571.432014	-2.989900	3.459700	-10.344000	25.993983	0.000262	20.666999
1572.429699	-2.983600	3.457300	-10.315000	25.995097	0.000259	20.671912
1573.430195	-2.997500	3.458100	-10.365000	26.054910	0.000260	20.678429
1574.433286	-2.992200	3.458400	-10.347000	26.062315	0.000262	20.665004
1575.430445	-3.003200	3.456400	-10.379000	26.020403	0.000261	20.679320
1576.430716	-2.999900	3.457600	-10.371000	26.019109	0.000258	20.681813
1577.433608	-3.004600	3.457400	-10.388000	26.022689	0.000259	20.666917
1578.437088	-3.006000	3.455300	-10.386000	26.060589	0.000260	20.657580
1579.436023	-2.998200	3.455400	-10.359000	26.032551	0.000257	20.665445
1580.436688	-2.971900	3.456000	-10.270000	26.044797	0.000257	20.680595
1581.439763	-2.985000	3.456000	-10.315000	26.049263	0.000258	20.667538
1582.433349	-3.003700	3.454900	-10.376000	25.999068	0.000256	20.670686
1583.437245	-3.014800	3.454000	-10.412000	25.995333	0.000258	20.657449
1584.439598	-3.010800	3.454300	-10.399000	25.978050	0.000256	20.664742
1585.437359	-3.017800	3.453200	-10.421000	25.959172	0.000256	20.660000
1586.437850	-3.016500	3.454100	-10.419000	25.995203	0.000255	20.656844
1587.439679	-3.018800	3.451800	-10.419000	26.024349	0.000256	20.673801
1588.435786	-3.002400	3.452700	-10.365000	26.033967	0.000257	20.662126
1589.441567	-3.029700	3.451900	-10.457000	26.035504	0.000255	20.664619
1590.442396	-2.982000	3.452500	-10.295000	26.034317	0.000255	20.658684
1591.438737	-3.016500	3.450400	-10.407000	26.082582	0.000253	20.664031
1592.441176	-2.988100	3.451900	-10.313000	26.072005	0.000252	20.680906
1593.437237	-2.987000	3.451100	-10.307000	26.059866	0.000253	20.666811
1594.441986	-2.990400	3.451300	-10.320000	26.069996	0.000253	20.668928
1595.443295	-3.018100	3.451500	-10.415000	26.069849	0.000252	20.651236
1596.438455	-3.015500	3.448800	-10.399000	26.109692	0.000253	20.681315
1597.442869	-3.005600	3.449400	-10.366000	26.141903	0.000252	20.669108
1598.440976	-2.992900	3.450300	-10.325000	26.133685	0.000254	20.673654
1599.443252	-3.014400	3.449300	-10.397000	26.127201	0.000251	20.667612
1600.445878	-2.998500	3.448700	-10.340000	26.119212	0.000253	20.667171
1601.443120	-2.992900	3.449300	-10.323000	26.035465	0.000249	20.652250
1602.443053	-2.991100	3.447900	-10.312000	26.018947	0.000251	20.657466
1603.448598	-2.989600	3.448100	-10.308000	26.022381	0.000249	20.642896
1604.439456	-3.013300	3.447300	-10.387000	26.036164	0.000251	20.658169
1605.443430	-3.004300	3.446700	-10.354000	26.049801	0.000251	20.670450
1606.442595	-2.992600	3.448000	-10.317000	26.055920	0.000250	20.677072
1607.440909	-2.997600	3.447400	-10.332000	26.074821	0.000248	20.678994
1608.443425	-3.009600	3.446100	-10.371000	26.122288	0.000248	20.670736
1609.445098	-2.995100	3.447000	-10.323000	26.175658	0.000248	20.644229
1610.442414	-3.002100	3.446100	-10.344000	26.131530	0.000247	20.671963
1611.443333	-3.020700	3.445300	-10.406000	26.097912	0.000246	20.670426
1612.448591	-3.018300	3.444100	-10.395000	26.068817	0.000248	20.669166
1613.448143	-2.995000	3.446000	-10.320000	26.020713	0.000249	20.665406
1614.445577	-2.986200	3.446000	-10.289000	26.024863	0.000245	20.685698
1615.444452	-2.971900	3.444700	-10.236000	26.031397	0.000246	20.651008
1616.448086	-3.000800	3.442900	-10.331000	26.073324	0.000247	20.669902
1617.444871	-3.009100	3.442400	-10.358000	26.072137	0.000243	20.678193
1618.442338	-3.030400	3.441700	-10.429000	26.052064	0.000245	20.657074
1619.445067	-2.991900	3.443300	-10.301000	26.032650	0.000246	20.681668
1620.445684	-3.008200	3.442200	-10.353000	26.018745	0.000245	20.662953
1621.450082	-2.996900	3.442600	-10.316000	26.024855	0.000245	20.651073
1622.445788	-3.036600	3.440600	-10.446000	26.040706	0.000245	20.669846
1623.447854	-2.997800	3.441600	-10.316000	26.039217	0.000243	20.667401
1624.445099	-2.994800	3.441500	-10.304000	26.085912	0.000244	20.652202
1625.446779	-2.988600	3.440700	-10.283000	26.110898	0.000243	20.687743
1626.450617	-2.969200	3.441900	-10.217000	26.110069	0.000244	20.672683
1627.445369	-2.977900	3.440800	-10.245000	26.100248	0.000243	20.662340
1628.449312	-3.007300	3.440500	-10.345000	26.089720	0.000241	20.663616
1629.449738	-2.999400	3.440100	-10.317000	26.086693	0.000241	20.670059
1630.452669	-3.005500	3.439400	-10.336000	26.074798	0.000242	20.669012
1631.451808	-3.001400	3.439800	-10.323000	26.066946	0.000242	20.652586
1632.455375	-2.997500	3.438900	-10.307000	26.041146	0.000243	20.673607
1633.449875	-3.004500	3.438100	-10.329000	26.039380	0.000243	20.658081
1634.450797	-3.002600	3.437000	-10.319000	26.009371	0.000239	20.670132
1635.453637	-2.996600	3.438700	-10.303000	26.011137	0.000240	20.679494
1636.454470	-3.012600	3.437600	-10.355000	26.026060	0.000239	20.666984
1637.449902	-2.991300	3.437300	-10.281000	25.984757	0.000240	20.673378
1638.452564	-2.991400	3.436200	-10.278000	26.014188	0.000240	20.677817
1639.452316	-2.994600	3.436300	-10.290000	26.067288	0.000240	20.675692
1640.454771	-2.986700	3.436700	-10.264000	26.139439	0.000237	20.667581
1641.461635	-3.007700	3.436200	-10.334000	26.160153	0.000238	20.667532
1642.457873	-2.996400	3.435500	-10.293000	26.138886	0.000237	20.663231
1643.450998	-2.995200	3.434500	-10.286000	26.104243	0.000238	20.672993
1644.455552	-3.015500	3.433900	-10.354000	26.092787	0.000238	20.660533
1645.460293	-2.997800	3.435000	-10.297000	26.074675	0.000237	20.683115
1646.455029	-3.012700	3.433700	-10.344000	26.067157	0.000235	20.667499
1647.456368	-2.992100	3.433300	-10.271000	26.064546	0.000235	20.675781
1648.454115	-2.995300	3.434900	-10.288000	26.121743	0.000236	20.663550
1649.452580	-2.976000	3.434200	-10.219000	26.155987	0.000236	20.674726
1650.458577	-3.003800	3.432800	-10.310000	26.152269	0.000234	20.677629
1651.458113	-3.011400	3.430300	-10.329000	26.133532	0.000236	20.684407
1652.458002	-2.971800	3.432500	-10.200000	26.135273	0.000236	20.668137
1653.454835	-2.998100	3.431900	-10.289000	26.102762	0.000232	20.657279
1654.457731	-2.984000	3.432400	-10.241000	26.079809	0.000235	20.667409
1655.458990	-3.003100	3.432200	-10.306000	26.075041	0.000232	20.682060
1656.458993	-3.012300	3.430600	-10.333000	26.062820	0.000233	20.676419
1657.459141	-3.009800	3.430600	-10.325000	26.096448	0.000231	20.670377
1658.460882	-3.019800	3.429400	-10.355000	26.153220	0.000232	20.673369
1659.461013	-3.003100	3.430600	-10.302000	26.143238	0.000232	20.668553
1660.457995	-3.001800	3.430700	-10.298000	26.152024	0.000231	20.694929
1661.461069	-2.984400	3.428700	-10.232000	26.157589	0.000230	20.695305
1662.463637	-2.964800	3.431300	-10.172000	26.148941	0.000232	20.673810
1663.459626	-2.978400	3.428800	-10.212000	26.159574	0.000230	20.696351
1664.458992	-3.013300	3.427200	-10.326000	26.181777	0.000232	20.675511
1665.461917	-2.995700	3.427400	-10.267000	26.227506	0.000230	20.687325
1666.462587	-2.985400	3.428600	-10.234000	26.156466	0.000230	20.664776
1667.464485	-3.007900	3.426300	-10.305000	26.173454	0.000230	20.685167
1668.460461	-2.973400	3.428200	-10.192000	26.122573	0.000229	20.699474
1669.460258	-2.988500	3.425300	-10.235000	26.116828	0.000230	20.699392
1670.462729	-2.980000	3.427100	-10.212000	26.134117	0.000227	20.681676
1671.468058	-2.993500	3.426400	-10.256000	26.129935	0.000228	20.677473
1672.463374	-2.960900	3.426600	-10.144000	26.118025	0.000229	20.663607
1673.463170	-3.008100	3.425400	-10.303000	26.109376	0.000229	20.693326
1674.462751	-2.969200	3.426100	-10.172000	26.117178	0.000226	20.684570
1675.468766	-3.008300	3.423600	-10.299000	26.131725	0.000227	20.683539
1676.463919	-2.992700	3.424700	-10.248000	26.098571	0.000228	20.679623
1677.460941	-3.015400	3.422900	-10.320000	26.150519	0.000226	20.705745
1678.463162	-2.990300	3.423300	-10.236000	26.188463	0.000225	20.693612
1679.463756	-3.008900	3.423200	-10.299000	26.147810	0.000227	20.705393
1680.462269	-2.989000	3.423700	-10.233000	26.123939	0.000227	20.696105
1681.462686	-2.988200	3.422600	-10.226000	26.165025	0.000224	20.689500
1682.478904	-3.015500	3.423000	-10.321000	26.180466	0.000227	20.678936
1683.462917	-2.981700	3.422900	-10.205000	26.169459	0.000225	20.698223
1684.466389	-2.975300	3.422500	-10.182000	26.178310	0.000225	20.723715
1685.463155	-3.001600	3.422000	-10.270000	26.171550	0.000225	20.684201
1686.466419	-2.997900	3.422000	-10.258000	26.159777	0.000224	20.696081
1687.470977	-3.016900	3.421600	-10.321000	26.137005	0.000223	20.695484
1688.466366	-3.021800	3.419700	-10.333000	26.182451	0.000224	20.695631
1689.468296	-3.027200	3.420200	-10.352000	26.182159	0.000222	20.704821
1690.470553	-2.991900	3.420800	-10.234000	26.157963	0.000222	20.712277
1691.466584	-3.013600	3.420700	-10.308000	26.164423	0.000221	20.684152
1692.469222	-2.991800	3.419000	-10.229000	26.174088	0.000223	20.706194
1693.466548	-2.984100	3.418600	-10.200000	26.141374	0.000223	20.704142
1694.471432	-3.010700	3.418600	-10.291000	26.156499	0.000222	20.707486
1695.468178	-2.982100	3.418800	-10.195000	26.187813	0.000220	20.690587
1696.471707	-3.024600	3.417600	-10.336000	26.199113	0.000222	20.704314
1697.469825	-3.007000	3.418300	-10.278000	26.167718	0.000219	20.715441
1698.471231	-3.008900	3.417200	-10.282000	26.155628	0.000220	20.700447
1699.472003	-3.034600	3.416100	-10.365000	26.162657	0.000217	20.714149
1700.473364	-3.011100	3.417300	-10.289000	26.200032	0.000219	20.709505
1701.469708	-3.010300	3.414800	-10.278000	26.228115	0.000221	20.693628
1702.468530	-2.995300	3.417300	-10.234000	26.222803	0.000219	20.725276
1703.471654	-2.995700	3.416700	-10.235000	26.196550	0.000217	20.731138
1704.472180	-3.028900	3.415500	-10.344000	26.185608	0.000217	20.706865
1705.473516	-3.010200	3.414100	-10.277000	26.195639	0.000218	20.712678
1706.480405	-2.989400	3.415400	-10.209000	26.204905	0.000217	20.705867
1707.475910	-2.992700	3.414300	-10.217000	26.193654	0.000216	20.704518
1708.472619	-3.001800	3.413500	-10.246000	26.208029	0.000217	20.715645
1709.473859	-3.027100	3.413800	-10.333000	26.195688	0.000217	20.721736
1710.472973	-3.007900	3.413400	-10.267000	26.211617	0.000215	20.712612
1711.470361	-3.019600	3.413900	-10.307000	26.252333	0.000217	20.715596
1712.476124	-3.008900	3.412000	-10.264000	26.247648	0.000215	20.707094
1713.471376	-3.002500	3.412900	-10.246000	26.200040	0.000214	20.713781
1714.470826	-3.029400	3.411600	-10.334000	26.202326	0.000216	20.721295
1715.470006	-3.026300	3.410900	-10.321000	26.177074	0.000213	20.723895
1716.475830	-2.994100	3.410700	-10.211000	26.183550	0.000213	20.712858
1717.472685	-3.007200	3.411600	-10.258000	26.202253	0.000213	20.712686
1718.475439	-2.989700	3.411300	-10.198000	26.180353	0.000214	20.726241
1719.476602	-3.010200	3.409300	-10.262000	26.161551	0.000213	20.703554
1720.476657	-2.992200	3.409500	-10.201000	26.180206	0.000210	20.739371
1721.475160	-3.013800	3.408800	-10.273000	26.183428	0.000211	20.712261
1722.473926	-3.008100	3.410000	-10.257000	26.170988	0.000211	20.736273
1723.477728	-3.021400	3.408400	-10.297000	26.151072	0.000212	20.727165
1724.474493	-2.995700	3.409600	-10.213000	26.153782	0.000210	20.719930
1725.481881	-2.988200	3.408000	-10.182000	26.131929	0.000212	20.723102
1726.476881	-2.999000	3.407100	-10.217000	26.166400	0.000211	20.738774
1727.480293	-3.022700	3.406500	-10.296000	26.217312	0.000213	20.721655
1728.481598	-2.994500	3.407200	-10.202000	26.234225	0.000207	20.733910
1729.472412	-3.011300	3.406800	-10.258000	26.207045	0.000208	20.736469
1730.479758	-2.996600	3.407600	-10.210000	26.201041	0.000209	20.737074
1731.476595	-2.970600	3.406400	-10.118000	26.198194	0.000209	20.725677
1732.479305	-3.021100	3.406500	-10.291000	26.241994	0.000210	20.722276
1733.482517	-3.003100	3.405000	-10.225000	26.246045	0.000207	20.726822
1734.484166	-3.000100	3.405000	-10.215000	26.225878	0.000208	20.721254
1735.477455	-3.013700	3.403900	-10.258000	26.187658	0.000206	20.747808
1736.481470	-3.009000	3.404500	-10.243000	26.189570	0.000207	20.732659
1737.483556	-2.995600	3.404300	-10.196000	26.209120	0.000207	20.733338
1738.479020	-3.021000	3.404700	-10.285000	26.220639	0.000207	20.727844
1739.481627	-2.994500	3.404500	-10.194000	26.226846	0.000206	20.731711
1740.479179	-3.007600	3.403400	-10.235000	26.272248	0.000207	20.728024
1741.477909	-2.996900	3.404000	-10.200000	26.273533	0.000207	20.735005
1742.484211	-2.976000	3.404300	-10.130000	26.330223	0.000206	20.718483
1743.484478	-2.991100	3.403600	-10.180000	26.366527	0.000206	20.737900
1744.477706	-2.999900	3.403000	-10.207000	26.385032	0.000205	20.741799
1745.479676	-2.983900	3.401800	-10.150000	26.344036	0.000205	20.740426
1746.481966	-3.002000	3.401300	-10.209000	26.311701	0.000204	20.719783
1747.481163	-2.995000	3.401500	-10.186000	26.271451	0.000204	20.752354
1748.483292	-2.982200	3.401300	-10.143000	26.235388	0.000203	20.726544
1749.481075	-2.995600	3.400800	-10.186000	26.198487	0.000201	20.734981
1750.478184	-2.991100	3.401500	-10.174000	26.205622	0.000202	20.740728
1751.486278	-2.977700	3.402100	-10.130000	26.274298	0.000201	20.759482
1752.486058	-3.016100	3.398600	-10.250000	26.306284	0.000204	20.766971
1753.480285	-2.996600	3.400400	-10.188000	26.316069	0.000202	20.738872
1754.487199	-3.013200	3.399600	-10.243000	26.348998	0.000203	20.738300
1755.484254	-3.006200	3.399700	-10.219000	26.308447	0.000203	20.762507
1756.482056	-2.983700	3.399300	-10.141000	26.342319	0.000203	20.770944
1757.482950	-2.991000	3.399500	-10.167000	26.354561	0.000201	20.745789
1758.489557	-2.959000	3.399200	-10.056000	26.393393	0.000201	20.755894
1759.485447	-3.002800	3.396500	-10.198000	26.389001	0.000203	20.759540
1760.484051	-2.992500	3.398200	-10.168000	26.387830	0.000199	20.743663
1761.487494	-3.003800	3.396800	-10.202000	26.366356	0.000200	20.759540
1762.488249	-3.010200	3.395900	-10.222000	26.354903	0.000198	20.761306
1763.488845	-3.001200	3.396500	-10.191000	26.354008	0.000199	20.764200
1764.488042	-3.017200	3.395700	-10.244000	26.304893	0.000200	20.755616
1765.487456	-2.993100	3.395900	-10.163000	26.299280	0.000198	20.749026
1766.489723	-2.994600	3.395100	-10.166000	26.295578	0.000198	20.750522
1767.490470	-3.003800	3.393400	-10.192000	26.255498	0.000201	20.756237
1768.492036	-3.006300	3.394000	-10.203000	26.276608	0.000198	20.739992
1769.488828	-3.009600	3.393500	-10.213000	26.262624	0.000195	20.760079
1770.492465	-2.998200	3.394500	-10.176000	26.295237	0.000197	20.778155
1771.489784	-2.986300	3.393900	-10.134000	26.329247	0.000196	20.754961
1772.492996	-2.988800	3.393200	-10.141000	26.349184	0.000194	20.762197
1773.493715	-3.015800	3.393000	-10.232000	26.398501	0.000196	20.767666
1774.489760	-2.973600	3.392900	-10.088000	26.408530	0.000195	20.761624
1775.494580	-2.974100	3.392300	-10.088000	26.456299	0.000194	20.748470
1776.499216	-2.980100	3.392700	-10.110000	26.448084	0.000195	20.770086
1777.496081	-3.004700	3.391600	-10.189000	26.441952	0.000195	20.744481
1778.493550	-2.982200	3.392200	-10.115000	26.401088	0.000194	20.767421
1779.498990	-3.009600	3.391400	-10.206000	26.355098	0.000193	20.761028
1780.497829	-3.013200	3.390200	-10.215000	26.326351	0.000193	20.767225
1781.497540	-3.010400	3.390200	-10.205000	26.314402	0.000193	20.763750
1782.499999	-3.014500	3.389900	-10.218000	26.285743	0.000192	20.744906
1783.501046	-2.983200	3.390900	-10.115000	26.321796	0.000191	20.781139
1784.496840	-3.003900	3.389900	-10.182000	26.335137	0.000195	20.777002
1785.499020	-2.995900	3.389900	-10.156000	26.338683	0.000192	20.770135
1786.500335	-3.015700	3.389000	-10.220000	26.303192	0.000193	20.768132
1787.496422	-3.029700	3.388300	-10.264000	26.293911	0.000194	20.766865
1788.499233	-3.019100	3.388300	-10.229000	26.271711	0.000190	20.798135
1789.499214	-2.999700	3.388900	-10.165000	26.278886	0.000190	20.799181
1790.507584	-3.006300	3.388400	-10.186000	26.341221	0.000190	20.783117
1791.499442	-3.012500	3.386800	-10.202000	26.307861	0.000189	20.772824
1792.501982	-3.002600	3.386700	-10.168000	26.331012	0.000189	20.768590
1793.502871	-3.005000	3.387000	-10.177000	26.339822	0.000190	20.796410
1794.509887	-3.015100	3.387000	-10.211000	26.373318	0.000189	20.787875
1795.502070	-3.008800	3.385800	-10.186000	26.363240	0.000188	20.775375
1796.501054	-3.013400	3.386300	-10.203000	26.347834	0.000189	20.781228
1797.505066	-2.966200	3.385700	-10.042000	26.399469	0.000190	20.789502
1798.501150	-2.979600	3.385500	-10.086000	26.382429	0.000188	20.782332
1799.504085	-2.999000	3.384600	-10.149000	26.420796	0.000188	20.776323
1800.503811	-2.971500	3.385200	-10.058000	26.423310	0.000186	20.785962
1801.504329	-3.017100	3.382200	-10.203000	26.404041	0.000186	20.785087
1802.504653	-3.014300	3.384100	-10.199000	26.402357	0.000189	20.773912
1803.506171	-2.977900	3.384500	-10.078000	26.449004	0.000185	20.780967
1804.505037	-2.987800	3.383300	-10.108000	26.448817	0.000185	20.771770
1805.506417	-3.002300	3.381800	-10.152000	26.480220	0.000184	20.785790
1806.503734	-2.988200	3.383000	-10.108000	26.465352	0.000185	20.802141
1807.505269	-2.999800	3.381900	-10.144000	26.456015	0.000185	20.793704
1808.510844	-3.005700	3.381600	-10.163000	26.423692	0.000184	20.789666
1809.507767	-3.021300	3.381300	-10.215000	26.375304	0.000184	20.800302
1810.509036	-3.007800	3.382300	-10.172000	26.367056	0.000182	20.814297
1811.507292	-2.988300	3.381100	-10.103000	26.294375	0.000183	20.803367
1812.506136	-3.011500	3.380300	-10.179000	26.339505	0.000183	20.791824
1813.511006	-2.994300	3.380300	-10.121000	26.388099	0.000184	20.790876
1814.509210	-3.024600	3.379900	-10.222000	26.400869	0.000182	20.786641
1815.510342	-3.035700	3.378600	-10.255000	26.383259	0.000183	20.805926
1816.506057	-3.009100	3.379400	-10.169000	26.391662	0.000182	20.792086
1817.508854	-3.000400	3.378700	-10.136000	26.396924	0.000184	20.788841
1818.510622	-3.017700	3.377100	-10.191000	26.401919	0.000180	20.793386
1819.510675	-2.986200	3.378300	-10.087000	26.388481	0.000181	20.811175
1820.511405	-2.998800	3.378900	-10.132000	26.366341	0.000180	20.799354
1821.511994	-2.982300	3.376900	-10.070000	26.343744	0.000179	20.810308
1822.511998	-2.977100	3.377400	-10.054000	26.311019	0.000178	20.785481
1823.514302	-2.987800	3.377600	-10.091000	26.323766	0.000179	20.803981
1824.520533	-2.989100	3.376700	-10.092000	26.344696	0.000179	20.801308
1825.510281	-3.001100	3.375600	-10.130000	26.362559	0.000178	20.796501
1826.513945	-2.991800	3.376000	-10.099000	26.349243	0.000180	20.788808
1827.509840	-2.991100	3.376800	-10.099000	26.344183	0.000176	20.806483
1828.516941	-3.015400	3.374300	-10.175000	26.353147	0.000177	20.805060
1829.514323	-2.995200	3.374900	-10.108000	26.348006	0.000177	20.807006
1830.514112	-2.999600	3.375800	-10.125000	26.339718	0.000177	20.809107
1831.518576	-2.976100	3.376200	-10.047000	26.368594	0.000175	20.818688
1832.512634	-2.983200	3.375100	-10.068000	26.390003	0.000178	20.800376
1833.514241	-3.008800	3.372600	-10.146000	26.402847	0.000176	20.819923
1834.510528	-2.988600	3.373700	-10.082000	26.417764	0.000176	20.819743
1835.513616	-2.994300	3.372600	-10.097000	26.377119	0.000174	20.823937
1836.513678	-2.988600	3.374100	-10.082000	26.389686	0.000173	20.814756
1837.518347	-3.020900	3.372200	-10.185000	26.430802	0.000174	20.820994
1838.515027	-2.994100	3.373900	-10.101000	26.459725	0.000174	20.794589
1839.514116	-2.992500	3.372100	-10.090000	26.488591	0.000175	20.796101
1840.515532	-2.989400	3.372900	-10.082000	26.544798	0.000173	20.826994
1841.514532	-2.984200	3.371400	-10.060000	26.547994	0.000173	20.813138
1842.514248	-2.990300	3.372700	-10.084000	26.573376	0.000171	20.820160
1843.519540	-2.970800	3.371600	-10.015000	26.583200	0.000171	20.813440
1844.514911	-3.005300	3.370800	-10.129000	26.553581	0.000172	20.847676
1845.511568	-3.006000	3.369300	-10.127000	26.538267	0.000169	20.830861
1846.515646	-2.999100	3.370500	-10.107000	26.504548	0.000171	20.839641
1847.517632	-2.985600	3.370600	-10.063000	26.470486	0.000169	20.817732
1848.516739	-2.995400	3.370100	-10.094000	26.484467	0.000173	20.815190
1849.517386	-3.030500	3.366900	-10.202000	26.446826	0.000171	20.825719
1850.517630	-3.015700	3.367300	-10.154000	26.483280	0.000170	20.799772
1851.513814	-2.998500	3.368100	-10.098000	26.454748	0.000170	20.827992
1852.515080	-3.007900	3.367200	-10.127000	26.511632	0.000170	20.807407
1853.517336	-2.998800	3.366700	-10.095000	26.540610	0.000170	20.808086
1854.515759	-3.002400	3.367700	-10.110000	26.586925	0.000170	20.811021
1855.519333	-3.008700	3.367000	-10.128000	26.615128	0.000169	20.818509
1856.525975	-3.003000	3.366000	-10.108000	26.534494	0.000166	20.809525
1857.518272	-2.988000	3.366900	-10.059000	26.545172	0.000167	20.828319
1858.520286	-2.987200	3.364800	-10.051000	26.538218	0.000168	20.827493
1859.529432	-2.992700	3.365900	-10.073000	26.523270	0.000167	20.786389
1860.520423	-2.995300	3.364400	-10.077000	26.491169	0.000168	20.816236
1861.519780	-2.993800	3.365100	-10.074000	26.469290	0.000165	20.802780
1862.525199	-3.021700	3.363900	-10.162000	26.485703	0.000166	20.802682
1863.519113	-2.973600	3.363900	-10.001000	26.488445	0.000166	20.798325
1864.519893	-2.995300	3.362900	-10.072000	26.497838	0.000165	20.820569
1865.520758	-2.985100	3.362800	-10.038000	26.547287	0.000166	20.812427
1866.525983	-3.019800	3.363100	-10.155000	26.564691	0.000165	20.823283
1867.520186	-2.985200	3.362800	-10.038000	26.614665	0.000166	20.796706
1868.521262	-3.012700	3.362100	-10.128000	26.577849	0.000165	20.795734
1869.522830	-2.989300	3.362200	-10.050000	26.560494	0.000163	20.808634
1870.522443	-2.998200	3.360700	-10.075000	26.551630	0.000163	20.809680
1871.520403	-2.980300	3.360700	-10.014000	26.549100	0.000163	20.782008
1872.520094	-2.988900	3.361600	-10.047000	26.584249	0.000162	20.792684
1873.522510	-2.981200	3.361800	-10.021000	26.602003	0.000162	20.788245
1874.523034	-2.982400	3.360300	-10.020000	26.590317	0.000162	20.770808
1875.521898	-2.981700	3.361300	-10.021000	26.602027	0.000161	20.804391
1876.523408	-2.992400	3.359800	-10.053000	26.599099	0.000160	20.793862
1877.518977	-3.005800	3.359300	-10.097000	26.658009	0.000160	20.807089
1878.524464	-3.018100	3.358600	-10.136000	26.614274	0.000160	20.794418
1879.525196	-2.999600	3.359800	-10.078000	26.637443	0.000161	20.773612
1880.528701	-3.013500	3.358000	-10.119000	26.633214	0.000161	20.805871
1881.522311	-3.016000	3.358900	-10.130000	26.576321	0.000160	20.786136
1882.528602	-2.991400	3.358100	-10.045000	26.598644	0.000158	20.784395
1883.526044	-2.997100	3.359200	-10.067000	26.584494	0.000158	20.774438
1884.524644	-3.015200	3.357400	-10.122000	26.544863	0.000158	20.802879
1885.526736	-3.009500	3.357100	-10.102000	26.486973	0.000158	20.780725
1886.535925	-3.004100	3.355600	-10.080000	26.500279	0.000158	20.782245
1887.528846	-2.990400	3.356200	-10.036000	26.541440	0.000157	20.791851
1888.533085	-2.989900	3.356400	-10.035000	26.608102	0.000156	20.792006
1889.529909	-2.979500	3.356300	-9.999200	26.606183	0.000156	20.775378
1890.527875	-2.974700	3.357200	-9.985700	26.647169	0.000157	20.758259
1891.536239	-2.994500	3.354600	-10.043000	26.668694	0.000154	20.787485
1892.532233	-3.002100	3.354600	-10.070000	26.635077	0.000155	20.769810
1893.528401	-2.995500	3.354200	-10.047000	26.634565	0.000155	20.759812
1894.532668	-3.030600	3.354200	-10.164000	26.643152	0.000155	20.784093
1895.532832	-3.011900	3.353300	-10.100000	26.659757	0.000155	20.778027
1896.534669	-3.001400	3.355300	-10.070000	26.638655	0.000153	20.765347
1897.531572	-3.012600	3.353400	-10.101000	26.603613	0.000153	20.779433
1898.529779	-2.993700	3.352400	-10.035000	26.602621	0.000152	20.769427
1899.533321	-2.994300	3.353600	-10.041000	26.587324	0.000154	20.769222
1900.532587	-2.982900	3.353600	-10.003000	26.573873	0.000152	20.777038
1901.533119	-3.010800	3.351900	-10.091000	26.578858	0.000154	20.775885
1902.528910	-2.975600	3.352300	-9.973800	26.578566	0.000153	20.770849
1903.535741	-2.995000	3.351800	-10.037000	26.546353	0.000151	20.771659
1904.536197	-2.994100	3.351100	-10.033000	26.567099	0.000151	20.768805
1905.534894	-3.020400	3.349700	-10.117000	26.638753	0.000150	20.780619
1906.536527	-3.003300	3.349800	-10.060000	26.672899	0.000148	20.758521
1907.534217	-2.996500	3.350200	-10.037000	26.658685	0.000150	20.756085
1908.533312	-2.991900	3.350000	-10.022000	26.680836	0.000148	20.749905
1909.535735	-3.022100	3.348600	-10.119000	26.716119	0.000148	20.786325
1910.535611	-2.981000	3.350000	-9.984900	26.707443	0.000147	20.790879
1911.536217	-3.022600	3.347200	-10.117000	26.671281	0.000149	20.765904
1912.531907	-3.020700	3.348400	-10.114000	26.711142	0.000146	20.752398
1913.535071	-3.027000	3.346700	-10.130000	26.707443	0.000148	20.760532
1914.538001	-2.995000	3.347800	-10.026000	26.698880	0.000147	20.770416
1915.537940	-2.998100	3.348200	-10.038000	26.697921	0.000147	20.772297
1916.540142	-2.987300	3.347500	-9.998100	26.658693	0.000145	20.766525
1917.536590	-2.984400	3.346900	-9.987200	26.674233	0.000146	20.757017
1918.539924	-3.000300	3.347600	-10.043000	26.627946	0.000146	20.766435
1919.536302	-2.982400	3.347200	-9.981300	26.700133	0.000143	20.757925
1920.537692	-3.004700	3.345900	-10.052000	26.690432	0.000145	20.760974
1921.537049	-2.976700	3.348300	-9.965600	26.728829	0.000145	20.760696
1922.540168	-3.011100	3.344700	-10.070000	26.774071	0.000145	20.755922
1923.539707	-2.995900	3.345100	-10.020000	26.754150	0.000145	20.763394
1924.540487	-2.989400	3.344700	-9.997000	26.734594	0.000144	20.736620
1925.544645	-3.014900	3.342000	-10.075000	26.711753	0.000145	20.749218
1926.541256	-2.985000	3.344500	-9.981900	26.703345	0.000142	20.760680
1927.542495	-2.999500	3.342800	-10.025000	26.685049	0.000143	20.753666
1928.540747	-3.008800	3.344400	-10.062000	26.720974	0.000143	20.757541
1929.541853	-3.017500	3.344300	-10.090000	26.732935	0.000144	20.767670
1930.538830	-3.003100	3.343700	-10.040000	26.747165	0.000142	20.743570
1931.547463	-2.997300	3.344200	-10.023000	26.693205	0.000141	20.752383
1932.542098	-3.002000	3.343000	-10.035000	26.666078	0.000143	20.723213
1933.538469	-3.014400	3.342800	-10.076000	26.622311	0.000142	20.741330
1934.546706	-2.986300	3.342600	-9.981000	26.617220	0.000141	20.740005
1935.541510	-2.998600	3.341000	-10.017000	26.633070	0.000141	20.740766
1936.542379	-2.996100	3.341000	-10.009000	26.663232	0.000139	20.764450
1937.543232	-2.993000	3.340300	-9.996800	26.655913	0.000139	20.752351
1938.545725	-2.977300	3.340300	-9.944100	26.671795	0.000136	20.743186
1939.538882	-3.024600	3.338500	-10.097000	26.684887	0.000138	20.742598
1940.543198	-2.997600	3.339800	-10.010000	26.624312	0.000138	20.749031
1941.542138	-3.010300	3.340000	-10.053000	26.654604	0.000137	20.726377
1942.539697	-2.999900	3.339400	-10.017000	26.713852	0.000135	20.763183
1943.544791	-2.997600	3.338100	-10.005000	26.679033	0.000137	20.752359
1944.544899	-3.006800	3.338500	-10.037000	26.660085	0.000136	20.750855
1945.545522	-2.996300	3.337300	-9.998100	26.690710	0.000136	20.742287
1946.544775	-2.975600	3.337700	-9.930700	26.683757	0.000136	20.736720
1947.545371	-2.985700	3.337100	-9.963000	26.671966	0.000137	20.745729
1948.545601	-2.986800	3.337000	-9.965400	26.739288	0.000137	20.747503
1949.549230	-2.985000	3.336100	-9.957800	26.766300	0.000135	20.737202
1950.547005	-3.013300	3.335300	-10.050000	26.734149	0.000136	20.737120
1951.553989	-2.981100	3.336700	-9.946200	26.702574	0.000134	20.740938
1952.550490	-2.983900	3.335600	-9.952200	26.707388	0.000136	20.757632
1953.547683	-2.992500	3.336200	-9.983000	26.626745	0.000134	20.734406
1954.546608	-3.009400	3.335000	-10.035000	26.650799	0.000133	20.712120
1955.544547	-3.018500	3.333900	-10.063000	26.730734	0.000133	20.734161
1956.555165	-3.014900	3.334700	-10.053000	26.736962	0.000135	20.741846
1957.548513	-2.994500	3.334800	-9.985100	26.760787	0.000133	20.734504
1958.551478	-3.001800	3.332800	-10.004000	26.827558	0.000131	20.730989
1959.551121	-3.032800	3.333300	-10.108000	26.862202	0.000133	20.744013
1960.547740	-3.004100	3.332700	-10.011000	26.867958	0.000131	20.741265
1961.550174	-3.021300	3.332400	-10.067000	26.833631	0.000131	20.741364
1962.545642	-3.001600	3.331300	-9.998600	26.815248	0.000130	20.730940
1963.552652	-2.994000	3.331800	-9.975200	26.799588	0.000130	20.719462
1964.555629	-3.030400	3.330600	-10.092000	26.800377	0.000132	20.735428
1965.551238	-2.996500	3.331900	-9.982700	26.802540	0.000131	20.750880
1966.552888	-3.011200	3.330500	-10.028000	26.795661	0.000129	20.740170
1967.558338	-2.995200	3.331300	-9.977500	26.810979	0.000130	20.731864
1968.551568	-2.996100	3.330700	-9.978100	26.824216	0.000130	20.712930
1969.552146	-2.997400	3.330500	-9.981500	26.818305	0.000128	20.743972
1970.551448	-3.000100	3.330000	-9.988800	26.800239	0.000127	20.731970
1971.548951	-2.996600	3.329000	-9.974800	26.789213	0.000128	20.700020
1972.552164	-2.998800	3.327700	-9.977900	26.753225	0.000126	20.742549
1973.550010	-2.987000	3.328000	-9.939300	26.766308	0.000126	20.721563
1974.551619	-2.972800	3.329400	-9.897000	26.800938	0.000126	20.728880
1975.554961	-3.035000	3.328200	-10.100000	26.809646	0.000126	20.722462
1976.554622	-3.006400	3.327900	-10.004000	26.828461	0.000125	20.722887
1977.554053	-3.004500	3.328000	-9.998300	26.835689	0.000126	20.718301
1978.556921	-3.000400	3.326600	-9.980600	26.831697	0.000124	20.729935
1979.559245	-2.990700	3.327600	-9.949800	26.854357	0.000122	20.710518
1980.554185	-3.003000	3.326800	-9.989400	26.880715	0.000124	20.716159
1981.555043	-2.979600	3.327200	-9.912900	26.963185	0.000123	20.722275
1982.555133	-2.989900	3.325600	-9.942800	26.969364	0.000124	20.711892
1983.557638	-2.994100	3.324800	-9.954300	26.972396	0.000123	20.713519
1984.558889	-3.025700	3.324000	-10.056000	26.939398	0.000123	20.720640
1985.559724	-2.991400	3.325200	-9.946100	26.860430	0.000121	20.723738
1986.558484	-2.987200	3.325200	-9.931800	26.838210	0.000121	20.742174
1987.558653	-2.991100	3.324500	-9.942000	26.849080	0.000120	20.702842
1988.555809	-3.002700	3.323800	-9.980100	26.850544	0.000120	20.718539
1989.556808	-3.002200	3.323100	-9.976200	26.861325	0.000118	20.711835
1990.563643	-2.992000	3.323500	-9.942600	26.852804	0.000119	20.723183
1991.559073	-2.994300	3.322400	-9.947300	26.818087	0.000120	20.731424
1992.557291	-2.986000	3.322100	-9.918800	26.827567	0.000118	20.715825
1993.562816	-3.004500	3.321300	-9.977400	26.805850	0.000118	20.706791
1994.565941	-2.984700	3.322300	-9.915100	26.765968	0.000117	20.733550
1995.565002	-2.998000	3.321300	-9.956500	26.787816	0.000119	20.711418
1996.562101	-2.979700	3.322600	-9.899600	26.809997	0.000117	20.704322
1997.563236	-2.996000	3.321100	-9.949400	26.900196	0.000117	20.710617
1998.561441	-3.008500	3.320500	-9.988900	26.941959	0.000116	20.723690
1999.565205	-2.992500	3.320000	-9.934700	26.943976	0.000117	20.695844
2000.564673	-2.986900	3.319700	-9.914400	26.946284	0.000116	20.724246
2001.561936	-3.011900	3.319900	-9.997300	26.965479	0.000116	20.721262
2002.563377	-3.018500	3.319100	-10.018000	26.991282	0.000115	20.726821
2003.561155	-2.999400	3.319700	-9.956300	26.959048	0.000117	20.708157
2004.566235	-2.995600	3.318800	-9.940900	26.986989	0.000114	20.713021
2005.564092	-2.991900	3.318400	-9.927100	26.893782	0.000114	20.705590
2006.568070	-3.003800	3.317300	-9.963700	26.948626	0.000115	20.723756
2007.560338	-3.010900	3.316300	-9.984400	26.933879	0.000114	20.717460
2008.564722	-3.002300	3.317300	-9.958900	26.959666	0.000113	20.714942
2009.564809	-3.024800	3.315800	-10.029000	26.922530	0.000113	20.707945
2010.564528	-2.975000	3.317300	-9.867900	26.890384	0.000112	20.706914
2011.563837	-3.017000	3.316200	-10.004000	26.884847	0.000112	20.729798
2012.563248	-2.999700	3.315600	-9.944900	26.849724	0.000112	20.698272
2013.563195	-3.002000	3.315000	-9.950200	26.834633	0.000112	20.693530
2014.561622	-3.020100	3.315300	-10.011000	26.823373	0.000111	20.707814
2015.564168	-2.995600	3.316200	-9.933200	26.882660	0.000113	20.696776
2016.561263	-3.019900	3.313100	-10.004000	26.951349	0.000110	20.709424
2017.563559	-2.999200	3.314400	-9.939800	26.937781	0.000109	20.695304
2018.563755	-3.011300	3.314900	-9.981500	26.947797	0.000109	20.710593
2019.562894	-2.994100	3.315000	-9.924600	26.898115	0.000109	20.710421
2020.562914	-3.004300	3.313600	-9.954200	26.889733	0.000107	20.698673
2021.566865	-3.017900	3.314200	-10.001000	26.829397	0.000108	20.712923
2022.564271	-3.036000	3.311800	-10.053000	26.823023	0.000106	20.725481
2023.563540	-2.995200	3.311800	-9.918800	26.833048	0.000108	20.710904
2024.564363	-2.983800	3.312600	-9.883900	26.857537	0.000106	20.694748
2025.566448	-3.001000	3.312900	-9.941300	26.824560	0.000107	20.692410
2026.562435	-3.015800	3.310600	-9.983200	26.875879	0.000106	20.703235
2027.568512	-2.996500	3.309800	-9.916900	26.903904	0.000107	20.706284
2028.563212	-3.003800	3.309100	-9.939000	26.910977	0.000106	20.702965
2029.563022	-2.995500	3.311900	-9.920000	26.909294	0.000104	20.710283
2030.563977	-3.010100	3.309900	-9.962000	26.899489	0.000107	20.701845
2031.565293	-3.017300	3.309800	-9.985900	26.858570	0.000105	20.690097
2032.562088	-3.004900	3.308700	-9.941600	26.837496	0.000104	20.691192
2033.564550	-2.983600	3.309200	-9.872200	26.830853	0.000103	20.707274
2034.563185	-3.008500	3.308600	-9.953300	26.818088	0.000104	20.690170
2035.563759	-3.001900	3.308500	-9.930700	26.829528	0.000105	20.706890
2036.568083	-3.003400	3.308400	-9.935200	26.874245	0.000103	20.679304
2037.564486	-3.002000	3.307100	-9.926300	26.957098	0.000104	20.671579
2038.567045	-3.011000	3.305900	-9.953400	26.981966	0.000103	20.694218
2039.564771	-3.013100	3.305400	-9.958200	27.035115	0.000102	20.694086
2040.565156	-2.999300	3.306500	-9.916900	27.011345	0.000101	20.696261
2041.563322	-3.011800	3.306200	-9.957200	26.994908	9.971681E-5	20.684946
2042.566630	-3.012300	3.304100	-9.951300	27.055689	0.000101	20.679215
2043.574675	-3.004300	3.305500	-9.930200	27.023344	9.965081E-5	20.682722
2044.566896	-3.033900	3.303700	-10.022000	27.049153	0.000101	20.701567
2045.568386	-2.976300	3.304200	-9.833000	27.084319	9.889175E-5	20.693784
2046.568513	-2.987200	3.304800	-9.871600	27.074458	9.816570E-5	20.700937
2047.568558	-2.971600	3.305200	-9.820500	27.059875	9.885875E-5	20.695754
2048.568332	-2.979000	3.303700	-9.839300	27.110672	9.809969E-5	20.701322
2049.569130	-3.008200	3.303800	-9.937400	27.092033	9.813270E-5	20.697749
2050.569845	-2.989100	3.303300	-9.872700	27.073028	9.654858E-5	20.692386
2051.570388	-3.006900	3.302200	-9.928300	27.070914	9.800069E-5	20.690260
2052.572403	-2.992000	3.303200	-9.883000	27.029497	9.555851E-5	20.690333
2053.573362	-2.992800	3.301900	-9.881300	27.001086	9.466744E-5	20.685943
2054.570268	-2.987900	3.303700	-9.870200	27.007329	9.625156E-5	20.687954
2055.569298	-2.975800	3.301500	-9.823700	27.029749	9.364437E-5	20.674464
2056.572833	-2.974600	3.301200	-9.818600	27.103193	9.466744E-5	20.680522
2057.569330	-2.995300	3.300200	-9.884600	27.170235	9.367737E-5	20.693898
2058.573424	-2.998200	3.300400	-9.893900	27.174153	9.479945E-5	20.680293
2059.570959	-3.003000	3.301000	-9.912400	27.157929	9.324834E-5	20.675829
2060.577940	-3.003800	3.299400	-9.909100	27.102405	9.417241E-5	20.681626
2061.576717	-2.991900	3.299000	-9.868800	27.131903	9.189524E-5	20.684741
2062.576075	-3.008900	3.299100	-9.926300	27.161806	9.341335E-5	20.679255
2063.579437	-3.017500	3.298500	-9.951800	27.144884	9.262129E-5	20.687840
2064.581505	-2.995200	3.297800	-9.876200	27.156548	9.087217E-5	20.678233
2065.575210	-3.020900	3.297700	-9.961200	27.146599	9.248928E-5	20.673917
2066.581639	-3.006100	3.297900	-9.912900	27.189726	9.229127E-5	20.665610
2067.576730	-3.010000	3.297200	-9.923600	27.163871	9.074016E-5	20.669951
2068.576827	-3.007300	3.295900	-9.910500	27.088026	8.935405E-5	20.672380
2069.581537	-2.984000	3.296800	-9.837000	27.088659	8.971708E-5	20.687243
2070.580668	-2.992400	3.296000	-9.862900	27.051787	9.014611E-5	20.689042
2071.577471	-2.992800	3.296400	-9.864700	27.033481	8.885902E-5	20.683434
2072.579904	-3.021500	3.295400	-9.956400	27.019507	8.902403E-5	20.680760
2073.580857	-3.012300	3.295400	-9.926400	27.057803	8.895803E-5	20.677073
2074.582118	-3.011800	3.294000	-9.919700	27.052568	8.869401E-5	20.677024
2075.582438	-2.997000	3.294400	-9.872700	27.099365	8.823197E-5	20.687579
2076.579414	-3.005500	3.293700	-9.898100	27.169317	8.618582E-5	20.691552
2077.576849	-2.999200	3.294200	-9.879400	27.147705	8.819897E-5	20.685936
2078.583106	-3.013600	3.291200	-9.917400	27.147908	8.767093E-5	20.715540
2079.585134	-3.014300	3.293000	-9.924500	27.193482	8.496473E-5	20.694520
2080.583193	-3.000900	3.292900	-9.880900	27.180111	8.397466E-5	20.687710
2081.578325	-3.003800	3.292000	-9.888000	27.204771	8.555878E-5	20.675054
2082.582270	-2.991600	3.291500	-9.846000	27.164904	8.503074E-5	20.701339
2083.586191	-2.999400	3.291600	-9.871600	27.147233	8.602081E-5	20.670287
2084.581033	-2.977500	3.292200	-9.801600	27.120272	8.371064E-5	20.674939
2085.581139	-2.983100	3.290500	-9.815100	27.150387	8.456870E-5	20.689108
2086.582818	-3.013500	3.288800	-9.909800	27.157036	8.334762E-5	20.678250
2087.583036	-3.005200	3.289000	-9.883500	27.125978	8.143348E-5	20.688266
2088.585805	-2.994500	3.291800	-9.856600	27.166741	8.344662E-5	20.701764
2089.585241	-3.022000	3.287800	-9.934200	27.224107	8.146648E-5	20.684546
2090.585530	-2.985000	3.290700	-9.822100	27.270775	8.100444E-5	20.665578
2091.587826	-3.012300	3.287200	-9.901500	27.241890	8.338062E-5	20.685838
2092.582205	-2.992500	3.288600	-9.840000	27.230236	8.305059E-5	20.700195
2093.586996	-3.018500	3.286000	-9.916600	27.263534	8.027839E-5	20.660664
2094.587402	-3.014300	3.287100	-9.907100	27.275863	7.942033E-5	20.692035
2095.586376	-2.984000	3.286700	-9.806800	27.274367	8.047641E-5	20.678676
2096.585212	-2.994700	3.287200	-9.843500	27.292361	8.017938E-5	20.684922
2097.589016	-3.006500	3.286400	-9.880000	27.267475	7.978335E-5	20.672217
2098.588503	-2.991100	3.286800	-9.830500	27.236445	7.928832E-5	20.682257
2099.589182	-2.993900	3.286000	-9.837600	27.139967	7.816624E-5	20.678152
2100.588918	-2.998000	3.286200	-9.851300	27.093570	7.862827E-5	20.674163
2101.586795	-3.005700	3.285300	-9.873900	27.184387	7.852926E-5	20.684898
2102.589029	-3.020500	3.284300	-9.919400	27.237006	7.849626E-5	20.700840
2103.587821	-3.025400	3.283600	-9.932200	27.292003	7.727517E-5	20.708746
2104.593283	-3.024800	3.283200	-9.930200	27.312256	7.730817E-5	20.692133
2105.587905	-3.006100	3.283500	-9.869500	27.279276	7.711016E-5	20.686933
2106.591124	-2.986000	3.284000	-9.804700	27.218889	7.717616E-5	20.677874
2107.589043	-2.993800	3.282700	-9.827000	27.268857	7.664813E-5	20.681194
2108.591238	-3.003400	3.281700	-9.855700	27.314677	7.522902E-5	20.696466
2109.591302	-2.971500	3.282400	-9.752500	27.330216	7.460198E-5	20.686966
2110.591546	-2.973500	3.281500	-9.757200	27.295929	7.575706E-5	20.697047
2111.593614	-3.015300	3.279700	-9.888200	27.232219	7.433796E-5	20.706931
2112.590266	-2.974900	3.281700	-9.760100	27.220474	7.437096E-5	20.683736
2113.592745	-2.997200	3.280100	-9.829300	27.262664	7.357890E-5	20.691561
2114.593580	-3.021600	3.279200	-9.907600	27.218125	7.440396E-5	20.678054
2115.596284	-3.009400	3.279000	-9.867400	27.202024	7.420595E-5	20.679878
2116.592663	-3.007800	3.280000	-9.864800	27.205276	7.308386E-5	20.674612
2117.598645	-3.034800	3.277400	-9.945200	27.193636	7.522902E-5	20.686614
2118.596146	-2.998600	3.278000	-9.828200	27.174837	7.176377E-5	20.692362
2119.596630	-3.015100	3.277400	-9.880100	27.229667	7.314987E-5	20.678758
2120.595712	-3.006400	3.276700	-9.848800	27.224855	7.222580E-5	20.667753
2121.594390	-3.006700	3.275900	-9.848400	27.203073	7.146675E-5	20.679984
2122.599775	-3.009900	3.275800	-9.859500	27.206324	7.140074E-5	20.691790
2123.604883	-3.025600	3.275900	-9.910500	27.186915	7.268784E-5	20.688389
2124.597647	-2.985000	3.275500	-9.776200	27.189101	7.156575E-5	20.693907
2125.601283	-3.008100	3.275200	-9.850700	27.257089	7.311687E-5	20.690220
2126.602809	-3.009500	3.275700	-9.857700	27.252668	6.839752E-5	20.687195
2127.599595	-3.026100	3.273400	-9.904100	27.330997	6.991563E-5	20.691545
2128.603085	-2.982300	3.274300	-9.763600	27.344414	6.892556E-5	20.683704
2129.599056	-3.000300	3.274200	-9.822600	27.415585	6.984963E-5	20.707888
2130.602377	-2.985600	3.273400	-9.772200	27.411368	6.661539E-5	20.697006
2131.603560	-3.002300	3.272600	-9.824300	27.347543	6.909057E-5	20.692542
2132.610092	-3.018200	3.273300	-9.877800	27.274075	6.813350E-5	20.696401
2133.605227	-2.992100	3.274600	-9.797200	27.248498	6.651638E-5	20.683001
2134.606196	-3.000500	3.271900	-9.816200	27.286737	6.767147E-5	20.687800
2135.605626	-3.031600	3.273300	-9.922200	27.301967	6.668140E-5	20.700751
2136.603623	-3.007400	3.271000	-9.836100	27.357067	6.909057E-5	20.690744
2137.606715	-2.994100	3.273200	-9.799300	27.366892	6.892556E-5	20.682609
2138.603633	-2.991100	3.272400	-9.786400	27.333101	6.961861E-5	20.704095
2139.605588	-2.989100	3.270700	-9.775600	27.283486	6.661539E-5	20.708240
2140.605929	-3.015600	3.268800	-9.856900	27.271921	6.730844E-5	20.697080
2141.602389	-3.017000	3.270300	-9.865600	27.324447	6.305113E-5	20.699655
2142.606773	-2.994200	3.270400	-9.790500	27.369045	6.549331E-5	20.697104
2143.607007	-2.986500	3.269700	-9.764000	27.393165	6.542730E-5	20.702877
2144.606916	-3.012000	3.267800	-9.841600	27.368087	6.367818E-5	20.698037
2145.606713	-2.991100	3.267600	-9.772600	27.353394	6.539430E-5	20.692264
2146.606072	-2.988700	3.267400	-9.764800	27.333849	6.460224E-5	20.707218
2147.603837	-3.013500	3.265700	-9.839100	27.313898	6.278711E-5	20.691414
2148.607922	-3.010700	3.267100	-9.835900	27.299854	6.212706E-5	20.706212
2149.608634	-2.978800	3.267600	-9.732000	27.376936	6.430522E-5	20.699353
2150.605629	-2.990300	3.266100	-9.766000	27.429789	6.169803E-5	20.691356
2151.609218	-2.982400	3.266200	-9.740400	27.467356	6.176404E-5	20.692640
2152.608829	-3.021600	3.264800	-9.863500	27.513183	6.176404E-5	20.698445
2153.608076	-2.999500	3.264500	-9.791000	27.498622	6.176404E-5	20.719832
2154.608426	-2.996500	3.264100	-9.779900	27.543068	6.519629E-5	20.702909
2155.603704	-3.002200	3.265400	-9.802300	27.601819	6.169803E-5	20.716030
2156.607077	-3.005500	3.264300	-9.810100	27.544124	6.008091E-5	20.691168
2157.607914	-3.008800	3.262400	-9.814500	27.482469	6.034493E-5	20.705950
2158.608113	-3.007900	3.262400	-9.812000	27.446642	6.031193E-5	20.703096
2159.609696	-2.972700	3.262600	-9.697400	27.427668	6.008091E-5	20.710086
2160.608668	-2.991000	3.263500	-9.760200	27.447259	5.697869E-5	20.704192
2161.613330	-3.014400	3.261100	-9.829400	27.433160	5.922285E-5	20.731735
2162.612494	-2.981300	3.261200	-9.721900	27.425075	6.001491E-5	20.717436
2163.612088	-2.989900	3.260600	-9.747600	27.430454	5.734171E-5	20.719529
2164.614315	-2.997300	3.261300	-9.774600	27.418988	5.612062E-5	20.711312
2165.610089	-2.993000	3.259500	-9.754600	27.469694	6.041094E-5	20.719651
2166.616368	-3.020900	3.258700	-9.843200	27.442627	6.083997E-5	20.712334
2167.608867	-2.999100	3.259700	-9.774300	27.517635	5.849680E-5	20.710511
2168.607942	-2.994500	3.258400	-9.756700	27.533503	5.727571E-5	20.707036
2169.632216	-2.998100	3.258400	-9.768500	27.567604	5.701169E-5	20.709578
2170.622290	-3.004600	3.259900	-9.793900	27.543391	5.810077E-5	20.709872
2171.612715	-3.005000	3.257500	-9.788100	27.552044	5.420648E-5	20.716683
2172.617921	-2.977400	3.257900	-9.699600	27.492616	5.546057E-5	20.714263
2173.617548	-3.011200	3.257100	-9.807000	27.502407	5.513055E-5	20.728856
2174.610937	-2.971200	3.256300	-9.674200	27.524256	5.414048E-5	20.715276
2175.616971	-2.999600	3.255800	-9.765600	27.569822	5.278738E-5	20.721293
2176.618666	-3.014700	3.254900	-9.811600	27.620934	5.496554E-5	20.708237
2177.612938	-3.023300	3.255100	-9.840200	27.546072	5.447050E-5	20.704508
2178.612933	-2.988200	3.255900	-9.728900	27.499887	5.235835E-5	20.721105
2179.613819	-3.004800	3.254900	-9.779800	27.563654	5.140128E-5	20.727416
2180.615734	-2.998600	3.255200	-9.760300	27.558722	5.186331E-5	20.725299
2181.620611	-3.010200	3.253200	-9.790600	27.597779	5.361244E-5	20.719077
2182.619407	-3.008400	3.252800	-9.784400	27.570520	5.060922E-5	20.739540
2183.616256	-3.016500	3.253300	-9.812600	27.592465	5.080723E-5	20.732223
2184.620773	-3.029000	3.251800	-9.848800	27.591148	5.219333E-5	20.718096
2185.621288	-2.990300	3.252100	-9.724000	27.581204	5.140128E-5	20.716624
2186.615889	-2.980500	3.252000	-9.691400	27.540497	4.895910E-5	20.746792
2187.613490	-3.024800	3.249600	-9.828700	27.553863	5.057622E-5	20.731790
2188.617894	-3.007300	3.249900	-9.772700	27.528935	5.087324E-5	20.730890
2189.614977	-3.017000	3.249600	-9.802300	27.530779	4.965215E-5	20.725634
2190.614920	-3.007100	3.249100	-9.770000	27.533541	4.770501E-5	20.729361
2191.617746	-2.996300	3.250000	-9.737500	27.537628	4.839806E-5	20.722567
2192.613940	-3.011600	3.249100	-9.783900	27.605716	5.166530E-5	20.729909
2193.620348	-2.998400	3.249000	-9.740800	27.619600	4.932212E-5	20.723017
2194.620175	-3.006800	3.249100	-9.768000	27.701566	4.889309E-5	20.732950
2195.618460	-3.004200	3.247900	-9.755400	27.708512	4.905810E-5	20.723818
2196.618571	-3.017600	3.246300	-9.795500	27.699040	4.952014E-5	20.727088
2197.617982	-3.000300	3.248100	-9.743600	27.706619	4.800203E-5	20.742303
2198.614530	-2.975900	3.246200	-9.659800	27.747149	4.760600E-5	20.724766
2199.618779	-3.003700	3.246200	-9.749800	27.761722	4.658292E-5	20.741804
2200.619295	-2.992600	3.246000	-9.712900	27.786645	4.836505E-5	20.746497
2201.618981	-2.988200	3.245600	-9.698200	27.755118	4.618689E-5	20.740373
2202.616446	-2.984600	3.246300	-9.687700	27.705725	4.565886E-5	20.739506
2203.620059	-2.988000	3.244400	-9.692600	27.712216	4.456978E-5	20.736081
2204.617338	-3.001900	3.244400	-9.738800	27.671222	4.473479E-5	20.734184
2205.620420	-2.995100	3.244100	-9.715800	27.574296	4.476779E-5	20.737650
2206.622380	-3.014500	3.242400	-9.773800	27.537359	4.460278E-5	20.739841
2207.615245	-2.981300	3.244600	-9.671500	27.548572	4.489980E-5	20.756813
2208.617015	-3.010900	3.241300	-9.757700	27.534629	4.341469E-5	20.748949
2209.619916	-3.020400	3.240600	-9.786500	27.591870	4.470179E-5	20.767662
2210.619562	-3.007900	3.241900	-9.749800	27.662180	4.658292E-5	20.741680
2211.623507	-3.012100	3.241100	-9.761700	27.677209	4.315067E-5	20.739261
2212.622450	-3.040300	3.238900	-9.846300	27.693522	4.417375E-5	20.749038
2213.622310	-3.012300	3.239800	-9.758600	27.722037	4.453677E-5	20.741222
2214.626657	-2.975100	3.239800	-9.638000	27.717967	4.410774E-5	20.763680
2215.620911	-2.975100	3.240000	-9.638800	27.715457	4.249062E-5	20.761154
2216.618097	-2.976100	3.239700	-9.640300	27.707690	4.245762E-5	20.747174
2217.620668	-3.009200	3.238600	-9.745300	27.708356	4.130254E-5	20.754482
2218.620949	-3.037700	3.237700	-9.833600	27.742208	4.136854E-5	20.752512
2219.630285	-3.013500	3.236800	-9.753100	27.766521	4.288665E-5	20.776506
2220.622240	-2.999400	3.238800	-9.714100	27.757244	4.196258E-5	20.775231
2221.622931	-3.009600	3.235900	-9.737800	27.705017	4.173157E-5	20.775778
2222.622753	-3.015500	3.237200	-9.761100	27.659310	4.146755E-5	20.756338
2223.623520	-3.009900	3.235400	-9.738200	27.677541	3.975142E-5	20.774683
2224.623198	-2.988100	3.236700	-9.670700	27.740477	4.176457E-5	20.758357
2225.622481	-2.994800	3.236300	-9.690900	27.802962	4.054348E-5	20.751064
2226.622826	-3.008700	3.235300	-9.733300	27.777292	4.229261E-5	20.773121
2227.619077	-3.007300	3.233900	-9.724200	27.778803	4.130254E-5	20.747140
2228.619678	-3.014200	3.233500	-9.745800	27.739916	4.034547E-5	20.770595
2229.622612	-3.000300	3.232900	-9.698600	27.771062	3.777128E-5	20.790084
2230.620777	-3.012200	3.232600	-9.737000	27.744051	3.922338E-5	20.749151
2231.623431	-3.014800	3.232500	-9.744500	27.728949	3.806830E-5	20.766196
2232.623611	-2.988500	3.233200	-9.661200	27.718355	3.754026E-5	20.766441
2233.623446	-3.009600	3.231800	-9.725200	27.659951	4.004844E-5	20.758405
2234.623042	-2.971000	3.231500	-9.599800	27.690579	3.780428E-5	20.765518
2235.623122	-3.003500	3.232000	-9.706200	27.745976	3.886036E-5	20.778590
2236.623893	-2.995000	3.230900	-9.675600	27.798137	3.737525E-5	20.769442
2237.619309	-3.019200	3.229900	-9.750100	27.786690	3.836532E-5	20.779260
2238.620776	-2.980900	3.229800	-9.626300	27.723278	3.691321E-5	20.797948
2239.622985	-2.989600	3.229200	-9.652600	27.720345	3.721024E-5	20.740942
2240.624843	-2.991200	3.228900	-9.657700	27.792084	3.704522E-5	20.788007
2241.623640	-2.994100	3.228700	-9.665700	27.839986	3.737525E-5	20.758928
2242.624290	-2.995600	3.229500	-9.673200	27.817371	3.499907E-5	20.765566
2243.625504	-3.008200	3.228200	-9.709600	27.837110	3.737525E-5	20.760775
2244.624866	-2.970500	3.228000	-9.588100	27.816697	3.622016E-5	20.788121
2245.627163	-2.992600	3.226500	-9.654400	27.849481	3.499907E-5	20.762320
2246.625412	-2.991100	3.225500	-9.647100	27.789769	3.523009E-5	20.786151
2247.627971	-2.997800	3.226100	-9.670200	27.752904	3.605515E-5	20.785562
2248.629977	-3.007600	3.226100	-9.701800	27.722505	3.414101E-5	20.784843
2249.622999	-3.006200	3.224300	-9.692100	27.749760	3.450404E-5	20.809425
2250.624886	-3.005600	3.225900	-9.694400	27.755902	3.361297E-5	20.784785
2251.627431	-2.995300	3.223300	-9.654100	27.805974	3.357997E-5	20.769743
2252.629320	-2.983600	3.224600	-9.620300	27.729638	3.470205E-5	20.769261
2253.626560	-3.002500	3.223800	-9.678800	27.711262	3.219387E-5	20.781115
2254.631358	-2.997900	3.224100	-9.665300	27.707939	3.622016E-5	20.781090
2255.628570	-2.994900	3.222700	-9.651300	27.743594	3.324994E-5	20.783305
2256.626567	-3.015500	3.221100	-9.712100	27.803577	3.176484E-5	20.793410
2257.631209	-2.994900	3.221700	-9.647900	27.842633	3.397600E-5	20.774869
2258.629704	-3.020700	3.221100	-9.728800	27.890411	3.321694E-5	20.806833
2259.628137	-2.994000	3.221700	-9.643900	27.838604	3.407501E-5	20.791676
2260.625476	-2.996100	3.220000	-9.646400	27.847978	3.179784E-5	20.796369
2261.631731	-2.995000	3.220400	-9.644000	27.809613	3.308493E-5	20.807544
2262.634262	-2.987700	3.218600	-9.615600	27.793399	3.173183E-5	20.778425
2263.631522	-3.035900	3.217300	-9.766100	27.823869	3.219387E-5	20.790123
2264.633712	-2.999700	3.218300	-9.653100	27.874774	3.136881E-5	20.786828
2265.632886	-3.008800	3.217100	-9.678100	27.905591	3.249089E-5	20.787499
2266.628959	-3.019900	3.217400	-9.715600	27.931136	3.173183E-5	20.788554
2267.635466	-2.970800	3.217100	-9.556800	27.922404	3.107178E-5	20.792093
2268.633204	-2.977800	3.217400	-9.579500	27.972063	3.146781E-5	20.803195
2269.629041	-3.008700	3.215400	-9.673600	27.959758	3.074176E-5	20.792706
2270.633899	-2.994000	3.216200	-9.628300	27.980566	3.140181E-5	20.796107
2271.635927	-3.005800	3.215400	-9.664200	27.985691	3.315094E-5	20.797472
2272.633947	-3.009500	3.214500	-9.672800	27.986885	3.202886E-5	20.795355
2273.635160	-2.999500	3.214700	-9.641700	28.001081	3.159982E-5	20.798739
2274.633769	-3.017700	3.212800	-9.694200	27.963348	2.839859E-5	20.770715
2275.631719	-3.029300	3.213000	-9.732600	27.876350	2.859660E-5	20.799320
2276.635947	-2.996700	3.212100	-9.624900	27.865262	2.826658E-5	20.794799
2277.631239	-2.994600	3.212400	-9.619200	27.978056	2.886062E-5	20.810176
2278.632564	-2.993200	3.211200	-9.610900	28.013110	2.833258E-5	20.795674
2279.635796	-2.980100	3.212400	-9.572100	28.004428	2.826658E-5	20.809220
2280.634736	-3.000300	3.209700	-9.629300	27.966515	2.915764E-5	20.795240
2281.637526	-2.995800	3.212100	-9.621600	27.994779	2.608842E-5	20.809939
2282.639375	-2.990600	3.209000	-9.595900	27.971469	2.638544E-5	20.820141
2283.637692	-2.992300	3.210500	-9.605200	27.909830	2.820057E-5	20.798404
2284.636332	-2.994100	3.209300	-9.608200	27.904803	2.787055E-5	20.804723
2285.640532	-3.015000	3.207200	-9.669200	27.886519	2.674847E-5	20.799123
2286.641811	-2.988600	3.208800	-9.588600	27.867731	2.750752E-5	20.810560
2287.639394	-3.023000	3.206400	-9.692600	27.857091	2.664946E-5	20.813127
2288.641590	-2.990600	3.207000	-9.590800	27.920544	2.641844E-5	20.821989
2289.636966	-3.013000	3.206200	-9.659800	27.945584	2.740852E-5	20.823010
2290.641739	-2.981600	3.206100	-9.558900	28.015384	2.780454E-5	20.833523
2291.644340	-2.992400	3.205200	-9.590500	28.060368	2.496634E-5	20.810053
2292.637532	-3.000100	3.204600	-9.613200	28.103409	2.684747E-5	20.842000
2293.638165	-2.964300	3.206500	-9.503800	28.127179	2.546137E-5	20.809505
2294.643670	-2.993700	3.204900	-9.594300	28.098317	2.457031E-5	20.842090
2295.637966	-3.021900	3.202600	-9.676000	28.093112	2.242515E-5	20.829738
2296.640940	-3.004700	3.203700	-9.625100	28.051637	2.546137E-5	20.837774
2297.645844	-2.994100	3.202600	-9.588700	28.072143	2.272217E-5	20.808631
2298.643344	-2.989100	3.202500	-9.571600	28.047593	2.490033E-5	20.841289
2299.644254	-2.978400	3.202000	-9.536300	28.014668	2.371224E-5	20.798191
2300.641267	-2.982200	3.200500	-9.543500	27.964979	2.513135E-5	20.808393
2301.643805	-2.996200	3.200500	-9.588700	27.942912	2.318421E-5	20.832648
2302.643432	-3.011700	3.199500	-9.635300	27.929795	2.275517E-5	20.816127
2303.643437	-3.013800	3.200600	-9.644300	27.901651	2.143508E-5	20.817198
2304.651268	-2.999800	3.199700	-9.597900	27.915629	2.325021E-5	20.815620
2305.643637	-3.023300	3.197200	-9.665000	27.957978	2.130307E-5	20.833114
2306.645317	-3.011800	3.196200	-9.625700	28.040876	2.183111E-5	20.828364
2307.644305	-3.011900	3.196800	-9.627200	27.993381	2.265617E-5	20.831291
2308.643803	-3.020200	3.196700	-9.653900	28.048250	2.285418E-5	20.814924
2309.641952	-3.002400	3.195600	-9.593300	28.129395	2.120406E-5	20.832125
2310.644810	-2.990900	3.195300	-9.555700	28.196868	2.130307E-5	20.836040
2311.640760	-2.963700	3.194800	-9.467700	28.185986	2.018098E-5	20.817500
2312.644290	-2.977700	3.196300	-9.516700	28.168836	2.117106E-5	20.796441
2313.642530	-2.998000	3.194800	-9.577400	28.110457	1.994997E-5	20.813535
2314.645547	-3.021200	3.193600	-9.647700	28.079931	1.985096E-5	20.848711
2315.643913	-3.023900	3.191600	-9.650800	28.111261	2.103905E-5	20.812447
2316.643382	-3.005900	3.192100	-9.594400	28.104375	1.968595E-5	20.819265
2317.644881	-3.006700	3.192200	-9.597100	28.084559	2.057701E-5	20.828241
2318.651713	-2.981800	3.191400	-9.515200	28.088750	2.041200E-5	20.831985
2319.645812	-2.972700	3.190000	-9.481600	28.113340	1.945493E-5	20.807428
2320.641817	-3.012300	3.189400	-9.607000	28.123320	1.747479E-5	20.828854
2321.649421	-2.989500	3.190200	-9.536100	28.128623	1.955394E-5	20.809537
2322.643280	-2.980700	3.189800	-9.506600	28.076796	1.839885E-5	20.807624
2323.646037	-2.998100	3.188600	-9.558900	28.117392	1.948793E-5	20.793963
2324.642490	-3.018900	3.188100	-9.623500	28.175754	1.925692E-5	20.818104
2325.646065	-3.006000	3.187200	-9.579600	28.155267	2.107205E-5	20.798901
2326.648839	-3.012100	3.186500	-9.597100	28.162453	1.655072E-5	20.800920
2327.646929	-2.999800	3.186700	-9.558100	28.151482	1.800282E-5	20.808842
2328.647858	-2.997100	3.185900	-9.547800	28.161966	1.681474E-5	20.789050
2329.647221	-2.996400	3.185500	-9.544300	28.206976	1.648471E-5	20.806389
2330.647406	-2.978000	3.186600	-9.488900	28.186725	1.757379E-5	20.800225
2331.644093	-2.992600	3.184900	-9.530900	28.163996	1.754079E-5	20.808163
2332.647541	-3.000000	3.183100	-9.548500	28.096001	1.575866E-5	20.817000
2333.649144	-3.023800	3.182500	-9.622600	28.099599	1.615469E-5	20.790276
2334.648431	-3.005800	3.183000	-9.566900	28.087953	1.886089E-5	20.813166
2335.648920	-3.014800	3.180100	-9.587000	28.133511	1.711176E-5	20.787431
2336.651928	-3.026400	3.180800	-9.625000	28.211946	1.585767E-5	20.788633
2337.649548	-3.006300	3.180800	-9.560800	28.187114	1.552764E-5	20.787341
2338.648189	-2.964200	3.180500	-9.426800	28.199099	1.697975E-5	20.780441
2339.651814	-3.006700	3.178600	-9.556400	28.137084	1.381152E-5	20.778700
2340.646304	-2.984500	3.179100	-9.487600	28.072166	1.631970E-5	20.801067
2341.654282	-2.972700	3.177700	-9.444400	28.051716	1.612169E-5	20.798974
2342.650445	-3.007300	3.178300	-9.557700	28.087450	1.565965E-5	20.784684
2343.648118	-3.007200	3.176100	-9.550200	28.147811	1.575866E-5	20.810362
2344.650077	-2.974200	3.175500	-9.443900	28.113867	1.532963E-5	20.802268
2345.654763	-3.017600	3.175300	-9.580500	28.109676	1.559365E-5	20.804688
2346.651497	-3.014500	3.175600	-9.571700	28.142768	1.589067E-5	20.794379
2347.656634	-3.004200	3.173600	-9.533100	28.196436	1.486759E-5	20.787243
2348.654760	-2.991500	3.174800	-9.496800	28.227982	1.325048E-5	20.775854
2349.650737	-2.977200	3.174400	-9.450300	28.211401	1.235941E-5	20.786188
2350.659090	-3.020300	3.173100	-9.582600	28.260242	1.361350E-5	20.778936
2351.655952	-2.999900	3.170300	-9.509700	28.277220	1.414154E-5	20.786073
2352.654256	-2.982100	3.171400	-9.456600	28.278365	1.400953E-5	20.769682
2353.659020	-2.999500	3.171100	-9.511000	28.258180	1.490060E-5	20.772118
2354.655475	-2.999000	3.170900	-9.507300	28.227617	1.117132E-5	20.766477
2355.653830	-2.985900	3.170400	-9.466200	28.254087	1.252442E-5	20.802611
2356.652196	-3.040500	3.168100	-9.631600	28.245683	1.301946E-5	20.768071
2357.658694	-3.007300	3.168000	-9.525900	28.234868	1.166636E-5	20.780416
2358.656264	-2.986800	3.168100	-9.461200	28.173821	1.414154E-5	20.771587
2359.658244	-2.985900	3.167500	-9.457100	28.111893	1.146834E-5	20.785108
2360.661155	-2.982200	3.166300	-9.441900	28.116221	1.450457E-5	20.782353
2361.656652	-2.972500	3.167300	-9.413800	28.144960	1.272244E-5	20.784258
2362.660733	-2.979900	3.166500	-9.435500	28.187771	1.047827E-5	20.787528
2363.656623	-3.007000	3.164200	-9.513700	28.232505	1.047827E-5	20.769028
2364.657618	-2.992600	3.163600	-9.465400	28.282319	1.097331E-5	20.789310
2365.661584	-2.999000	3.162900	-9.484900	28.239861	1.179837E-5	20.761261
2366.658909	-2.984900	3.161800	-9.436800	28.230418	1.262343E-5	20.757917
2367.657325	-3.010400	3.160600	-9.513600	28.177872	1.031326E-5	20.769976
2368.666040	-3.009500	3.160700	-9.510700	28.248111	1.146834E-5	20.780947
2369.659478	-2.981800	3.160200	-9.421600	28.307749	1.064328E-5	20.756119
2370.657125	-2.991200	3.158800	-9.447800	28.373554	1.186437E-5	20.776860
2371.658258	-2.991600	3.157400	-9.444500	28.378230	9.653210E-6	20.766869
2372.661446	-3.000200	3.157200	-9.470200	28.399599	9.059167E-6	20.769894
2373.669202	-3.005200	3.156400	-9.484600	28.357064	9.257181E-6	20.767368
2374.663394	-2.997000	3.156300	-9.458300	28.271090	1.120432E-5	20.759986
2375.667285	-3.036800	3.155100	-9.580400	28.214770	9.422193E-6	20.756863
2376.660621	-3.012400	3.154600	-9.501900	28.191888	1.087430E-5	20.747101
2377.661873	-3.004100	3.153600	-9.471500	28.100792	7.574058E-6	20.753069
2378.667454	-3.010200	3.153300	-9.491000	28.059975	5.593912E-6	20.769355
2379.660772	-3.038900	3.151800	-9.576500	28.073221	6.781999E-6	20.755187
2380.665402	-3.005900	3.153000	-9.476500	28.128630	8.894155E-6	20.762602
2381.662826	-3.033100	3.150500	-9.554000	28.191433	9.191176E-6	20.766559
2382.659311	-3.024300	3.150700	-9.527100	28.224628	8.333113E-6	20.781487
2383.665514	-2.993300	3.149000	-9.424400	28.274061	7.376043E-6	20.762504
2384.668027	-2.980400	3.149600	-9.385500	28.334664	7.112024E-6	20.758089
2385.665253	-2.965700	3.149200	-9.338800	28.345422	7.376043E-6	20.768921
2386.661215	-2.997500	3.147500	-9.433900	28.321754	7.739070E-6	20.773066
2387.668993	-2.987400	3.148100	-9.403600	28.362569	7.541055E-6	20.776230
2388.666478	-3.050200	3.145400	-9.592900	28.408618	7.772072E-6	20.754320
2389.665927	-3.001000	3.146500	-9.442200	28.444583	7.640062E-6	20.759242
2390.670497	-3.016200	3.144500	-9.483400	28.425221	5.395897E-6	20.757762
2391.664007	-3.021500	3.142600	-9.494300	28.353890	7.409045E-6	20.748998
2392.664401	-3.010200	3.142500	-9.458300	28.362471	5.956939E-6	20.751949
2393.666688	-2.993300	3.142600	-9.406000	28.400037	6.815002E-6	20.744730
2394.666813	-2.992800	3.140800	-9.399300	28.414878	6.088948E-6	20.750191
2395.663861	-3.000600	3.140600	-9.422600	28.370493	5.329892E-6	20.764294
2396.670373	-3.004700	3.138500	-9.429100	28.344342	3.085727E-6	20.751238
2397.667068	-2.986100	3.139300	-9.373800	28.270091	4.504832E-6	20.745703
2398.670239	-2.995700	3.138400	-9.399800	28.314658	6.286963E-6	20.761179
2399.664726	-3.010300	3.136600	-9.441400	28.285510	6.881007E-6	20.747951
2400.669809	-2.975300	3.136900	-9.332200	28.352185	5.857931E-6	20.739220
2401.669395	-3.019600	3.136100	-9.468300	28.337213	4.273815E-6	20.763027
2402.669134	-3.003700	3.134800	-9.415200	28.309746	4.735849E-6	20.748646
2403.671480	-3.003700	3.132100	-9.407000	28.251505	4.240812E-6	20.761130
2404.670146	-3.006800	3.133100	-9.419800	28.249418	3.382749E-6	20.754761
2405.677165	-3.019200	3.131600	-9.453500	28.327348	4.372822E-6	20.723695
2406.666561	-3.013700	3.129600	-9.430400	28.412361	3.811781E-6	20.753347
2407.671504	-2.998300	3.130400	-9.384400	28.381185	3.217737E-6	20.747085
2408.670011	-3.010900	3.129700	-9.422500	28.375949	3.646768E-6	20.742760
2409.674820	-2.981500	3.128600	-9.327100	28.394979	4.950364E-8	20.737266
2410.668242	-2.997300	3.127000	-9.372100	28.369405	3.745776E-6	20.737593
2411.669674	-2.990700	3.127500	-9.352000	28.397853	1.864637E-6	20.740634
2412.668615	-3.008400	3.126300	-9.403500	28.430051	1.171586E-6	20.738918
2413.672705	-3.005800	3.124700	-9.390700	28.461964	3.943790E-6	20.744501
2414.670859	-2.986700	3.124600	-9.331100	28.506548	2.491683E-6	20.738664
2415.670779	-3.028400	3.122400	-9.455200	28.574418	2.326671E-6	20.743005
2416.675032	-3.008800	3.123600	-9.398100	28.574224	2.260666E-6	20.731429
2417.674165	-2.997700	3.120700	-9.353600	28.581083	1.600618E-6	20.744027
2418.671277	-3.002100	3.119800	-9.364800	28.493243	6.105450E-7	20.742809
2419.670730	-3.002400	3.118900	-9.362500	28.458570	5.775425E-7	20.738239
2420.682726	-3.003800	3.119400	-9.368000	28.455778	-8.085595E-7	20.728314
2421.678623	-2.987300	3.119000	-9.315600	28.423280	1.765630E-6	20.742057
2422.674239	-3.005000	3.116300	-9.364000	28.501458	1.138584E-6	20.747289
2423.678244	-3.012000	3.116500	-9.385800	28.487463	7.425547E-7	20.738885
2424.677977	-2.997000	3.115800	-9.337600	28.521379	-3.795279E-7	20.741746
2425.670715	-3.022300	3.113300	-9.408500	28.588396	-5.115377E-7	20.744755
2426.680237	-3.034700	3.113000	-9.444800	28.602861	-8.745644E-7	20.740831
2427.677737	-3.001100	3.112500	-9.339400	28.583031	1.485109E-7	20.740299
2428.676979	-2.953400	3.112700	-9.191800	28.557632	-5.775425E-7	20.729418
2429.675037	-3.037600	3.108800	-9.442100	28.525226	9.075668E-7	20.732819
2430.681736	-3.015900	3.109000	-9.374600	28.541405	-1.369601E-6	20.750061
2431.676545	-3.006600	3.107700	-9.342000	28.493283	-1.765630E-6	20.742376
2432.675749	-2.978200	3.108300	-9.256500	28.484118	4.125304E-7	20.721765
2433.681018	-3.008300	3.106700	-9.344800	28.503495	-2.425679E-6	20.748393
2434.678883	-3.001200	3.105700	-9.320000	28.542696	-9.405693E-7	20.736187
2435.679257	-2.989200	3.106100	-9.282600	28.522345	-2.326671E-6	20.743193
2436.681577	-2.989000	3.104300	-9.278100	28.500662	-2.656696E-6	20.707131
2437.682290	-3.001100	3.103000	-9.311800	28.434329	-3.514759E-6	20.734217
2438.685611	-3.010700	3.101800	-9.337400	28.488477	-1.831635E-6	20.724259
2439.682498	-3.020500	3.100500	-9.364600	28.471746	2.145158E-7	20.724480
2440.677678	-3.006900	3.100100	-9.320100	28.443641	-2.623693E-6	20.749284
2441.685342	-2.992500	3.099300	-9.274100	28.545715	-2.161659E-6	20.748712
2442.678462	-2.992600	3.098300	-9.271000	28.622528	-2.689698E-6	20.708954
2443.679640	-3.029600	3.095600	-9.377600	28.575969	1.485109E-7	20.734135
2444.680005	-3.015700	3.095000	-9.333000	28.544278	-4.207810E-6	20.708856
2445.684597	-2.976700	3.095600	-9.213400	28.544197	-2.788705E-6	20.720155
2446.682240	-2.999900	3.094400	-9.282000	28.555156	-4.405824E-6	20.718863
2447.687155	-3.025700	3.092300	-9.355600	28.588558	-2.326671E-6	20.717890
2448.689708	-3.006500	3.091400	-9.293100	28.584264	-3.547761E-6	20.715462
2449.681210	-3.004200	3.091400	-9.286300	28.558046	-3.349747E-6	20.731257
2450.682350	-3.015400	3.091000	-9.319600	28.555424	-2.458681E-6	20.733832
2451.684589	-3.024200	3.088500	-9.338900	28.611432	-2.392676E-6	20.733816
2452.686468	-3.008100	3.087400	-9.286300	28.601538	-5.230885E-6	20.723376
2453.680744	-2.998100	3.086600	-9.253400	28.640190	-3.646769E-6	20.732908
2454.686135	-2.987700	3.085900	-9.219000	28.643064	-3.217737E-6	20.732009
2455.685842	-2.980200	3.084100	-9.190200	28.614225	-3.976793E-6	20.717187
2456.682767	-2.994000	3.084000	-9.233100	28.606416	-5.791927E-6	20.720702
2457.687798	-3.017000	3.081900	-9.296300	28.527004	-3.910788E-6	20.712322
2458.685505	-3.008800	3.080300	-9.266900	28.494963	-4.801854E-6	20.722256
2459.684705	-2.989000	3.079800	-9.205200	28.544473	-3.283742E-6	20.715691
2460.682535	-2.984500	3.079000	-9.188000	28.618267	-3.613766E-6	20.708929
2461.684899	-2.981600	3.078200	-9.177100	28.675725	-3.019722E-6	20.731241
2462.682874	-2.984600	3.076800	-9.182100	28.592617	-5.395897E-6	20.727668
2463.687872	-3.003500	3.075300	-9.235500	28.601132	-4.867859E-6	20.705896
2464.683790	-2.998200	3.074200	-9.216200	28.605499	-6.088948E-6	20.715037
2465.684946	-3.029800	3.073300	-9.310800	28.585823	-5.659917E-6	20.734102
2466.689635	-2.991900	3.072000	-9.190300	28.617244	-4.702846E-6	20.713115
2467.687700	-2.989400	3.072500	-9.183900	28.712979	-5.956939E-6	20.715658
2468.687693	-2.996700	3.069900	-9.198500	28.703759	-4.339820E-6	20.711587
2469.691343	-2.988600	3.068800	-9.170700	28.711786	-4.834856E-6	20.717775
2470.686225	-2.971600	3.067700	-9.115200	28.742043	-5.527907E-6	20.701784
2471.690803	-3.020500	3.065500	-9.257600	28.746547	-3.580764E-6	20.714383
2472.690031	-3.016900	3.065700	-9.247600	28.726452	-5.626914E-6	20.715004
2473.687396	-3.003500	3.064200	-9.202500	28.700464	-5.428900E-6	20.692619
2474.690704	-2.996100	3.063100	-9.176200	28.702834	-3.811781E-6	20.710180
2475.694556	-2.986200	3.061100	-9.140500	28.722735	-5.989941E-6	20.710311
2476.690645	-2.974100	3.061600	-9.104400	28.741759	-5.560910E-6	20.710981
2477.692888	-3.030800	3.059000	-9.270200	28.743317	-6.352968E-6	20.697377
2478.693590	-3.001200	3.058300	-9.178000	28.713239	-7.145026E-6	20.694581
2479.694058	-3.021100	3.056400	-9.232400	28.722256	-5.131878E-6	20.708880
2480.693707	-3.014500	3.054900	-9.208200	28.755880	-4.174807E-6	20.710507
2481.694214	-2.982300	3.055200	-9.110300	28.755329	-4.999868E-6	20.712796
2482.694866	-3.009900	3.053900	-9.190400	28.777874	-5.956939E-6	20.704686
2483.692875	-2.994900	3.051900	-9.139000	28.804956	-6.220958E-6	20.707311
2484.695232	-2.999400	3.052200	-9.153700	28.820586	-6.121951E-6	20.702193
2485.692999	-3.003300	3.050500	-9.160800	28.768038	-6.550982E-6	20.675809
2486.695914	-2.993700	3.049000	-9.125700	28.680408	-7.442048E-6	20.698023
2487.694666	-2.987500	3.047300	-9.103700	28.606221	-7.871080E-6	20.712445
2488.698914	-2.978600	3.047800	-9.077900	28.583826	-7.871080E-6	20.703166
2489.693781	-2.983400	3.045300	-9.085000	28.570416	-6.319965E-6	20.695824
2490.698916	-3.002400	3.044800	-9.141000	28.623689	-5.362895E-6	20.703484
2491.693974	-3.006300	3.043800	-9.149500	28.679734	-6.352968E-6	20.668892
2492.694273	-3.017400	3.042000	-9.176500	28.727134	-6.848004E-6	20.710475
2493.697432	-3.013200	3.039600	-9.157600	28.736224	-6.782000E-6	20.702086
2494.694395	-2.995700	3.039700	-9.105000	28.753421	-9.191177E-6	20.705659
2495.696108	-2.960800	3.037600	-8.991600	28.824368	-8.003089E-6	20.690828
2496.694384	-2.981400	3.036700	-9.052900	28.859750	-6.022944E-6	20.684271
2497.700070	-2.998200	3.034600	-9.097400	28.921326	-7.673065E-6	20.697467
2498.693118	-3.005900	3.032600	-9.115400	28.866535	-6.815002E-6	20.705332
2499.692915	-2.979800	3.034100	-9.040200	28.852690	-8.465124E-6	20.688539
2500.698986	-2.996900	3.030800	-9.082400	28.789634	-9.125172E-6	20.701833
2501.698551	-3.012500	3.030000	-9.127500	28.717410	-9.455196E-6	20.711112
2502.697780	-2.986100	3.028100	-9.040500	28.710974	-8.696141E-6	20.683764
2503.698619	-2.968800	3.028200	-8.989100	28.752155	-7.079021E-6	20.689684
2504.696898	-2.998500	3.026300	-9.073200	28.802643	-8.465124E-6	20.687909
2505.700868	-2.987100	3.025600	-9.036900	28.784058	-7.673065E-6	20.699061
2506.698643	-2.984200	3.023800	-9.022400	28.783985	-6.616987E-6	20.701359
2507.695027	-2.997300	3.022800	-9.059500	28.783442	-6.649990E-6	20.693224
2508.698373	-3.005500	3.021200	-9.078900	28.708840	-6.782000E-6	20.693469
2509.698452	-2.994900	3.019300	-9.041900	28.757155	-7.805075E-6	20.694246
2510.699836	-2.976800	3.018900	-8.985500	28.815993	-9.026165E-6	20.683339
2511.701036	-2.999900	3.017500	-9.051300	28.878172	-6.715995E-6	20.692872
2512.707211	-2.986800	3.016800	-9.009600	28.902191	-8.267109E-6	20.678663
2513.700616	-2.993200	3.013000	-9.017500	28.922730	-5.857931E-6	20.666162
2514.701878	-3.023800	3.012400	-9.106600	28.967943	-6.385970E-6	20.701759
2515.704259	-3.009300	3.009900	-9.056300	28.871574	-9.554204E-6	20.664412
2516.709561	-3.010800	3.009300	-9.059800	28.800793	-7.145026E-6	20.680829
2517.699523	-3.000200	3.008700	-9.025800	28.819223	-9.323187E-6	20.672367
2518.704857	-2.999400	3.006900	-9.018000	28.842903	-6.748997E-6	20.685318
2519.700297	-2.970400	3.007100	-8.930500	28.824636	-8.696141E-6	20.675924
2520.708963	-2.989500	3.005200	-8.983500	28.813550	-7.178029E-6	20.691311
2521.702744	-3.002700	3.002100	-9.013000	28.758364	-8.861153E-6	20.694990
2522.700761	-2.985900	3.002800	-8.965200	28.694815	-9.587206E-6	20.668434
2523.702263	-3.041300	2.998700	-9.118800	28.772209	-9.125172E-6	20.674795
2524.704050	-2.992900	2.999100	-8.975600	28.786103	-8.003089E-6	20.679783
2525.702773	-3.008100	2.997500	-9.015500	28.859588	-9.389192E-6	20.670356
2526.699674	-2.994200	2.997000	-8.972000	28.916157	-5.725922E-6	20.672343
2527.702147	-2.993400	2.994700	-8.963400	28.967010	-9.587206E-6	20.696551
2528.702197	-2.996800	2.992700	-8.967400	28.890368	-7.871080E-6	20.672441
2529.700529	-2.975600	2.992600	-8.903800	28.852682	-9.026165E-6	20.672408
2530.707173	-3.041500	2.989600	-9.090700	28.789983	-1.034626E-5	20.685587
2531.704250	-2.981200	2.990200	-8.912400	28.810791	-7.244034E-6	20.687108
2532.714878	-2.986700	2.986400	-8.919100	28.893509	-8.366116E-6	20.688882
2533.709332	-2.984000	2.986400	-8.910300	28.845054	-1.014825E-5	20.686062
2534.704907	-3.009000	2.984700	-8.979900	28.840193	-9.521201E-6	20.689700
2535.708968	-2.998700	2.984300	-8.948200	28.828028	-8.069094E-6	20.685506
2536.708618	-2.987000	2.982000	-8.906400	28.795672	-7.343041E-6	20.687051
2537.706421	-2.993200	2.979500	-8.917600	28.838846	-7.277036E-6	20.675065
2538.703109	-3.001500	2.979200	-8.941100	28.795396	-8.762145E-6	20.671599
2539.710073	-3.011100	2.976800	-8.962300	28.784992	-8.894155E-6	20.685775
2540.703695	-2.988900	2.976200	-8.895200	28.843447	-9.686214E-6	20.711946
2541.707415	-3.007000	2.973800	-8.941700	28.869334	-9.092170E-6	20.674010
2542.713075	-3.018500	2.972700	-8.971100	28.883195	-9.290184E-6	20.682284
2543.707888	-2.995000	2.972100	-8.901000	28.946172	-7.640063E-6	20.668917
2544.711178	-3.013400	2.968700	-8.944700	28.938951	-8.894155E-6	20.685825
2545.713151	-3.002200	2.967900	-8.909000	28.919735	-7.739070E-6	20.687803
2546.713287	-3.019400	2.966300	-8.955000	28.985291	-8.828150E-6	20.670397
2547.707510	-3.006700	2.963800	-8.910500	29.018015	-8.531128E-6	20.673970
2548.711348	-3.001200	2.963800	-8.893800	29.095135	-7.079021E-6	20.687664
2549.705213	-2.999400	2.961500	-8.881700	29.077715	-8.465124E-6	20.687182
2550.709603	-3.017600	2.959300	-8.928900	29.101268	-9.026165E-6	20.681990
2551.714797	-2.992900	2.959300	-8.855500	29.119296	-8.894155E-6	20.670282
2552.709167	-3.013900	2.956500	-8.909700	29.077310	-1.037926E-5	20.675866
2553.711210	-3.009200	2.956100	-8.894500	29.116959	-8.531128E-6	20.674566
2554.715137	-3.008600	2.953100	-8.884100	29.041221	-9.059167E-6	20.670797
2555.709770	-2.989500	2.951700	-8.823100	28.971465	-9.752218E-6	20.684443
2556.706316	-3.010300	2.951300	-8.883000	28.977705	-9.686214E-6	20.667494
2557.709910	-3.023100	2.949500	-8.915200	28.901258	-8.729143E-6	20.685784
2558.707684	-3.000800	2.947500	-8.843500	28.912530	-8.333114E-6	20.690027
2559.714388	-2.980700	2.946800	-8.782200	28.998672	-8.333114E-6	20.688621
2560.708654	-2.992700	2.945500	-8.814100	29.066243	-9.686214E-6	20.682260
2561.710287	-3.010500	2.942700	-8.857100	29.129315	-8.531128E-6	20.689864
2562.713069	-2.998500	2.942200	-8.821300	29.177035	-9.521201E-6	20.671092
2563.710544	-3.011000	2.939600	-8.850200	29.128464	-1.034626E-5	20.675728
2564.713366	-2.992500	2.938400	-8.791600	29.059265	-9.554204E-6	20.686610
2565.722252	-3.007700	2.936500	-8.831300	28.997560	-1.278844E-5	20.694140
2566.715236	-2.977500	2.935300	-8.739100	28.985097	-7.970087E-6	20.689643
2567.716199	-2.978900	2.933900	-8.738500	29.016425	-1.037926E-5	20.676161
2568.713186	-2.987000	2.931500	-8.754800	29.026778	-8.630136E-6	20.667151
2569.713067	-2.997600	2.931000	-8.785100	29.111434	-1.011525E-5	20.692235
2570.713541	-2.987400	2.929100	-8.749600	29.156332	-9.686214E-6	20.684844
2571.713757	-2.992000	2.927300	-8.757600	29.131993	-9.851226E-6	20.683078
2572.711726	-2.999700	2.925400	-8.774800	29.142037	-9.125172E-6	20.681345
2573.712724	-3.021000	2.922600	-8.828500	29.142037	-8.795148E-6	20.703632
2574.709802	-3.003400	2.922600	-8.777100	29.197755	-8.003089E-6	20.700035
2575.710681	-2.999000	2.919800	-8.756400	29.189513	-8.729143E-6	20.687460
2576.714817	-3.038700	2.916000	-8.860000	29.172022	-9.257182E-6	20.698759
2577.714940	-3.018400	2.915700	-8.800200	29.082754	-9.851226E-6	20.686569
2578.715069	-3.001300	2.915100	-8.748500	29.140788	-1.004924E-5	20.715176
2579.712906	-2.985700	2.913000	-8.696000	29.172208	-1.047827E-5	20.707957
2580.720069	-2.983200	2.911000	-8.682900	29.220721	-8.366116E-6	20.698522
2581.714898	-3.002900	2.909600	-8.736200	29.228542	-8.498126E-6	20.685539
2582.712082	-3.005600	2.907900	-8.739000	29.200651	-8.663138E-6	20.689676
2583.712548	-2.981000	2.905500	-8.660900	29.257632	-8.234107E-6	20.707745
2584.713718	-2.986300	2.904800	-8.673900	29.197852	-8.300111E-6	20.708194
2585.712768	-2.996400	2.902100	-8.694900	29.184459	-1.249142E-5	20.702757
2586.715803	-2.994100	2.899600	-8.681000	29.115800	-9.851226E-6	20.701376
2587.710715	-3.015000	2.898900	-8.738800	29.111362	-7.211031E-6	20.697378
2588.714506	-2.988900	2.897200	-8.658000	29.053181	-9.785221E-6	20.690437
2589.712540	-3.022600	2.895700	-8.751800	29.107451	-9.422194E-6	20.705766
2590.718030	-2.996800	2.894100	-8.672000	29.150045	-7.211031E-6	20.682776
2591.718784	-3.024900	2.890400	-8.741900	29.191144	-8.993162E-6	20.685785
2592.714906	-2.960900	2.890400	-8.556900	29.196417	-9.653211E-6	20.708170
2593.714386	-3.009400	2.887100	-8.687300	29.177352	-1.067629E-5	20.686112
2594.718594	-2.996900	2.884400	-8.642700	29.199037	-1.070929E-5	20.688524
2595.717228	-3.014200	2.883500	-8.690400	29.247597	-9.653211E-6	20.702373
2596.717093	-2.983500	2.882700	-8.599800	29.297916	-9.917231E-6	20.709462
2597.718122	-3.006800	2.879900	-8.658100	29.263935	-1.080830E-5	20.699398
2598.719041	-2.982000	2.879400	-8.586200	29.278991	-8.762145E-6	20.693707
2599.717740	-3.017100	2.875900	-8.676500	29.315915	-9.686214E-6	20.694884
2600.717459	-2.985800	2.875600	-8.585400	29.380538	-7.937085E-6	20.715921
2601.713847	-2.990500	2.873300	-8.592100	29.388179	-7.244034E-6	20.698016
2602.714306	-2.982600	2.872800	-8.567600	29.416600	-8.267109E-6	20.711490
2603.715808	-3.019500	2.867700	-8.658400	29.431661	-8.333114E-6	20.697272
2604.715807	-3.019000	2.867300	-8.655600	29.490008	-9.356189E-6	20.711514
2605.725806	-2.999900	2.866000	-8.596800	29.439496	-9.026165E-6	20.701851
2606.719318	-2.993300	2.863200	-8.569500	29.380693	-9.158175E-6	20.711334
2607.721142	-3.012800	2.862300	-8.622000	29.267878	-9.851226E-6	20.695784
2608.724102	-3.030400	2.858700	-8.662100	29.253544	-1.074229E-5	20.711212
2609.725293	-2.992300	2.856400	-8.546400	29.342651	-8.003089E-6	20.715668
2610.721854	-2.990300	2.855800	-8.538800	29.365996	-8.993162E-6	20.707427
2611.719569	-2.996000	2.853500	-8.548200	29.403728	-9.389192E-6	20.693299
2612.721961	-3.009600	2.850900	-8.578400	29.368104	-1.014825E-5	20.701965
2613.723917	-2.993100	2.849100	-8.526900	29.386419	-9.818223E-6	20.713313
2614.719969	-2.992100	2.847200	-8.518000	29.416259	-9.356189E-6	20.722527
2615.725010	-3.003500	2.844400	-8.542400	29.360667	-9.422194E-6	20.707271
2616.722886	-2.997500	2.842400	-8.518900	29.412488	-8.894155E-6	20.716829
2617.723177	-3.003100	2.840700	-8.529800	29.356059	-9.785221E-6	20.715905
2618.722812	-3.011200	2.837200	-8.542500	29.279000	-8.498126E-6	20.713158
2619.727422	-3.025300	2.835000	-8.575900	29.269931	-1.041227E-5	20.735314
2620.728870	-3.028400	2.833600	-8.580700	29.350211	-1.166636E-5	20.703372
2621.728416	-2.998200	2.831000	-8.487300	29.467616	-7.673065E-6	20.738731
2622.725525	-3.004500	2.829200	-8.499600	29.518589	-8.630136E-6	20.730842
2623.726212	-2.983600	2.827800	-8.435800	29.534922	-9.224179E-6	20.725021
2624.725902	-3.020400	2.824200	-8.529200	29.459003	-9.851226E-6	20.723410
2625.725837	-2.987400	2.822300	-8.430100	29.477762	-1.189738E-5	20.730940
2626.726592	-2.998900	2.818800	-8.452700	29.425174	-8.894155E-6	20.725348
2627.727806	-2.991800	2.817900	-8.430000	29.356109	-1.189738E-5	20.716428
2628.729283	-2.992400	2.814400	-8.420900	29.375746	-9.521201E-6	20.697338
2629.728355	-3.013200	2.812500	-8.473900	29.419318	-1.163336E-5	20.707116
2630.727369	-3.002200	2.809100	-8.432300	29.435856	-1.123733E-5	20.724261
2631.726848	-2.995600	2.808500	-8.412100	29.413624	-8.729143E-6	20.725561
2632.727094	-2.993900	2.805500	-8.398700	29.344493	-7.607060E-6	20.717050
2633.733106	-2.982200	2.800900	-8.351600	29.401807	-1.275544E-5	20.717917
2634.732222	-3.000800	2.798800	-8.397600	29.456675	-8.168102E-6	20.725806
2635.729422	-3.000800	2.797800	-8.394200	29.416122	-8.894155E-6	20.721914
2636.731335	-2.959200	2.795100	-8.270600	29.464421	-9.983235E-6	20.729820
2637.734190	-2.981300	2.791200	-8.320500	29.526959	-8.630136E-6	20.731218
2638.729190	-3.019000	2.787900	-8.415500	29.494202	-1.031326E-5	20.724751
2639.729562	-2.983500	2.786300	-8.312000	29.466303	-1.024725E-5	20.716069
2640.730817	-2.980600	2.783800	-8.296700	29.476798	-1.001624E-5	20.734235
2641.729567	-2.997300	2.781000	-8.334800	29.462588	-9.158175E-6	20.728447
2642.734907	-3.022000	2.775100	-8.385000	29.451079	-8.894155E-6	20.728700
2643.728265	-2.969500	2.775800	-8.241900	29.408417	-9.554204E-6	20.720312
2644.728817	-3.009000	2.771200	-8.337400	29.376395	-9.488199E-6	20.737824
2645.732241	-2.963900	2.769300	-8.206000	29.315260	-9.422194E-6	20.721252
2646.732225	-3.003600	2.764400	-8.302300	29.373297	-9.884228E-6	20.740391
2647.732073	-2.968600	2.763000	-8.200900	29.430819	-8.861153E-6	20.734832
2648.733004	-3.011400	2.758700	-8.306000	29.443269	-1.239241E-5	20.733630
2649.735502	-3.022800	2.754300	-8.324200	29.476619	-8.234107E-6	20.734530
2650.734134	-3.032300	2.751600	-8.341800	29.491226	-9.125172E-6	20.736451
2651.735456	-2.994000	2.749500	-8.230500	29.550810	-7.706068E-6	20.733450
2652.729135	-3.004900	2.745900	-8.250100	29.601414	-8.696141E-6	20.728512
2653.729297	-2.991200	2.743200	-8.203900	29.642552	-1.028026E-5	20.736794
2654.731173	-2.984200	2.740000	-8.174800	29.628888	-9.290184E-6	20.735821
2655.730504	-3.005100	2.735100	-8.217800	29.572317	-9.422194E-6	20.746123
2656.735423	-3.014300	2.732600	-8.235600	29.497179	-9.356189E-6	20.722062
2657.734746	-3.017900	2.730000	-8.238100	29.518225	-8.993162E-6	20.753709
2658.733602	-2.982300	2.726900	-8.132000	29.616481	-9.488199E-6	20.734219
2659.733886	-2.993500	2.723300	-8.151400	29.574150	-9.422194E-6	20.737064
2660.730772	-3.011600	2.717100	-8.182000	29.608850	-9.323187E-6	20.736958
2661.729950	-3.030500	2.714200	-8.224200	29.597635	-1.011525E-5	20.750783
2662.735080	-3.008200	2.710800	-8.154300	29.612662	-9.158175E-6	20.758345
2663.737864	-2.995000	2.707400	-8.107300	29.656970	-8.762145E-6	20.746115
2664.741893	-2.993000	2.704400	-8.093400	29.650953	-9.521201E-6	20.740997
2665.732895	-2.972200	2.699500	-8.023100	29.657416	-6.715995E-6	20.745616
2666.734209	-2.992900	2.695100	-8.065700	29.668355	-9.587206E-6	20.749058
2667.737314	-2.989300	2.690600	-8.042800	29.705282	-8.828150E-6	20.761157
2668.732715	-3.009800	2.686300	-8.084100	29.755684	-8.069094E-6	20.730892
2669.736266	-2.971100	2.684500	-7.974500	29.777341	-8.399119E-6	20.767902
2670.734540	-3.000100	2.679800	-8.038300	29.810567	-6.682992E-6	20.733598
2671.735460	-3.022300	2.673600	-8.078000	29.779165	-7.805075E-6	20.758836
2672.734766	-2.993400	2.670000	-7.991200	29.791716	-7.937085E-6	20.762008
2673.733028	-2.996500	2.666200	-7.988400	29.794805	-8.102097E-6	20.744733
2674.738870	-2.968700	2.662200	-7.902300	29.834809	-7.211031E-6	20.762310
2675.734118	-2.995900	2.657400	-7.960600	29.825647	-9.125172E-6	20.740743
2676.738691	-3.009900	2.652600	-7.983200	29.779019	-7.772072E-6	20.745886
2677.736203	-2.997700	2.648300	-7.937700	29.670204	-9.620209E-6	20.748551
2678.735586	-3.014300	2.642200	-7.962700	29.605745	-9.587206E-6	20.772235
2679.741975	-3.039600	2.635300	-8.009000	29.608396	-1.094031E-5	20.763054
2680.737985	-2.984000	2.633100	-7.856600	29.701569	-8.861153E-6	20.755991
2681.737058	-2.968200	2.629400	-7.804200	29.661495	-8.960160E-6	20.776756
2682.738529	-2.968200	2.624000	-7.787900	29.705850	-8.465124E-6	20.763626
2683.738197	-2.982600	2.618500	-7.809000	29.761498	-8.762145E-6	20.756195
2684.736869	-2.979500	2.612000	-7.781400	29.763679	-9.125172E-6	20.760765
2685.737953	-3.011500	2.607100	-7.850400	29.764514	-8.069094E-6	20.763504
2686.752262	-3.022100	2.600200	-7.857400	29.818642	-8.828150E-6	20.755492
2687.738465	-2.986000	2.596700	-7.752400	29.880616	-9.158175E-6	20.771515
2688.741685	-2.992400	2.590200	-7.750000	29.978717	-7.937085E-6	20.759489
2689.741718	-2.994000	2.584100	-7.735600	30.010194	-6.980014E-6	20.757568
2690.741017	-2.977300	2.578900	-7.677100	29.992149	-5.560910E-6	20.763553
2691.744411	-3.005900	2.572100	-7.729600	30.064731	-9.158175E-6	20.782699
2692.746557	-2.997100	2.567400	-7.693700	29.953449	-7.442048E-6	20.756293
2693.745487	-2.987800	2.559700	-7.647200	29.941305	-6.815002E-6	20.764435
2694.747823	-3.034000	2.552900	-7.744100	30.001828	-6.682992E-6	20.760511
2695.741613	-3.038800	2.548200	-7.741700	30.010308	-9.818223E-6	20.744406
2696.743697	-2.988900	2.543800	-7.602500	30.042886	-8.201104E-6	20.759244
2697.745449	-2.987800	2.537000	-7.579500	30.024769	-9.092170E-6	20.765155
2698.744988	-3.017200	2.529700	-7.631400	30.023731	-8.597133E-6	20.800619
2699.742869	-3.000500	2.524700	-7.574400	30.054154	-8.300111E-6	20.758754
2700.746680	-2.998800	2.518500	-7.551300	30.095606	-9.389192E-6	20.769741
2701.753809	-3.001500	2.511200	-7.536800	30.099238	-9.917231E-6	20.767714
2702.745925	-3.005000	2.504500	-7.525300	30.090013	-6.748997E-6	20.780696
2703.742973	-2.990500	2.499300	-7.473400	30.111947	-8.762145E-6	20.766308
