LabVIEW Measurement	
Writer_Version	2
Reader_Version	2
Separator	Tab
Decimal_Separator	.
Multi_Headings	No
X_Columns	One
Time_Pref	Absolute
Operator	admin
Description	Clolumns are: time, Current, Voltage, Power, Battery Temp, and Chamber Temp
Date	2024/08/16
Time	13:59:35.9411449432373046875
***End_of_Header***	
	
Channels	6						
Samples	1	1	1	1	1	1	
Date	2024/08/22	2024/08/22	2024/08/22	2024/08/22	2024/08/22	2024/08/22	
Time	16:48:22.1002960205078125	16:48:22.1052951812744140625	16:48:22.1102957725524902344	16:48:22.0752949714660644531	16:48:22.0752949714660644531	16:48:22.0752949714660644531	
X_Dimension	Time	Time	Time	Time	Time	Time	
X0	0.0000000000000000E+0	0.0000000000000000E+0	0.0000000000000000E+0	0.0000000000000000E+0	0.0000000000000000E+0	0.0000000000000000E+0	
Delta_X	1.000000	1.000000	1.000000	1.000000	1.000000	1.000000	
***End_of_Header***							
X_Value	Untitled	Untitled 1	Untitled 2	Untitled 3	Untitled 4	Untitled 5	Comment
0.000000	0.032329	4.107900	0.132880	20.914543	0.000302	20.883251
0.995543	-3.016300	3.965300	-11.960000	20.928864	0.000301	20.900892
1.990539	-3.008000	3.958800	-11.907000	20.921849	0.000298	20.910944
2.989535	-2.996600	3.954200	-11.847000	20.902808	0.000301	20.915135
3.996563	-2.977900	3.950400	-11.763000	20.927608	0.000298	20.890153
5.011565	-3.005100	3.945900	-11.857000	20.914555	0.000297	20.881368
6.004566	-2.998800	3.943300	-11.823000	20.929450	0.000297	20.890573
6.998971	-3.003800	3.940900	-11.837000	20.926054	0.000299	20.893340
8.004002	-2.984200	3.938300	-11.751000	20.915622	0.000296	20.900450
9.001999	-2.993300	3.935700	-11.778000	20.928569	0.000295	20.889218
10.004953	-2.988100	3.934100	-11.755000	20.910726	0.000293	20.879434
10.992957	-3.005400	3.931400	-11.814000	20.941440	0.000295	20.894503
11.995955	-3.008900	3.929600	-11.823000	20.935373	0.000295	20.891755
13.005816	-3.005900	3.927600	-11.805000	20.929182	0.000292	20.892676
13.997820	-3.024900	3.925400	-11.873000	20.952559	0.000293	20.875754
15.002830	-3.012700	3.925500	-11.825000	20.954703	0.000292	20.904922
16.001143	-2.967300	3.926200	-11.650000	20.956797	0.000292	20.888052
16.995145	-3.000100	3.923500	-11.770000	20.970917	0.000291	20.889372
17.999229	-2.978600	3.922600	-11.682000	20.984662	0.000290	20.878938
19.003618	-2.989400	3.920000	-11.717000	20.965197	0.000290	20.893608
20.003353	-3.010100	3.919500	-11.796000	20.973553	0.000289	20.892956
21.003867	-2.990300	3.917800	-11.714000	20.971978	0.000290	20.876684
22.008862	-3.003800	3.916700	-11.764000	20.971302	0.000286	20.887387
23.006946	-3.031300	3.917000	-11.872000	21.005707	0.000286	20.875331
23.998950	-2.990400	3.916000	-11.709000	20.982750	0.000285	20.892671
24.998633	-3.015300	3.915100	-11.804000	20.979105	0.000285	20.890449
25.999711	-3.001500	3.914000	-11.747000	20.994372	0.000285	20.904769
27.008712	-2.992200	3.914300	-11.711000	21.020917	0.000281	20.890543
28.000708	-2.979800	3.913800	-11.661000	21.002052	0.000284	20.888269
29.001214	-2.979300	3.913000	-11.657000	21.033264	0.000282	20.910951
30.001214	-2.998900	3.911700	-11.730000	21.031440	0.000283	20.876887
31.006949	-2.964100	3.912300	-11.595000	21.018216	0.000279	20.899694
32.001433	-2.998100	3.909900	-11.721000	21.044011	0.000281	20.887563
33.002642	-3.000900	3.909300	-11.730000	21.047802	0.000278	20.880450
34.021492	-3.007600	3.908900	-11.755000	21.042811	0.000278	20.867872
35.011837	-3.012300	3.908600	-11.772000	21.054685	0.000281	20.881645
36.006841	-3.001900	3.908900	-11.733000	21.052712	0.000278	20.881568
37.009839	-2.993400	3.907400	-11.695000	21.049792	0.000278	20.893345
38.016519	-2.984600	3.907300	-11.661000	21.055630	0.000277	20.895865
39.008518	-3.012000	3.904900	-11.761000	21.066980	0.000276	20.879243
40.017552	-2.995500	3.904600	-11.695000	21.072842	0.000276	20.885581
41.015362	-2.990900	3.905800	-11.681000	21.097965	0.000276	20.898381
42.006732	-2.979600	3.904600	-11.633000	21.102954	0.000273	20.893414
43.007730	-3.001700	3.904500	-11.720000	21.110862	0.000273	20.884730
44.017592	-2.998400	3.904000	-11.705000	21.100782	0.000273	20.873225
45.007594	-2.996100	3.904700	-11.698000	21.084116	0.000272	20.876944
46.007599	-2.987600	3.902100	-11.657000	21.096015	0.000273	20.863717
47.008637	-3.000800	3.902000	-11.708000	21.114302	0.000273	20.874421
48.012755	-2.996000	3.902900	-11.691000	21.132240	0.000272	20.886674
49.013754	-3.004800	3.901600	-11.722000	21.133686	0.000271	20.881482
50.014133	-3.009200	3.901400	-11.739000	21.136106	0.000271	20.864463
51.021641	-2.987000	3.902100	-11.654000	21.135907	0.000269	20.866161
52.010642	-3.013000	3.900100	-11.750000	21.144190	0.000268	20.871127
53.008531	-2.986200	3.900300	-11.647000	21.164047	0.000269	20.873447
54.012525	-3.007800	3.900100	-11.730000	21.173153	0.000268	20.881606
55.012526	-2.984500	3.900000	-11.639000	21.158459	0.000269	20.863590
56.012815	-2.990400	3.899200	-11.660000	21.156789	0.000268	20.876618
57.016233	-2.995100	3.898700	-11.676000	21.163276	0.000268	20.866037
58.011238	-2.990600	3.898300	-11.657000	21.179442	0.000269	20.855656
59.020691	-2.990300	3.897300	-11.653000	21.177696	0.000266	20.861971
60.020270	-2.994200	3.897200	-11.668000	21.186927	0.000268	20.867885
61.016269	-3.020500	3.897200	-11.769000	21.175926	0.000267	20.870631
62.016926	-3.016000	3.896100	-11.750000	21.196084	0.000266	20.860450
63.018424	-3.019700	3.897000	-11.768000	21.202796	0.000265	20.846776
64.018420	-3.014500	3.895900	-11.743000	21.210729	0.000267	20.861824
65.020561	-3.016900	3.896500	-11.754000	21.190397	0.000265	20.864244
66.018385	-2.995300	3.895400	-11.667000	21.198955	0.000264	20.863322
67.019390	-3.004100	3.896000	-11.703000	21.228218	0.000267	20.873154
68.020059	-2.993600	3.896300	-11.662000	21.230014	0.000264	20.853141
69.019109	-2.994400	3.895700	-11.665000	21.230114	0.000265	20.849922
70.020322	-2.999600	3.894700	-11.682000	21.221408	0.000265	20.857808
71.019851	-3.004300	3.894200	-11.699000	21.222007	0.000263	20.838494
72.020341	-2.978400	3.894000	-11.596000	21.252915	0.000265	20.857559
73.022342	-3.008300	3.893400	-11.712000	21.273171	0.000264	20.872607
74.023280	-2.992600	3.894400	-11.653000	21.274296	0.000265	20.859508
75.023277	-2.989600	3.894000	-11.640000	21.263095	0.000264	20.854467
76.024280	-2.997500	3.894800	-11.674000	21.255337	0.000263	20.855241
77.026279	-2.976200	3.894200	-11.590000	21.268259	0.000264	20.852520
78.041070	-3.002600	3.892700	-11.688000	21.277663	0.000263	20.833480
79.024073	-2.982300	3.893100	-11.609000	21.262347	0.000264	20.852296
80.025075	-3.017000	3.892200	-11.742000	21.292906	0.000265	20.837824
81.043070	-2.973400	3.892900	-11.574000	21.296473	0.000263	20.836651
82.035074	-2.990800	3.892400	-11.640000	21.299118	0.000263	20.844512
83.031077	-3.007800	3.892500	-11.707000	21.317226	0.000264	20.846507
84.034106	-3.009500	3.891200	-11.710000	21.316752	0.000261	20.841292
85.026949	-2.987300	3.891800	-11.625000	21.312862	0.000262	20.820331
86.028950	-3.008700	3.890300	-11.704000	21.317502	0.000262	20.835404
87.032078	-2.983900	3.890700	-11.609000	21.312763	0.000262	20.839197
88.026302	-3.018700	3.890800	-11.744000	21.344542	0.000262	20.832584
89.030318	-3.008800	3.889900	-11.703000	21.328302	0.000261	20.841467
90.041297	-3.014400	3.890300	-11.726000	21.354743	0.000259	20.837101
91.031788	-3.009700	3.890200	-11.707000	21.341774	0.000262	20.835505
92.031794	-3.018600	3.890000	-11.741000	21.366942	0.000262	20.832236
93.030788	-2.983000	3.890200	-11.603000	21.337658	0.000260	20.820008
94.027818	-2.982900	3.889300	-11.601000	21.369561	0.000262	20.813046
95.028818	-2.997400	3.889200	-11.657000	21.361081	0.000262	20.820208
96.029837	-2.990900	3.889500	-11.632000	21.379863	0.000259	20.823353
97.034535	-2.999700	3.890200	-11.668000	21.388867	0.000261	20.839000
98.031641	-3.011800	3.889000	-11.712000	21.381860	0.000258	20.837204
99.031641	-2.984800	3.889200	-11.608000	21.385627	0.000258	20.826749
100.035913	-2.986600	3.889200	-11.615000	21.401018	0.000261	20.827449
101.030914	-3.007400	3.887600	-11.691000	21.402438	0.000259	20.831715
102.031916	-3.004600	3.886900	-11.678000	21.408751	0.000261	20.827599
103.039915	-3.001600	3.888800	-11.671000	21.409574	0.000261	20.809931
104.033793	-3.008000	3.887600	-11.693000	21.413541	0.000261	20.830495
105.034800	-3.011900	3.887800	-11.709000	21.411072	0.000260	20.817594
106.046961	-3.010000	3.886100	-11.696000	21.414066	0.000261	20.809210
107.050208	-2.991300	3.887700	-11.628000	21.438733	0.000260	20.800700
108.038198	-3.004900	3.886500	-11.677000	21.428857	0.000259	20.820690
109.035407	-3.002000	3.886300	-11.666000	21.441554	0.000259	20.821540
110.038403	-3.016700	3.886600	-11.723000	21.444149	0.000260	20.818446
111.034894	-2.996900	3.886100	-11.646000	21.445621	0.000259	20.826558
112.035950	-3.007300	3.885200	-11.682000	21.468717	0.000260	20.814106
113.037653	-2.991400	3.886700	-11.625000	21.465002	0.000258	20.810388
114.035655	-2.998800	3.886000	-11.653000	21.460016	0.000258	20.820098
115.036662	-3.027300	3.884400	-11.757000	21.457823	0.000261	20.819327
116.036210	-3.005200	3.884000	-11.672000	21.462062	0.000262	20.811240
117.035213	-2.989700	3.884500	-11.612000	21.473761	0.000260	20.815359
118.041724	-3.012200	3.884200	-11.699000	21.496333	0.000260	20.808547
119.037950	-3.005800	3.884700	-11.676000	21.489576	0.000261	20.807950
120.035950	-3.015400	3.884100	-11.711000	21.480872	0.000259	20.808250
121.035949	-3.001400	3.883900	-11.656000	21.487908	0.000258	20.809126
122.040638	-2.966100	3.885100	-11.522000	21.522924	0.000260	20.817137
123.035642	-2.999800	3.883200	-11.647000	21.499034	0.000259	20.811249
124.036640	-2.987900	3.883100	-11.602000	21.504945	0.000261	20.796776
125.045395	-2.991700	3.883500	-11.618000	21.521331	0.000259	20.797051
126.038085	-2.990900	3.883500	-11.614000	21.536870	0.000261	20.792685
127.040086	-2.990900	3.883600	-11.614000	21.528841	0.000260	20.787970
128.036417	-3.005600	3.883100	-11.671000	21.538469	0.000261	20.808509
129.043418	-2.996600	3.882700	-11.635000	21.538845	0.000262	20.810782
130.047327	-3.003800	3.882900	-11.662000	21.551716	0.000260	20.793316
131.036792	-2.988200	3.882100	-11.600000	21.544634	0.000262	20.778643
132.039376	-2.990700	3.882300	-11.610000	21.565285	0.000259	20.785557
133.037376	-3.010900	3.882500	-11.689000	21.557454	0.000259	20.789575
134.042493	-3.000700	3.882000	-11.649000	21.590750	0.000262	20.780219
135.058847	-3.000600	3.882500	-11.649000	21.581997	0.000260	20.787108
136.042847	-3.013800	3.882500	-11.700000	21.562971	0.000262	20.791302
137.040844	-2.994000	3.881700	-11.621000	21.577212	0.000260	20.768094
138.041844	-2.987200	3.881600	-11.594000	21.585219	0.000261	20.799340
139.041847	-3.006900	3.880800	-11.669000	21.593176	0.000260	20.802561
140.050149	-2.999400	3.880400	-11.637000	21.584498	0.000260	20.796248
141.041597	-2.984000	3.882200	-11.583000	21.597591	0.000262	20.803660
142.042603	-3.020500	3.880800	-11.721000	21.594375	0.000260	20.789063
143.041595	-3.002100	3.880800	-11.650000	21.607244	0.000262	20.785345
144.041766	-2.996900	3.881100	-11.630000	21.610188	0.000262	20.784498
145.044770	-3.033200	3.879300	-11.766000	21.619765	0.000261	20.769900
146.047931	-3.006500	3.880400	-11.666000	21.623307	0.000261	20.781505
147.041725	-2.998400	3.879700	-11.632000	21.622436	0.000262	20.784426
148.043729	-3.013200	3.879800	-11.689000	21.621514	0.000264	20.787772
149.058727	-3.015700	3.879300	-11.697000	21.618872	0.000263	20.760945
150.041223	-3.001100	3.880200	-11.644000	21.647751	0.000264	20.792216
151.043222	-2.989800	3.879900	-11.599000	21.649596	0.000262	20.777942
152.043458	-3.023400	3.878900	-11.725000	21.621145	0.000263	20.782186
153.096316	-3.000500	3.878000	-11.635000	21.639998	0.000263	20.779716
154.043310	-3.004400	3.879000	-11.653000	21.656433	0.000262	20.774826
155.043426	-2.999100	3.879600	-11.634000	21.672095	0.000263	20.790974
156.044975	-3.007900	3.878200	-11.664000	21.660750	0.000265	20.770611
157.044981	-3.021700	3.877300	-11.714000	21.658608	0.000262	20.780796
158.056978	-3.000400	3.878700	-11.636000	21.684618	0.000265	20.780273
159.070645	-3.006900	3.878300	-11.661000	21.678610	0.000264	20.781847
160.044649	-3.006800	3.877300	-11.656000	21.693996	0.000265	20.777804
161.048226	-3.008500	3.876800	-11.663000	21.686293	0.000265	20.790010
162.089338	-2.999700	3.877700	-11.631000	21.686791	0.000265	20.764904
163.047339	-3.010900	3.876300	-11.670000	21.716542	0.000265	20.773341
164.057509	-3.009200	3.877800	-11.669000	21.697941	0.000266	20.771796
165.053803	-3.000700	3.876500	-11.631000	21.719462	0.000267	20.757297
166.049805	-3.000200	3.876300	-11.628000	21.699164	0.000266	20.778709
167.053804	-2.997300	3.875400	-11.615000	21.728190	0.000267	20.771723
168.055269	-2.990900	3.877100	-11.595000	21.733779	0.000267	20.751237
169.051331	-3.001400	3.875600	-11.632000	21.742554	0.000268	20.766183
170.051331	-3.023300	3.875200	-11.714000	21.725899	0.000266	20.756153
171.054163	-3.005600	3.876000	-11.649000	21.735374	0.000269	20.763265
172.055848	-3.008100	3.875600	-11.657000	21.727148	0.000269	20.783008
173.052848	-3.028300	3.875300	-11.735000	21.728642	0.000268	20.760795
174.052167	-3.005600	3.874300	-11.644000	21.737644	0.000269	20.754157
175.057300	-2.996900	3.875700	-11.614000	21.772553	0.000269	20.759697
176.052302	-3.009400	3.874900	-11.660000	21.757567	0.000269	20.766036
177.056983	-3.015200	3.875300	-11.684000	21.768640	0.000271	20.754833
178.054902	-3.000900	3.874800	-11.628000	21.784670	0.000268	20.765187
179.058902	-2.989900	3.875300	-11.586000	21.761657	0.000271	20.751637
180.064096	-3.001500	3.874200	-11.627000	21.773424	0.000269	20.747767
181.053095	-2.998300	3.874000	-11.614000	21.775545	0.000271	20.754631
182.054574	-2.995200	3.873900	-11.602000	21.793097	0.000272	20.755128
183.055459	-3.021200	3.873900	-11.702000	21.807357	0.000271	20.764660
184.054457	-3.005900	3.872500	-11.639000	21.792871	0.000271	20.757274
185.066457	-3.013200	3.872900	-11.669000	21.799202	0.000272	20.753179
186.055490	-2.991700	3.873600	-11.588000	21.823487	0.000272	20.769899
187.055214	-2.980200	3.873300	-11.542000	21.812242	0.000274	20.791361
188.058157	-3.020600	3.871100	-11.693000	21.836926	0.000273	20.764383
189.059860	-3.001800	3.873000	-11.625000	21.828423	0.000273	20.771521
190.056866	-3.000300	3.872700	-11.618000	21.839742	0.000272	20.760563
191.058867	-3.005200	3.871800	-11.635000	21.832687	0.000272	20.775314
192.058862	-3.004300	3.872400	-11.633000	21.848792	0.000274	20.761562
193.058522	-2.999100	3.872100	-11.612000	21.854975	0.000273	20.769173
194.058521	-2.976800	3.871200	-11.523000	21.839192	0.000271	20.751952
195.057647	-2.991900	3.871900	-11.583000	21.859239	0.000275	20.746413
196.059895	-2.997600	3.870300	-11.600000	21.871507	0.000273	20.756797
197.059233	-3.011700	3.870400	-11.655000	21.841461	0.000274	20.762284
198.061225	-3.010500	3.871400	-11.654000	21.855350	0.000274	20.753426
199.066931	-3.012900	3.870700	-11.660000	21.883250	0.000273	20.779457
200.063259	-2.978400	3.871000	-11.528000	21.890853	0.000273	20.740598
201.062333	-3.023000	3.869600	-11.697000	21.886240	0.000274	20.765854
202.064325	-2.987400	3.871500	-11.563000	21.890679	0.000276	20.737105
203.062858	-3.010100	3.868700	-11.645000	21.905490	0.000277	20.779906
204.069862	-2.989900	3.870600	-11.571000	21.895418	0.000275	20.753703
205.066525	-2.998100	3.869600	-11.600000	21.884973	0.000275	20.776439
206.063861	-3.004600	3.869800	-11.626000	21.904244	0.000276	20.770124
207.066865	-2.984200	3.870600	-11.550000	21.905118	0.000277	20.755826
208.065093	-2.996400	3.870000	-11.595000	21.935733	0.000277	20.780781
209.063103	-3.016300	3.869100	-11.669000	21.926211	0.000276	20.768405
210.067609	-2.984000	3.869400	-11.546000	21.922921	0.000277	20.760371
211.063392	-3.004900	3.867900	-11.622000	21.939153	0.000278	20.777566
212.064829	-3.000700	3.869100	-11.609000	21.941322	0.000279	20.787325
213.065837	-3.006200	3.868000	-11.627000	21.963986	0.000280	20.764492
214.067831	-3.003400	3.869600	-11.622000	21.946834	0.000278	20.768660
215.082984	-3.013800	3.869300	-11.661000	21.949628	0.000280	20.770034
216.066985	-2.996000	3.868800	-11.590000	21.983259	0.000279	20.768612
217.067984	-3.006300	3.868100	-11.627000	21.951625	0.000279	20.777723
218.079426	-2.992900	3.867700	-11.575000	21.985481	0.000281	20.791700
219.074430	-3.013700	3.868100	-11.656000	21.965761	0.000281	20.748725
220.076951	-2.975100	3.867800	-11.506000	21.959081	0.000278	20.775230
221.074600	-3.021800	3.866500	-11.683000	21.969254	0.000281	20.768343
222.067600	-2.998100	3.866000	-11.588000	21.987952	0.000283	20.769517
223.067489	-3.000800	3.866800	-11.603000	21.995108	0.000283	20.757240
224.066369	-3.002900	3.866800	-11.611000	22.005530	0.000283	20.777156
225.068371	-2.992400	3.868200	-11.574000	22.027169	0.000283	20.779852
226.076372	-2.980300	3.866600	-11.522000	22.006080	0.000283	20.764430
227.069148	-3.003300	3.864800	-11.607000	22.022909	0.000283	20.786019
228.069174	-3.011700	3.865700	-11.642000	22.012789	0.000286	20.757395
229.070176	-3.005100	3.864900	-11.613000	22.038392	0.000285	20.791087
230.069963	-2.996100	3.865800	-11.581000	22.025006	0.000285	20.770100
231.073966	-3.008400	3.865300	-11.627000	22.025032	0.000286	20.772497
232.071968	-2.989500	3.864500	-11.553000	22.032712	0.000286	20.773547
233.073503	-3.024900	3.864800	-11.690000	22.017679	0.000285	20.780309
234.072848	-3.006200	3.865200	-11.619000	22.055200	0.000284	20.774722
235.072937	-3.009300	3.865100	-11.629000	22.044306	0.000284	20.786576
236.072704	-3.003100	3.864400	-11.604000	22.074021	0.000286	20.782184
237.073359	-2.996100	3.864600	-11.578000	22.057420	0.000289	20.766514
238.073359	-3.010000	3.865000	-11.633000	22.067143	0.000288	20.775773
239.073657	-2.989100	3.864400	-11.550000	22.070485	0.000287	20.775325
240.080648	-3.010600	3.863400	-11.629000	22.069064	0.000288	20.749246
241.075648	-3.007500	3.864200	-11.619000	22.085918	0.000287	20.767541
242.076687	-2.994900	3.863900	-11.571000	22.092823	0.000287	20.775403
243.074113	-3.007200	3.865000	-11.622000	22.087764	0.000287	20.774132
244.076114	-2.987100	3.864100	-11.541000	22.103743	0.000288	20.768317
245.076291	-3.000900	3.863200	-11.592000	22.110574	0.000290	20.775156
246.078316	-3.020000	3.863400	-11.666000	22.098959	0.000290	20.779175
247.081325	-3.016500	3.862600	-11.651000	22.113117	0.000288	20.773910
248.087616	-3.008700	3.862400	-11.619000	22.117632	0.000290	20.786964
249.077248	-2.992500	3.862700	-11.559000	22.120273	0.000291	20.779177
250.080251	-3.000200	3.862600	-11.588000	22.125358	0.000290	20.798019
251.077250	-3.005800	3.861300	-11.605000	22.146023	0.000291	20.798793
252.078547	-3.009600	3.861500	-11.621000	22.131467	0.000291	20.787539
253.082555	-3.007300	3.861600	-11.613000	22.132640	0.000293	20.785868
254.084549	-2.980400	3.861200	-11.507000	22.158464	0.000292	20.777109
255.082553	-3.008500	3.861800	-11.617000	22.150787	0.000292	20.781751
256.081875	-3.004500	3.861100	-11.600000	22.163400	0.000291	20.783948
257.087906	-3.006600	3.860700	-11.606000	22.170531	0.000294	20.773069
258.085589	-2.994000	3.862200	-11.562000	22.168512	0.000295	20.787644
259.082592	-3.027800	3.861000	-11.689000	22.168365	0.000294	20.774694
260.083593	-2.986700	3.861200	-11.532000	22.187957	0.000295	20.780560
261.084331	-2.986100	3.861800	-11.531000	22.170834	0.000294	20.792339
262.088133	-2.985200	3.860800	-11.525000	22.189552	0.000295	20.773147
263.084133	-3.007500	3.860000	-11.608000	22.196955	0.000295	20.784353
264.084993	-2.990600	3.859200	-11.540000	22.215574	0.000295	20.769329
265.083837	-3.006500	3.859400	-11.601000	22.189305	0.000295	20.793289
266.084307	-3.007000	3.859400	-11.605000	22.217744	0.000296	20.780511
267.086384	-3.006800	3.859600	-11.604000	22.217147	0.000296	20.796508
268.088978	-2.992700	3.859500	-11.549000	22.214779	0.000298	20.803621
269.089004	-2.976200	3.859100	-11.485000	22.228713	0.000297	20.782484
270.087002	-2.990900	3.859100	-11.542000	22.227742	0.000298	20.807591
271.102377	-2.999200	3.858600	-11.572000	22.240005	0.000297	20.800904
272.086377	-3.005700	3.858500	-11.597000	22.233077	0.000300	20.795390
273.087378	-3.008400	3.859400	-11.610000	22.234475	0.000297	20.768339
274.095749	-2.987700	3.858300	-11.525000	22.242424	0.000299	20.782937
275.086751	-3.023400	3.856600	-11.659000	22.259497	0.000297	20.773479
276.087766	-2.992700	3.857500	-11.544000	22.256310	0.000297	20.809642
277.098103	-2.990300	3.859000	-11.538000	22.267799	0.000298	20.785111
278.088103	-2.999400	3.857800	-11.570000	22.271962	0.000298	20.792598
279.091104	-3.006400	3.857500	-11.596000	22.275080	0.000300	20.807099
280.094199	-2.989600	3.858500	-11.535000	22.269348	0.000301	20.798515
281.089674	-2.998400	3.857700	-11.566000	22.278568	0.000301	20.783091
282.091671	-3.015500	3.855900	-11.627000	22.296364	0.000302	20.829833
283.091385	-3.017600	3.856300	-11.636000	22.300527	0.000302	20.807923
284.090714	-3.009900	3.858100	-11.612000	22.299308	0.000303	20.786789
285.095714	-2.997900	3.856400	-11.560000	22.310299	0.000302	20.804432
286.089919	-3.003700	3.855800	-11.580000	22.293725	0.000304	20.801113
287.090425	-2.999300	3.856400	-11.566000	22.303818	0.000304	20.809797
288.090429	-2.992700	3.855700	-11.538000	22.314012	0.000303	20.800090
289.091477	-3.012300	3.855900	-11.615000	22.313663	0.000305	20.809697
290.094158	-3.006200	3.855600	-11.589000	22.328991	0.000305	20.800864
291.090165	-3.006900	3.855100	-11.590000	22.322062	0.000305	20.821901
292.109756	-3.001400	3.855000	-11.569000	22.336816	0.000305	20.800639
293.092854	-2.985900	3.856200	-11.513000	22.345066	0.000305	20.822176
294.094855	-3.007800	3.855900	-11.597000	22.332678	0.000306	20.809772
295.106719	-2.997600	3.855700	-11.557000	22.357127	0.000307	20.800115
296.092686	-2.994200	3.855500	-11.543000	22.348407	0.000307	20.795650
297.094739	-3.012600	3.854300	-11.610000	22.367745	0.000305	20.795574
298.095801	-2.986300	3.855500	-11.513000	22.369715	0.000308	20.829315
299.094528	-2.985000	3.854500	-11.505000	22.375321	0.000309	20.812643
300.096529	-2.996700	3.853100	-11.545000	22.369591	0.000308	20.827294
301.130619	-2.987800	3.853800	-11.514000	22.380952	0.000309	20.816385
302.113985	-3.011500	3.854400	-11.607000	22.392966	0.000310	20.795226
303.096986	-3.005300	3.852800	-11.579000	22.396080	0.000308	20.825845
304.098986	-2.995500	3.852100	-11.538000	22.378185	0.000310	20.806503
305.100800	-3.026200	3.852000	-11.656000	22.401713	0.000308	20.813467
306.102583	-2.999800	3.852300	-11.554000	22.389602	0.000309	20.823151
307.099585	-2.962000	3.853500	-11.413000	22.423044	0.000310	20.819182
308.100458	-2.992900	3.852300	-11.528000	22.398276	0.000310	20.807181
309.100284	-2.982900	3.852300	-11.490000	22.412528	0.000309	20.820505
310.100285	-3.001600	3.852400	-11.562000	22.432117	0.000312	20.837750
311.104146	-2.979500	3.852400	-11.477000	22.409290	0.000312	20.825323
312.106132	-3.006200	3.851000	-11.576000	22.441662	0.000310	20.828343
313.102136	-2.989200	3.852200	-11.514000	22.435158	0.000313	20.822778
314.103753	-3.001400	3.851900	-11.559000	22.450061	0.000313	20.809253
315.103154	-2.998100	3.851300	-11.546000	22.447943	0.000312	20.815668
316.106156	-3.016600	3.850700	-11.615000	22.453600	0.000312	20.831289
317.102501	-2.987300	3.850300	-11.501000	22.465563	0.000313	20.826200
318.102863	-2.991100	3.850700	-11.516000	22.465064	0.000316	20.829968
319.107913	-2.976400	3.851700	-11.463000	22.454251	0.000314	20.830993
320.102145	-2.983800	3.849700	-11.486000	22.469976	0.000315	20.838206
321.103470	-2.984300	3.850500	-11.490000	22.477452	0.000316	20.839529
322.106468	-2.990000	3.850900	-11.514000	22.479446	0.000316	20.834413
323.107467	-3.004400	3.850000	-11.566000	22.484380	0.000316	20.822286
324.106458	-2.981800	3.849700	-11.478000	22.487196	0.000316	20.845968
325.103745	-2.991700	3.849100	-11.515000	22.476482	0.000318	20.846144
326.104750	-2.995400	3.849800	-11.531000	22.507881	0.000318	20.829226
327.107781	-3.015600	3.848500	-11.604000	22.502026	0.000318	20.834267
328.105010	-2.973200	3.849100	-11.444000	22.497692	0.000318	20.831350
329.107531	-2.995200	3.848100	-11.525000	22.519696	0.000318	20.822567
330.114283	-3.000300	3.849200	-11.547000	22.521887	0.000317	20.824287
331.106714	-3.006000	3.848500	-11.568000	22.514015	0.000321	20.832523
332.110713	-2.997000	3.848000	-11.532000	22.536791	0.000320	20.829256
333.119721	-3.012700	3.846800	-11.588000	22.536293	0.000319	20.832550
334.108223	-2.990700	3.848100	-11.508000	22.556303	0.000324	20.829357
335.114227	-3.017800	3.846500	-11.607000	22.553937	0.000319	20.860652
336.120883	-3.003500	3.846900	-11.554000	22.560342	0.000322	20.833403
337.111770	-3.015400	3.846200	-11.597000	22.571979	0.000321	20.846005
338.111771	-3.004100	3.847000	-11.556000	22.540460	0.000323	20.844309
339.129115	-3.023300	3.845000	-11.623000	22.574073	0.000321	20.836249
340.117115	-3.016000	3.846100	-11.599000	22.566004	0.000321	20.857564
341.111118	-3.002800	3.846400	-11.548000	22.584490	0.000323	20.842415
342.111848	-3.013800	3.846400	-11.591000	22.603602	0.000323	20.841168
343.113026	-3.005200	3.846300	-11.557000	22.576344	0.000323	20.844688
344.113029	-3.005900	3.846600	-11.562000	22.562917	0.000323	20.840723
345.119026	-3.017200	3.844700	-11.599000	22.601935	0.000325	20.854671
346.114632	-3.020500	3.845400	-11.614000	22.585517	0.000325	20.855770
347.113598	-2.993600	3.844300	-11.508000	22.588359	0.000324	20.845816
348.115401	-3.006000	3.844700	-11.557000	22.618706	0.000327	20.875261
349.115285	-2.995400	3.844900	-11.516000	22.604256	0.000325	20.850832
350.114376	-3.011500	3.844000	-11.575000	22.621799	0.000328	20.849911
351.118377	-2.999700	3.844200	-11.530000	22.621722	0.000325	20.845567
352.118244	-2.989000	3.845300	-11.493000	22.629150	0.000326	20.867230
353.116385	-3.003300	3.844500	-11.545000	22.645716	0.000331	20.855849
354.116422	-3.011000	3.842900	-11.568000	22.633784	0.000329	20.866182
355.116012	-3.016400	3.842600	-11.589000	22.635353	0.000328	20.847840
356.118984	-2.997800	3.843300	-11.520000	22.630547	0.000328	20.870051
357.115515	-3.000300	3.843800	-11.532000	22.654117	0.000328	20.859995
358.116415	-3.011000	3.842700	-11.570000	22.651626	0.000330	20.856552
359.119755	-3.017100	3.842600	-11.593000	22.648089	0.000330	20.873871
360.118281	-2.992800	3.843700	-11.502000	22.662739	0.000328	20.861993
361.119814	-2.991900	3.842400	-11.495000	22.669290	0.000329	20.862391
362.117252	-3.009700	3.842000	-11.562000	22.656112	0.000328	20.852036
363.118253	-3.032400	3.840900	-11.647000	22.659551	0.000331	20.864490
364.118294	-2.982500	3.842700	-11.460000	22.667948	0.000330	20.864840
365.119414	-3.012500	3.841300	-11.571000	22.685537	0.000331	20.866811
366.120413	-2.995200	3.841700	-11.505000	22.680357	0.000333	20.874423
367.131205	-2.981100	3.840700	-11.449000	22.690147	0.000331	20.864790
368.119140	-2.992200	3.841600	-11.495000	22.712744	0.000332	20.898802
369.120142	-2.992900	3.839200	-11.490000	22.701386	0.000333	20.858030
370.121822	-3.014400	3.840500	-11.576000	22.707490	0.000330	20.850394
371.119998	-3.009300	3.839300	-11.553000	22.702956	0.000331	20.861500
372.122001	-3.004300	3.841100	-11.539000	22.726550	0.000333	20.867115
373.130164	-2.976800	3.840600	-11.432000	22.735120	0.000331	20.876647
374.121451	-3.025100	3.837600	-11.608000	22.729291	0.000333	20.882661
375.124459	-2.991100	3.839800	-11.484000	22.721791	0.000334	20.862823
376.121913	-3.002800	3.839400	-11.528000	22.723488	0.000335	20.879220
377.122648	-2.988500	3.839100	-11.472000	22.756947	0.000336	20.865795
378.122648	-2.997200	3.838600	-11.504000	22.721620	0.000336	20.893468
379.125649	-3.001300	3.837800	-11.518000	22.738761	0.000335	20.880768
380.129645	-2.999100	3.838400	-11.511000	22.759737	0.000337	20.876176
381.127216	-2.991500	3.839000	-11.482000	22.774512	0.000335	20.901406
382.127207	-2.994000	3.839000	-11.493000	22.753288	0.000337	20.870665
383.127680	-3.018700	3.837500	-11.584000	22.757073	0.000337	20.900532
384.124189	-3.015400	3.837400	-11.570000	22.775336	0.000337	20.882793
385.124688	-2.981500	3.838100	-11.442000	22.770080	0.000335	20.884640
386.128685	-3.002300	3.837000	-11.519000	22.789536	0.000337	20.884689
387.125898	-3.012700	3.837000	-11.558000	22.777404	0.000337	20.895294
388.126901	-2.977300	3.837100	-11.423000	22.802791	0.000337	20.893699
389.129497	-2.997000	3.837100	-11.499000	22.804387	0.000337	20.878229
390.141201	-2.990300	3.836700	-11.472000	22.789962	0.000338	20.904554
391.131942	-2.994400	3.836600	-11.487000	22.785479	0.000340	20.888211
392.128966	-2.994500	3.836000	-11.487000	22.811437	0.000339	20.877706
393.134842	-3.002000	3.836100	-11.515000	22.804412	0.000340	20.904805
394.131314	-2.989000	3.835900	-11.463000	22.809023	0.000340	20.882873
395.129316	-2.992500	3.835200	-11.475000	22.807977	0.000342	20.894627
396.129985	-3.006000	3.835100	-11.528000	22.836053	0.000340	20.884821
397.131069	-3.002800	3.835100	-11.515000	22.825690	0.000340	20.912843
398.139065	-3.009200	3.835200	-11.539000	22.858447	0.000342	20.911995
399.136311	-2.984700	3.835000	-11.445000	22.846218	0.000342	20.901167
400.130088	-2.994900	3.834700	-11.483000	22.844225	0.000342	20.900593
401.130088	-2.990400	3.836000	-11.470000	22.831545	0.000342	20.884098
402.132917	-2.993300	3.835500	-11.479000	22.862361	0.000343	20.918760
403.131919	-3.030200	3.833000	-11.614000	22.865152	0.000343	20.904013
404.132958	-3.016300	3.832800	-11.560000	22.875240	0.000343	20.925497
405.141101	-2.992700	3.834500	-11.473000	22.879925	0.000344	20.909330
406.132393	-3.017400	3.832200	-11.563000	22.868890	0.000344	20.914396
407.135393	-2.992400	3.834500	-11.473000	22.868665	0.000344	20.915118
408.134890	-2.993900	3.833400	-11.476000	22.886652	0.000344	20.908483
409.132264	-2.994300	3.832500	-11.474000	22.877238	0.000345	20.913275
410.136265	-3.014900	3.832100	-11.553000	22.888421	0.000345	20.912151
411.134153	-3.004600	3.833000	-11.516000	22.880528	0.000346	20.897133
412.134052	-3.006200	3.831800	-11.518000	22.881249	0.000343	20.901174
413.134058	-3.013500	3.831200	-11.544000	22.922400	0.000346	20.925329
414.135049	-2.995300	3.830600	-11.473000	22.899161	0.000346	20.931918
415.133111	-2.995800	3.830800	-11.475000	22.916923	0.000346	20.919842
416.136112	-3.005700	3.829900	-11.511000	22.928806	0.000347	20.911834
417.139596	-2.988400	3.831600	-11.448000	22.911245	0.000347	20.915577
418.148758	-3.007900	3.830300	-11.520000	22.939592	0.000346	20.915053
419.136758	-3.006200	3.830900	-11.516000	22.924799	0.000348	20.919672
420.154905	-3.013700	3.829000	-11.538000	22.932544	0.000345	20.905149
421.142122	-3.000400	3.831400	-11.495000	22.944103	0.000348	20.911513
422.138633	-3.005200	3.829000	-11.506000	22.947693	0.000349	20.931228
423.142375	-3.000300	3.830400	-11.491000	22.940546	0.000350	20.907475
424.140841	-3.020100	3.828600	-11.562000	22.955515	0.000347	20.911092
425.138345	-3.023800	3.829100	-11.577000	22.975096	0.000346	20.911744
426.140346	-2.993200	3.828400	-11.458000	22.974823	0.000347	20.916686
427.137314	-3.024700	3.828500	-11.578000	22.970963	0.000349	20.911871
428.137395	-3.015900	3.827300	-11.542000	22.990541	0.000349	20.916788
429.140399	-3.021200	3.827700	-11.564000	22.990742	0.000348	20.913195
430.138575	-3.024200	3.827300	-11.573000	22.975176	0.000349	20.922729
431.139024	-3.007400	3.828000	-11.512000	22.973558	0.000350	20.910204
432.140025	-3.009300	3.827100	-11.516000	22.994083	0.000349	20.889993
433.138021	-3.017800	3.828100	-11.551000	23.005143	0.000350	20.898229
434.139396	-3.011000	3.827200	-11.523000	23.013738	0.000350	20.906839
435.140430	-3.021800	3.827900	-11.566000	23.010152	0.000349	20.899454
436.141537	-3.009400	3.826200	-11.514000	22.994612	0.000350	20.896686
437.142861	-2.992400	3.826100	-11.448000	23.003130	0.000351	20.907117
438.153864	-2.995500	3.825700	-11.459000	23.007738	0.000350	20.894665
439.152861	-2.990900	3.826800	-11.445000	23.033993	0.000350	20.885885
440.144414	-3.016700	3.825300	-11.539000	23.009685	0.000351	20.890926
441.141415	-3.023000	3.824100	-11.560000	23.003310	0.000352	20.908719
442.141424	-3.011500	3.825100	-11.519000	23.031082	0.000353	20.896717
443.142622	-3.004200	3.824200	-11.487000	23.020547	0.000355	20.910342
444.146761	-3.015300	3.824600	-11.532000	23.030910	0.000354	20.881847
445.144760	-2.998600	3.825700	-11.471000	23.051358	0.000353	20.873413
446.150757	-3.006000	3.824700	-11.496000	23.040996	0.000355	20.887212
447.147544	-3.000700	3.824700	-11.476000	23.047723	0.000355	20.878305
448.145258	-3.032700	3.821700	-11.589000	23.053527	0.000354	20.884595
449.153258	-2.988000	3.825200	-11.429000	23.051934	0.000354	20.891533
450.148976	-3.002500	3.821900	-11.474000	23.049942	0.000354	20.895226
451.145061	-2.997200	3.823000	-11.457000	23.055670	0.000355	20.896698
452.145062	-2.996200	3.822900	-11.454000	23.058036	0.000358	20.863984
453.155304	-3.009900	3.823000	-11.506000	23.067852	0.000355	20.902739
454.144306	-3.008600	3.823800	-11.503000	23.066678	0.000358	20.882599
455.148402	-2.988100	3.823900	-11.425000	23.073578	0.000356	20.906580
456.147427	-3.006400	3.822600	-11.492000	23.094423	0.000356	20.899967
457.147029	-2.999600	3.821400	-11.462000	23.088993	0.000357	20.882199
458.153034	-2.974300	3.823300	-11.371000	23.092681	0.000357	20.894903
459.161029	-3.013700	3.820900	-11.514000	23.087600	0.000357	20.871795
460.150585	-2.983300	3.822400	-11.402000	23.068548	0.000357	20.885421
461.151586	-3.003800	3.821900	-11.480000	23.112729	0.000359	20.875164
462.150585	-3.026400	3.820400	-11.562000	23.084410	0.000356	20.910321
463.151146	-2.993900	3.821300	-11.440000	23.087348	0.000358	20.892404
464.150513	-3.005300	3.820100	-11.480000	23.094498	0.000358	20.855949
465.151511	-2.988000	3.820200	-11.414000	23.123487	0.000358	20.881201
466.154986	-3.022500	3.818800	-11.541000	23.095719	0.000356	20.882301
467.153603	-3.017900	3.819400	-11.525000	23.117658	0.000359	20.854025
468.154601	-3.029300	3.818700	-11.566000	23.114070	0.000359	20.862284
469.153888	-3.011900	3.818000	-11.498000	23.136632	0.000359	20.869245
470.154889	-2.976800	3.819500	-11.368000	23.111804	0.000360	20.869495
471.156888	-3.018900	3.818100	-11.525000	23.140567	0.000358	20.880773
472.155392	-3.007200	3.818500	-11.482000	23.132374	0.000360	20.864504
473.154494	-2.999200	3.818400	-11.450000	23.148189	0.000360	20.876083
474.156495	-3.008400	3.818000	-11.485000	23.153092	0.000359	20.856816
475.154435	-2.978700	3.818000	-11.372000	23.165868	0.000360	20.878626
476.154637	-2.992300	3.816900	-11.420000	23.149607	0.000361	20.866599
477.156641	-3.009000	3.816800	-11.484000	23.159990	0.000362	20.869891
478.154618	-3.003600	3.817400	-11.466000	23.164273	0.000359	20.871338
479.158654	-3.023000	3.817000	-11.538000	23.160587	0.000361	20.857214
480.170661	-3.008400	3.816600	-11.481000	23.159938	0.000362	20.864150
481.157681	-2.991900	3.817000	-11.420000	23.178516	0.000361	20.872808
482.160657	-2.986500	3.816700	-11.398000	23.182350	0.000361	20.864798
483.158660	-3.008800	3.815700	-11.480000	23.181280	0.000362	20.855191
484.158655	-2.998400	3.816400	-11.442000	23.149753	0.000360	20.865324
485.159398	-2.998700	3.815500	-11.442000	23.177695	0.000361	20.853021
486.158732	-3.008000	3.815300	-11.475000	23.199958	0.000362	20.892398
487.165741	-3.013900	3.814700	-11.496000	23.200756	0.000362	20.867595
488.158726	-3.020300	3.813500	-11.517000	23.199163	0.000360	20.878326
489.159723	-2.996000	3.815200	-11.429000	23.206981	0.000361	20.867195
490.162725	-3.008900	3.814600	-11.477000	23.218314	0.000360	20.881870
491.174062	-3.008000	3.814100	-11.471000	23.216872	0.000361	20.860512
492.159580	-3.010600	3.813600	-11.480000	23.209574	0.000361	20.850828
493.162538	-3.006800	3.813400	-11.465000	23.210919	0.000361	20.865926
494.160765	-2.996100	3.812800	-11.422000	23.220211	0.000362	20.839677
495.159986	-3.002600	3.814300	-11.452000	23.224917	0.000362	20.864781
496.162989	-3.000400	3.813700	-11.442000	23.245762	0.000364	20.857222
497.159596	-3.005200	3.813500	-11.459000	23.218272	0.000365	20.870450
498.162114	-3.008300	3.812100	-11.466000	23.225246	0.000364	20.871748
499.161114	-3.002200	3.812200	-11.444000	23.231696	0.000363	20.852135
500.161129	-3.002400	3.812900	-11.447000	23.221638	0.000362	20.848694
501.161992	-3.000700	3.810900	-11.434000	23.249880	0.000364	20.868934
502.164507	-2.990900	3.811200	-11.398000	23.250204	0.000362	20.856932
503.167561	-3.010600	3.810200	-11.471000	23.248838	0.000363	20.866942
504.167202	-2.983300	3.811800	-11.371000	23.255413	0.000363	20.862151
505.164203	-2.984100	3.809800	-11.367000	23.245254	0.000364	20.856238
506.166202	-3.004800	3.810400	-11.449000	23.237809	0.000364	20.839296
507.171697	-2.972900	3.810500	-11.327000	23.271057	0.000364	20.861708
508.164699	-3.015900	3.808400	-11.485000	23.266003	0.000363	20.850954
509.168701	-3.021100	3.809000	-11.506000	23.284533	0.000364	20.845818
510.166517	-2.972100	3.809400	-11.320000	23.278507	0.000362	20.863959
511.166852	-2.988400	3.809400	-11.382000	23.289017	0.000361	20.849362
512.165856	-2.991100	3.809400	-11.393000	23.270617	0.000364	20.846569
513.165692	-2.987300	3.807700	-11.373000	23.271141	0.000366	20.860845
514.166225	-2.996800	3.808000	-11.411000	23.293977	0.000364	20.867135
515.165227	-2.979000	3.809300	-11.347000	23.277321	0.000365	20.855184
516.170759	-2.992200	3.807100	-11.390000	23.303022	0.000365	20.857234
517.165755	-2.985500	3.808200	-11.368000	23.289701	0.000365	20.851944
518.169756	-3.006200	3.807000	-11.443000	23.296675	0.000366	20.850874
519.168902	-2.995300	3.807100	-11.402000	23.279447	0.000365	20.828867
520.166030	-3.009400	3.806100	-11.453000	23.283906	0.000364	20.835706
521.170029	-2.997100	3.805900	-11.405000	23.312966	0.000367	20.837803
522.166062	-2.968100	3.807600	-11.299000	23.303904	0.000365	20.846265
523.165725	-2.960200	3.805800	-11.264000	23.320517	0.000367	20.849638
524.169724	-3.027700	3.804800	-11.519000	23.284561	0.000366	20.847267
525.170275	-3.021900	3.805700	-11.500000	23.319251	0.000364	20.839835
526.171989	-2.998100	3.805500	-11.408000	23.331155	0.000366	20.838015
527.171165	-2.999000	3.805100	-11.410000	23.324734	0.000367	20.833950
528.171161	-2.987500	3.804000	-11.364000	23.333425	0.000366	20.843609
529.191872	-2.982500	3.804000	-11.344000	23.320329	0.000366	20.850398
530.183872	-3.010000	3.804700	-11.452000	23.321726	0.000366	20.832358
531.172877	-3.018500	3.803400	-11.480000	23.326883	0.000367	20.823302
532.209872	-3.008000	3.803400	-11.440000	23.327757	0.000368	20.848359
533.170872	-3.012300	3.803100	-11.455000	23.332463	0.000368	20.830317
534.171875	-3.005300	3.803300	-11.429000	23.329428	0.000368	20.827750
535.176727	-3.014300	3.802400	-11.460000	23.346288	0.000368	20.829001
536.170430	-3.013100	3.801100	-11.451000	23.349154	0.000367	20.824760
537.172433	-3.012600	3.801600	-11.452000	23.356924	0.000368	20.829229
538.176434	-3.010700	3.801300	-11.443000	23.356827	0.000369	20.808743
539.175725	-2.986600	3.801800	-11.354000	23.367460	0.000369	20.830780
540.172728	-3.008700	3.800200	-11.433000	23.362033	0.000367	20.826763
541.185819	-3.001500	3.801400	-11.408000	23.378073	0.000369	20.815812
542.173402	-2.993800	3.800000	-11.376000	23.366818	0.000368	20.824921
543.173091	-3.010800	3.799300	-11.438000	23.386964	0.000367	20.814767
544.174094	-3.005900	3.799600	-11.420000	23.376856	0.000369	20.835455
545.173916	-2.987400	3.799300	-11.349000	23.378800	0.000368	20.813223
546.177914	-3.018000	3.798400	-11.463000	23.379776	0.000369	20.819890
547.174203	-3.006500	3.799700	-11.424000	23.383186	0.000368	20.831843
548.175389	-2.992500	3.800000	-11.371000	23.389613	0.000368	20.825483
549.175701	-3.024600	3.798500	-11.488000	23.370891	0.000369	20.836589
550.174706	-2.980700	3.799200	-11.323000	23.378291	0.000369	20.817928
551.174703	-3.016200	3.798600	-11.456000	23.368978	0.000369	20.807646
552.175634	-2.985500	3.798900	-11.341000	23.408793	0.000368	20.804878
553.176639	-3.005100	3.796900	-11.409000	23.380337	0.000370	20.830883
554.177228	-2.999000	3.798400	-11.390000	23.410665	0.000370	20.804383
555.176102	-3.006500	3.797200	-11.415000	23.403823	0.000371	20.789940
556.177105	-3.024900	3.796200	-11.481000	23.386793	0.000369	20.803690
557.178101	-3.013800	3.796300	-11.440000	23.404101	0.000369	20.818192
558.176115	-2.990000	3.797000	-11.352000	23.402708	0.000369	20.819168
559.186115	-2.999900	3.795800	-11.386000	23.411397	0.000370	20.807962
560.177112	-3.009500	3.796200	-11.424000	23.410005	0.000370	20.809886
561.177706	-3.003800	3.795800	-11.401000	23.412499	0.000371	20.796738
562.181003	-3.001100	3.795000	-11.388000	23.400350	0.000371	20.819175
563.176890	-3.015700	3.794600	-11.443000	23.412526	0.000371	20.803404
564.178807	-3.013400	3.793200	-11.429000	23.434915	0.000370	20.804034
565.183818	-2.990200	3.793800	-11.344000	23.430383	0.000369	20.802336
566.178807	-3.021500	3.794300	-11.463000	23.422044	0.000370	20.819581
567.184410	-3.000700	3.793200	-11.381000	23.432453	0.000372	20.817687
568.183411	-2.997500	3.794200	-11.372000	23.442840	0.000372	20.793485
569.178412	-2.985100	3.793700	-11.323000	23.443264	0.000370	20.812876
570.183410	-3.012200	3.792700	-11.424000	23.433956	0.000370	20.783158
571.177147	-3.004000	3.792800	-11.392000	23.437069	0.000372	20.795287
572.179490	-3.005900	3.791500	-11.396000	23.448774	0.000369	20.815080
573.187234	-2.998000	3.790600	-11.363000	23.445415	0.000371	20.796540
574.181405	-2.988400	3.792300	-11.331000	23.435981	0.000369	20.787559
575.183403	-3.009700	3.790800	-11.408000	23.450948	0.000372	20.781223
576.182405	-2.991100	3.792100	-11.342000	23.472284	0.000371	20.783170
577.183395	-2.999400	3.790800	-11.369000	23.468651	0.000369	20.809399
578.184439	-3.006900	3.790800	-11.398000	23.466791	0.000371	20.777189
579.184442	-3.007500	3.790300	-11.398000	23.462984	0.000370	20.797081
580.184129	-3.007200	3.789900	-11.396000	23.491391	0.000371	20.786200
581.184700	-3.009700	3.787800	-11.399000	23.471972	0.000371	20.779537
582.185701	-3.003200	3.789100	-11.378000	23.473170	0.000373	20.779316
583.185292	-2.994000	3.790100	-11.346000	23.483007	0.000370	20.798185
584.185648	-3.014100	3.788000	-11.416000	23.476712	0.000373	20.783814
585.186650	-2.994300	3.788600	-11.343000	23.495809	0.000372	20.802008
586.190681	-3.007900	3.789000	-11.396000	23.486747	0.000372	20.787235
587.191084	-2.997800	3.788300	-11.356000	23.504752	0.000371	20.779204
588.186089	-2.993200	3.787200	-11.335000	23.515383	0.000374	20.783223
589.197084	-3.006400	3.787600	-11.386000	23.498060	0.000372	20.799523
590.195943	-3.011400	3.787400	-11.404000	23.502914	0.000372	20.758869
591.186943	-3.001800	3.787000	-11.366000	23.502196	0.000371	20.770004
592.188945	-2.987700	3.786300	-11.311000	23.515740	0.000372	20.780736
593.195323	-3.007600	3.785900	-11.386000	23.509568	0.000373	20.778342
594.187354	-3.013900	3.785600	-11.409000	23.528987	0.000373	20.774574
595.190358	-2.996800	3.785500	-11.344000	23.506309	0.000373	20.777920
596.190512	-3.009000	3.785100	-11.389000	23.514053	0.000372	20.791373
597.192834	-3.001900	3.785800	-11.363000	23.521822	0.000371	20.782091
598.191836	-3.003900	3.784900	-11.369000	23.517743	0.000370	20.781796
599.190383	-3.002800	3.785000	-11.365000	23.520009	0.000371	20.803981
600.193646	-2.992100	3.784000	-11.321000	23.533353	0.000372	20.786063
601.191645	-3.000800	3.784400	-11.356000	23.524514	0.000375	20.764875
602.196708	-3.004000	3.782600	-11.361000	23.534378	0.000371	20.780452
603.192338	-3.001000	3.784300	-11.356000	23.515557	0.000374	20.761585
604.193340	-3.005500	3.781800	-11.365000	23.545933	0.000374	20.787294
605.192597	-3.012200	3.782900	-11.394000	23.533511	0.000372	20.765359
606.212947	-3.027200	3.782100	-11.448000	23.533484	0.000371	20.795203
607.193950	-3.000400	3.782700	-11.349000	23.534408	0.000373	20.776215
608.196904	-3.026200	3.781400	-11.442000	23.542823	0.000373	20.793185
609.193526	-3.019000	3.781800	-11.417000	23.539413	0.000374	20.784551
610.193989	-2.990200	3.781900	-11.308000	23.551961	0.000373	20.773422
611.205103	-2.999900	3.780900	-11.341000	23.559480	0.000374	20.762467
612.194834	-2.984900	3.781800	-11.287000	23.547380	0.000373	20.747492
613.193269	-3.005400	3.781100	-11.363000	23.567397	0.000372	20.790318
614.194270	-2.985500	3.780200	-11.285000	23.570958	0.000374	20.770654
615.194267	-2.988000	3.779400	-11.292000	23.580242	0.000374	20.749140
616.195811	-2.994600	3.780600	-11.321000	23.573174	0.000374	20.768608
617.193355	-2.998600	3.778100	-11.328000	23.565128	0.000371	20.746792
618.194018	-3.007000	3.778400	-11.360000	23.574665	0.000374	20.764887
619.193797	-3.013500	3.778200	-11.384000	23.584798	0.000374	20.784055
620.201797	-2.998500	3.779400	-11.331000	23.586391	0.000374	20.745347
621.195793	-3.013700	3.778300	-11.386000	23.585569	0.000373	20.775343
622.199255	-3.020800	3.778000	-11.411000	23.578974	0.000373	20.738386
623.194257	-3.013000	3.776800	-11.378000	23.592218	0.000374	20.761620
624.196288	-3.011000	3.776900	-11.372000	23.588134	0.000372	20.767484
625.208219	-2.993200	3.777900	-11.307000	23.590645	0.000373	20.758147
626.204220	-3.017500	3.776700	-11.395000	23.595325	0.000372	20.760468
627.196222	-2.985400	3.777400	-11.276000	23.627290	0.000373	20.771175
628.195517	-2.992400	3.775700	-11.297000	23.621362	0.000374	20.770448
629.194412	-3.008600	3.776100	-11.359000	23.601895	0.000372	20.766580
630.194415	-2.981300	3.776800	-11.259000	23.619093	0.000370	20.760113
631.206413	-2.995600	3.775100	-11.308000	23.621111	0.000369	20.770197
632.205108	-2.968600	3.776700	-11.211000	23.615607	0.000370	20.761359
633.195111	-2.998900	3.775100	-11.320000	23.627830	0.000368	20.751801
634.196110	-2.993200	3.775300	-11.299000	23.613019	0.000369	20.778206
635.201532	-3.030100	3.773400	-11.433000	23.614014	0.000373	20.769246
636.195350	-3.007500	3.773600	-11.348000	23.605300	0.000369	20.793702
637.201348	-2.997200	3.774200	-11.311000	23.609158	0.000372	20.771016
638.204113	-2.986400	3.774600	-11.271000	23.616652	0.000371	20.756717
639.197530	-2.998100	3.774000	-11.315000	23.622327	0.000371	20.774261
640.198533	-3.004100	3.773900	-11.335000	23.640501	0.000369	20.762134
641.199306	-3.005200	3.774000	-11.341000	23.639404	0.000371	20.770043
642.199852	-2.993600	3.772700	-11.293000	23.619690	0.000371	20.774462
643.201850	-3.022000	3.770900	-11.393000	23.640850	0.000370	20.779554
644.201972	-3.009700	3.772000	-11.351000	23.637963	0.000370	20.760538
645.198955	-3.003400	3.771300	-11.325000	23.640077	0.000371	20.759813
646.205955	-2.988000	3.771400	-11.268000	23.656804	0.000370	20.776108
647.200955	-2.986500	3.771300	-11.263000	23.641521	0.000371	20.760312
648.202775	-3.003500	3.771100	-11.325000	23.654118	0.000369	20.748284
649.202778	-2.994100	3.770300	-11.287000	23.664149	0.000371	20.764979
650.203778	-2.976800	3.770600	-11.223000	23.664547	0.000371	20.749257
651.203549	-2.996500	3.769600	-11.295000	23.652600	0.000371	20.781376
652.201103	-2.996400	3.769600	-11.294000	23.666739	0.000370	20.759041
653.204106	-2.990500	3.769800	-11.273000	23.671270	0.000370	20.774964
654.204809	-3.002000	3.768800	-11.313000	23.699320	0.000370	20.774636
655.202426	-3.002600	3.769300	-11.317000	23.690337	0.000371	20.765629
656.203429	-2.974200	3.769600	-11.210000	23.685481	0.000368	20.754123
657.212733	-3.020900	3.767700	-11.380000	23.684661	0.000371	20.758043
658.203362	-2.998400	3.767600	-11.296000	23.680279	0.000369	20.744165
659.205362	-2.997600	3.768200	-11.293000	23.688170	0.000370	20.751603
660.206405	-3.000600	3.768100	-11.304000	23.692776	0.000371	20.747685
661.205513	-2.997500	3.767800	-11.293000	23.705097	0.000369	20.747236
662.206519	-3.003800	3.767500	-11.316000	23.691231	0.000367	20.758939
663.206428	-3.002900	3.766900	-11.311000	23.675725	0.000368	20.747660
664.205403	-3.010000	3.767100	-11.338000	23.691706	0.000370	20.771744
665.207507	-2.986600	3.766500	-11.248000	23.697433	0.000368	20.752355
666.206506	-3.009000	3.767000	-11.333000	23.704478	0.000370	20.756573
667.207888	-3.003800	3.765800	-11.311000	23.697882	0.000370	20.767029
668.207891	-3.002800	3.765500	-11.306000	23.687878	0.000369	20.730446
669.208438	-3.017500	3.764800	-11.360000	23.712770	0.000368	20.752084
670.212817	-2.999800	3.765100	-11.294000	23.706273	0.000369	20.776391
671.207965	-3.027900	3.764100	-11.396000	23.707194	0.000369	20.743174
672.208970	-3.015600	3.763900	-11.350000	23.693160	0.000369	20.745225
673.208766	-3.000400	3.763300	-11.291000	23.712250	0.000367	20.757253
674.208312	-2.972200	3.763800	-11.185000	23.724052	0.000367	20.747747
675.209313	-3.015900	3.762400	-11.346000	23.713226	0.000369	20.757283
676.216601	-2.980500	3.763100	-11.214000	23.713427	0.000367	20.746578
677.207774	-2.998400	3.762300	-11.279000	23.699112	0.000367	20.741710
678.211778	-3.002900	3.763100	-11.300000	23.713352	0.000366	20.732278
679.209773	-3.012400	3.761500	-11.331000	23.733864	0.000368	20.751422
680.209921	-2.986000	3.763000	-11.235000	23.746759	0.000366	20.758187
681.213918	-3.011300	3.762100	-11.327000	23.743996	0.000365	20.751149
682.210918	-2.998000	3.761700	-11.277000	23.736907	0.000367	20.747360
683.211354	-2.994700	3.762200	-11.266000	23.728618	0.000365	20.770818
684.211354	-2.992100	3.761500	-11.254000	23.744496	0.000365	20.737899
685.211292	-2.988700	3.760900	-11.239000	23.749055	0.000366	20.739625
686.214983	-3.004700	3.760600	-11.297000	23.751469	0.000364	20.752951
687.211985	-3.013200	3.759800	-11.328000	23.750550	0.000366	20.749185
688.218986	-2.990900	3.759600	-11.244000	23.761331	0.000367	20.749562
689.223267	-3.013600	3.758200	-11.325000	23.747567	0.000365	20.767057
690.218311	-3.017100	3.759000	-11.340000	23.753096	0.000367	20.756953
691.216313	-3.000800	3.758000	-11.275000	23.768053	0.000366	20.753458
692.222312	-3.013400	3.757000	-11.320000	23.761732	0.000363	20.750913
693.212290	-2.999300	3.759100	-11.273000	23.762383	0.000365	20.762946
694.212304	-3.028900	3.757200	-11.380000	23.752004	0.000366	20.755384
695.214293	-2.989200	3.758200	-11.233000	23.762809	0.000366	20.761951
696.213571	-3.009500	3.757200	-11.306000	23.759647	0.000364	20.749771
697.222563	-2.999300	3.757600	-11.269000	23.785935	0.000364	20.759533
698.214537	-3.005100	3.757200	-11.289000	23.790587	0.000365	20.746179
699.214113	-3.007500	3.756700	-11.298000	23.764357	0.000363	20.755442
700.217006	-2.976000	3.756300	-11.178000	23.782726	0.000365	20.756315
701.216006	-2.990200	3.754900	-11.227000	23.792459	0.000365	20.748056
702.222893	-2.988200	3.754700	-11.219000	23.783424	0.000366	20.740420
703.219459	-2.988900	3.756100	-11.225000	23.794925	0.000363	20.736303
704.216459	-2.971500	3.754900	-11.157000	23.786839	0.000364	20.753327
705.220183	-3.005400	3.753700	-11.281000	23.787834	0.000364	20.755273
706.215945	-2.999600	3.753200	-11.256000	23.785076	0.000363	20.746343
707.217922	-3.011200	3.754200	-11.302000	23.784606	0.000363	20.742078
708.235147	-3.003000	3.753700	-11.272000	23.788216	0.000364	20.757078
709.223761	-3.000800	3.752600	-11.260000	23.802853	0.000363	20.760375
710.216763	-2.984900	3.753100	-11.201000	23.807934	0.000363	20.763099
711.222789	-3.009000	3.753200	-11.292000	23.807538	0.000361	20.761279
712.217241	-3.026600	3.752400	-11.356000	23.826951	0.000363	20.753717
713.220723	-3.014600	3.752300	-11.311000	23.804580	0.000362	20.757838
714.220726	-3.013800	3.750800	-11.303000	23.796018	0.000363	20.773910
715.218518	-3.007800	3.752300	-11.286000	23.799507	0.000361	20.759864
716.220520	-3.007600	3.752300	-11.284000	23.809517	0.000363	20.766108
717.229520	-3.001700	3.751700	-11.260000	23.819646	0.000362	20.741650
718.221347	-2.978900	3.751100	-11.174000	23.826271	0.000362	20.744500
719.220480	-3.004100	3.749800	-11.264000	23.814449	0.000361	20.768683
720.221481	-2.999300	3.751600	-11.251000	23.822293	0.000363	20.765168
721.221855	-2.997100	3.750000	-11.238000	23.823615	0.000361	20.760804
722.230716	-2.992500	3.751500	-11.225000	23.824962	0.000361	20.754568
723.222717	-2.984900	3.750500	-11.194000	23.859111	0.000359	20.766524
724.236699	-3.002900	3.749500	-11.258000	23.841791	0.000359	20.765752
725.222254	-2.996900	3.750100	-11.238000	23.847047	0.000361	20.767703
726.222257	-2.988400	3.749300	-11.202000	23.848963	0.000360	20.745916
727.226263	-3.006900	3.748400	-11.269000	23.829977	0.000359	20.749164
728.251145	-3.011800	3.748400	-11.289000	23.836547	0.000362	20.745795
729.226142	-3.018100	3.746200	-11.305000	23.838293	0.000358	20.765090
730.226146	-3.008000	3.747800	-11.272000	23.829086	0.000358	20.754435
731.231736	-2.989800	3.747900	-11.205000	23.837325	0.000360	20.751791
732.227738	-2.999400	3.747600	-11.240000	23.838719	0.000359	20.756508
733.225739	-3.004200	3.747400	-11.256000	23.852111	0.000360	20.761401
734.224463	-2.988100	3.747000	-11.196000	23.841884	0.000359	20.768216
735.233955	-3.008400	3.745900	-11.268000	23.853857	0.000357	20.765522
736.225153	-3.012300	3.746100	-11.284000	23.846241	0.000359	20.767844
737.225517	-2.998600	3.746000	-11.232000	23.851844	0.000360	20.753547
738.225523	-3.006300	3.745300	-11.259000	23.888453	0.000357	20.782195
739.226525	-3.006800	3.745900	-11.261000	23.852518	0.000360	20.760861
740.232711	-3.002800	3.746200	-11.248000	23.850005	0.000360	20.763083
741.226412	-2.981000	3.745700	-11.165000	23.862475	0.000358	20.766578
742.227415	-2.988300	3.744400	-11.189000	23.851401	0.000357	20.773966
743.240212	-2.975900	3.746200	-11.147000	23.883507	0.000358	20.766804
744.227582	-3.001800	3.743400	-11.236000	23.881618	0.000358	20.764436
745.227581	-3.016200	3.742900	-11.288000	23.861112	0.000357	20.760943
746.231580	-3.008700	3.744200	-11.264000	23.868804	0.000357	20.767708
747.226865	-2.994200	3.743100	-11.207000	23.885305	0.000355	20.749166
748.227866	-2.998600	3.742700	-11.222000	23.879608	0.000357	20.767162
749.226865	-2.981400	3.741700	-11.154000	23.890286	0.000357	20.770757
750.226085	-2.995700	3.741900	-11.209000	23.860721	0.000358	20.777622
751.228213	-3.004900	3.741500	-11.242000	23.892827	0.000356	20.771408
752.227211	-3.024100	3.740900	-11.312000	23.894820	0.000355	20.790476
753.229481	-3.007800	3.740500	-11.250000	23.894322	0.000356	20.770537
754.226479	-3.004600	3.740300	-11.237000	23.874913	0.000355	20.767670
755.228481	-2.994300	3.742100	-11.204000	23.904653	0.000357	20.773310
756.228478	-3.022500	3.739400	-11.302000	23.910229	0.000354	20.765150
757.227866	-3.005600	3.740200	-11.241000	23.900626	0.000355	20.766426
758.228866	-3.003400	3.739800	-11.231000	23.894501	0.000353	20.760758
759.233794	-3.000200	3.739800	-11.219000	23.894328	0.000353	20.780500
760.257078	-3.016400	3.739300	-11.278000	23.903389	0.000356	20.772990
761.229076	-3.000900	3.739400	-11.221000	23.898088	0.000354	20.770046
762.230078	-3.010200	3.738700	-11.253000	23.915933	0.000354	20.771344
763.231633	-2.999800	3.738900	-11.214000	23.904312	0.000355	20.776287
764.229642	-3.004000	3.737900	-11.228000	23.917852	0.000353	20.778484
765.229641	-3.005600	3.738400	-11.234000	23.907402	0.000352	20.767058
766.229702	-3.012900	3.737400	-11.260000	23.900978	0.000356	20.772469
767.230934	-3.005400	3.737100	-11.231000	23.898839	0.000354	20.769850
768.229935	-3.025400	3.736000	-11.302000	23.906207	0.000353	20.790041
769.229779	-2.996800	3.736800	-11.198000	23.923028	0.000352	20.783201
770.228944	-2.997100	3.736400	-11.198000	23.927309	0.000356	20.785597
771.228941	-3.026900	3.736500	-11.309000	23.924150	0.000355	20.779110
772.233454	-2.991800	3.735700	-11.175000	23.936471	0.000353	20.771551
773.229213	-3.001800	3.736100	-11.214000	23.930745	0.000352	20.783827
774.230215	-3.004600	3.735900	-11.224000	23.925893	0.000353	20.805514
775.231215	-3.008200	3.735700	-11.236000	23.938140	0.000350	20.790294
776.229858	-3.004900	3.734800	-11.222000	23.915419	0.000353	20.770829
777.231859	-3.010300	3.735200	-11.243000	23.921516	0.000353	20.772676
778.245066	-3.022400	3.735000	-11.288000	23.946527	0.000352	20.783532
779.231445	-2.979500	3.735700	-11.130000	23.955115	0.000352	20.800679
780.230443	-2.992400	3.734400	-11.174000	23.938366	0.000352	20.800952
781.231074	-3.006400	3.733900	-11.225000	23.957952	0.000350	20.804946
782.233270	-2.969700	3.734800	-11.090000	23.945684	0.000348	20.783160
783.235574	-3.000000	3.734900	-11.203000	23.937895	0.000352	20.780092
784.232105	-3.003000	3.733100	-11.210000	23.951707	0.000352	20.789674
785.233040	-3.022400	3.732000	-11.279000	23.948028	0.000349	20.796417
786.232368	-2.998400	3.732600	-11.190000	23.934564	0.000352	20.796665
787.232371	-3.019800	3.732500	-11.270000	23.961815	0.000351	20.806923
788.237154	-3.019900	3.731900	-11.269000	23.962065	0.000349	20.783466
789.232104	-3.022500	3.732000	-11.279000	23.953807	0.000350	20.796522
790.233158	-2.997300	3.731200	-11.183000	23.951616	0.000348	20.811868
791.241406	-3.006400	3.731500	-11.218000	23.977451	0.000351	20.795102
792.231408	-3.012900	3.731700	-11.242000	23.965707	0.000349	20.818413
793.232409	-2.991500	3.731600	-11.162000	23.961600	0.000349	20.815242
794.233855	-3.021900	3.730200	-11.271000	23.968921	0.000349	20.803144
795.232623	-3.015300	3.729200	-11.244000	23.973600	0.000348	20.817318
796.233680	-3.012100	3.730100	-11.234000	23.963272	0.000348	20.802694
797.232675	-3.000000	3.730600	-11.191000	23.992664	0.000347	20.799926
798.232055	-2.993000	3.729800	-11.162000	23.990778	0.000347	20.798036
799.234365	-3.001100	3.730000	-11.192000	23.992073	0.000347	20.796489
800.233365	-2.995100	3.730600	-11.172000	23.968383	0.000345	20.830578
801.233265	-3.007600	3.728800	-11.214000	23.990685	0.000345	20.806003
802.233782	-3.020200	3.728000	-11.259000	23.996730	0.000347	20.802581
803.233783	-3.012100	3.728700	-11.229000	23.987826	0.000346	20.809300
804.236608	-2.995100	3.728800	-11.167000	24.009078	0.000346	20.805956
805.238066	-2.995900	3.727500	-11.166000	24.026374	0.000347	20.818559
806.237593	-2.998000	3.728000	-11.176000	24.007962	0.000348	20.794879
807.257165	-3.014400	3.726800	-11.233000	23.988876	0.000346	20.807034
808.236166	-2.987700	3.727000	-11.135000	24.005428	0.000344	20.804192
809.245170	-2.996000	3.726700	-11.164000	24.001277	0.000345	20.799081
810.248339	-3.016600	3.724300	-11.234000	24.016756	0.000347	20.814130
811.236303	-3.003100	3.725400	-11.187000	23.994911	0.000343	20.803128
812.236308	-2.990600	3.726300	-11.143000	24.017485	0.000343	20.805852
813.238302	-2.975700	3.726000	-11.086000	24.020000	0.000344	20.813116
814.242621	-3.009500	3.725700	-11.212000	24.029582	0.000343	20.811820
815.241624	-3.002200	3.724400	-11.181000	24.025877	0.000345	20.821854
816.238626	-2.999000	3.724100	-11.167000	24.033071	0.000343	20.786869
817.250154	-3.006700	3.723800	-11.195000	24.026108	0.000345	20.836785
818.249592	-3.004200	3.723500	-11.185000	24.022329	0.000342	20.815451
819.238595	-2.981900	3.724200	-11.104000	24.031612	0.000343	20.797734
820.237103	-3.000100	3.724500	-11.173000	24.031615	0.000343	20.808168
821.240144	-2.991300	3.724700	-11.140000	24.016067	0.000342	20.812965
822.238146	-3.026000	3.723200	-11.265000	24.031917	0.000344	20.826015
823.237949	-3.008500	3.724000	-11.203000	24.040059	0.000343	20.812844
824.237460	-3.013400	3.723100	-11.219000	24.043344	0.000344	20.821354
825.239460	-3.003500	3.723000	-11.181000	24.026203	0.000343	20.816017
826.245459	-3.036500	3.721100	-11.298000	24.060296	0.000343	20.825078
827.252423	-2.995200	3.723200	-11.150000	24.042707	0.000344	20.806016
828.240422	-2.980900	3.721200	-11.092000	24.048306	0.000344	20.836761
829.240424	-2.995800	3.721700	-11.149000	24.059805	0.000344	20.831223
830.239352	-2.987400	3.721900	-11.118000	24.027006	0.000342	20.817771
831.243352	-3.014800	3.720500	-11.215000	24.069909	0.000345	20.824762
832.241110	-3.007200	3.719800	-11.185000	24.062694	0.000343	20.823690
833.241214	-3.006700	3.720600	-11.186000	24.067023	0.000342	20.810014
834.241220	-3.004900	3.719700	-11.176000	24.066720	0.000342	20.830573
835.240220	-2.999600	3.720400	-11.159000	24.074810	0.000343	20.826358
836.239627	-2.985000	3.720200	-11.104000	24.058312	0.000341	20.813132
837.241631	-3.005500	3.719800	-11.179000	24.061322	0.000341	20.828952
838.240628	-2.988700	3.719800	-11.116000	24.065154	0.000343	20.838010
839.255629	-3.022900	3.719100	-11.242000	24.077690	0.000340	20.832091
840.246827	-2.997000	3.719200	-11.146000	24.075079	0.000339	20.832792
841.240833	-2.992900	3.718400	-11.128000	24.077468	0.000341	20.838506
842.244831	-3.009600	3.718300	-11.189000	24.088790	0.000341	20.843223
843.241953	-2.979900	3.718200	-11.079000	24.093542	0.000339	20.830920
844.239194	-3.010900	3.717400	-11.190000	24.092047	0.000339	20.853127
845.242196	-3.007200	3.717600	-11.178000	24.093613	0.000339	20.846638
846.249796	-2.982700	3.717100	-11.086000	24.093440	0.000338	20.841249
847.241745	-2.981600	3.717800	-11.084000	24.087242	0.000338	20.864429
848.244741	-3.013400	3.716200	-11.197000	24.087022	0.000339	20.829597
849.243535	-2.997200	3.716400	-11.138000	24.092819	0.000337	20.848212
850.242155	-2.997600	3.716500	-11.139000	24.102772	0.000336	20.852030
851.243157	-3.007700	3.715700	-11.175000	24.101326	0.000336	20.852950
852.242739	-2.999600	3.716600	-11.147000	24.084235	0.000338	20.824431
853.244654	-3.036500	3.713900	-11.277000	24.098913	0.000337	20.849108
854.244656	-3.010300	3.714500	-11.181000	24.108467	0.000335	20.860586
855.243652	-3.026600	3.713900	-11.239000	24.114517	0.000335	20.839628
856.243586	-3.001100	3.715300	-11.150000	24.103371	0.000334	20.866855
857.247587	-3.019200	3.714000	-11.212000	24.135645	0.000334	20.860818
858.248449	-3.006600	3.713500	-11.164000	24.127930	0.000335	20.849287
859.245901	-2.972200	3.715700	-11.043000	24.123978	0.000333	20.870452
860.253430	-2.993500	3.713900	-11.116000	24.128928	0.000333	20.843176
861.254432	-3.004900	3.713800	-11.159000	24.126592	0.000332	20.868807
862.255429	-2.995700	3.714000	-11.124000	24.126419	0.000334	20.861521
863.246312	-2.996900	3.713100	-11.126000	24.113382	0.000333	20.868834
864.246314	-2.991600	3.712300	-11.105000	24.125773	0.000334	20.867037
865.247370	-3.008700	3.712400	-11.169000	24.143617	0.000333	20.865968
866.246686	-3.031800	3.711300	-11.250000	24.124858	0.000332	20.872757
867.246688	-3.003500	3.711700	-11.147000	24.131199	0.000331	20.861574
868.269686	-2.985500	3.713200	-11.085000	24.136053	0.000333	20.857434
869.247864	-2.985900	3.712000	-11.083000	24.135212	0.000331	20.880771
870.252866	-2.977600	3.710600	-11.047000	24.117943	0.000331	20.862977
871.249937	-3.006200	3.711300	-11.156000	24.141982	0.000332	20.855794
872.278995	-3.016700	3.710600	-11.193000	24.141809	0.000331	20.872215
873.250994	-3.010600	3.710400	-11.169000	24.159650	0.000333	20.858815
874.255996	-3.016600	3.710500	-11.191000	24.155398	0.000332	20.854551
875.250867	-3.002600	3.710500	-11.140000	24.162214	0.000332	20.876085
876.268867	-3.005000	3.708400	-11.142000	24.155123	0.000331	20.885567
877.259871	-2.999400	3.709500	-11.125000	24.153584	0.000330	20.877386
878.251870	-2.974800	3.710500	-11.037000	24.162517	0.000332	20.877337
879.254203	-2.984700	3.709200	-11.069000	24.166793	0.000332	20.866454
880.255127	-2.998900	3.708300	-11.120000	24.149354	0.000330	20.858446
881.252905	-2.993100	3.708100	-11.097000	24.159653	0.000332	20.882999
882.255700	-2.992700	3.707800	-11.095000	24.158012	0.000331	20.868078
883.252694	-2.981600	3.709700	-11.060000	24.177737	0.000330	20.854672
884.253695	-2.974200	3.710100	-11.033000	24.166942	0.000332	20.849534
885.255941	-3.004200	3.706700	-11.135000	24.181148	0.000329	20.884170
886.252882	-2.997900	3.707900	-11.115000	24.178158	0.000330	20.878326
887.253883	-3.009500	3.707400	-11.156000	24.181717	0.000330	20.872413
888.252882	-3.015200	3.707000	-11.175000	24.173381	0.000329	20.887759
889.253915	-3.018200	3.705800	-11.184000	24.188481	0.000329	20.883464
890.257917	-2.991900	3.706900	-11.090000	24.170965	0.000328	20.873957
891.255919	-2.981700	3.707000	-11.053000	24.204773	0.000328	20.881787
892.254092	-2.994400	3.705300	-11.093000	24.188849	0.000329	20.897582
893.258098	-3.005100	3.706600	-11.138000	24.173221	0.000326	20.894710
894.255097	-3.029400	3.705300	-11.222000	24.204745	0.000328	20.892664
895.254881	-3.000500	3.705900	-11.118000	24.202131	0.000328	20.889095
896.256882	-2.990600	3.704800	-11.079000	24.205487	0.000325	20.896727
897.255108	-3.000800	3.705200	-11.118000	24.201331	0.000326	20.892085
898.256812	-3.000500	3.703900	-11.113000	24.195782	0.000326	20.894106
899.256942	-3.003700	3.704200	-11.125000	24.215238	0.000325	20.897973
900.259943	-3.000900	3.703600	-11.114000	24.202126	0.000324	20.905683
901.258941	-2.998600	3.704200	-11.107000	24.222749	0.000324	20.908351
902.255978	-3.007800	3.703400	-11.138000	24.206473	0.000326	20.901983
903.256974	-2.984500	3.704600	-11.055000	24.215408	0.000324	20.918530
904.260973	-2.998900	3.702200	-11.102000	24.214237	0.000323	20.909296
905.264377	-2.998700	3.702400	-11.101000	24.215381	0.000323	20.906176
906.264381	-3.011500	3.703200	-11.152000	24.220009	0.000323	20.915559
907.260384	-3.018500	3.702700	-11.176000	24.238365	0.000320	20.907419
908.258528	-3.011800	3.702300	-11.149000	24.234410	0.000323	20.909142
909.260043	-3.009400	3.701200	-11.137000	24.239733	0.000322	20.904999
910.268043	-2.980600	3.702800	-11.035000	24.238661	0.000322	20.911509
911.260044	-2.984100	3.702100	-11.046000	24.236968	0.000322	20.906018
912.260045	-3.003800	3.701600	-11.118000	24.228558	0.000323	20.893791
913.261288	-2.994100	3.702300	-11.084000	24.243633	0.000320	20.915547
914.262318	-2.992800	3.701500	-11.077000	24.246194	0.000321	20.923331
915.260847	-2.999100	3.701500	-11.100000	24.239076	0.000320	20.928519
916.260089	-3.004800	3.701000	-11.120000	24.242231	0.000319	20.905607
917.263310	-3.005400	3.700500	-11.120000	24.253727	0.000319	20.922352
918.261997	-2.986900	3.699500	-11.049000	24.243374	0.000321	20.913391
919.261651	-2.993100	3.699900	-11.072000	24.259619	0.000320	20.916409
920.264654	-2.984800	3.699600	-11.040000	24.252226	0.000321	20.916106
921.262776	-3.007200	3.698700	-11.121000	24.259066	0.000320	20.898313
922.262294	-2.994500	3.698300	-11.074000	24.273121	0.000319	20.914780
923.267318	-3.009700	3.698300	-11.130000	24.263991	0.000318	20.891400
924.263827	-3.007100	3.699600	-11.123000	24.266528	0.000320	20.892996
925.262619	-3.009100	3.697500	-11.125000	24.276328	0.000318	20.897136
926.263575	-3.010200	3.697600	-11.130000	24.259311	0.000316	20.890024
927.272745	-2.999400	3.698300	-11.090000	24.272865	0.000317	20.901248
928.266136	-2.988600	3.697500	-11.049000	24.264106	0.000317	20.906213
929.263139	-2.998900	3.697100	-11.087000	24.257488	0.000317	20.876343
930.263137	-3.009500	3.697400	-11.126000	24.275723	0.000316	20.893684
931.264201	-3.009000	3.697500	-11.125000	24.278334	0.000319	20.901044
932.265206	-3.004500	3.696800	-11.105000	24.272037	0.000316	20.896625
933.266204	-3.021200	3.695200	-11.162000	24.271763	0.000315	20.892083
934.271507	-3.010800	3.697100	-11.130000	24.297884	0.000314	20.890784
935.266507	-2.998200	3.695600	-11.079000	24.290467	0.000313	20.884767
936.267509	-2.989800	3.695500	-11.048000	24.287476	0.000315	20.889353
937.267328	-2.999600	3.695700	-11.084000	24.269193	0.000314	20.894720
938.274331	-2.981300	3.693800	-11.012000	24.294514	0.000314	20.884560
939.272330	-2.992400	3.696600	-11.061000	24.290931	0.000315	20.863423
940.266330	-2.988900	3.695100	-11.044000	24.286850	0.000314	20.894888
941.279919	-3.008800	3.694700	-11.116000	24.301179	0.000313	20.880814
942.267926	-2.991700	3.694700	-11.053000	24.284137	0.000313	20.895961
943.267923	-2.977200	3.695300	-11.000000	24.291871	0.000314	20.866262
944.281477	-3.004900	3.694400	-11.100000	24.314034	0.000317	20.874744
945.267481	-2.992100	3.694000	-11.051000	24.289875	0.000314	20.883225
946.272485	-2.979100	3.693300	-11.001000	24.289477	0.000315	20.897997
947.272039	-3.011400	3.692400	-11.119000	24.302036	0.000315	20.864605
948.268339	-2.982300	3.693600	-11.015000	24.305147	0.000313	20.883846
949.271346	-2.988800	3.693200	-11.037000	24.306312	0.000313	20.876006
950.272970	-3.006200	3.692200	-11.099000	24.287550	0.000313	20.870463
951.270035	-3.005900	3.691700	-11.097000	24.298271	0.000311	20.878845
952.272040	-3.018200	3.691900	-11.142000	24.321231	0.000312	20.878644
953.270033	-3.016200	3.691600	-11.133000	24.326475	0.000313	20.882007
954.270396	-3.012500	3.691500	-11.119000	24.323265	0.000314	20.883054
955.273400	-3.001300	3.693300	-11.083000	24.307513	0.000312	20.864883
956.271399	-3.013500	3.690400	-11.120000	24.334252	0.000311	20.870369
957.270982	-2.999200	3.690600	-11.067000	24.303575	0.000309	20.863778
958.273886	-2.984000	3.690700	-11.013000	24.313498	0.000310	20.868516
959.272365	-2.990800	3.689700	-11.035000	24.306652	0.000311	20.889149
960.281091	-3.016600	3.688800	-11.127000	24.319338	0.000312	20.872003
961.275995	-3.000400	3.690200	-11.071000	24.301346	0.000309	20.875766
962.273993	-3.013400	3.689200	-11.116000	24.315051	0.000309	20.884772
963.276995	-3.015200	3.688600	-11.121000	24.306067	0.000310	20.859640
964.284625	-2.981400	3.688500	-10.996000	24.332658	0.000309	20.862132
965.273970	-3.014800	3.687300	-11.116000	24.334197	0.000308	20.866047
966.282493	-3.019900	3.687100	-11.133000	24.340215	0.000310	20.880144
967.277142	-2.980400	3.688400	-10.992000	24.309637	0.000308	20.867014
968.274108	-3.009900	3.687800	-11.099000	24.321600	0.000308	20.857678
969.274109	-2.983200	3.687500	-10.999000	24.315579	0.000306	20.860173
970.289443	-3.002600	3.687000	-11.070000	24.351623	0.000307	20.870725
971.279444	-3.010300	3.686400	-11.097000	24.345997	0.000305	20.858919
972.276498	-3.020400	3.686200	-11.133000	24.333906	0.000306	20.865281
973.276999	-2.995400	3.686800	-11.043000	24.337663	0.000305	20.869523
974.282171	-2.999700	3.687500	-11.061000	24.322782	0.000305	20.850803
975.277178	-2.985500	3.686800	-11.006000	24.337979	0.000305	20.868418
976.278403	-3.031000	3.686100	-11.172000	24.344247	0.000304	20.866171
977.279335	-3.001400	3.685400	-11.060000	24.349870	0.000304	20.873708
978.279347	-2.998400	3.684900	-11.048000	24.337306	0.000304	20.843562
979.279827	-2.988100	3.686500	-11.015000	24.340936	0.000303	20.853367
980.280938	-2.996000	3.684100	-11.037000	24.350411	0.000304	20.861924
981.280941	-3.001700	3.685300	-11.061000	24.347303	0.000303	20.849323
982.288264	-2.999500	3.685600	-11.053000	24.364368	0.000302	20.851270
983.281497	-3.024900	3.684100	-11.144000	24.354294	0.000303	20.846854
984.282499	-2.982600	3.684900	-10.990000	24.361233	0.000303	20.836745
985.296499	-2.965000	3.685100	-10.925000	24.346756	0.000302	20.854464
986.284661	-2.984500	3.684400	-10.995000	24.356009	0.000301	20.848574
987.283661	-2.989400	3.684200	-11.013000	24.350191	0.000300	20.874030
988.283661	-3.001300	3.684500	-11.057000	24.338768	0.000301	20.857356
989.284203	-3.006300	3.683100	-11.071000	24.359070	0.000301	20.826515
990.285202	-3.025100	3.682500	-11.139000	24.354294	0.000299	20.853966
991.284112	-3.007800	3.682500	-11.075000	24.345341	0.000301	20.824122
992.295110	-3.007300	3.681900	-11.071000	24.355041	0.000300	20.841440
993.288111	-3.000100	3.681400	-11.044000	24.381287	0.000298	20.845009
994.285115	-2.993900	3.682300	-11.023000	24.367806	0.000299	20.847132
995.294112	-3.018700	3.680900	-11.110000	24.363975	0.000300	20.853246
996.292029	-2.996000	3.681600	-11.029000	24.370045	0.000299	20.839422
997.287030	-3.010400	3.681200	-11.080000	24.374972	0.000296	20.831088
998.290032	-2.987700	3.682600	-11.002000	24.367611	0.000298	20.855944
999.289200	-3.002400	3.680200	-11.048000	24.391295	0.000297	20.849833
1000.293443	-2.993300	3.680300	-11.015000	24.367289	0.000297	20.863208
1001.290443	-2.989300	3.680500	-11.001000	24.390924	0.000297	20.828125
1002.289441	-3.019600	3.679300	-11.109000	24.367638	0.000297	20.831791
1003.293166	-3.017200	3.678600	-11.097000	24.384857	0.000296	20.868977
1004.293716	-2.981800	3.679600	-10.971000	24.369435	0.000295	20.843551
1005.290714	-3.019700	3.677900	-11.105000	24.390457	0.000298	20.855156
1006.305530	-2.998200	3.679700	-11.032000	24.364785	0.000295	20.840783
1007.290530	-2.999300	3.679100	-11.034000	24.390459	0.000295	20.846150
1008.290529	-2.997900	3.679600	-11.029000	24.381578	0.000296	20.823965
1009.294562	-3.030400	3.677700	-11.143000	24.380685	0.000295	20.825914
1010.291488	-3.008600	3.678900	-11.068000	24.374741	0.000293	20.829908
1011.296497	-2.992600	3.678700	-11.008000	24.393372	0.000292	20.833900
1012.290113	-2.997300	3.678000	-11.023000	24.396631	0.000294	20.848548
1013.291693	-3.009300	3.677100	-11.065000	24.395661	0.000292	20.811540
1014.292695	-2.974100	3.678200	-10.938000	24.391086	0.000292	20.827339
1015.291689	-2.988400	3.677000	-10.987000	24.383949	0.000292	20.832033
1016.291177	-2.977100	3.677900	-10.948000	24.396384	0.000294	20.826964
1017.295177	-3.011300	3.675900	-11.068000	24.381735	0.000293	20.834079
1018.292178	-3.005600	3.677200	-11.051000	24.390514	0.000292	20.823921
1019.322178	-2.986000	3.677100	-10.979000	24.391185	0.000291	20.847352
1020.303185	-2.999300	3.676800	-11.027000	24.415039	0.000292	20.827187
1021.293180	-3.041100	3.675400	-11.176000	24.395189	0.000292	20.835248
1022.293181	-3.031400	3.674500	-11.138000	24.383994	0.000291	20.831603
1023.294182	-3.003600	3.674800	-11.037000	24.388000	0.000291	20.818553
1024.295182	-3.002700	3.675100	-11.034000	24.412673	0.000289	20.822917
1025.299507	-3.000100	3.674200	-11.022000	24.405287	0.000288	20.808395
1026.295470	-2.993100	3.674600	-10.997000	24.383466	0.000289	20.820643
1027.295475	-2.997300	3.675100	-11.015000	24.373070	0.000290	20.813534
1028.297346	-2.996300	3.673700	-11.006000	24.403487	0.000291	20.816073
1029.297671	-2.965500	3.675700	-10.898000	24.406400	0.000288	20.840331
1030.299683	-2.997700	3.674000	-11.012000	24.404262	0.000287	20.814479
1031.303706	-2.995100	3.673100	-10.999000	24.410228	0.000291	20.818093
1032.295975	-2.981400	3.673600	-10.951000	24.411248	0.000287	20.822909
1033.310982	-2.999400	3.673300	-11.016000	24.407912	0.000286	20.812925
1034.299982	-2.991100	3.673200	-10.986000	24.403086	0.000288	20.794334
1035.297628	-2.976700	3.672700	-10.931000	24.408357	0.000286	20.827596
1036.303318	-2.996000	3.671900	-11.000000	24.419027	0.000288	20.853472
1037.298319	-2.985600	3.672100	-10.962000	24.419447	0.000286	20.818333
1038.295199	-2.997300	3.671300	-11.003000	24.429073	0.000285	20.815188
1039.295343	-3.018700	3.670100	-11.078000	24.408253	0.000285	20.811370
1040.302343	-2.999200	3.671400	-11.010000	24.418574	0.000286	20.825992
1041.303340	-3.029600	3.670800	-11.120000	24.405612	0.000286	20.826264
1042.296978	-3.013100	3.670700	-11.058000	24.405711	0.000283	20.815933
1043.296981	-2.996000	3.669900	-10.994000	24.408146	0.000284	20.808892
1044.320976	-2.988100	3.670500	-10.966000	24.424336	0.000284	20.820393
1045.320633	-2.990500	3.669700	-10.973000	24.422171	0.000280	20.827230
1046.298612	-2.994100	3.670400	-10.989000	24.404258	0.000283	20.823958
1047.302639	-3.021500	3.667900	-11.082000	24.420773	0.000283	20.811128
1048.303802	-3.013900	3.668100	-11.054000	24.416865	0.000282	20.816217
1049.297475	-3.009100	3.668900	-11.039000	24.422710	0.000281	20.815917
1050.298481	-3.002600	3.669600	-11.017000	24.450166	0.000283	20.808375
1051.301472	-3.013200	3.668300	-11.052000	24.446185	0.000282	20.816708
1052.299473	-2.991300	3.668700	-10.973000	24.436035	0.000281	20.822172
1053.298492	-3.002100	3.667600	-11.008000	24.436255	0.000281	20.825712
1054.299549	-2.987800	3.667500	-10.957000	24.433320	0.000279	20.807595
1055.299796	-3.001400	3.666200	-11.003000	24.429734	0.000282	20.805894
1056.300797	-3.001500	3.667100	-11.006000	24.447540	0.000280	20.815223
1057.302798	-2.994700	3.667300	-10.982000	24.432760	0.000280	20.817465
1058.318812	-2.981100	3.667100	-10.931000	24.451959	0.000279	20.796423
1059.301815	-2.969000	3.667500	-10.888000	24.452531	0.000280	20.811221
1060.303813	-3.002600	3.667000	-11.009000	24.436806	0.000279	20.816782
1061.305889	-3.006900	3.666900	-11.024000	24.451504	0.000279	20.800708
1062.301333	-2.982800	3.666700	-10.936000	24.460305	0.000279	20.814753
1063.303334	-3.002000	3.665400	-11.003000	24.451669	0.000278	20.815098
1064.302211	-3.013900	3.664500	-11.044000	24.471168	0.000278	20.828970
1065.303955	-3.008600	3.665700	-11.027000	24.451112	0.000279	20.815014
1066.302956	-3.000600	3.664200	-10.994000	24.461010	0.000279	20.801710
1067.302952	-3.009000	3.664600	-11.027000	24.457477	0.000278	20.822347
1068.306218	-2.994900	3.664900	-10.975000	24.455230	0.000276	20.812980
1069.302071	-2.991800	3.665600	-10.965000	24.453960	0.000277	20.793215
1070.306074	-3.010800	3.663400	-11.028000	24.468579	0.000278	20.805985
1071.308449	-2.992300	3.664900	-10.965000	24.456786	0.000275	20.827344
1072.308378	-2.994000	3.663500	-10.967000	24.458674	0.000276	20.806005
1073.309383	-2.998700	3.662600	-10.982000	24.479063	0.000277	20.815555
1074.305374	-3.015300	3.663200	-11.045000	24.484734	0.000275	20.810813
1075.303642	-3.027700	3.661900	-11.086000	24.461693	0.000278	20.796231
1076.306640	-3.022500	3.661900	-11.068000	24.489874	0.000275	20.826401
1077.304669	-2.968600	3.662300	-10.871000	24.454473	0.000275	20.814118
1078.305416	-3.012700	3.661300	-11.030000	24.483196	0.000275	20.802157
1079.310935	-3.001800	3.660600	-10.988000	24.487125	0.000274	20.812738
1080.305963	-3.010100	3.661400	-11.020000	24.492391	0.000273	20.823236
1081.306086	-3.011400	3.661200	-11.025000	24.477515	0.000274	20.810682
1082.305168	-2.994700	3.661700	-10.965000	24.465643	0.000272	20.797349
1083.307169	-2.984100	3.662000	-10.926000	24.495437	0.000273	20.819180
1084.307284	-2.981600	3.659900	-10.911000	24.489566	0.000273	20.800487
1085.307432	-2.981600	3.660100	-10.912000	24.494260	0.000275	20.820844
1086.306433	-2.992100	3.660400	-10.951000	24.481223	0.000273	20.818195
1087.308491	-2.991600	3.660100	-10.948000	24.484029	0.000272	20.815795
1088.306628	-2.997800	3.659700	-10.970000	24.491959	0.000269	20.844614
1089.307666	-3.032400	3.658300	-11.092000	24.495364	0.000270	20.820055
1090.310765	-2.989000	3.659100	-10.937000	24.496104	0.000270	20.816057
1091.306071	-3.031200	3.657300	-11.086000	24.498042	0.000271	20.805198
1092.308069	-2.976800	3.658500	-10.890000	24.491572	0.000271	20.812932
1093.309071	-2.994700	3.658300	-10.954000	24.500076	0.000267	20.826205
1094.313435	-3.014500	3.656900	-11.022000	24.514747	0.000268	20.791613
1095.311403	-2.997700	3.657600	-10.963000	24.519470	0.000268	20.808206
1096.319405	-3.001500	3.657300	-10.976000	24.497031	0.000267	20.834056
1097.333922	-3.014200	3.656000	-11.018000	24.499518	0.000268	20.814266
1098.313241	-2.995900	3.656500	-10.953000	24.500632	0.000268	20.807323
1099.311763	-3.012700	3.656400	-11.014000	24.512620	0.000268	20.812238
1100.313778	-3.016200	3.655800	-11.025000	24.491623	0.000266	20.808242
1101.313431	-3.019200	3.655000	-11.033000	24.495973	0.000266	20.814029
1102.311434	-2.993900	3.656400	-10.946000	24.509058	0.000267	20.812931
1103.335640	-2.964500	3.657000	-10.839000	24.505225	0.000265	20.810035
1104.313497	-2.987000	3.656100	-10.919000	24.501420	0.000267	20.814751
1105.312497	-2.997800	3.655100	-10.955000	24.489281	0.000264	20.805891
1106.314494	-2.999000	3.655400	-10.962000	24.478683	0.000264	20.811380
1107.315057	-3.014400	3.654600	-11.015000	24.515991	0.000264	20.803293
1108.321061	-3.014300	3.653200	-11.009000	24.506962	0.000266	20.820312
1109.314059	-3.020900	3.654000	-11.037000	24.492409	0.000263	20.809504
1110.314213	-2.966100	3.654500	-10.838000	24.507606	0.000262	20.787767
1111.318215	-2.990600	3.653100	-10.924000	24.521561	0.000263	20.808407
1112.315214	-3.001700	3.652900	-10.964000	24.505889	0.000261	20.801218
1113.315310	-3.000200	3.653000	-10.958000	24.531557	0.000263	20.819384
1114.316088	-2.991900	3.653300	-10.929000	24.511013	0.000261	20.806833
1115.315093	-3.011900	3.653000	-11.001000	24.526138	0.000259	20.821060
1116.314087	-2.999800	3.651500	-10.953000	24.519621	0.000261	20.807409
1117.319806	-2.978100	3.653700	-10.879000	24.524817	0.000261	20.819260
1118.316806	-3.002100	3.651000	-10.959000	24.515021	0.000259	20.808958
1119.317806	-2.995100	3.651100	-10.935000	24.523825	0.000259	20.822532
1120.316638	-3.000800	3.652400	-10.960000	24.522434	0.000259	20.790791
1121.317258	-2.985600	3.651100	-10.900000	24.524622	0.000258	20.805788
1122.318259	-2.994600	3.650800	-10.932000	24.538331	0.000260	20.790619
1123.318828	-3.015800	3.650100	-11.007000	24.517164	0.000258	20.794986
1124.326419	-2.996800	3.650300	-10.939000	24.539746	0.000259	20.799152
1125.320421	-2.989200	3.650700	-10.911000	24.519180	0.000258	20.811233
1126.321416	-3.015800	3.649700	-11.005000	24.544576	0.000258	20.796885
1127.320584	-2.992800	3.650300	-10.924000	24.530153	0.000257	20.790000
1128.327581	-2.998200	3.650100	-10.943000	24.530202	0.000254	20.800007
1129.324585	-3.009600	3.648400	-10.979000	24.540748	0.000255	20.801105
1130.326173	-2.990100	3.649900	-10.912000	24.508040	0.000255	20.806695
1131.323676	-3.005100	3.648500	-10.963000	24.542269	0.000256	20.810692
1132.325679	-2.986000	3.648700	-10.893000	24.520382	0.000255	20.784938
1133.324794	-3.033800	3.648000	-11.067000	24.551250	0.000254	20.810694
1134.325150	-2.994500	3.646600	-10.918000	24.512973	0.000254	20.807377
1135.325152	-2.997200	3.647100	-10.929000	24.528022	0.000254	20.816311
1136.325648	-2.999900	3.646000	-10.935000	24.538023	0.000253	20.805957
1137.328272	-2.985900	3.647700	-10.890000	24.541481	0.000254	20.805634
1138.326276	-2.990400	3.646900	-10.905000	24.529219	0.000254	20.796650
1139.331327	-2.989800	3.647200	-10.903000	24.536510	0.000254	20.783577
1140.330953	-3.011700	3.646100	-10.980000	24.532158	0.000253	20.777788
1141.327953	-3.010000	3.645400	-10.972000	24.535390	0.000252	20.797151
1142.326443	-2.999400	3.646000	-10.935000	24.552382	0.000251	20.802821
1143.340258	-2.998300	3.645700	-10.930000	24.551016	0.000253	20.818046
1144.326257	-3.013600	3.644600	-10.982000	24.544128	0.000252	20.786478
1145.327257	-3.023600	3.643600	-11.016000	24.519853	0.000250	20.800055
1146.329422	-2.994300	3.644500	-10.912000	24.496224	0.000249	20.791520
1147.327088	-2.999700	3.645200	-10.933000	24.519831	0.000251	20.796239
1148.329319	-3.006600	3.642600	-10.950000	24.537418	0.000252	20.796341
1149.332325	-2.980500	3.644100	-10.860000	24.522644	0.000250	20.808071
1150.329327	-2.989900	3.645000	-10.896000	24.529658	0.000251	20.793297
1151.328341	-3.014900	3.642100	-10.979000	24.531600	0.000248	20.792401
1152.327757	-2.994100	3.642700	-10.906000	24.532642	0.000252	20.766893
1153.331257	-2.993400	3.643000	-10.902000	24.543464	0.000248	20.771113
1154.331256	-2.992000	3.642700	-10.897000	24.528441	0.000250	20.798240
1155.333262	-2.984600	3.642800	-10.871000	24.540604	0.000247	20.789581
1156.373575	-2.997100	3.642300	-10.916000	24.537121	0.000248	20.796517
1157.329578	-2.992700	3.641100	-10.896000	24.535406	0.000250	20.799064
1158.329582	-2.972800	3.641100	-10.824000	24.532840	0.000248	20.825413
1159.330352	-3.008400	3.640000	-10.949000	24.539558	0.000247	20.807971
1160.332395	-3.003800	3.640400	-10.935000	24.555423	0.000247	20.792595
1161.329396	-3.012100	3.640000	-10.963000	24.549952	0.000247	20.796115
1162.336384	-3.013100	3.639800	-10.966000	24.552812	0.000244	20.808942
1163.328786	-2.983900	3.640200	-10.861000	24.537564	0.000246	20.816402
1164.332792	-2.987700	3.640400	-10.876000	24.549848	0.000246	20.781786
1165.330240	-2.996700	3.639700	-10.906000	24.568402	0.000245	20.793765
1166.329833	-2.999800	3.639800	-10.918000	24.547882	0.000244	20.803995
1167.333872	-2.993900	3.638100	-10.892000	24.551860	0.000243	20.784753
1168.329900	-3.005900	3.638400	-10.936000	24.563002	0.000243	20.787871
1169.332958	-3.018400	3.637700	-10.978000	24.553201	0.000241	20.804591
1170.332959	-3.008700	3.638200	-10.945000	24.556980	0.000242	20.797476
1171.331963	-3.027900	3.637400	-11.012000	24.566802	0.000240	20.813970
1172.333025	-3.000000	3.637700	-10.912000	24.567774	0.000240	20.804988
1173.331907	-3.006000	3.637000	-10.932000	24.563890	0.000241	20.808678
1174.330913	-2.995900	3.636300	-10.893000	24.556356	0.000242	20.790687
1175.332379	-3.003700	3.634800	-10.917000	24.570878	0.000241	20.816162
1176.330992	-2.999200	3.636300	-10.905000	24.557151	0.000241	20.816140
1177.332994	-2.981200	3.636500	-10.840000	24.541256	0.000238	20.830538
1178.331992	-3.000800	3.635900	-10.910000	24.544661	0.000237	20.805979
1179.337037	-3.004300	3.636000	-10.923000	24.564311	0.000236	20.783021
1180.331633	-2.970200	3.635600	-10.797000	24.567943	0.000237	20.794252
1181.331312	-2.977200	3.636500	-10.826000	24.557421	0.000236	20.793651
1182.332516	-2.989800	3.635000	-10.866000	24.585599	0.000238	20.824769
1183.332254	-2.992300	3.634300	-10.874000	24.581969	0.000236	20.804058
1184.331254	-3.001000	3.634700	-10.906000	24.578434	0.000237	20.811416
1185.339558	-3.006100	3.633000	-10.920000	24.575302	0.000236	20.809696
1186.335567	-3.009000	3.632500	-10.929000	24.575153	0.000236	20.800538
1187.342561	-2.996700	3.632400	-10.884000	24.574606	0.000237	20.796670
1188.343341	-2.996600	3.631900	-10.883000	24.562943	0.000235	20.809149
1189.334324	-3.006600	3.632900	-10.922000	24.582590	0.000236	20.803733
1190.334320	-2.984400	3.633000	-10.841000	24.590898	0.000234	20.795948
1191.336324	-2.996200	3.631600	-10.880000	24.599728	0.000234	20.822351
1192.332867	-3.013900	3.631100	-10.942000	24.568143	0.000233	20.817212
1193.332215	-2.996100	3.632200	-10.882000	24.598885	0.000232	20.796849
1194.333216	-2.999000	3.632100	-10.892000	24.589508	0.000233	20.809725
1195.332546	-3.013700	3.631300	-10.942000	24.605426	0.000235	20.820482
1196.335108	-3.018500	3.629200	-10.953000	24.586225	0.000233	20.800267
1197.334110	-3.011200	3.631500	-10.934000	24.589733	0.000234	20.819908
1198.354107	-3.022100	3.629100	-10.966000	24.600379	0.000232	20.823952
1199.350560	-3.017600	3.628400	-10.948000	24.598513	0.000231	20.813546
1200.334562	-3.007500	3.629500	-10.915000	24.625723	0.000231	20.802441
1201.338688	-3.001500	3.629300	-10.893000	24.605354	0.000230	20.809978
1202.335171	-2.975400	3.628300	-10.794000	24.608291	0.000231	20.813399
1203.335072	-2.996100	3.628100	-10.868000	24.584638	0.000231	20.814322
1204.339077	-2.987900	3.628500	-10.840000	24.613664	0.000229	20.829696
1205.345647	-3.021300	3.628300	-10.961000	24.617296	0.000230	20.815323
1206.337226	-2.996300	3.627700	-10.868000	24.609040	0.000227	20.826478
1207.339228	-2.999800	3.627800	-10.881000	24.609810	0.000229	20.793112
1208.337187	-2.997900	3.628200	-10.876000	24.617296	0.000231	20.822435
1209.341624	-2.990500	3.627200	-10.846000	24.626349	0.000230	20.821087
1210.339626	-3.001400	3.625900	-10.881000	24.616400	0.000230	20.819165
1211.338625	-2.979600	3.627300	-10.806000	24.612222	0.000225	20.812128
1212.340365	-2.983100	3.626900	-10.819000	24.604287	0.000228	20.806063
1213.339618	-2.980300	3.626100	-10.805000	24.612071	0.000227	20.817666
1214.343034	-2.968400	3.625900	-10.762000	24.614110	0.000228	20.822557
1215.342821	-3.002400	3.624500	-10.881000	24.624827	0.000228	20.815767
1216.349824	-2.984700	3.626200	-10.822000	24.605077	0.000228	20.837675
1217.344823	-3.009900	3.624300	-10.908000	24.620523	0.000228	20.828043
1218.346116	-3.014500	3.623200	-10.921000	24.617237	0.000228	20.838971
1219.342403	-2.991100	3.622800	-10.835000	24.641906	0.000227	20.824370
1220.344401	-2.984700	3.623100	-10.813000	24.636033	0.000225	20.825589
1221.341164	-3.009100	3.622700	-10.900000	24.616733	0.000228	20.811913
1222.349955	-2.972300	3.623600	-10.769000	24.632001	0.000226	20.843827
1223.345953	-3.012300	3.623700	-10.915000	24.641002	0.000226	20.815876
1224.342522	-3.011000	3.621100	-10.902000	24.638709	0.000227	20.831592
1225.341480	-3.000800	3.621900	-10.868000	24.627588	0.000225	20.846038
1226.342483	-2.982600	3.621300	-10.800000	24.645270	0.000226	20.813047
1227.350478	-3.002200	3.621300	-10.869000	24.635169	0.000226	20.826618
1228.360043	-3.001200	3.620600	-10.864000	24.636407	0.000224	20.832602
1229.343046	-2.984100	3.620600	-10.802000	24.624891	0.000226	20.833374
1230.343046	-3.002100	3.619900	-10.866000	24.646398	0.000224	20.840730
1231.369427	-3.007300	3.620500	-10.887000	24.646819	0.000224	20.835463
1232.350436	-3.015400	3.619000	-10.912000	24.652087	0.000224	20.832214
1233.345436	-3.012000	3.619100	-10.900000	24.667676	0.000222	20.858761
1234.344605	-3.016000	3.618700	-10.913000	24.669415	0.000222	20.851972
1235.343508	-2.991500	3.618900	-10.825000	24.657150	0.000221	20.846777
1236.343510	-2.986400	3.619400	-10.808000	24.658365	0.000223	20.833772
1237.344508	-2.975200	3.618700	-10.765000	24.669726	0.000221	20.863663
1238.344223	-3.010400	3.617400	-10.889000	24.673005	0.000221	20.841350
1239.348225	-2.981700	3.619300	-10.791000	24.673745	0.000220	20.833084
1240.346229	-2.992400	3.617800	-10.825000	24.686301	0.000220	20.858011
1241.354722	-3.012700	3.617400	-10.897000	24.677047	0.000220	20.867216
1242.350460	-3.005600	3.617500	-10.872000	24.690347	0.000219	20.856381
1243.348472	-2.981600	3.617600	-10.784000	24.685942	0.000220	20.844849
1244.351737	-3.008400	3.616200	-10.877000	24.687529	0.000220	20.860191
1245.356039	-3.020300	3.616100	-10.921000	24.681458	0.000219	20.845565
1246.350066	-3.015600	3.615900	-10.902000	24.695481	0.000219	20.837351
1247.356413	-2.994900	3.615500	-10.826000	24.687419	0.000218	20.871934
1248.356150	-3.006700	3.615300	-10.869000	24.687888	0.000219	20.860077
1249.352153	-3.009800	3.614900	-10.879000	24.688086	0.000220	20.864543
1250.352153	-3.025500	3.613600	-10.932000	24.705985	0.000217	20.862116
1251.360921	-3.005300	3.614400	-10.861000	24.664177	0.000217	20.874690
1252.353566	-2.986200	3.614800	-10.794000	24.703815	0.000216	20.882222
1253.353574	-2.994300	3.613500	-10.819000	24.705478	0.000217	20.874409
1254.354293	-2.980000	3.614000	-10.768000	24.716193	0.000215	20.849127
1255.357295	-2.996000	3.612100	-10.821000	24.709224	0.000216	20.875322
1256.353297	-3.012500	3.612700	-10.882000	24.704422	0.000214	20.863866
1257.353668	-3.019700	3.612300	-10.907000	24.712601	0.000213	20.873496
1258.354776	-3.016500	3.611800	-10.895000	24.702675	0.000214	20.895776
1259.354776	-3.005800	3.612200	-10.856000	24.715354	0.000213	20.870095
1260.354775	-2.992300	3.611800	-10.807000	24.700680	0.000211	20.880973
1261.357966	-2.997200	3.611900	-10.824000	24.730169	0.000209	20.884487
1262.355970	-2.987800	3.611400	-10.789000	24.728577	0.000212	20.869613
1263.365967	-2.991400	3.611100	-10.802000	24.713205	0.000212	20.872679
1264.355803	-3.011600	3.609500	-10.869000	24.711685	0.000214	20.898179
1265.357804	-3.025400	3.608800	-10.917000	24.714714	0.000210	20.889365
1266.362581	-3.004000	3.610500	-10.845000	24.706830	0.000208	20.899945
1267.359581	-3.006500	3.609400	-10.850000	24.733934	0.000211	20.886842
1268.358581	-2.991700	3.609800	-10.798000	24.740221	0.000209	20.886513
1269.360050	-2.993900	3.609500	-10.805000	24.720697	0.000208	20.899161
1270.358727	-3.002300	3.609300	-10.835000	24.735864	0.000209	20.884512
1271.360210	-2.985700	3.608500	-10.773000	24.749191	0.000210	20.890299
1272.360210	-2.973400	3.608300	-10.727000	24.741628	0.000207	20.896932
1273.358212	-3.002600	3.609100	-10.836000	24.737895	0.000206	20.880386
1274.389114	-3.004100	3.608300	-10.838000	24.744484	0.000207	20.888894
1275.361117	-3.026300	3.607100	-10.915000	24.719737	0.000207	20.915266
1276.361117	-3.015600	3.606500	-10.875000	24.737515	0.000206	20.906555
1277.359458	-2.993100	3.606800	-10.795000	24.769716	0.000205	20.886715
1278.359454	-2.990100	3.607500	-10.786000	24.732784	0.000206	20.888533
1279.361463	-2.978300	3.606300	-10.739000	24.759442	0.000206	20.893947
1280.363513	-2.998600	3.606200	-10.813000	24.729374	0.000204	20.893645
1281.362531	-3.010400	3.605600	-10.853000	24.740487	0.000204	20.912382
1282.367837	-3.015100	3.605100	-10.869000	24.746824	0.000204	20.924904
1283.366066	-3.009800	3.604900	-10.849000	24.750703	0.000204	20.912203
1284.364223	-2.997100	3.604100	-10.800000	24.753982	0.000201	20.912648
1285.369224	-3.009900	3.603900	-10.846000	24.756665	0.000202	20.909651
1286.367133	-2.981500	3.603700	-10.743000	24.769445	0.000201	20.906355
1287.369911	-3.005600	3.603700	-10.830000	24.744028	0.000202	20.889385
1288.369910	-3.023000	3.602700	-10.889000	24.757331	0.000199	20.902259
1289.377906	-2.999900	3.603400	-10.809000	24.749024	0.000201	20.901510
1290.366572	-3.015300	3.601900	-10.861000	24.768916	0.000198	20.896816
1291.367573	-3.006800	3.602000	-10.829000	24.753048	0.000200	20.908392
1292.369575	-2.971700	3.601900	-10.704000	24.751282	0.000198	20.941230
1293.373021	-2.991400	3.601300	-10.772000	24.776320	0.000200	20.924633
1294.368165	-3.007100	3.601800	-10.830000	24.777290	0.000195	20.927976
1295.370167	-3.007300	3.600500	-10.826000	24.775174	0.000197	20.898829
1296.373045	-2.996100	3.600200	-10.785000	24.767389	0.000197	20.913775
1297.370818	-3.003900	3.600900	-10.815000	24.747869	0.000194	20.933538
1298.371814	-2.986400	3.602200	-10.757000	24.771291	0.000195	20.915794
1299.375172	-3.000100	3.598900	-10.796000	24.764054	0.000194	20.925125
1300.373920	-3.029800	3.599600	-10.905000	24.784345	0.000193	20.923678
1301.372923	-2.994800	3.599600	-10.779000	24.780242	0.000194	20.926197
1302.371875	-2.999000	3.600200	-10.797000	24.793269	0.000194	20.905608
1303.376362	-3.019400	3.597400	-10.861000	24.784864	0.000194	20.933680
1304.381361	-3.010000	3.597600	-10.828000	24.780290	0.000194	20.927193
1305.373363	-3.013200	3.597800	-10.840000	24.778472	0.000191	20.908776
1306.374186	-2.989700	3.598500	-10.758000	24.772353	0.000192	20.928712
1307.372118	-3.020100	3.596600	-10.861000	24.774119	0.000191	20.913416
1308.383119	-3.001700	3.597700	-10.799000	24.773373	0.000190	20.936372
1309.376118	-2.988600	3.597800	-10.751000	24.782026	0.000190	20.934625
1310.373740	-2.992800	3.596000	-10.761000	24.785930	0.000190	20.948972
1311.375743	-3.001800	3.595500	-10.792000	24.780361	0.000191	20.925368
1312.373744	-2.985500	3.595600	-10.734000	24.782348	0.000191	20.934474
1313.386199	-2.992900	3.594700	-10.757000	24.788566	0.000190	20.908475
1314.373755	-3.009300	3.593800	-10.812000	24.779165	0.000191	20.918953
1315.373757	-2.997100	3.594100	-10.771000	24.808904	0.000190	20.916556
1316.375576	-2.970500	3.595300	-10.679000	24.762525	0.000189	20.916006
1317.372746	-2.983800	3.595200	-10.726000	24.776178	0.000189	20.922119
1318.373745	-3.008100	3.593500	-10.808000	24.790055	0.000189	20.925614
1319.373744	-2.975000	3.594000	-10.691000	24.799202	0.000191	20.926258
1320.372271	-3.022100	3.593200	-10.858000	24.791219	0.000189	20.927256
1321.375272	-3.006600	3.593000	-10.802000	24.784030	0.000188	20.925257
1322.373271	-3.003700	3.593000	-10.792000	24.803277	0.000189	20.926081
1323.373320	-2.983600	3.593400	-10.720000	24.794472	0.000189	20.927202
1324.375479	-3.005200	3.592300	-10.794000	24.802079	0.000189	20.939576
1325.374479	-3.018400	3.591500	-10.839000	24.803247	0.000188	20.949756
1326.375862	-3.021800	3.590400	-10.848000	24.809436	0.000188	20.945061
1327.382760	-2.999000	3.590900	-10.768000	24.806749	0.000189	20.949003
1328.375281	-3.005600	3.590000	-10.789000	24.812366	0.000188	20.942787
1329.374279	-2.999800	3.590200	-10.769000	24.793641	0.000187	20.946280
1330.377065	-2.994000	3.590200	-10.748000	24.802740	0.000188	20.953988
1331.381066	-3.002300	3.589500	-10.774000	24.800401	0.000186	20.934099
1332.376066	-3.009300	3.588200	-10.797000	24.817283	0.000186	20.968106
1333.377866	-3.005000	3.590100	-10.788000	24.826406	0.000184	20.952135
1334.376383	-3.010200	3.588400	-10.801000	24.819367	0.000185	20.941753
1335.381385	-2.991100	3.588200	-10.732000	24.812651	0.000185	20.956821
1336.380694	-3.014200	3.588300	-10.815000	24.833759	0.000184	20.940550
1337.377304	-3.012300	3.588000	-10.807000	24.829331	0.000183	20.957440
1338.378304	-3.015700	3.587400	-10.817000	24.819408	0.000181	20.954120
1339.377964	-3.000400	3.587500	-10.763000	24.837384	0.000180	20.951773
1340.378591	-3.037400	3.585700	-10.890000	24.806273	0.000183	20.959430
1341.378837	-3.002400	3.586700	-10.768000	24.833276	0.000181	20.973251
1342.378868	-3.026100	3.586300	-10.851000	24.839341	0.000181	20.967959
1343.381883	-3.017000	3.586400	-10.818000	24.820714	0.000180	20.960171
1344.378882	-2.986300	3.586800	-10.710000	24.828793	0.000181	20.968753
1345.379886	-3.002200	3.584600	-10.761000	24.841969	0.000181	20.957322
1346.380951	-2.993900	3.584200	-10.730000	24.832940	0.000182	20.955847
1347.378950	-2.994800	3.585100	-10.736000	24.831893	0.000180	20.959537
1348.379282	-3.003100	3.585800	-10.767000	24.840396	0.000178	20.977551
1349.379135	-3.011900	3.583100	-10.791000	24.841141	0.000178	20.953646
1350.378983	-2.997300	3.585200	-10.745000	24.835046	0.000180	20.966493
1351.383982	-2.995200	3.583300	-10.732000	24.854365	0.000178	20.970235
1352.382981	-3.001700	3.582800	-10.754000	24.863935	0.000177	20.949496
1353.381761	-3.000000	3.584000	-10.751000	24.850158	0.000177	20.962221
1354.384761	-3.004600	3.582200	-10.762000	24.866790	0.000178	20.977962
1355.380417	-3.002700	3.581600	-10.753000	24.848040	0.000174	20.972421
1356.382080	-3.001700	3.581700	-10.750000	24.842692	0.000177	20.969900
1357.382121	-2.995800	3.581700	-10.729000	24.851965	0.000174	20.965456
1358.382113	-2.988200	3.582100	-10.703000	24.855619	0.000175	20.956323
1359.382643	-2.992500	3.581800	-10.717000	24.856414	0.000174	20.954276
1360.380705	-3.005400	3.579600	-10.757000	24.843954	0.000173	20.964054
1361.382700	-2.991500	3.581000	-10.712000	24.859145	0.000171	20.965076
1362.382042	-3.006100	3.579200	-10.759000	24.869787	0.000173	20.958213
1363.381108	-2.983000	3.580500	-10.680000	24.871799	0.000171	20.949329
1364.384111	-2.964400	3.581100	-10.615000	24.877467	0.000173	20.961179
1365.382278	-2.993800	3.579600	-10.716000	24.883210	0.000168	20.951298
1366.410408	-2.994300	3.579900	-10.718000	24.859985	0.000171	20.951222
1367.382493	-3.005200	3.578700	-10.754000	24.872168	0.000170	20.956336
1368.392489	-3.011900	3.577300	-10.773000	24.877215	0.000171	20.946230
1369.385392	-2.984800	3.579500	-10.684000	24.881391	0.000169	20.952791
1370.382393	-2.990200	3.577700	-10.696000	24.869307	0.000169	20.948725
1371.383395	-2.994400	3.576800	-10.710000	24.874651	0.000169	20.946028
1372.387393	-2.989000	3.576800	-10.690000	24.878902	0.000169	20.946501
1373.382389	-2.998200	3.575900	-10.721000	24.876764	0.000170	20.951467
1374.384389	-2.997100	3.576600	-10.718000	24.881365	0.000168	20.966513
1375.384250	-2.975600	3.576400	-10.640000	24.884647	0.000165	20.942784
1376.383593	-2.974900	3.575700	-10.636000	24.870922	0.000166	20.946078
1377.388863	-2.991100	3.575300	-10.694000	24.882484	0.000165	20.953414
1378.384865	-2.986700	3.575400	-10.678000	24.879425	0.000165	20.957456
1379.385814	-2.971900	3.575600	-10.624000	24.883728	0.000163	20.948973
1380.383883	-3.005100	3.575900	-10.745000	24.893550	0.000161	20.951244
1381.386847	-3.001700	3.574100	-10.727000	24.890866	0.000163	20.915364
1382.389231	-3.001400	3.574600	-10.728000	24.883330	0.000163	20.919654
1383.384520	-3.009700	3.573100	-10.753000	24.879377	0.000163	20.939866
1384.390521	-3.008400	3.573600	-10.750000	24.880920	0.000162	20.943785
1385.386651	-3.011900	3.573900	-10.763000	24.877315	0.000162	20.932582
1386.398427	-3.012700	3.572400	-10.761000	24.870106	0.000160	20.930562
1387.398428	-3.004500	3.571300	-10.729000	24.878932	0.000160	20.935153
1388.389322	-2.991700	3.572400	-10.686000	24.873240	0.000160	20.930388
1389.387922	-3.012400	3.570600	-10.755000	24.877841	0.000159	20.932636
1390.386633	-2.990700	3.572600	-10.683000	24.868417	0.000158	20.924127
1391.395595	-3.014400	3.569600	-10.759000	24.876848	0.000157	20.921683
1392.388708	-3.007800	3.569300	-10.735000	24.869017	0.000159	20.921409
1393.390311	-3.005900	3.571300	-10.734000	24.864343	0.000158	20.922883
1394.388314	-2.989400	3.571400	-10.676000	24.875708	0.000157	20.930495
1395.391314	-3.001200	3.569600	-10.712000	24.888862	0.000158	20.914775
1396.391969	-2.999200	3.570500	-10.708000	24.879465	0.000158	20.910560
1397.388974	-3.015200	3.568200	-10.758000	24.885460	0.000155	20.919421
1398.390968	-3.009000	3.569000	-10.738000	24.884814	0.000157	20.898860
1399.396035	-2.996400	3.568700	-10.692000	24.888943	0.000155	20.915805
1400.387038	-3.011700	3.568300	-10.745000	24.883847	0.000156	20.913535
1401.389039	-3.014500	3.567000	-10.751000	24.877980	0.000156	20.911914
1402.390554	-3.012200	3.567400	-10.745000	24.869454	0.000156	20.912366
1403.390553	-2.992800	3.567800	-10.677000	24.869280	0.000156	20.894650
1404.394603	-3.003700	3.567200	-10.714000	24.891560	0.000154	20.915587
1405.392021	-3.020300	3.566800	-10.772000	24.885470	0.000154	20.898096
1406.391992	-2.990900	3.566600	-10.666000	24.873710	0.000152	20.904311
1407.392993	-3.013700	3.566800	-10.748000	24.867943	0.000153	20.902316
1408.404992	-3.014200	3.565100	-10.744000	24.868267	0.000152	20.896952
1409.403914	-3.002900	3.564000	-10.701000	24.863843	0.000151	20.906735
1410.399924	-3.000000	3.565800	-10.696000	24.880329	0.000152	20.893410
1411.421921	-3.006900	3.563400	-10.714000	24.883465	0.000151	20.918367
1412.393089	-3.001200	3.565900	-10.701000	24.893212	0.000151	20.883109
1413.392089	-3.007200	3.564200	-10.717000	24.863872	0.000149	20.893964
1414.393093	-2.998900	3.564400	-10.688000	24.882571	0.000150	20.880489
1415.395163	-2.990900	3.562800	-10.655000	24.893564	0.000149	20.893892
1416.392144	-2.964700	3.563200	-10.562000	24.885011	0.000151	20.892420
1417.394145	-3.008600	3.562800	-10.718000	24.890382	0.000147	20.890699
1418.393142	-2.985700	3.563100	-10.638000	24.880836	0.000148	20.913833
1419.410062	-3.009700	3.561400	-10.718000	24.890209	0.000149	20.888154
1420.397067	-2.981100	3.563400	-10.622000	24.885413	0.000149	20.901358
1421.396835	-3.003800	3.562100	-10.699000	24.903017	0.000149	20.893897
1422.395430	-3.001400	3.562600	-10.692000	24.876140	0.000147	20.894896
1423.396432	-3.011100	3.560500	-10.720000	24.865274	0.000147	20.874983
1424.398108	-2.984200	3.559600	-10.622000	24.881835	0.000149	20.867898
1425.441309	-3.031100	3.558900	-10.786000	24.862890	0.000148	20.873539
1426.397310	-3.001500	3.559900	-10.685000	24.864532	0.000145	20.874713
1427.397310	-2.989100	3.559300	-10.639000	24.853890	0.000145	20.890584
1428.401644	-2.992300	3.560000	-10.652000	24.866075	0.000145	20.881950
1429.397949	-2.997100	3.559400	-10.666000	24.872218	0.000145	20.871047
1430.397954	-2.974500	3.559600	-10.587000	24.890419	0.000146	20.867504
1431.398802	-3.013700	3.557900	-10.722000	24.863940	0.000144	20.885024
1432.397501	-3.010600	3.557800	-10.710000	24.882340	0.000143	20.874568
1433.399815	-2.990400	3.557700	-10.637000	24.876324	0.000143	20.895081
1434.402815	-3.028800	3.556400	-10.770000	24.883486	0.000142	20.874296
1435.410448	-3.013900	3.557600	-10.722000	24.899773	0.000141	20.882581
1436.398107	-3.003900	3.556500	-10.683000	24.864617	0.000141	20.879539
1437.399108	-3.030500	3.555500	-10.773000	24.876479	0.000143	20.884806
1438.401221	-2.976300	3.557700	-10.587000	24.872328	0.000139	20.862623
1439.399879	-2.986900	3.556000	-10.620000	24.869072	0.000140	20.880217
1440.401261	-2.997500	3.555400	-10.656000	24.894534	0.000140	20.881116
1441.403256	-3.003900	3.555600	-10.679000	24.876110	0.000140	20.887755
1442.401751	-2.997100	3.554700	-10.653000	24.895928	0.000140	20.882041
1443.401451	-3.015400	3.553000	-10.713000	24.894685	0.000141	20.869889
1444.403459	-2.999700	3.555100	-10.663000	24.881756	0.000141	20.883939
1445.403714	-3.013600	3.553100	-10.708000	24.881011	0.000140	20.864226
1446.404933	-2.984800	3.553500	-10.606000	24.902918	0.000140	20.871514
1447.405933	-3.043500	3.552400	-10.811000	24.897325	0.000138	20.853099
1448.409210	-3.000400	3.553100	-10.660000	24.893096	0.000139	20.878725
1449.425334	-3.001200	3.553500	-10.664000	24.900681	0.000140	20.879700
1450.404335	-3.012800	3.551700	-10.699000	24.883748	0.000138	20.886412
1451.404336	-2.994500	3.553300	-10.638000	24.898146	0.000139	20.871466
1452.408573	-3.009800	3.551600	-10.689000	24.895087	0.000139	20.847060
1453.404123	-3.002800	3.551700	-10.665000	24.905904	0.000138	20.842744
1454.405053	-2.985800	3.550900	-10.601000	24.912119	0.000138	20.885963
1455.421228	-2.985400	3.550000	-10.597000	24.905432	0.000137	20.873088
1456.403486	-2.985500	3.550500	-10.599000	24.895163	0.000135	20.865627
1457.407490	-3.019600	3.548600	-10.714000	24.896481	0.000134	20.856045
1458.404503	-2.998700	3.548800	-10.641000	24.899588	0.000135	20.850629
1459.403090	-2.981100	3.549000	-10.579000	24.885142	0.000136	20.864105
1460.409092	-2.991400	3.550300	-10.620000	24.902449	0.000135	20.847810
1461.409624	-3.012400	3.547800	-10.686000	24.901355	0.000134	20.872790
1462.405498	-3.010200	3.548000	-10.679000	24.915103	0.000135	20.841546
1463.407501	-3.006800	3.546600	-10.663000	24.903716	0.000133	20.852401
1464.408500	-3.004600	3.547900	-10.658000	24.888324	0.000134	20.830790
1465.419502	-2.997600	3.546700	-10.631000	24.894639	0.000134	20.851352
1466.409499	-3.023000	3.546700	-10.721000	24.897274	0.000134	20.848306
1467.409502	-3.010400	3.546600	-10.674000	24.908736	0.000133	20.849379
1468.412497	-3.003800	3.547000	-10.654000	24.910127	0.000132	20.864050
1469.421497	-3.030200	3.545100	-10.741000	24.894611	0.000132	20.840893
1470.411499	-3.027400	3.545600	-10.733000	24.898863	0.000132	20.855591
1471.416387	-2.999100	3.545300	-10.631000	24.899981	0.000131	20.857661
1472.424275	-2.984400	3.546200	-10.582000	24.890881	0.000131	20.852796
1473.415318	-2.964000	3.545700	-10.508000	24.908534	0.000132	20.837323
1474.413318	-2.974600	3.545400	-10.546000	24.909056	0.000131	20.852545
1475.414562	-3.002000	3.543800	-10.637000	24.911418	0.000132	20.853020
1476.413993	-2.999900	3.544300	-10.632000	24.903437	0.000130	20.868715
1477.414992	-2.984400	3.544200	-10.577000	24.911692	0.000132	20.849976
1478.417067	-2.985200	3.543700	-10.578000	24.934616	0.000129	20.836949
1479.422227	-2.974700	3.543500	-10.540000	24.926735	0.000130	20.830462
1480.416228	-2.989700	3.543000	-10.592000	24.902467	0.000127	20.859682
1481.417226	-2.998500	3.542200	-10.621000	24.902418	0.000126	20.849202
1482.418849	-2.988900	3.543900	-10.591000	24.923004	0.000128	20.836674
1483.425461	-2.948700	3.543000	-10.446000	24.925939	0.000128	20.837723
1484.421459	-3.002200	3.541300	-10.631000	24.923452	0.000127	20.840916
1485.417100	-2.984300	3.541800	-10.569000	24.933148	0.000127	20.837846
1486.417119	-3.011100	3.539800	-10.658000	24.922183	0.000128	20.851022
1487.419120	-2.993200	3.540300	-10.596000	24.917059	0.000126	20.846828
1488.419116	-2.996700	3.539500	-10.606000	24.916090	0.000126	20.847751
1489.433333	-2.997100	3.540500	-10.610000	24.914820	0.000125	20.850744
1490.418337	-3.009200	3.538100	-10.645000	24.917380	0.000126	20.825339
1491.419160	-3.017400	3.539600	-10.680000	24.927846	0.000125	20.820197
1492.421554	-2.998600	3.540100	-10.614000	24.928343	0.000125	20.826385
1493.418961	-3.003100	3.539100	-10.627000	24.916531	0.000124	20.842979
1494.421943	-2.984600	3.537500	-10.557000	24.917177	0.000122	20.839834
1495.425941	-2.970600	3.538200	-10.510000	24.932118	0.000123	20.847243
1496.419302	-2.996900	3.537500	-10.600000	24.904516	0.000124	20.830446
1497.426306	-3.018800	3.536600	-10.675000	24.930274	0.000123	20.811255
1498.423597	-2.975400	3.537800	-10.526000	24.914434	0.000121	20.838503
1499.420889	-3.030100	3.535700	-10.713000	24.935815	0.000121	20.821083
1500.422891	-2.989300	3.535900	-10.569000	24.928379	0.000122	20.832111
1501.421891	-3.020200	3.535500	-10.677000	24.907566	0.000123	20.851998
1502.422072	-3.012900	3.533700	-10.646000	24.941801	0.000119	20.827565
1503.420770	-3.033700	3.534100	-10.721000	24.939263	0.000124	20.843035
1504.421888	-3.007500	3.533800	-10.627000	24.925685	0.000120	20.833675
1505.424486	-2.996400	3.535000	-10.591000	24.933715	0.000121	20.832725
1506.425952	-3.008000	3.534700	-10.630000	24.929759	0.000121	20.832074
1507.422952	-2.979400	3.535000	-10.531000	24.929333	0.000121	20.838285
1508.427948	-3.010700	3.532700	-10.635000	24.932465	0.000119	20.838109
1509.430039	-2.975000	3.533700	-10.511000	24.931045	0.000120	20.821985
1510.423039	-3.004800	3.533000	-10.615000	24.918563	0.000120	20.845018
1511.426115	-2.985800	3.533900	-10.550000	24.930022	0.000119	20.831389
1512.423923	-2.989400	3.532700	-10.560000	24.933973	0.000117	20.849105
1513.427227	-2.980400	3.532700	-10.527000	24.941902	0.000119	20.827192
1514.423228	-2.979600	3.533400	-10.526000	24.918105	0.000118	20.823696
1515.424310	-2.987800	3.533400	-10.556000	24.936650	0.000120	20.816231
1516.428078	-2.985500	3.531400	-10.542000	24.956739	0.000117	20.828808
1517.425086	-2.976100	3.531700	-10.510000	24.926477	0.000117	20.812185
1518.431077	-2.986200	3.531200	-10.544000	24.918942	0.000117	20.828804
1519.426509	-3.008600	3.530700	-10.622000	24.944674	0.000116	20.827604
1520.425512	-3.000300	3.530400	-10.591000	24.962150	0.000117	20.846566
1521.426607	-3.009600	3.529000	-10.620000	24.937184	0.000116	20.835259
1522.427038	-2.997500	3.530000	-10.580000	24.947798	0.000115	20.824101
1523.427341	-2.997500	3.529200	-10.578000	24.940064	0.000115	20.834357
1524.429341	-2.990000	3.527200	-10.545000	24.957167	0.000112	20.847255
1525.428509	-3.015800	3.527800	-10.638000	24.936032	0.000113	20.837421
1526.428039	-3.005700	3.526900	-10.599000	24.929242	0.000113	20.850994
1527.430059	-3.002500	3.527700	-10.591000	24.942965	0.000115	20.845328
1528.429282	-2.991300	3.527500	-10.551000	24.930009	0.000113	20.826635
1529.428805	-2.998700	3.526100	-10.573000	24.940499	0.000112	20.820568
1530.428803	-2.992400	3.527500	-10.554000	24.955066	0.000109	20.829500
1531.428836	-2.980200	3.526900	-10.510000	24.951360	0.000109	20.830995
1532.447955	-3.002100	3.526600	-10.586000	24.955835	0.000109	20.815573
1533.431955	-3.003500	3.526500	-10.591000	24.928756	0.000109	20.823955
1534.428955	-2.998600	3.525700	-10.571000	24.953097	0.000106	20.831316
1535.431853	-3.026500	3.524800	-10.667000	24.945438	0.000109	20.824578
1536.429997	-2.989700	3.525300	-10.539000	24.943448	0.000108	20.820684
1537.431055	-2.995900	3.524700	-10.559000	24.940363	0.000108	20.850777
1538.433209	-2.996500	3.524300	-10.559000	24.938099	0.000108	20.822427
1539.430945	-3.002300	3.523100	-10.577000	24.954384	0.000108	20.836875
1540.432932	-2.997100	3.523300	-10.558000	24.938818	0.000106	20.844011
1541.442930	-2.993400	3.524500	-10.550000	24.944758	0.000106	20.838594
1542.451487	-2.993400	3.523000	-10.545000	24.947444	0.000104	20.845082
1543.435512	-2.997800	3.522600	-10.559000	24.941724	0.000107	20.836023
1544.433511	-3.007200	3.522700	-10.593000	24.933468	0.000107	20.808296
1545.430511	-3.009800	3.522900	-10.602000	24.944332	0.000105	20.843381
1546.431267	-3.021600	3.521200	-10.639000	24.947812	0.000104	20.837866
1547.432268	-2.997400	3.523200	-10.559000	24.942590	0.000106	20.811762
1548.434681	-2.985700	3.522800	-10.517000	24.952684	0.000103	20.819522
1549.432190	-3.005000	3.522400	-10.583000	24.960142	0.000106	20.842655
1550.433194	-3.000000	3.520600	-10.561000	24.941568	0.000104	20.831599
1551.437189	-3.012100	3.519900	-10.601000	24.955790	0.000104	20.829752
1552.435566	-3.004600	3.519700	-10.574000	24.962775	0.000106	20.808315
1553.435568	-2.999800	3.519200	-10.556000	24.939328	0.000105	20.823186
1554.435565	-3.007200	3.518700	-10.580000	24.937861	0.000102	20.825507
1555.449146	-2.987500	3.520000	-10.515000	24.932290	0.000103	20.821812
1556.436148	-2.985300	3.519100	-10.505000	24.949171	0.000104	20.802721
1557.443155	-2.998800	3.518800	-10.551000	24.936167	0.000103	20.821911
1558.444927	-2.993500	3.518600	-10.532000	24.930620	9.992514E-5	20.807809
1559.440788	-3.016000	3.517300	-10.607000	24.933951	0.000101	20.832488
1560.437788	-3.034600	3.517300	-10.673000	24.934895	0.000103	20.826324
1561.437790	-2.999300	3.516700	-10.546000	24.932458	0.000102	20.811550
1562.441006	-2.994000	3.517800	-10.532000	24.949164	0.000101	20.805559
1563.438007	-3.001100	3.517600	-10.555000	24.950332	9.943022E-5	20.828542
1564.440008	-3.001800	3.516600	-10.555000	24.932428	0.000101	20.823848
1565.446005	-3.012200	3.515700	-10.589000	24.947893	9.830839E-5	20.820403
1566.439005	-3.003500	3.516100	-10.559000	24.955972	9.725255E-5	20.812391
1567.440006	-3.003800	3.515600	-10.559000	24.966164	9.880331E-5	20.827363
1568.450225	-3.015900	3.514800	-10.600000	24.965093	9.768148E-5	20.819649
1569.456529	-3.015700	3.514700	-10.599000	24.945003	9.705458E-5	20.819399
1570.449542	-3.021300	3.515000	-10.619000	24.943335	9.702159E-5	20.809191
1571.440533	-3.002600	3.514000	-10.550000	24.939207	9.811042E-5	20.826858
1572.473999	-2.989000	3.513800	-10.502000	24.941566	9.629570E-5	20.825433
1573.442001	-2.990800	3.515000	-10.512000	24.954520	9.533885E-5	20.811882
1574.441697	-3.001100	3.512200	-10.540000	24.957501	9.484392E-5	20.803495
1575.443325	-3.000800	3.513000	-10.541000	24.955212	9.662565E-5	20.840077
1576.440479	-3.008300	3.512500	-10.566000	24.972242	9.434900E-5	20.845317
1577.441479	-3.006800	3.511900	-10.559000	24.963912	9.457996E-5	20.818938
1578.441314	-2.998400	3.512300	-10.530000	24.966472	9.395306E-5	20.823879
1579.441559	-3.007400	3.512300	-10.561000	24.959085	9.309519E-5	20.827844
1580.443560	-3.008000	3.510700	-10.560000	24.976041	9.296321E-5	20.837276
1581.442890	-3.014000	3.511800	-10.583000	24.965945	9.326017E-5	20.827143
1582.448112	-2.992200	3.510900	-10.504000	24.962039	9.203935E-5	20.811369
1583.446114	-3.008300	3.509700	-10.557000	24.956443	9.230331E-5	20.809071
1584.444116	-2.990800	3.510100	-10.497000	24.961115	9.210534E-5	20.809493
1585.446362	-2.991800	3.510100	-10.500000	24.961985	9.141245E-5	20.832651
1586.445363	-2.983300	3.510100	-10.471000	24.965041	9.042260E-5	20.822917
1587.442362	-3.006200	3.508800	-10.548000	24.964294	9.078555E-5	20.832124
1588.445387	-2.998700	3.507900	-10.518000	24.948131	8.939976E-5	20.805470
1589.442502	-3.000800	3.508400	-10.526000	24.962128	8.860788E-5	20.821889
1590.444503	-3.011700	3.507800	-10.563000	24.970307	8.873986E-5	20.820616
1591.448501	-2.977500	3.509600	-10.449000	24.974433	8.972971E-5	20.832343
1592.442775	-2.992800	3.507700	-10.497000	24.964760	8.722210E-5	20.830695
1593.444776	-3.002000	3.506500	-10.526000	24.960408	8.656220E-5	20.821111
1594.444787	-3.009600	3.507000	-10.554000	24.984275	8.735408E-5	20.827998
1595.444315	-2.994400	3.507200	-10.501000	24.981440	8.887184E-5	20.817092
1596.450491	-2.995900	3.507300	-10.506000	24.987456	8.702413E-5	20.823130
1597.445494	-3.015900	3.505100	-10.570000	24.960604	8.692514E-5	20.826524
1598.445077	-3.007600	3.506100	-10.543000	24.984771	8.722210E-5	20.814271
1599.446954	-3.012900	3.504700	-10.558000	24.964258	8.722210E-5	20.833510
1600.446956	-2.980900	3.506100	-10.451000	24.974873	8.662819E-5	20.848906
1601.460954	-2.983800	3.505500	-10.459000	24.976315	8.629824E-5	20.801043
1602.445220	-3.007600	3.504300	-10.538000	24.966818	8.527540E-5	20.830864
1603.447224	-2.987100	3.504200	-10.466000	24.960129	8.388961E-5	20.836478
1604.460702	-2.987800	3.503000	-10.466000	24.971317	8.530839E-5	20.829216
1605.448602	-2.994100	3.503100	-10.488000	24.968506	8.451651E-5	20.811222
1606.451427	-3.002500	3.504200	-10.520000	24.956274	8.478047E-5	20.833082
1607.454428	-2.994500	3.502600	-10.488000	24.979743	8.385661E-5	20.850001
1608.452399	-2.984000	3.502900	-10.451000	24.969077	8.656220E-5	20.825545
1609.453825	-3.020900	3.500700	-10.574000	24.978101	8.375763E-5	20.818008
1610.451827	-3.025100	3.500700	-10.589000	24.982800	8.385661E-5	20.835052
1611.455628	-2.999600	3.501100	-10.502000	24.960746	8.375763E-5	20.847528
1612.451372	-2.992600	3.501600	-10.478000	24.972853	8.372463E-5	20.807525
1613.452374	-3.002100	3.500000	-10.506000	24.965369	8.438453E-5	20.843633
1614.454373	-3.042000	3.498900	-10.643000	24.974169	8.204189E-5	20.842509
1615.457186	-3.012000	3.500200	-10.542000	24.991672	8.286677E-5	20.830206
1616.452799	-2.996700	3.498900	-10.485000	24.983591	8.247083E-5	20.831578
1617.456799	-2.970900	3.498700	-10.393000	24.986747	8.121702E-5	20.826685
1618.453463	-2.993600	3.498500	-10.472000	25.005889	8.072210E-5	20.829778
1619.453459	-2.995300	3.499100	-10.480000	24.996863	8.019418E-5	20.831150
1620.453460	-2.992800	3.499600	-10.473000	24.995570	8.022717E-5	20.827955
1621.458667	-2.998000	3.497800	-10.484000	24.989750	7.976524E-5	20.820692
1622.456427	-3.001100	3.497900	-10.496000	24.987736	7.930331E-5	20.843325
1623.454432	-2.995400	3.497200	-10.474000	24.995815	7.986423E-5	20.827727
1624.454433	-3.019300	3.496700	-10.556000	24.977988	7.946829E-5	20.866730
1625.455427	-3.015500	3.497000	-10.545000	24.983431	7.940230E-5	20.838529
1626.455433	-3.003800	3.496400	-10.502000	24.995687	7.811550E-5	20.833762
1627.457429	-3.006000	3.496000	-10.508000	24.992827	8.016118E-5	20.825202
1628.456963	-2.998000	3.495800	-10.479000	25.003765	7.854443E-5	20.820060
1629.458248	-2.994600	3.496200	-10.469000	24.980442	8.039215E-5	20.838849
1630.460242	-2.998900	3.495800	-10.482000	24.998889	7.894037E-5	20.845511
1631.472240	-2.978300	3.495600	-10.410000	24.996402	7.709265E-5	20.840644
1632.478106	-2.990900	3.494800	-10.452000	25.018204	7.702666E-5	20.862053
1633.456100	-3.026400	3.493500	-10.572000	25.017781	7.669672E-5	20.830809
1634.466161	-2.992000	3.494200	-10.453000	25.001097	7.610281E-5	20.837770
1635.459358	-3.000200	3.493500	-10.481000	24.997268	7.653174E-5	20.842935
1636.455997	-3.016300	3.492400	-10.532000	25.003879	7.808250E-5	20.841985
1637.457994	-2.987600	3.494200	-10.438000	25.000721	7.626778E-5	20.837867
1638.459993	-2.975300	3.493500	-10.393000	25.008278	7.692768E-5	20.844504
1639.457088	-2.981300	3.494000	-10.416000	25.009321	7.623479E-5	20.840809
1640.458091	-2.974100	3.492600	-10.387000	25.029109	7.738961E-5	20.841706
1641.457749	-2.998400	3.491400	-10.468000	24.987043	7.366118E-5	20.844052
1642.470404	-2.984700	3.492100	-10.421000	25.002854	7.606981E-5	20.845697
1643.462419	-3.009500	3.491000	-10.505000	24.998477	7.560788E-5	20.846045
1644.459406	-3.003900	3.490800	-10.485000	25.004889	7.326524E-5	20.852956
1645.459704	-2.986400	3.490600	-10.423000	25.015728	7.247337E-5	20.869999
1646.459389	-2.992300	3.489200	-10.440000	24.997031	7.296829E-5	20.855025
1647.459390	-3.005100	3.488800	-10.483000	25.006180	7.237438E-5	20.853777
1648.460969	-2.982600	3.490600	-10.410000	25.018410	7.207743E-5	20.875061
1649.461340	-2.996900	3.488800	-10.454000	25.007420	7.148352E-5	20.846013
1650.461341	-3.009400	3.489600	-10.500000	25.014654	7.092260E-5	20.841421
1651.463797	-2.967500	3.488900	-10.351000	25.006672	7.079062E-5	20.868021
1652.483798	-3.004800	3.488600	-10.482000	25.020445	7.121956E-5	20.861931
1653.462797	-2.999400	3.488700	-10.463000	25.029568	6.864595E-5	20.863976
1654.466808	-2.994900	3.488800	-10.448000	25.018031	6.976778E-5	20.867094
1655.461622	-3.005800	3.487500	-10.481000	25.002665	7.105458E-5	20.866370
1656.462727	-3.002000	3.487000	-10.467000	25.008682	6.798606E-5	20.870512
1657.463728	-2.994100	3.486800	-10.438000	25.003882	6.821702E-5	20.847203
1658.466155	-3.020500	3.486400	-10.529000	25.011936	6.716118E-5	20.893217
1659.464901	-2.977000	3.487200	-10.380000	24.994781	6.788707E-5	20.869361
1660.464901	-2.999600	3.486100	-10.455000	25.015690	6.805205E-5	20.883235
1661.472214	-3.030600	3.485100	-10.560000	25.027622	6.712819E-5	20.863920
1662.467052	-3.014800	3.485500	-10.507000	25.005172	6.458758E-5	20.868885
1663.468769	-3.000000	3.485300	-10.455000	25.014246	6.676524E-5	20.850968
1664.468766	-3.003300	3.484800	-10.465000	25.020137	6.577540E-5	20.873949
1665.498005	-3.018100	3.483700	-10.513000	24.995772	6.537946E-5	20.850443
1666.465003	-3.000800	3.484500	-10.455000	25.012205	6.402667E-5	20.877367
1667.464846	-2.990300	3.484500	-10.418000	25.027246	6.554443E-5	20.866387
1668.467706	-3.005800	3.483100	-10.468000	25.040521	6.504951E-5	20.864540
1669.473299	-3.000200	3.483900	-10.451000	25.022075	6.452159E-5	20.856456
1670.467299	-3.019800	3.482200	-10.515000	25.037762	6.531347E-5	20.880261
1671.475298	-3.005800	3.482300	-10.467000	25.033013	6.504951E-5	20.874072
1672.469484	-3.018800	3.482000	-10.510000	25.008027	6.485154E-5	20.870329
1673.466458	-3.013400	3.481900	-10.492000	25.015883	6.330078E-5	20.876317
1674.482453	-3.044300	3.481700	-10.598000	25.025404	6.333377E-5	20.875443
1675.478123	-3.021400	3.479900	-10.514000	25.032763	6.343276E-5	20.887571
1676.466392	-3.001000	3.481900	-10.447000	25.005590	6.277286E-5	20.871202
1677.469398	-3.014900	3.480300	-10.492000	25.029283	6.072717E-5	20.864639
1678.469961	-2.981100	3.480200	-10.373000	25.026499	6.033123E-5	20.871326
1679.485470	-2.989400	3.480600	-10.403000	25.021774	6.085915E-5	20.869903
1680.470472	-3.007800	3.479000	-10.463000	25.022396	5.911042E-5	20.872898
1681.469473	-3.003200	3.478400	-10.445000	25.004645	5.924240E-5	20.873572
1682.470889	-3.002900	3.478300	-10.444000	25.016753	5.904443E-5	20.883828
1683.468193	-3.000500	3.478800	-10.437000	25.026871	5.861550E-5	20.866959
1684.469195	-3.015800	3.478700	-10.490000	25.023713	5.944037E-5	20.873746
1685.478206	-2.968800	3.479200	-10.328000	25.040296	5.828555E-5	20.892287
1686.470162	-3.013800	3.477800	-10.481000	25.030476	5.808758E-5	20.887172
1687.471161	-3.003700	3.478400	-10.447000	25.020954	5.848352E-5	20.900372
1688.476776	-3.001400	3.476800	-10.435000	25.043155	5.838453E-5	20.886623
1689.471205	-3.009400	3.477400	-10.463000	25.009692	5.746067E-5	20.866310
1690.473203	-2.972800	3.476500	-10.334000	25.014714	5.808758E-5	20.881308
1691.473206	-3.001400	3.476400	-10.434000	25.016604	5.752666E-5	20.879885
1692.473643	-3.003700	3.475900	-10.440000	25.022595	5.604189E-5	20.858400
1693.475641	-3.012700	3.475200	-10.469000	25.017574	5.673479E-5	20.881333
1694.474730	-3.009100	3.475000	-10.456000	25.026922	5.297336E-5	20.878863
1695.472533	-3.022800	3.474500	-10.501000	25.004546	5.630585E-5	20.878689
1696.472053	-3.004100	3.474900	-10.438000	25.030055	5.541499E-5	20.881060
1697.476056	-2.995700	3.475600	-10.411000	25.020285	5.614088E-5	20.887847
1698.475054	-2.995900	3.473400	-10.405000	25.016083	5.534900E-5	20.870355
1699.475230	-2.991300	3.474300	-10.392000	25.012752	5.346829E-5	20.866063
1700.473231	-3.020100	3.474300	-10.492000	25.012205	5.402920E-5	20.860299
1701.475255	-2.997700	3.474600	-10.415000	25.021951	5.307235E-5	20.889046
1702.475831	-3.011600	3.473900	-10.461000	25.040573	5.462311E-5	20.870755
1703.473829	-3.036700	3.471500	-10.541000	25.036595	5.412819E-5	20.878616
1704.478833	-2.978200	3.473200	-10.343000	25.013922	5.320433E-5	20.867238
1705.487789	-3.012000	3.472600	-10.458000	25.027448	5.178555E-5	20.877494
1706.485344	-3.008800	3.472300	-10.447000	25.020362	5.129062E-5	20.892192
1707.480349	-3.011300	3.471400	-10.452000	25.012531	5.148859E-5	20.882435
1708.491344	-2.994900	3.471900	-10.397000	25.005371	5.033377E-5	20.878568
1709.475214	-2.988200	3.471100	-10.372000	25.037692	5.178555E-5	20.894414
1710.477213	-2.992500	3.471000	-10.387000	25.034783	5.069671E-5	20.891969
1711.477213	-2.994300	3.471100	-10.393000	25.007784	5.115864E-5	20.885731
1712.492830	-2.974000	3.472400	-10.325000	25.037096	5.214849E-5	20.883386
1713.477829	-2.985100	3.470100	-10.358000	25.048681	4.931093E-5	20.883161
1714.478834	-2.982100	3.471300	-10.350000	25.027599	4.838707E-5	20.872905
1715.497827	-2.999200	3.469200	-10.404000	25.035606	4.729824E-5	20.879994
1716.477631	-2.983100	3.470200	-10.351000	25.020814	4.832108E-5	20.885059
1717.479790	-3.005700	3.468700	-10.425000	25.033244	4.785915E-5	20.889476
1718.477873	-2.998200	3.468000	-10.397000	25.019472	4.762819E-5	20.886083
1719.492476	-3.017000	3.468000	-10.462000	25.021511	4.799113E-5	20.880544
1720.482481	-3.010000	3.467400	-10.436000	25.027229	4.759519E-5	20.878698
1721.480577	-2.988500	3.467700	-10.362000	25.025663	4.624240E-5	20.891349
1722.482600	-3.016600	3.465500	-10.453000	25.037498	4.591245E-5	20.895642
1723.482506	-3.009600	3.466900	-10.433000	25.035659	4.640737E-5	20.878624
1724.480508	-2.992100	3.466100	-10.369000	25.037797	4.551651E-5	20.901157
1725.479893	-3.002700	3.466500	-10.408000	25.025192	4.604443E-5	20.882342
1726.480619	-2.989100	3.466100	-10.359000	25.020892	4.640737E-5	20.896517
1727.482625	-2.988300	3.466100	-10.357000	25.037997	4.640737E-5	20.885712
1728.487104	-3.005800	3.466300	-10.418000	25.016791	4.657235E-5	20.893823
1729.481440	-2.989600	3.465000	-10.358000	25.040609	4.455966E-5	20.884067
1730.483157	-2.991400	3.464600	-10.363000	25.028651	4.492260E-5	20.895770
1731.483159	-2.987800	3.464200	-10.349000	25.033126	4.320687E-5	20.913537
1732.485802	-2.995400	3.463600	-10.374000	25.009259	4.347083E-5	20.881522
1733.492039	-2.984700	3.464800	-10.341000	25.023830	4.386676E-5	20.882397
1734.488145	-2.979600	3.464600	-10.322000	25.030817	4.165610E-5	20.878979
1735.485743	-2.968500	3.463800	-10.281000	25.017268	4.126017E-5	20.894775
1736.484103	-2.981800	3.463200	-10.325000	25.013886	4.116118E-5	20.903709
1737.487104	-3.001700	3.461500	-10.390000	25.034349	4.185407E-5	20.888215
1738.486104	-2.976900	3.462900	-10.308000	25.019258	4.149113E-5	20.884921
1739.489976	-2.998100	3.462800	-10.382000	25.034052	4.060027E-5	20.891235
1740.486973	0.000000	0.000000	0.000000	25.037732	4.159011E-5	20.902989
