LabVIEW Measurement	
Writer_Version	2
Reader_Version	2
Separator	Tab
Decimal_Separator	.
Multi_Headings	No
X_Columns	One
Time_Pref	Absolute
Operator	admin
Description	Clolumns are: time, Current, Voltage, Power, Battery Temp, and Chamber Temp
Date	2024/08/16
Time	13:07:17.8513970375061035156
***End_of_Header***	
	
Channels	6						
Samples	1	1	1	1	1	1	
Date	2024/09/17	2024/09/17	2024/09/17	2024/09/17	2024/09/17	2024/09/17	
Time	21:36:45.9234833717346191407	21:36:45.9296193122863769532	21:36:45.9350638389587402344	21:36:45.9013719558715820313	21:36:45.9013719558715820313	21:36:45.9013719558715820313	
X_Dimension	Time	Time	Time	Time	Time	Time	
X0	0.0000000000000000E+0	0.0000000000000000E+0	0.0000000000000000E+0	0.0000000000000000E+0	0.0000000000000000E+0	0.0000000000000000E+0	
Delta_X	1.000000	1.000000	1.000000	1.000000	1.000000	1.000000	
***End_of_Header***							
X_Value	Untitled	Untitled 1	Untitled 2	Untitled 3	Untitled 4	Untitled 5	Comment
0.000000	0.027234	4.092600	0.111450	20.899567	0.000481	20.799525
0.996125	-2.983600	3.917900	-11.688000	20.891783	0.000477	20.789844
1.994420	-2.997200	3.911200	-11.721000	20.899044	0.000475	20.805640
2.997225	-2.998300	3.907200	-11.713000	20.885719	0.000476	20.793262
4.003973	-2.985700	3.903400	-11.654000	20.933604	0.000479	20.808909
4.997306	-3.009700	3.900400	-11.738000	20.914339	0.000474	20.804341
5.997408	-2.997900	3.898300	-11.686000	20.905277	0.000476	20.798598
6.996251	-3.016600	3.895500	-11.750000	20.913189	0.000475	20.797501
8.000130	-2.998900	3.894300	-11.678000	20.905302	0.000473	20.800994
8.999542	-2.982500	3.892300	-11.608000	20.909524	0.000474	20.794784
9.997314	-3.012000	3.890100	-11.715000	20.933571	0.000473	20.780902
11.006428	-2.981900	3.888800	-11.595000	20.945325	0.000471	20.794553
11.996638	-2.986400	3.888200	-11.611000	20.949567	0.000472	20.786468
13.005030	-2.991500	3.884600	-11.620000	20.971346	0.000468	20.805880
13.999327	-3.019600	3.882200	-11.722000	20.949369	0.000472	20.788641
15.004532	-3.003600	3.884900	-11.668000	20.963390	0.000470	20.803612
15.999855	-3.001100	3.882600	-11.651000	20.992984	0.000470	20.807133
17.000581	-3.000900	3.882400	-11.649000	21.004659	0.000468	20.789412
17.999794	-3.002500	3.880400	-11.650000	20.999519	0.000469	20.820306
19.005130	-3.012600	3.880200	-11.689000	21.003237	0.000469	20.787041
19.999972	-2.981000	3.879800	-11.565000	21.003859	0.000467	20.816113
21.002630	-3.003600	3.877700	-11.646000	20.999143	0.000466	20.814715
22.002937	-2.993400	3.877300	-11.606000	21.011346	0.000467	20.786142
23.002612	-3.007000	3.876600	-11.656000	21.033853	0.000466	20.816715
24.001461	-2.996500	3.876300	-11.614000	21.053413	0.000466	20.823951
25.004207	-2.988900	3.875300	-11.582000	21.056608	0.000465	20.802016
26.006656	-2.997900	3.875500	-11.617000	21.068558	0.000465	20.823926
27.003309	-2.999600	3.874100	-11.620000	21.059155	0.000465	20.813573
28.004621	-3.008300	3.873000	-11.649000	21.077865	0.000462	20.801468
29.002815	-2.982800	3.873100	-11.552000	21.096455	0.000464	20.816269
30.007208	-3.006400	3.871800	-11.640000	21.097680	0.000463	20.805166
31.007342	-2.977500	3.872300	-11.529000	21.115944	0.000462	20.816323
32.009943	-2.998500	3.871900	-11.609000	21.125647	0.000462	20.797105
33.014256	-3.005300	3.870300	-11.630000	21.118463	0.000462	20.822161
34.015553	-2.998800	3.870900	-11.607000	21.140144	0.000461	20.813502
35.006616	-3.019900	3.869000	-11.683000	21.163547	0.000461	20.826481
36.006251	-2.986200	3.870900	-11.558000	21.172627	0.000463	20.816599
37.008795	-2.996800	3.869100	-11.594000	21.166589	0.000461	20.819093
38.017716	-3.012600	3.868200	-11.652000	21.166816	0.000461	20.815527
39.009360	-2.977900	3.869600	-11.522000	21.194806	0.000461	20.825034
40.006187	-2.983700	3.868900	-11.543000	21.201743	0.000461	20.812533
41.009968	-3.009600	3.867500	-11.638000	21.209620	0.000461	20.811878
42.007777	-3.011100	3.867100	-11.644000	21.203763	0.000462	20.827830
43.008586	-2.991800	3.865800	-11.565000	21.235618	0.000459	20.840256
44.012556	-2.963700	3.867500	-11.461000	21.214982	0.000460	20.809182
45.010366	-2.996700	3.866700	-11.585000	21.245992	0.000460	20.818392
46.009867	-3.002400	3.866400	-11.608000	21.264926	0.000461	20.821687
47.011075	-3.016300	3.864500	-11.655000	21.264353	0.000458	20.811156
48.008505	-2.979600	3.866300	-11.519000	21.262280	0.000458	20.836583
49.010736	-3.000300	3.865100	-11.595000	21.266175	0.000460	20.828625
50.009937	-2.996300	3.865100	-11.580000	21.287252	0.000457	20.803244
51.012361	-2.995800	3.864300	-11.574000	21.285957	0.000461	20.809062
52.012849	-3.012000	3.864000	-11.638000	21.320205	0.000458	20.826255
53.006809	-2.998300	3.864700	-11.586000	21.308954	0.000458	20.819741
54.007439	-2.989600	3.863800	-11.550000	21.338091	0.000458	20.836562
55.006347	-2.984300	3.863900	-11.530000	21.310801	0.000457	20.826329
56.010147	-3.002300	3.863800	-11.599000	21.357543	0.000458	20.813350
57.019598	-2.973300	3.864200	-11.489000	21.361136	0.000457	20.820264
58.008432	-2.999900	3.863600	-11.590000	21.358540	0.000457	20.829520
59.012079	-2.984000	3.862700	-11.526000	21.387329	0.000457	20.814228
60.014659	-3.009400	3.864200	-11.627000	21.380794	0.000459	20.847991
61.007949	-3.012000	3.862500	-11.633000	21.358396	0.000457	20.828427
62.015267	-3.001200	3.862000	-11.589000	21.397179	0.000458	20.826927
63.013716	-2.999600	3.862500	-11.584000	21.410370	0.000455	20.842021
64.010701	-3.028000	3.861800	-11.693000	21.414317	0.000457	20.839333
65.018980	-2.973900	3.861500	-11.482000	21.425366	0.000457	20.825731
66.017280	-2.992900	3.861100	-11.555000	21.431699	0.000458	20.822585
67.013380	-2.981500	3.861700	-11.513000	21.434769	0.000457	20.832295
68.011848	-3.003100	3.859900	-11.591000	21.461805	0.000458	20.829475
69.009005	-2.973200	3.861200	-11.479000	21.467620	0.000458	20.841456
70.015869	-3.023400	3.859800	-11.669000	21.474275	0.000456	20.837684
71.016222	-2.987000	3.859200	-11.525000	21.465399	0.000457	20.834966
72.018779	-2.995100	3.860700	-11.561000	21.486875	0.000458	20.830852
73.021313	-3.016900	3.860100	-11.645000	21.515180	0.000457	20.865810
74.012342	-2.986900	3.860400	-11.529000	21.502562	0.000459	20.835642
75.014758	-2.972700	3.859800	-11.472000	21.510346	0.000455	20.846749
76.012973	-2.993100	3.859500	-11.550000	21.527302	0.000459	20.840009
77.015132	-3.002400	3.859500	-11.587000	21.533194	0.000455	20.844956
78.013666	-3.021300	3.858600	-11.657000	21.580550	0.000457	20.843031
79.018342	-3.005700	3.859800	-11.601000	21.560652	0.000458	20.861051
80.013868	-3.026000	3.858000	-11.674000	21.568361	0.000456	20.859283
81.027221	-2.979000	3.859100	-11.494000	21.566713	0.000459	20.853841
82.021261	-3.012200	3.857400	-11.618000	21.573771	0.000459	20.850946
83.014407	-3.020300	3.856900	-11.648000	21.593351	0.000458	20.849202
84.019912	-3.013100	3.858300	-11.625000	21.587018	0.000457	20.857089
85.022864	-2.990000	3.858700	-11.537000	21.594298	0.000457	20.872434
86.025638	-3.013700	3.856100	-11.620000	21.614149	0.000458	20.847730
87.020303	-3.002400	3.858200	-11.584000	21.637692	0.000457	20.856116
88.015803	-2.981200	3.857300	-11.498000	21.628619	0.000455	20.859839
89.019724	-2.983000	3.858000	-11.507000	21.659544	0.000458	20.822510
90.018079	-2.997300	3.856000	-11.557000	21.654456	0.000457	20.860090
91.020678	-3.007400	3.856900	-11.598000	21.676077	0.000457	20.859443
92.021533	-3.004900	3.856900	-11.588000	21.679320	0.000458	20.845145
93.027699	-2.984100	3.857600	-11.511000	21.680292	0.000458	20.866031
94.021812	-2.993300	3.856300	-11.542000	21.689920	0.000455	20.850063
95.019198	-3.009600	3.856800	-11.607000	21.692936	0.000457	20.861141
96.021953	-2.992500	3.855200	-11.535000	21.723933	0.000456	20.838111
97.034827	-2.989700	3.856100	-11.527000	21.717403	0.000457	20.867136
98.039695	-2.995100	3.856300	-11.549000	21.757550	0.000456	20.848521
99.027155	-3.004200	3.855300	-11.582000	21.750641	0.000456	20.848719
100.025283	-2.994800	3.855500	-11.545000	21.748722	0.000459	20.876193
101.022475	-3.003600	3.854600	-11.576000	21.767177	0.000458	20.851518
102.021896	-2.996600	3.855600	-11.553000	21.765958	0.000460	20.859306
103.023413	-3.014100	3.854700	-11.617000	21.755988	0.000459	20.874457
104.019075	-2.981400	3.854200	-11.491000	21.775186	0.000459	20.871860
105.024290	-3.005100	3.855100	-11.584000	21.802164	0.000460	20.868516
106.025505	-3.010100	3.852200	-11.594000	21.804187	0.000458	20.861058
107.022365	-3.015400	3.853300	-11.619000	21.827276	0.000461	20.864253
108.029142	-3.000900	3.854500	-11.564000	21.815083	0.000458	20.859161
109.025589	-3.000700	3.853800	-11.563000	21.820368	0.000460	20.862555
110.032354	-2.988300	3.854000	-11.516000	21.819771	0.000460	20.868595
111.027052	-2.986400	3.854500	-11.510000	21.856000	0.000461	20.851278
112.032946	-2.990600	3.853000	-11.521000	21.868593	0.000463	20.880476
113.031682	-2.966400	3.854700	-11.433000	21.866546	0.000461	20.859462
114.026490	-2.995800	3.853200	-11.542000	21.873351	0.000462	20.886661
115.027321	-2.992400	3.852500	-11.527000	21.900031	0.000462	20.890132
116.031425	-2.992700	3.853000	-11.530000	21.908702	0.000461	20.868941
117.033539	-2.999500	3.853300	-11.557000	21.895269	0.000462	20.866875
118.025084	-3.009100	3.851100	-11.587000	21.892373	0.000464	20.881994
119.030697	-2.998500	3.850900	-11.546000	21.930718	0.000463	20.872961
120.027243	-2.998400	3.851900	-11.548000	21.925108	0.000463	20.875405
121.025417	-3.007700	3.850500	-11.579000	21.928172	0.000462	20.873258
122.036597	-3.007200	3.851300	-11.581000	21.953455	0.000461	20.880072
123.028581	-3.018200	3.851500	-11.624000	21.965915	0.000465	20.890173
124.030021	-3.002200	3.851600	-11.562000	21.975862	0.000466	20.871209
125.032208	-2.997600	3.852600	-11.548000	21.997955	0.000464	20.881944
126.029582	-2.978200	3.852300	-11.472000	21.992539	0.000464	20.878420
127.028929	-2.998800	3.851600	-11.549000	21.980149	0.000464	20.890672
128.029649	-2.989600	3.851600	-11.514000	22.002238	0.000465	20.881965
129.028551	-2.987200	3.851900	-11.506000	22.019686	0.000466	20.900851
130.035523	-2.972400	3.850400	-11.444000	22.045612	0.000466	20.880815
131.028674	-2.988700	3.850000	-11.505000	22.031354	0.000464	20.892618
132.034200	-2.991200	3.851500	-11.520000	22.055509	0.000465	20.885981
133.031972	-2.993800	3.850800	-11.527000	22.054290	0.000464	20.893768
134.039057	-3.002800	3.850200	-11.561000	22.066753	0.000467	20.902451
135.039065	-3.002100	3.849400	-11.556000	22.051699	0.000465	20.903502
136.032658	-2.999600	3.849800	-11.546000	22.085719	0.000466	20.892515
137.050094	-3.003000	3.848800	-11.557000	22.085945	0.000465	20.886579
138.032223	-3.013700	3.847800	-11.595000	22.085822	0.000464	20.903523
139.032315	-3.015900	3.849400	-11.608000	22.101126	0.000466	20.893241
140.036504	-2.994200	3.848800	-11.523000	22.125482	0.000466	20.900080
141.037250	-2.994100	3.848800	-11.522000	22.113164	0.000467	20.876845
142.034382	-2.999400	3.849700	-11.546000	22.123138	0.000469	20.903898
143.038238	-3.013100	3.847600	-11.592000	22.135604	0.000466	20.914955
144.035994	-3.002700	3.848900	-11.557000	22.141856	0.000467	20.878543
145.033653	-3.007700	3.847400	-11.571000	22.144302	0.000470	20.904698
146.033291	-3.018100	3.847300	-11.611000	22.166162	0.000468	20.892919
147.031880	-2.990000	3.846900	-11.501000	22.172318	0.000469	20.894816
148.035517	-3.004000	3.848000	-11.557000	22.162949	0.000469	20.904401
149.036654	-3.020200	3.846400	-11.615000	22.178051	0.000470	20.916674
150.034445	-3.007100	3.846700	-11.566000	22.175106	0.000470	20.885280
151.043754	-3.014300	3.846600	-11.595000	22.179747	0.000469	20.908416
152.038686	-3.001600	3.846700	-11.545000	22.189639	0.000469	20.897933
153.033543	-2.995800	3.846100	-11.522000	22.212371	0.000471	20.858106
154.046629	-3.011000	3.848100	-11.586000	22.230041	0.000470	20.902822
155.042167	-2.991000	3.847700	-11.508000	22.230766	0.000471	20.889798
156.037853	-2.996700	3.846600	-11.526000	22.222740	0.000469	20.887453
157.040209	-3.003900	3.846500	-11.554000	22.232137	0.000470	20.884059
158.040658	-2.994700	3.845200	-11.514000	22.248909	0.000471	20.881887
159.035970	-2.981000	3.846100	-11.464000	22.267678	0.000472	20.883610
160.039263	-2.995300	3.844500	-11.515000	22.296189	0.000471	20.880390
161.042887	-3.000800	3.845000	-11.537000	22.278545	0.000472	20.869362
162.046613	-3.003300	3.845200	-11.547000	22.262049	0.000469	20.888405
163.044014	-3.010100	3.844200	-11.571000	22.271368	0.000473	20.882089
164.039549	-2.993200	3.845100	-11.508000	22.272986	0.000473	20.872330
165.041115	-2.995900	3.844700	-11.518000	22.269000	0.000472	20.874977
166.038770	-2.995200	3.845100	-11.516000	22.300501	0.000474	20.864320
167.040285	-2.994500	3.844700	-11.512000	22.298430	0.000472	20.880737
168.045199	-2.996500	3.844400	-11.518000	22.336888	0.000473	20.894115
169.040409	-2.999000	3.843300	-11.525000	22.314459	0.000473	20.873555
170.041211	-3.013600	3.843700	-11.582000	22.340701	0.000477	20.884183
171.040315	-3.015200	3.842800	-11.586000	22.325968	0.000474	20.880337
172.038497	-3.000100	3.842400	-11.527000	22.363924	0.000475	20.869980
173.048324	-2.990100	3.843200	-11.491000	22.353029	0.000475	20.887519
174.040360	-3.008800	3.842700	-11.560000	22.344110	0.000475	20.873848
175.044531	-2.995800	3.842500	-11.511000	22.361729	0.000475	20.861145
176.047585	-2.998300	3.843100	-11.522000	22.327632	0.000475	20.889115
177.041889	-3.019500	3.843100	-11.603000	22.356644	0.000477	20.873122
178.050166	-2.996900	3.842900	-11.515000	22.393079	0.000478	20.864563
179.048514	-2.996700	3.843300	-11.516000	22.389485	0.000477	20.871395
180.039462	-3.009300	3.841800	-11.560000	22.395072	0.000481	20.862291
181.042652	-3.021400	3.841400	-11.605000	22.406930	0.000478	20.858045
182.045617	-3.018900	3.841200	-11.595000	22.420608	0.000476	20.882172
183.040255	-2.991200	3.842700	-11.493000	22.399403	0.000478	20.881801
184.049250	-3.010000	3.841300	-11.562000	22.429530	0.000481	20.864555
185.047206	-3.009900	3.842400	-11.564000	22.421777	0.000482	20.860585
186.042688	-2.995300	3.841000	-11.504000	22.482929	0.000481	20.866349
187.046762	-2.989200	3.842400	-11.484000	22.449935	0.000482	20.875980
188.043177	-2.985000	3.840900	-11.464000	22.469021	0.000482	20.845784
189.044019	-2.994900	3.840500	-11.501000	22.458432	0.000482	20.865999
190.052640	-2.984400	3.840200	-11.460000	22.451104	0.000483	20.872410
191.044121	-3.002500	3.839800	-11.527000	22.444726	0.000482	20.852748
192.047018	-3.006400	3.840600	-11.545000	22.501389	0.000484	20.869190
193.048235	-3.003900	3.840600	-11.536000	22.502390	0.000485	20.861657
194.048371	-3.015400	3.839700	-11.577000	22.500467	0.000483	20.859258
195.043678	-2.999600	3.839400	-11.515000	22.491995	0.000481	20.841290
196.050653	-3.004400	3.838900	-11.531000	22.516412	0.000484	20.846778
197.047902	-3.003000	3.838600	-11.526000	22.535576	0.000483	20.849375
198.049605	-2.983400	3.839400	-11.453000	22.534827	0.000482	20.852418
199.047918	-2.994500	3.838600	-11.494000	22.549956	0.000485	20.826320
200.047194	-2.995100	3.839100	-11.498000	22.576735	0.000485	20.853614
201.046057	-3.006100	3.838300	-11.537000	22.569564	0.000485	20.853544
202.045663	-3.044900	3.836100	-11.680000	22.566048	0.000486	20.877522
203.050535	-3.037700	3.837000	-11.654000	22.558823	0.000485	20.856063
204.049918	-2.994500	3.837100	-11.489000	22.551072	0.000487	20.865368
205.053184	-2.989500	3.837900	-11.472000	22.575711	0.000488	20.842631
206.060495	-2.982600	3.837800	-11.446000	22.602024	0.000488	20.858079
207.050414	-3.003100	3.837300	-11.523000	22.603292	0.000488	20.854608
208.058651	-2.996900	3.836900	-11.498000	22.620960	0.000490	20.847648
209.052010	-3.009300	3.835800	-11.542000	22.606606	0.000488	20.850815
210.049009	-3.020900	3.836700	-11.589000	22.645371	0.000487	20.850761
211.052001	-2.983700	3.836600	-11.446000	22.638196	0.000488	20.838834
212.051980	-3.010100	3.835900	-11.546000	22.648759	0.000489	20.862689
213.050055	-2.998400	3.835600	-11.500000	22.645964	0.000489	20.847088
214.059405	-3.006000	3.834000	-11.524000	22.656654	0.000489	20.843097
215.051097	-2.997400	3.835600	-11.496000	22.672593	0.000491	20.846260
216.053606	-3.019200	3.835700	-11.579000	22.700049	0.000490	20.846260
217.055718	-2.986300	3.834700	-11.449000	22.706273	0.000490	20.836373
218.050004	-2.989200	3.835000	-11.463000	22.705898	0.000491	20.853541
219.054902	-3.011200	3.835000	-11.547000	22.732632	0.000491	20.838596
220.055707	-2.974800	3.835100	-11.408000	22.752982	0.000493	20.846652
221.052845	-3.025400	3.833600	-11.597000	22.746154	0.000492	20.832226
222.051262	-3.013500	3.832800	-11.549000	22.765035	0.000491	20.844500
223.053212	-2.967000	3.834600	-11.377000	22.789796	0.000489	20.866459
224.056557	-2.995700	3.834700	-11.487000	22.792212	0.000492	20.833319
225.054080	-3.007900	3.833200	-11.529000	22.772180	0.000495	20.831744
226.054397	-3.001100	3.833400	-11.503000	22.789043	0.000494	20.848636
227.057565	-2.973900	3.834400	-11.402000	22.776634	0.000492	20.842844
228.058731	-2.975900	3.832100	-11.404000	22.801095	0.000493	20.863553
229.068113	-2.987000	3.832100	-11.446000	22.829321	0.000493	20.842518
230.053792	-2.990100	3.833000	-11.459000	22.808467	0.000494	20.853394
231.056340	-2.984000	3.832600	-11.435000	22.819077	0.000495	20.836998
232.060650	-3.022300	3.831700	-11.580000	22.819028	0.000496	20.853543
233.055996	-3.009600	3.831600	-11.530000	22.799470	0.000498	20.821149
234.053560	-2.996000	3.831500	-11.478000	22.801734	0.000494	20.840012
235.062597	-2.999300	3.832100	-11.493000	22.828593	0.000496	20.839892
236.060070	-3.002400	3.831200	-11.502000	22.800009	0.000497	20.824535
237.055823	-3.016300	3.830700	-11.553000	22.796227	0.000497	20.831651
238.056678	-2.989300	3.831200	-11.452000	22.814736	0.000498	20.851140
239.056803	-3.038000	3.828000	-11.628000	22.819839	0.000497	20.858623
240.058600	-2.997700	3.831100	-11.483000	22.857675	0.000497	20.843422
241.064950	-3.011900	3.829400	-11.532000	22.870479	0.000499	20.834913
242.059529	-3.011500	3.829100	-11.530000	22.861709	0.000499	20.845566
243.058308	-3.007900	3.829700	-11.518000	22.829669	0.000496	20.833384
244.054968	-3.027800	3.828400	-11.591000	22.848177	0.000499	20.838174
245.064643	-2.983000	3.829400	-11.422000	22.890576	0.000498	20.840821
246.060001	-3.005300	3.829000	-11.507000	22.875830	0.000500	20.837902
247.059432	-2.985800	3.829100	-11.432000	22.863669	0.000501	20.842314
248.063721	-2.990200	3.829100	-11.448000	22.884815	0.000501	20.830308
249.060235	-2.999200	3.827800	-11.479000	22.927982	0.000501	20.834675
250.057841	-3.004400	3.829100	-11.503000	22.941604	0.000499	20.843580
251.059685	-3.003600	3.829000	-11.500000	22.951740	0.000501	20.809640
252.062003	-3.009000	3.827400	-11.516000	22.949744	0.000503	20.821865
253.059084	-3.015500	3.828300	-11.543000	22.926279	0.000500	20.827753
254.069824	-3.003800	3.827800	-11.497000	22.923439	0.000502	20.828701
255.058335	-3.005500	3.827500	-11.502000	22.939580	0.000501	20.832070
256.062755	-3.006000	3.827500	-11.504000	22.926053	0.000501	20.831794
257.068264	-2.995200	3.826000	-11.458000	22.943288	0.000502	20.821086
258.061233	-3.018600	3.826400	-11.549000	22.929810	0.000501	20.814222
259.069338	-2.986300	3.825700	-11.424000	22.955190	0.000501	20.818786
260.064373	-2.996400	3.826800	-11.466000	22.991556	0.000501	20.800694
261.059649	-3.008700	3.826600	-11.511000	22.998181	0.000503	20.824402
262.062702	-2.994700	3.825000	-11.454000	23.000477	0.000505	20.832392
263.061693	-3.010700	3.824700	-11.513000	23.030661	0.000504	20.823754
264.063076	-2.989200	3.824300	-11.431000	23.013851	0.000504	20.829196
265.065370	-2.985400	3.825800	-11.421000	23.012526	0.000504	20.819335
266.061081	-2.988300	3.825500	-11.431000	23.010683	0.000506	20.825074
267.063511	-2.996800	3.826300	-11.466000	23.012304	0.000505	20.830491
268.065694	-2.973500	3.825300	-11.373000	23.041796	0.000505	20.824480
269.061996	-2.999400	3.824400	-11.469000	23.051758	0.000508	20.808858
270.064939	-3.007600	3.824600	-11.502000	23.044812	0.000507	20.836984
271.064640	-2.961400	3.825700	-11.328000	23.070242	0.000506	20.808412
272.078872	-2.997400	3.823000	-11.458000	23.062201	0.000506	20.826907
273.067753	-2.997400	3.824200	-11.462000	23.082401	0.000504	20.816802
274.066954	-2.999300	3.823300	-11.466000	23.062703	0.000507	20.818876
275.067276	-2.992900	3.822800	-11.440000	23.105016	0.000506	20.791099
276.068944	-3.004900	3.822200	-11.484000	23.100238	0.000505	20.819976
277.067080	-2.994000	3.822100	-11.442000	23.116973	0.000505	20.822520
278.069078	-2.996800	3.821800	-11.452000	23.123799	0.000506	20.805653
279.073348	-3.014200	3.822300	-11.520000	23.108262	0.000508	20.813317
280.067755	-2.999800	3.821700	-11.463000	23.081989	0.000507	20.838199
281.068674	-2.993500	3.822200	-11.441000	23.128040	0.000509	20.795204
282.066707	-2.998900	3.821600	-11.460000	23.136109	0.000509	20.806609
283.070920	-2.974000	3.821700	-11.365000	23.129711	0.000508	20.808258
284.070971	-2.988600	3.821300	-11.420000	23.117235	0.000512	20.800498
285.069088	-2.987500	3.819900	-11.410000	23.118655	0.000508	20.792437
286.070041	-2.995000	3.821500	-11.445000	23.120473	0.000512	20.819390
287.076077	-3.001500	3.820200	-11.465000	23.127299	0.000509	20.807264
288.082820	-2.993500	3.820300	-11.435000	23.151781	0.000510	20.786751
289.075460	-3.004400	3.819800	-11.475000	23.172424	0.000511	20.788945
290.075556	-3.002700	3.819000	-11.466000	23.194617	0.000512	20.795538
291.071179	-2.990000	3.818800	-11.417000	23.205376	0.000510	20.797310
292.076155	-3.001500	3.818100	-11.459000	23.236928	0.000512	20.812809
293.073266	-2.984600	3.819100	-11.398000	23.236706	0.000512	20.806896
294.073036	-3.011000	3.818700	-11.498000	23.246465	0.000510	20.802926
295.084094	-2.986000	3.819700	-11.404000	23.271195	0.000514	20.801157
296.083429	-2.985600	3.819100	-11.402000	23.234291	0.000512	20.826761
297.081625	-2.966400	3.819200	-11.329000	23.241836	0.000513	20.804925
298.075262	-2.996300	3.817400	-11.437000	23.245749	0.000514	20.808372
299.072370	-2.990800	3.818600	-11.420000	23.241490	0.000512	20.788458
300.082282	-2.998300	3.817800	-11.446000	23.259770	0.000513	20.793974
301.074092	-2.988800	3.816400	-11.406000	23.238104	0.000513	20.797392
302.072984	-2.995400	3.816600	-11.432000	23.229217	0.000512	20.801288
303.078570	-2.992600	3.816500	-11.420000	23.250406	0.000513	20.798815
304.081130	-2.989700	3.816300	-11.408000	23.252998	0.000516	20.779127
305.076696	-2.989000	3.815400	-11.403000	23.252278	0.000512	20.790733
306.080961	-3.002500	3.816500	-11.458000	23.274190	0.000512	20.774286
307.078565	-2.999700	3.815700	-11.445000	23.254993	0.000513	20.799618
308.077434	-3.003600	3.816100	-11.462000	23.231562	0.000514	20.800319
309.077413	-2.985400	3.815300	-11.389000	23.227830	0.000515	20.781406
310.082205	-2.997900	3.814600	-11.435000	23.269116	0.000514	20.784375
311.086005	-2.996700	3.815500	-11.433000	23.308636	0.000513	20.791739
312.088399	-2.997200	3.814600	-11.433000	23.328831	0.000515	20.792538
313.081150	-3.004100	3.814000	-11.458000	23.374597	0.000516	20.769181
314.087217	-3.018100	3.813800	-11.509000	23.357245	0.000515	20.775972
315.079516	-2.984200	3.815100	-11.384000	23.366283	0.000514	20.766538
316.083231	-2.980300	3.814700	-11.367000	23.350103	0.000515	20.771184
317.085209	-2.996400	3.813900	-11.427000	23.366361	0.000517	20.782737
318.087701	-2.983500	3.815100	-11.381000	23.380713	0.000516	20.798545
319.089163	-3.004300	3.813500	-11.456000	23.381108	0.000518	20.775707
320.082070	-3.002800	3.812900	-11.449000	23.400483	0.000516	20.774264
321.084358	-2.991000	3.812500	-11.402000	23.393363	0.000519	20.790360
322.081405	-3.009500	3.811800	-11.471000	23.390878	0.000516	20.766532
323.088880	-3.015200	3.810800	-11.488000	23.401388	0.000518	20.768532
324.085444	-3.010400	3.812600	-11.476000	23.414955	0.000519	20.789717
325.085812	-2.990600	3.812500	-11.400000	23.421585	0.000520	20.777396
326.082996	-2.987400	3.813200	-11.390000	23.420166	0.000521	20.777396
327.082867	-3.010300	3.810600	-11.470000	23.409339	0.000520	20.769863
328.081748	-2.997800	3.812100	-11.427000	23.437698	0.000519	20.782167
329.081839	-3.001900	3.811900	-11.442000	23.410215	0.000521	20.761732
330.085879	-3.020900	3.810400	-11.509000	23.407829	0.000520	20.763608
331.081251	-3.005700	3.810500	-11.453000	23.391970	0.000521	20.764309
332.082640	-2.975100	3.810500	-11.335000	23.411514	0.000521	20.742171
333.088213	-3.005100	3.809400	-11.447000	23.413135	0.000520	20.767504
334.089585	-3.007300	3.810600	-11.459000	23.418766	0.000522	20.756078
335.085156	-3.035900	3.809000	-11.563000	23.429227	0.000523	20.780314
336.084485	-2.983300	3.810800	-11.369000	23.454623	0.000521	20.755035
337.083925	-2.990700	3.809900	-11.394000	23.450966	0.000522	20.781716
338.084702	-2.986200	3.809500	-11.375000	23.462743	0.000521	20.747526
339.085360	-3.013000	3.808300	-11.473000	23.483828	0.000523	20.780990
340.089235	-2.982200	3.808900	-11.358000	23.462796	0.000522	20.767021
341.083671	-3.013500	3.808300	-11.475000	23.496558	0.000525	20.762456
342.088469	-3.027500	3.806900	-11.524000	23.497159	0.000522	20.765903
343.094021	-3.000400	3.809200	-11.429000	23.535272	0.000523	20.760485
344.091403	-3.016400	3.807300	-11.483000	23.538488	0.000524	20.748062
345.085208	-3.012300	3.806500	-11.465000	23.548199	0.000524	20.762538
346.089148	-2.989600	3.807600	-11.382000	23.546282	0.000524	20.763936
347.084787	-2.994900	3.807800	-11.403000	23.535753	0.000523	20.746742
348.091831	-3.001500	3.807000	-11.426000	23.546706	0.000525	20.761990
349.087832	-2.998400	3.807600	-11.415000	23.535280	0.000524	20.772821
350.086594	-2.992400	3.806300	-11.389000	23.522463	0.000525	20.746697
351.092854	-3.002000	3.805800	-11.424000	23.526399	0.000525	20.752065
352.093277	-2.998900	3.806300	-11.413000	23.499165	0.000526	20.746577
353.095416	-3.002800	3.804600	-11.424000	23.530187	0.000525	20.744008
354.088045	-3.020200	3.804300	-11.488000	23.515849	0.000527	20.753343
355.086246	-2.985600	3.804500	-11.358000	23.537360	0.000526	20.738870
356.094745	-2.994300	3.803800	-11.389000	23.562808	0.000526	20.759639
357.089494	-3.024400	3.803300	-11.502000	23.603037	0.000527	20.735481
358.086358	-2.987000	3.805100	-11.364000	23.621437	0.000528	20.736383
359.091294	-2.992300	3.803300	-11.380000	23.606051	0.000529	20.739925
360.089647	-2.995200	3.804200	-11.394000	23.608247	0.000528	20.746869
361.089165	-2.995600	3.802800	-11.389000	23.611657	0.000528	20.744597
362.094589	-3.000700	3.802300	-11.409000	23.637127	0.000527	20.741207
363.088822	-3.006500	3.803800	-11.435000	23.617485	0.000528	20.746172
364.088887	-2.995600	3.803800	-11.394000	23.611862	0.000528	20.766140
365.090562	-3.015200	3.802100	-11.463000	23.597426	0.000529	20.739814
366.093520	-2.994200	3.802400	-11.384000	23.587493	0.000527	20.737443
367.090082	-2.985000	3.803400	-11.352000	23.584158	0.000529	20.746901
368.088793	-3.003600	3.801300	-11.416000	23.585905	0.000529	20.753395
369.091293	-2.986900	3.802500	-11.356000	23.608559	0.000527	20.727740
370.088966	-2.993700	3.800600	-11.376000	23.654861	0.000531	20.749977
371.092542	-2.996600	3.800600	-11.388000	23.699215	0.000531	20.744658
372.092446	-3.011000	3.801400	-11.445000	23.669798	0.000530	20.745037
373.098005	-3.003000	3.800600	-11.412000	23.695831	0.000529	20.726091
374.090355	-3.008900	3.799400	-11.431000	23.697278	0.000530	20.724697
375.091583	-3.011900	3.800500	-11.445000	23.677168	0.000531	20.746262
376.092787	-3.012300	3.799900	-11.445000	23.650407	0.000530	20.754521
377.107264	-3.022800	3.799900	-11.485000	23.686553	0.000528	20.754249
378.103542	-2.982500	3.800900	-11.336000	23.693824	0.000532	20.736881
379.092439	-3.000300	3.798500	-11.396000	23.693774	0.000531	20.733987
380.094537	-2.992900	3.797900	-11.366000	23.697957	0.000532	20.750509
381.092078	-2.996200	3.798500	-11.380000	23.702213	0.000531	20.730119
382.092980	-2.994900	3.798800	-11.375000	23.722352	0.000533	20.735137
383.094150	-3.008000	3.798300	-11.424000	23.752294	0.000532	20.750459
384.097782	-3.006700	3.797000	-11.416000	23.738189	0.000532	20.739636
385.094770	-2.975000	3.798000	-11.298000	23.742441	0.000531	20.742477
386.094046	-2.977500	3.798400	-11.308000	23.758401	0.000532	20.739038
387.096251	-2.995800	3.797400	-11.376000	23.766864	0.000532	20.738514
388.095549	-2.997600	3.797300	-11.382000	23.788515	0.000533	20.728927
389.098228	-3.012100	3.796400	-11.434000	23.784986	0.000533	20.732502
390.095252	-3.022400	3.795800	-11.472000	23.772041	0.000534	20.731851
391.095612	-2.993000	3.796900	-11.364000	23.781450	0.000534	20.722318
392.097684	-3.003200	3.795300	-11.397000	23.771844	0.000535	20.745404
393.095681	-3.001100	3.796200	-11.392000	23.792429	0.000534	20.738543
394.100596	-2.986000	3.795900	-11.334000	23.791311	0.000534	20.725567
395.097982	-3.001700	3.794900	-11.390000	23.795715	0.000533	20.731405
396.096427	-3.022300	3.794200	-11.466000	23.785040	0.000534	20.748203
397.101134	-3.025200	3.794100	-11.477000	23.797413	0.000535	20.735005
398.100730	-3.003100	3.794700	-11.394000	23.796295	0.000534	20.731038
399.096114	-3.023500	3.794000	-11.470000	23.788926	0.000535	20.739297
400.095898	-3.009900	3.793200	-11.415000	23.802890	0.000537	20.732436
401.098267	-2.983300	3.792900	-11.314000	23.859262	0.000537	20.738699
402.098272	-3.001400	3.791900	-11.380000	23.824372	0.000536	20.719835
403.098233	-3.015500	3.791200	-11.431000	23.832115	0.000535	20.731393
404.102885	-3.017300	3.791800	-11.440000	23.839525	0.000536	20.743091
405.102365	-2.999100	3.794000	-11.378000	23.859036	0.000538	20.745111
406.100808	-3.005600	3.793100	-11.399000	23.825293	0.000538	20.749209
407.099608	-3.008800	3.792900	-11.411000	23.823821	0.000537	20.735405
408.104161	-2.999000	3.792200	-11.372000	23.815860	0.000538	20.758243
409.099966	-2.985900	3.792800	-11.324000	23.800526	0.000538	20.731013
410.099646	-2.979100	3.790600	-11.292000	23.783456	0.000538	20.729071
411.102243	-2.994600	3.789800	-11.348000	23.820544	0.000538	20.757724
412.106110	-2.982900	3.791600	-11.309000	23.817607	0.000538	20.742925
413.102230	-2.994200	3.791000	-11.350000	23.845183	0.000540	20.746867
414.105817	-3.026000	3.789700	-11.466000	23.847144	0.000539	20.750731
415.103157	-3.019000	3.789800	-11.441000	23.852403	0.000539	20.751263
416.107523	-3.016900	3.788900	-11.429000	23.841346	0.000539	20.754400
417.105349	-2.993800	3.790700	-11.347000	23.839582	0.000539	20.744096
418.109222	-2.990000	3.790100	-11.331000	23.832789	0.000540	20.740130
419.106930	-3.003500	3.789400	-11.380000	23.877313	0.000540	20.740678
420.103691	-2.989100	3.788000	-11.322000	23.921856	0.000538	20.761637
421.107584	-3.011800	3.787300	-11.406000	23.920413	0.000540	20.739800
422.108232	-2.979400	3.789100	-11.289000	23.893761	0.000541	20.729195
423.105784	-2.989100	3.787800	-11.321000	23.886364	0.000542	20.742641
424.108178	-3.003300	3.788700	-11.378000	23.881039	0.000541	20.737301
425.108748	-3.009800	3.787900	-11.400000	23.901421	0.000542	20.757740
426.109011	-2.998600	3.787900	-11.357000	23.902046	0.000543	20.744616
427.108081	-3.017900	3.785900	-11.424000	23.925808	0.000542	20.750900
428.106402	-3.010100	3.786200	-11.396000	23.914307	0.000543	20.744583
429.105098	-2.998300	3.786800	-11.353000	23.956443	0.000544	20.756965
430.108368	-3.019600	3.786000	-11.430000	23.968737	0.000546	20.760284
431.107039	-3.008200	3.785100	-11.385000	23.999039	0.000543	20.747997
432.111193	-3.006800	3.784800	-11.380000	24.024447	0.000543	20.756409
433.107152	-3.025300	3.784800	-11.449000	23.994162	0.000545	20.760652
434.117404	-3.011200	3.785900	-11.399000	23.961382	0.000543	20.766185
435.106036	-2.992500	3.783800	-11.322000	23.971410	0.000544	20.778138
436.106030	-3.018900	3.783600	-11.421000	23.973527	0.000544	20.756553
437.109493	-2.998900	3.783300	-11.345000	23.989373	0.000545	20.760590
438.111220	-3.001900	3.784200	-11.359000	24.006493	0.000544	20.750257
439.109180	-3.014600	3.783400	-11.404000	24.011718	0.000547	20.751705
440.106618	-3.003400	3.784200	-11.364000	24.041727	0.000545	20.752876
441.110034	-3.011800	3.783200	-11.393000	24.045357	0.000545	20.770267
442.109023	-3.005800	3.783000	-11.369000	24.048042	0.000544	20.764899
443.110673	-3.010700	3.782100	-11.386000	24.054809	0.000545	20.766470
444.107332	-3.010700	3.781300	-11.383000	24.080907	0.000543	20.769884
445.110493	-2.996800	3.781900	-11.333000	24.059903	0.000545	20.759251
446.107497	-3.017400	3.781400	-11.409000	24.062066	0.000544	20.751462
447.108422	-2.999200	3.781500	-11.341000	24.069906	0.000544	20.777343
448.108651	-2.998000	3.780800	-11.333000	24.061367	0.000546	20.757874
449.107791	-3.015600	3.781100	-11.400000	24.073010	0.000543	20.760542
450.111938	-3.016100	3.781400	-11.404000	24.043496	0.000546	20.755124
451.110317	-2.989200	3.781400	-11.303000	24.033045	0.000546	20.764558
452.117100	-3.012500	3.779800	-11.385000	24.042669	0.000543	20.758089
453.119477	-2.992300	3.781200	-11.314000	24.057223	0.000547	20.773159
454.112045	-2.992500	3.780800	-11.313000	24.079193	0.000544	20.773382
455.116072	-3.007000	3.778800	-11.362000	24.056919	0.000545	20.765742
456.111078	-3.007100	3.778200	-11.360000	24.084941	0.000546	20.766818
457.118496	-3.013600	3.778200	-11.385000	24.111338	0.000546	20.764369
458.112477	-3.002100	3.778000	-11.341000	24.107580	0.000545	20.776247
459.120751	-3.014000	3.779400	-11.390000	24.077319	0.000544	20.762019
460.112488	-3.016900	3.776900	-11.394000	24.096382	0.000546	20.776870
461.112016	-3.001100	3.777700	-11.336000	24.094738	0.000546	20.764315
462.112686	-3.002500	3.777000	-11.339000	24.084107	0.000545	20.766455
463.113451	-3.007000	3.777200	-11.357000	24.066063	0.000549	20.752626
464.120320	-3.012100	3.776200	-11.373000	24.078076	0.000548	20.769890
465.117629	-3.023900	3.775700	-11.415000	24.109032	0.000546	20.766798
466.115810	-3.019400	3.776600	-11.402000	24.175764	0.000546	20.760234
467.116382	-2.983400	3.777800	-11.270000	24.145381	0.000547	20.771012
468.118105	-3.011800	3.776100	-11.372000	24.165455	0.000546	20.775972
469.115057	-3.022000	3.775200	-11.407000	24.147145	0.000548	20.784161
470.118334	-3.010000	3.775700	-11.364000	24.175880	0.000547	20.798757
471.122525	-3.008200	3.775900	-11.359000	24.180328	0.000547	20.804167
472.117052	-2.988000	3.775200	-11.280000	24.183316	0.000548	20.777292
473.117248	-3.002800	3.774800	-11.334000	24.194979	0.000548	20.791360
474.117061	-3.015800	3.775500	-11.384000	24.184504	0.000549	20.783226
475.118611	-3.006800	3.775200	-11.350000	24.160818	0.000548	20.773219
476.117541	-3.012500	3.775200	-11.371000	24.144938	0.000551	20.801388
477.116360	-2.990500	3.773500	-11.284000	24.122246	0.000550	20.790483
478.122596	-2.993900	3.774200	-11.299000	24.148939	0.000549	20.783589
479.122896	-3.007100	3.772300	-11.343000	24.186133	0.000548	20.777273
480.117190	-2.999500	3.773100	-11.317000	24.195136	0.000550	20.793889
481.122725	-2.997600	3.772700	-11.308000	24.212602	0.000550	20.790071
482.120853	-3.004400	3.773600	-11.336000	24.221382	0.000549	20.784179
483.121899	-2.971000	3.772600	-11.207000	24.209786	0.000548	20.774445
484.121839	-2.997600	3.771900	-11.306000	24.243070	0.000551	20.790760
485.121937	-2.996900	3.773600	-11.307000	24.268744	0.000547	20.797547
486.121256	-2.990600	3.772200	-11.280000	24.291034	0.000550	20.820380
487.120852	-2.989700	3.770900	-11.273000	24.334788	0.000550	20.796467
488.122127	-2.998400	3.771300	-11.307000	24.287866	0.000549	20.784960
489.120992	-2.990700	3.772300	-11.281000	24.322293	0.000549	20.799580
490.122704	-3.006800	3.771500	-11.339000	24.300772	0.000551	20.794587
491.121548	-2.995100	3.772200	-11.298000	24.309433	0.000551	20.797585
492.123390	-3.005000	3.771000	-11.331000	24.274820	0.000551	20.821185
493.121837	-3.014500	3.771000	-11.368000	24.243445	0.000550	20.772171
494.123352	-2.985800	3.770600	-11.258000	24.259715	0.000550	20.820732
495.126039	-3.014100	3.769500	-11.361000	24.218511	0.000550	20.791731
496.124839	-3.002100	3.768600	-11.313000	24.269934	0.000552	20.801585
497.129970	-2.991000	3.768400	-11.271000	24.272022	0.000551	20.818853
498.125319	-3.002400	3.768800	-11.314000	24.281574	0.000550	20.813262
499.127801	-2.989700	3.768300	-11.264000	24.262391	0.000551	20.802080
500.127186	-3.007800	3.768100	-11.333000	24.251840	0.000551	20.827058
501.129260	-3.012300	3.767300	-11.347000	24.265672	0.000553	20.826233
502.133734	-2.999600	3.767600	-11.300000	24.291317	0.000551	20.812603
503.129639	-3.002500	3.767000	-11.309000	24.338013	0.000551	20.806814
504.129141	-3.006000	3.766800	-11.322000	24.370524	0.000551	20.804815
505.135608	-2.983900	3.767400	-11.240000	24.361190	0.000549	20.803038
506.130669	-2.997700	3.766100	-11.289000	24.394177	0.000550	20.821905
507.128102	-2.993000	3.766900	-11.274000	24.355342	0.000549	20.811870
508.132124	-2.990500	3.766000	-11.262000	24.389044	0.000551	20.805851
509.128766	-2.986200	3.765500	-11.244000	24.362720	0.000549	20.819272
510.128336	-3.003800	3.764100	-11.306000	24.356995	0.000550	20.820167
511.129082	-2.995800	3.763700	-11.274000	24.373908	0.000551	20.826702
512.129344	-2.986300	3.764900	-11.243000	24.387266	0.000550	20.813550
513.136782	-2.993700	3.765300	-11.271000	24.389851	0.000549	20.828471
514.128392	-3.013300	3.762900	-11.338000	24.384648	0.000549	20.816614
515.129828	-2.996000	3.764200	-11.276000	24.352056	0.000550	20.824695
516.129644	-2.996300	3.764800	-11.279000	24.362504	0.000549	20.817632
517.129873	-3.002800	3.763600	-11.301000	24.398252	0.000550	20.811769
518.129135	-3.005500	3.762700	-11.308000	24.399987	0.000550	20.830105
519.132894	-3.006100	3.762100	-11.309000	24.405560	0.000552	20.808195
520.148652	-2.984300	3.764100	-11.232000	24.416254	0.000550	20.806121
521.129555	-3.004200	3.762300	-11.301000	24.430356	0.000550	20.822639
522.132993	-2.993200	3.762800	-11.262000	24.407662	0.000550	20.817890
523.130962	-2.999200	3.761300	-11.279000	24.355276	0.000549	20.837882
524.133818	-2.998700	3.760900	-11.278000	24.423805	0.000550	20.821283
525.131468	-2.976300	3.761700	-11.196000	24.405895	0.000550	20.832712
526.132090	-3.000500	3.761600	-11.286000	24.437582	0.000552	20.824672
527.132983	-2.988100	3.761700	-11.239000	24.485838	0.000550	20.823300
528.133615	-3.007500	3.760100	-11.308000	24.487675	0.000548	20.846953
529.136080	-3.019400	3.760300	-11.353000	24.491805	0.000550	20.834028
530.135627	-3.011500	3.760800	-11.325000	24.478375	0.000550	20.832881
531.135314	-3.002600	3.761400	-11.293000	24.477919	0.000550	20.840011
532.136801	-3.011900	3.759300	-11.321000	24.492644	0.000549	20.830602
533.141381	-3.009100	3.760000	-11.313000	24.463170	0.000550	20.845601
534.136952	-2.991600	3.759500	-11.246000	24.450261	0.000550	20.862521
535.139772	-3.005400	3.758400	-11.294000	24.475330	0.000549	20.848319
536.137378	-2.995800	3.759300	-11.261000	24.453467	0.000549	20.841083
537.136675	-2.973700	3.758900	-11.177000	24.443411	0.000550	20.843796
538.141560	-2.997700	3.759400	-11.269000	24.442170	0.000550	20.848241
539.139167	-2.997600	3.758000	-11.265000	24.496146	0.000550	20.827003
540.143042	-3.021900	3.758300	-11.356000	24.515127	0.000549	20.854107
541.139373	-2.995100	3.758400	-11.256000	24.513184	0.000550	20.846468
542.140994	-3.026300	3.757400	-11.371000	24.506740	0.000550	20.861813
543.141741	-3.016500	3.757100	-11.332000	24.523457	0.000551	20.849189
544.142023	-3.005500	3.757600	-11.292000	24.528931	0.000550	20.839034
545.143257	-3.016100	3.756100	-11.328000	24.553353	0.000550	20.843149
546.144061	-3.015700	3.756100	-11.326000	24.531138	0.000554	20.834611
547.141253	-3.019400	3.754800	-11.336000	24.508729	0.000553	20.835361
548.143660	-2.987300	3.757300	-11.223000	24.509872	0.000549	20.841249
549.146729	-2.996100	3.754300	-11.247000	24.520935	0.000551	20.852348
550.144081	-2.995900	3.755300	-11.249000	24.545164	0.000550	20.853424
551.146884	-3.001100	3.755300	-11.269000	24.569442	0.000550	20.857868
552.143727	-3.006400	3.753800	-11.284000	24.587917	0.000550	20.838949
553.142310	-2.986400	3.754900	-11.212000	24.599957	0.000550	20.856718
554.157901	-2.999800	3.753800	-11.259000	24.618460	0.000552	20.844465
555.145842	-3.012900	3.752700	-11.305000	24.598239	0.000550	20.841245
556.150197	-2.998100	3.754000	-11.253000	24.573740	0.000550	20.844638
557.146260	-3.010500	3.752800	-11.296000	24.572298	0.000550	20.853622
558.146352	-3.007600	3.752900	-11.287000	24.572150	0.000552	20.838301
559.147593	-3.009600	3.752300	-11.292000	24.584408	0.000550	20.854393
560.147314	-3.019500	3.752600	-11.330000	24.604107	0.000549	20.872736
561.147518	-2.977500	3.752600	-11.172000	24.586073	0.000550	20.846580
562.148763	-2.990300	3.752900	-11.222000	24.591620	0.000549	20.859732
563.146420	-2.995800	3.751400	-11.237000	24.587638	0.000552	20.833453
564.147961	-2.992300	3.751500	-11.225000	24.591119	0.000551	20.854963
565.151397	-2.993100	3.751800	-11.228000	24.606886	0.000552	20.834748
566.149114	-2.968100	3.751900	-11.135000	24.639964	0.000551	20.855610
567.151000	-2.999700	3.750400	-11.248000	24.625791	0.000552	20.851347
568.149608	-2.988800	3.750600	-11.209000	24.654436	0.000550	20.845950
569.150442	-3.003000	3.750300	-11.262000	24.631454	0.000549	20.860348
570.150801	-3.005700	3.750400	-11.272000	24.608226	0.000551	20.880187
571.151597	-3.017100	3.748900	-11.310000	24.600189	0.000552	20.869752
572.156398	-2.994400	3.749900	-11.228000	24.592032	0.000552	20.874844
573.156032	-2.994100	3.749500	-11.225000	24.543481	0.000550	20.856477
574.153688	-2.988400	3.749100	-11.203000	24.567529	0.000553	20.872544
575.152447	-2.991600	3.748700	-11.213000	24.561185	0.000550	20.850058
576.155195	-2.994600	3.748200	-11.224000	24.598097	0.000552	20.857697
577.153621	-2.989800	3.749300	-11.208000	24.587200	0.000551	20.874263
578.155296	-2.990300	3.748400	-11.208000	24.606900	0.000551	20.872218
579.153026	-2.982800	3.748800	-11.182000	24.620600	0.000551	20.856568
580.151632	-2.991700	3.748100	-11.212000	24.621023	0.000551	20.875958
581.153699	-2.973600	3.749500	-11.149000	24.655789	0.000551	20.879549
582.153154	-2.999000	3.746900	-11.236000	24.649696	0.000552	20.899986
583.155550	-2.995100	3.745900	-11.219000	24.652778	0.000551	20.870838
584.153716	-2.991700	3.748200	-11.213000	24.692371	0.000551	20.880695
585.152310	-2.984500	3.747600	-11.184000	24.706296	0.000552	20.864798
586.152539	-3.005800	3.745400	-11.257000	24.661329	0.000550	20.878944
587.153321	-3.012600	3.744900	-11.280000	24.672201	0.000548	20.873732
588.152275	-2.989700	3.745700	-11.198000	24.688710	0.000550	20.873230
589.154090	-2.996900	3.745100	-11.223000	24.699278	0.000549	20.881463
590.154041	-3.001500	3.744400	-11.237000	24.735887	0.000550	20.874578
591.154683	-2.989400	3.745000	-11.194000	24.701317	0.000550	20.887301
592.156952	-3.007100	3.745600	-11.263000	24.719790	0.000549	20.877390
593.156846	-3.005100	3.744700	-11.252000	24.699077	0.000549	20.882210
594.154985	-3.002300	3.743300	-11.238000	24.667891	0.000550	20.876520
595.154008	-2.989000	3.745400	-11.194000	24.719987	0.000548	20.863365
596.153579	-2.991100	3.744800	-11.200000	24.751718	0.000549	20.885249
597.156224	-3.005700	3.742800	-11.249000	24.748883	0.000550	20.874344
598.154572	-3.004700	3.742500	-11.245000	24.740428	0.000549	20.888143
599.156835	-2.977400	3.743400	-11.144000	24.743612	0.000549	20.885648
600.157814	-3.004400	3.742000	-11.242000	24.737145	0.000550	20.890064
601.156312	-2.981500	3.742600	-11.158000	24.778967	0.000549	20.887937
602.156555	-2.997600	3.742400	-11.216000	24.771436	0.000549	20.886544
603.160390	-3.006000	3.741200	-11.245000	24.795630	0.000548	20.888065
604.157605	-2.991400	3.742100	-11.193000	24.792274	0.000549	20.880430
605.155786	-2.999700	3.741100	-11.222000	24.820198	0.000550	20.915089
606.156268	-2.994400	3.741000	-11.201000	24.833180	0.000549	20.898248
607.155394	-3.005000	3.740300	-11.238000	24.796501	0.000549	20.904585
608.159638	-3.029900	3.741100	-11.334000	24.786132	0.000550	20.869999
609.158315	-3.010900	3.741500	-11.265000	24.804159	0.000548	20.883349
610.163126	-2.991000	3.740400	-11.187000	24.784492	0.000550	20.911498
611.159530	-3.004300	3.740500	-11.236000	24.786329	0.000548	20.911919
612.159291	-2.993700	3.739500	-11.194000	24.764123	0.000549	20.886317
613.158569	-2.968900	3.740700	-11.105000	24.730280	0.000548	20.899295
614.196758	-2.991800	3.739700	-11.186000	24.726348	0.000547	20.897721
615.160614	-2.997500	3.739500	-11.207000	24.793268	0.000548	20.903711
616.162024	-2.984700	3.738800	-11.159000	24.779443	0.000548	20.896475
617.158892	-2.971400	3.739800	-11.112000	24.760417	0.000550	20.900615
618.160653	-2.997300	3.737300	-11.200000	24.740872	0.000547	20.913242
619.162936	-2.973500	3.738800	-11.116000	24.719088	0.000549	20.911770
620.159523	-3.004600	3.738300	-11.231000	24.736574	0.000548	20.898973
621.161421	-2.983100	3.737100	-11.147000	24.730925	0.000548	20.902787
622.159590	-3.002900	3.737300	-11.222000	24.768971	0.000549	20.903509
623.160706	-3.017500	3.737100	-11.276000	24.795831	0.000549	20.908653
624.159092	-3.015400	3.735000	-11.261000	24.805450	0.000548	20.907875
625.159604	-2.992200	3.736100	-11.178000	24.791156	0.000549	20.896850
626.162019	-2.965600	3.738000	-11.084000	24.804382	0.000548	20.906803
627.162405	-3.003700	3.735800	-11.220000	24.851775	0.000549	20.914063
628.159554	-2.996300	3.735000	-11.190000	24.842749	0.000548	20.891256
629.160481	-3.004300	3.735400	-11.222000	24.855078	0.000547	20.911215
630.161765	-2.990900	3.735600	-11.171000	24.886883	0.000550	20.895721
631.160261	-3.011400	3.735500	-11.248000	24.904761	0.000550	20.921723
632.161899	-2.990600	3.734500	-11.167000	24.897647	0.000549	20.915057
633.161280	-3.020000	3.734200	-11.277000	24.891727	0.000546	20.897264
634.160915	-2.992300	3.735400	-11.176000	24.898394	0.000550	20.902058
635.165393	-3.006100	3.733600	-11.223000	24.926365	0.000548	20.889356
636.161438	-3.001600	3.733500	-11.206000	24.955651	0.000548	20.903102
637.162744	-3.024300	3.732600	-11.287000	24.884760	0.000548	20.891695
638.162341	-3.010500	3.733100	-11.238000	24.849208	0.000549	20.915754
639.169180	-3.011600	3.732700	-11.240000	24.788829	0.000546	20.905893
640.165594	-2.997400	3.732600	-11.187000	24.839505	0.000547	20.894638
641.164267	-3.008600	3.732400	-11.228000	24.818767	0.000547	20.866715
642.166765	-3.009500	3.732600	-11.233000	24.847389	0.000547	20.880740
643.163790	-2.978500	3.732700	-11.117000	24.907186	0.000548	20.898081
644.163710	-3.001300	3.732100	-11.200000	24.862976	0.000547	20.886426
645.163708	-2.994000	3.731700	-11.172000	24.831322	0.000547	20.885478
646.164751	-2.976900	3.732100	-11.109000	24.827292	0.000546	20.898028
647.164658	-2.983600	3.732500	-11.135000	24.854468	0.000546	20.888319
648.169074	-3.000600	3.730600	-11.193000	24.859887	0.000547	20.883801
649.165248	-2.988500	3.730400	-11.148000	24.832633	0.000546	20.895802
650.165111	-3.006900	3.730300	-11.216000	24.850258	0.000545	20.878405
651.166248	-3.021100	3.729800	-11.266000	24.845907	0.000547	20.862660
652.165606	-3.029400	3.729700	-11.297000	24.849860	0.000543	20.881324
653.167144	-3.016900	3.728000	-11.246000	24.870101	0.000546	20.885517
654.167532	-3.026100	3.729200	-11.284000	24.878009	0.000548	20.876859
655.165346	-2.999200	3.730100	-11.186000	24.955608	0.000546	20.893577
656.166975	-2.984300	3.728700	-11.127000	24.953863	0.000547	20.886610
657.167820	-2.996600	3.729700	-11.175000	24.905726	0.000546	20.876703
658.164238	-3.000000	3.728000	-11.184000	24.881580	0.000543	20.890399
659.167067	-2.997400	3.728100	-11.173000	24.869526	0.000547	20.894896
660.165045	-2.994600	3.727200	-11.161000	24.863656	0.000543	20.875256
661.165392	-3.000500	3.726900	-11.182000	24.889735	0.000545	20.884359
662.163722	-2.976700	3.728500	-11.098000	24.874247	0.000546	20.866446
663.165034	-2.992300	3.727500	-11.152000	24.912340	0.000544	20.883341
664.168865	-2.980100	3.727100	-11.107000	24.964576	0.000546	20.870338
665.165121	-3.005900	3.727300	-11.203000	24.967760	0.000546	20.871162
666.164916	-3.021100	3.725900	-11.255000	24.938319	0.000541	20.876699
667.166014	-2.999600	3.725900	-11.175000	24.886107	0.000544	20.881193
668.167869	-3.007900	3.725700	-11.205000	24.848534	0.000543	20.860080
669.168756	-2.984600	3.726000	-11.119000	24.821259	0.000542	20.865423
670.182302	-2.992600	3.725500	-11.149000	24.870562	0.000543	20.866541
671.179848	-2.989200	3.726500	-11.138000	24.910521	0.000544	20.863498
672.178990	-3.009100	3.724300	-11.205000	24.894758	0.000542	20.860006
673.183212	-2.992000	3.724200	-11.141000	24.894163	0.000543	20.860356
674.172206	-2.993300	3.725100	-11.150000	24.892594	0.000541	20.850247
675.172315	-3.005100	3.724000	-11.190000	24.840629	0.000542	20.866845
676.168107	-2.999800	3.724600	-11.172000	24.856643	0.000541	20.881494
677.170854	-3.015300	3.723500	-11.227000	24.851668	0.000542	20.847105
678.169449	-3.005000	3.723900	-11.189000	24.865690	0.000543	20.870660
679.173165	-3.007800	3.723700	-11.199000	24.871634	0.000540	20.842488
680.171804	-3.005400	3.723700	-11.191000	24.916987	0.000543	20.851496
681.171583	-3.000500	3.721700	-11.166000	24.926188	0.000539	20.871636
682.169302	-2.982200	3.722000	-11.099000	24.881506	0.000539	20.848602
683.169325	-2.994900	3.722200	-11.147000	24.862482	0.000540	20.850845
684.177129	-2.999000	3.721800	-11.161000	24.855173	0.000539	20.864372
685.174825	-2.982500	3.722900	-11.103000	24.861836	0.000537	20.853991
686.169261	-2.983000	3.721700	-11.101000	24.870467	0.000539	20.840368
687.171314	-2.981200	3.722300	-11.096000	24.957117	0.000538	20.871385
688.171817	-3.013300	3.721200	-11.212000	24.948092	0.000540	20.847155
689.171029	-3.002400	3.720500	-11.169000	24.957765	0.000540	20.835054
690.172122	-2.994000	3.719600	-11.136000	24.919599	0.000538	20.851748
691.175141	-2.993800	3.720700	-11.138000	24.907415	0.000540	20.846157
692.173657	-2.974300	3.721000	-11.066000	24.930937	0.000537	20.849377
693.175038	-2.994300	3.721500	-11.142000	24.912911	0.000538	20.863052
694.174785	-2.984600	3.720300	-11.102000	24.937054	0.000541	20.832757
695.176888	-3.012100	3.719100	-11.201000	24.935492	0.000538	20.845888
696.175293	-3.015200	3.718900	-11.213000	24.970820	0.000538	20.821130
697.178700	-3.012200	3.719300	-11.202000	24.988721	0.000539	20.848107
698.175629	-3.002200	3.719400	-11.166000	24.939546	0.000539	20.856121
699.175817	-2.960500	3.719800	-11.011000	24.928032	0.000536	20.845039
700.176544	-2.978100	3.718600	-11.073000	24.955033	0.000540	20.838001
701.177505	-2.988800	3.718500	-11.113000	24.940442	0.000539	20.819089
702.180223	-2.984600	3.717400	-11.094000	24.911473	0.000539	20.843592
703.175633	-2.992500	3.718400	-11.126000	24.935989	0.000535	20.838327
704.177060	-3.016500	3.717500	-11.213000	24.942106	0.000538	20.844940
705.177931	-2.999000	3.718200	-11.150000	24.930271	0.000537	20.833062
706.178793	-3.018300	3.716900	-11.218000	24.923012	0.000537	20.832414
707.179795	-2.993200	3.716800	-11.124000	24.922790	0.000539	20.848312
708.178365	-2.973000	3.715700	-11.046000	24.945141	0.000537	20.832814
709.179182	-2.996000	3.715600	-11.132000	24.928131	0.000538	20.846086
710.182944	-2.989400	3.716200	-11.109000	24.957445	0.000537	20.844689
711.182786	-3.016400	3.715100	-11.205000	24.963212	0.000539	20.843365
712.179668	-3.013600	3.715300	-11.196000	24.927112	0.000536	20.828469
713.179375	-3.011200	3.715200	-11.186000	24.964679	0.000536	20.836777
714.178187	-2.987700	3.715400	-11.100000	24.984470	0.000536	20.843840
715.180858	-3.030100	3.714000	-11.252000	24.935686	0.000536	20.830436
716.182839	-3.014100	3.714300	-11.194000	24.993769	0.000536	20.841794
717.182036	-2.977400	3.714600	-11.059000	24.997122	0.000535	20.829513
718.184788	-3.007900	3.713500	-11.169000	25.014275	0.000536	20.830135
719.181643	-2.993600	3.713000	-11.115000	25.010570	0.000534	20.833529
720.182733	-2.988400	3.714300	-11.099000	25.028369	0.000537	20.816307
721.182949	-3.010900	3.712400	-11.177000	25.044380	0.000536	20.840913
722.182841	-3.010200	3.712400	-11.174000	25.063422	0.000534	20.828734
723.187635	-3.009900	3.712500	-11.173000	25.084353	0.000536	20.809917
724.187799	-2.998800	3.712200	-11.131000	25.091812	0.000535	20.834948
725.183993	-2.985000	3.713300	-11.083000	25.119479	0.000536	20.829056
726.186447	-2.987300	3.713400	-11.091000	25.097180	0.000533	20.832276
727.186913	-2.999500	3.712500	-11.134000	25.052480	0.000534	20.814432
728.184482	-3.009200	3.712600	-11.171000	25.030822	0.000535	20.814029
729.185805	-3.011600	3.711800	-11.177000	25.017994	0.000536	20.827230
730.185141	-2.994900	3.711600	-11.115000	25.038528	0.000534	20.820815
731.185163	-2.999300	3.710500	-11.128000	25.061723	0.000532	20.809011
732.185546	-2.990900	3.711400	-11.099000	25.070475	0.000534	20.818271
733.185718	-2.987800	3.710300	-11.084000	25.059086	0.000533	20.840977
734.195238	-2.977500	3.711700	-11.051000	25.032807	0.000533	20.816969
735.188664	-2.996300	3.710000	-11.116000	25.007968	0.000535	20.811951
736.189251	-2.981400	3.710600	-11.062000	25.040290	0.000534	20.825903
737.187527	-3.026200	3.708900	-11.222000	25.025220	0.000533	20.823579
738.194623	-2.991300	3.709100	-11.094000	25.009230	0.000532	20.817485
739.189910	-2.962300	3.709500	-10.988000	25.007915	0.000532	20.824700
740.193373	-3.017900	3.707600	-11.188000	25.029299	0.000532	20.819612
741.190160	-3.003400	3.708400	-11.137000	25.004330	0.000533	20.832481
742.191201	-3.007100	3.708200	-11.150000	24.981755	0.000532	20.816459
743.191020	-2.994300	3.709400	-11.106000	24.964428	0.000533	20.827991
744.191573	-3.009000	3.708700	-11.159000	24.986729	0.000533	20.840892
745.193965	-2.994000	3.706900	-11.097000	24.997890	0.000530	20.800887
746.191038	-3.015300	3.708000	-11.180000	24.996050	0.000531	20.809945
747.191276	-3.000800	3.706100	-11.121000	24.975511	0.000531	20.815408
748.193798	-3.013100	3.706800	-11.167000	24.997343	0.000531	20.815985
749.194056	-2.986600	3.707500	-11.072000	24.991446	0.000530	20.816229
750.195104	-3.000700	3.706500	-11.121000	25.056435	0.000530	20.824092
751.198022	-2.996500	3.705500	-11.102000	25.081367	0.000530	20.795066
752.195316	-3.010500	3.705500	-11.155000	25.047354	0.000530	20.808339
753.197430	-2.988800	3.705700	-11.075000	25.083803	0.000529	20.797985
754.197521	-2.991000	3.705500	-11.082000	25.050961	0.000530	20.819545
755.195736	-2.995800	3.706200	-11.103000	25.064634	0.000529	20.814778
756.198622	-2.997000	3.704900	-11.103000	25.114279	0.000530	20.809138
757.195963	-2.989000	3.704500	-11.072000	25.106281	0.000530	20.812963
758.196260	-2.996700	3.704900	-11.101000	25.088621	0.000529	20.833167
759.197005	-3.013400	3.704400	-11.162000	25.099728	0.000528	20.799273
760.197856	-2.990500	3.704400	-11.076000	25.130158	0.000527	20.808484
761.199824	-3.013900	3.703800	-11.162000	25.090183	0.000530	20.801071
762.197985	-2.997200	3.704500	-11.102000	25.074645	0.000527	20.826724
763.197750	-3.019700	3.702900	-11.181000	25.109150	0.000528	20.796403
764.198542	-2.991400	3.703100	-11.077000	25.144476	0.000527	20.804839
765.200218	-2.996500	3.703500	-11.096000	25.132668	0.000529	20.817167
766.199473	-2.983400	3.703000	-11.047000	25.152280	0.000527	20.787543
767.200850	-2.990000	3.702000	-11.068000	25.138286	0.000525	20.808583
768.200637	-3.003600	3.701500	-11.116000	25.101815	0.000526	20.814644
769.200001	-2.997800	3.701300	-11.095000	25.063506	0.000525	20.800370
770.203742	-3.015100	3.700500	-11.156000	25.047499	0.000525	20.802794
771.200263	-3.004100	3.701800	-11.119000	25.030938	0.000526	20.785222
772.205264	-3.005400	3.700300	-11.120000	25.076309	0.000524	20.805635
773.202061	-3.030000	3.700400	-11.211000	25.042722	0.000526	20.809853
774.201420	-3.008200	3.700900	-11.132000	25.027036	0.000524	20.785098
775.200780	-3.011200	3.700700	-11.143000	25.055254	0.000523	20.780232
776.201662	-2.986200	3.700000	-11.048000	25.089739	0.000523	20.785452
777.203225	-2.999400	3.700200	-11.098000	25.128396	0.000524	20.803869
778.202930	-2.973500	3.700700	-11.002000	25.143708	0.000524	20.783679
779.203238	-3.008800	3.699000	-11.129000	25.147416	0.000524	20.789772
780.204254	-2.992700	3.699600	-11.071000	25.135928	0.000521	20.788672
781.205640	-3.017800	3.699400	-11.163000	25.131082	0.000522	20.798505
782.203489	-2.982000	3.698400	-11.027000	25.133796	0.000521	20.768513
783.205169	-2.982800	3.699500	-11.034000	25.114434	0.000521	20.783690
784.203450	-2.979600	3.698700	-11.019000	25.102799	0.000520	20.793820
785.203744	-3.012100	3.697400	-11.136000	25.083461	0.000523	20.768244
786.204205	-2.976600	3.697600	-11.005000	25.099972	0.000521	20.794776
787.203384	-3.004600	3.698400	-11.111000	25.148801	0.000518	20.774567
788.205547	-2.993200	3.697400	-11.066000	25.161723	0.000520	20.791333
789.205594	-2.974300	3.698100	-10.998000	25.186980	0.000521	20.794878
790.204561	-2.983000	3.697100	-11.027000	25.176420	0.000520	20.794709
791.204430	-2.996200	3.696500	-11.075000	25.147761	0.000520	20.782533
792.204654	-3.003800	3.695700	-11.101000	25.132224	0.000519	20.789220
793.204489	-3.014400	3.697000	-11.143000	25.087356	0.000522	20.781163
794.203600	-3.004500	3.696000	-11.104000	25.045966	0.000520	20.773280
795.203694	-2.998400	3.696800	-11.083000	25.067493	0.000519	20.766914
796.204116	-3.004200	3.695800	-11.102000	25.061730	0.000521	20.775353
797.205522	-3.002800	3.695700	-11.097000	25.097780	0.000520	20.780721
798.206192	-2.985900	3.696000	-11.034000	25.109165	0.000520	20.777926
799.210745	-2.997700	3.694600	-11.074000	25.133405	0.000518	20.759586
800.205422	-3.006100	3.695600	-11.109000	25.140317	0.000518	20.778379
801.205856	-2.992900	3.693800	-11.054000	25.182751	0.000517	20.787788
802.207132	-2.996100	3.693200	-11.065000	25.220784	0.000517	20.764331
803.207116	-3.003800	3.692500	-11.090000	25.264656	0.000520	20.764281
804.205920	-2.988200	3.693700	-11.037000	25.179625	0.000518	20.766631
805.210761	-2.984900	3.694500	-11.026000	25.134780	0.000517	20.758595
806.206686	-3.000400	3.692800	-11.079000	25.157130	0.000517	20.761592
807.207559	-2.972200	3.693100	-10.974000	25.175920	0.000516	20.774292
808.212678	-2.991200	3.692800	-11.045000	25.191633	0.000517	20.765410
809.207335	-3.008100	3.692800	-11.107000	25.166827	0.000517	20.766111
810.216382	-2.992900	3.692600	-11.050000	25.173340	0.000517	20.766486
811.208374	-3.001300	3.692400	-11.081000	25.197621	0.000517	20.763361
812.208015	-2.989500	3.692100	-11.037000	25.257974	0.000516	20.762314
813.209274	-2.973400	3.693300	-10.980000	25.255144	0.000517	20.765163
814.209382	-3.002300	3.690500	-11.079000	25.307441	0.000516	20.737063
815.209024	-3.012000	3.691200	-11.117000	25.270951	0.000515	20.764437
816.209685	-3.014500	3.690200	-11.123000	25.240677	0.000514	20.758698
817.208608	-3.002500	3.690200	-11.078000	25.193572	0.000516	20.755028
818.208910	-3.015000	3.690500	-11.126000	25.201604	0.000515	20.780637
819.213008	-3.012500	3.690200	-11.115000	25.177936	0.000515	20.760194
820.210082	-3.026700	3.688400	-11.162000	25.165336	0.000514	20.762717
821.212817	-2.994300	3.690000	-11.048000	25.192775	0.000517	20.762289
822.214389	-3.007300	3.687700	-11.089000	25.225765	0.000514	20.744200
823.213377	-2.983600	3.689800	-11.007000	25.196606	0.000513	20.769455
824.214041	-3.008700	3.689500	-11.099000	25.172991	0.000514	20.756178
825.212859	-3.014600	3.688200	-11.118000	25.159866	0.000515	20.764812
826.215762	-2.992600	3.689500	-11.041000	25.190565	0.000516	20.769080
827.214664	-2.979500	3.689000	-10.989000	25.234315	0.000513	20.752785
828.214239	-3.004500	3.687800	-11.079000	25.264791	0.000515	20.745449
829.216474	-3.004500	3.686800	-11.076000	25.242217	0.000513	20.740329
830.216332	-3.001000	3.685900	-11.061000	25.194467	0.000513	20.763514
831.218721	-2.988500	3.686700	-11.016000	25.183329	0.000512	20.766557
832.220066	-2.972500	3.687800	-10.961000	25.174109	0.000513	20.761567
833.217719	-2.986500	3.686700	-11.010000	25.181387	0.000512	20.757969
834.223102	-3.002400	3.685500	-11.064000	25.144173	0.000511	20.757119
835.222190	-2.996400	3.686900	-11.047000	25.147155	0.000511	20.752526
836.217854	-2.987800	3.685500	-11.011000	25.155583	0.000511	20.761935
837.221556	-3.017900	3.684700	-11.119000	25.185437	0.000510	20.748283
838.218826	-2.981600	3.684900	-10.986000	25.209150	0.000510	20.764504
839.218972	-2.992000	3.685900	-11.028000	25.196821	0.000511	20.755445
840.218785	-3.013500	3.684700	-11.103000	25.218966	0.000510	20.776730
841.220903	-2.999300	3.685200	-11.053000	25.277178	0.000509	20.741291
842.223537	-3.035200	3.683000	-11.177000	25.231939	0.000509	20.759409
843.220304	-3.005300	3.685100	-11.075000	25.247993	0.000510	20.747077
844.219304	-3.004900	3.684100	-11.070000	25.213964	0.000509	20.748000
845.219371	-3.009600	3.683800	-11.085000	25.173668	0.000507	20.756857
846.220118	-3.005800	3.683700	-11.071000	25.199101	0.000507	20.746829
847.219273	-3.030300	3.682000	-11.156000	25.164394	0.000507	20.756082
848.224572	-3.010700	3.683000	-11.087000	25.175874	0.000509	20.735364
849.220713	-3.024000	3.682500	-11.135000	25.166682	0.000509	20.759327
850.224700	-3.010600	3.683400	-11.088000	25.147388	0.000506	20.773149
851.222854	-3.012600	3.681500	-11.090000	25.170580	0.000509	20.753283
852.220252	-3.017700	3.681300	-11.108000	25.177365	0.000507	20.758672
853.223362	-3.021800	3.680900	-11.122000	25.218948	0.000506	20.749684
854.222193	-3.010400	3.682000	-11.083000	25.262647	0.000506	20.754203
855.222054	-2.982700	3.681700	-10.981000	25.287973	0.000508	20.753552
856.225092	-3.006500	3.680500	-11.065000	25.254989	0.000504	20.744617
857.221960	-3.000200	3.681400	-11.044000	25.235347	0.000507	20.736751
858.221557	-3.028600	3.679600	-11.142000	25.290331	0.000505	20.740272
859.226214	-3.018900	3.680300	-11.110000	25.298655	0.000506	20.746733
860.221870	-3.007200	3.680700	-11.068000	25.295522	0.000506	20.766347
861.222076	-2.992300	3.680700	-11.012000	25.315924	0.000505	20.755537
862.226202	-2.973800	3.680300	-10.943000	25.316597	0.000506	20.741514
863.225222	-3.021700	3.677700	-11.112000	25.328600	0.000506	20.742186
864.224251	-2.977800	3.678600	-10.953000	25.271430	0.000504	20.751641
865.225837	-2.971000	3.679700	-10.931000	25.233151	0.000502	20.772005
866.226436	-2.998500	3.677400	-11.026000	25.217887	0.000503	20.770431
867.224814	-2.978200	3.678900	-10.956000	25.245328	0.000505	20.747720
868.223245	-2.990900	3.678700	-11.002000	25.284551	0.000504	20.762918
869.224529	-3.005700	3.677700	-11.053000	25.305925	0.000503	20.732695
870.224889	-2.999400	3.676300	-11.026000	25.288153	0.000503	20.755629
871.226555	-2.994500	3.676900	-11.010000	25.295804	0.000505	20.763311
872.224072	-3.038500	3.676200	-11.169000	25.298842	0.000503	20.753085
873.230153	-3.011300	3.676100	-11.069000	25.349840	0.000504	20.750710
874.226680	-3.001200	3.676700	-11.034000	25.323867	0.000505	20.746917
875.228933	-2.997100	3.677300	-11.021000	25.297323	0.000503	20.743973
876.227877	-2.998000	3.677100	-11.024000	25.284445	0.000503	20.761390
877.229551	-3.004900	3.675300	-11.043000	25.237271	0.000503	20.735837
878.227089	-3.003600	3.675300	-11.038000	25.225905	0.000503	20.749557
879.229977	-3.018800	3.674800	-11.093000	25.214694	0.000502	20.774811
880.230616	-3.003900	3.673400	-11.034000	25.209502	0.000502	20.764383
881.228268	-3.023600	3.674100	-11.109000	25.248201	0.000502	20.778580
882.229457	-2.963300	3.676600	-10.893000	25.297633	0.000500	20.759458
883.228069	-2.992600	3.674400	-10.995000	25.286598	0.000502	20.755491
884.228968	-2.977100	3.673800	-10.936000	25.263881	0.000500	20.756390
885.227974	-2.986200	3.672800	-10.967000	25.280928	0.000500	20.767342
886.232646	-3.011300	3.673000	-11.060000	25.322112	0.000501	20.759854
887.232815	-3.009600	3.673200	-11.054000	25.345798	0.000498	20.746177
888.230492	-3.011400	3.674100	-11.063000	25.386930	0.000499	20.755710
889.237948	-2.994400	3.673200	-10.998000	25.333541	0.000500	20.750940
890.230032	-2.994800	3.672300	-10.997000	25.311744	0.000499	20.749918
891.237152	-2.983900	3.673700	-10.961000	25.290739	0.000498	20.760597
892.230265	-2.991700	3.674400	-10.992000	25.313724	0.000497	20.757596
893.236685	-2.988800	3.673300	-10.978000	25.306739	0.000497	20.756273
894.233342	-3.010200	3.671500	-11.051000	25.294884	0.000498	20.772345
895.235717	-3.000700	3.671700	-11.017000	25.316431	0.000498	20.773591
896.232835	-2.983300	3.671300	-10.951000	25.264529	0.000498	20.773637
897.233128	-3.001600	3.671600	-11.020000	25.271638	0.000497	20.766075
898.230039	-2.982800	3.671300	-10.950000	25.290278	0.000496	20.748754
899.230785	-3.023000	3.670300	-11.094000	25.318757	0.000496	20.767865
900.234573	-2.995400	3.670200	-10.993000	25.287864	0.000497	20.759132
901.230745	-3.010000	3.668900	-11.043000	25.293178	0.000495	20.756408
902.234513	-2.987900	3.670200	-10.966000	25.343236	0.000497	20.753088
903.232342	-3.000700	3.668500	-11.008000	25.385112	0.000494	20.751040
904.237819	-2.999300	3.668800	-11.002000	25.364532	0.000496	20.755031
905.233245	-3.009800	3.669800	-11.044000	25.376982	0.000494	20.770378
906.233673	-3.026000	3.668700	-11.101000	25.375590	0.000494	20.781783
907.238348	-2.998300	3.667400	-10.995000	25.377500	0.000493	20.783226
908.234707	-2.979800	3.669000	-10.931000	25.405882	0.000495	20.766680
909.235962	-2.987600	3.668300	-10.958000	25.449792	0.000492	20.783272
910.235458	-3.028000	3.667600	-11.104000	25.454563	0.000491	20.759614
911.235327	-3.004600	3.668800	-11.022000	25.454338	0.000494	20.798268
912.234746	-3.008800	3.667400	-11.034000	25.422451	0.000492	20.780473
913.240152	-2.993300	3.666400	-10.974000	25.415270	0.000493	20.779900
914.242451	-2.995800	3.667700	-10.986000	25.437012	0.000492	20.784663
915.237914	-3.015600	3.666400	-11.056000	25.433957	0.000493	20.785863
916.243660	-2.994700	3.666200	-10.978000	25.456643	0.000492	20.772607
917.245427	-3.000600	3.665200	-10.997000	25.407711	0.000491	20.795070
918.244531	-3.011600	3.664900	-11.036000	25.402341	0.000490	20.781617
919.240067	-2.992400	3.665400	-10.968000	25.370428	0.000489	20.783237
920.238214	-2.967600	3.664900	-10.875000	25.355165	0.000491	20.790197
921.239910	-3.002400	3.664500	-11.002000	25.375795	0.000489	20.794790
922.239595	-2.996400	3.664900	-10.979000	25.407605	0.000489	20.785955
923.240912	-2.997100	3.664900	-10.983000	25.390803	0.000489	20.783308
924.240942	-3.005400	3.663700	-11.010000	25.359761	0.000488	20.769207
925.242482	-3.009700	3.664000	-11.027000	25.357924	0.000488	20.768786
926.242413	-2.988000	3.664200	-10.948000	25.406538	0.000488	20.783460
927.249948	-3.002300	3.663300	-10.998000	25.387921	0.000490	20.788474
928.243157	-2.998500	3.662500	-10.981000	25.403130	0.000486	20.791418
929.252102	-3.016300	3.662500	-11.046000	25.363464	0.000489	20.787151
930.245518	-3.023300	3.661400	-11.068000	25.349893	0.000486	20.782059
931.245982	-2.977700	3.662100	-10.904000	25.383593	0.000489	20.786974
932.247369	-2.996600	3.662400	-10.974000	25.391596	0.000486	20.779363
933.246134	-2.995000	3.662300	-10.968000	25.385334	0.000486	20.780187
934.248435	-2.996000	3.661700	-10.970000	25.380760	0.000484	20.799776
935.246003	-3.033700	3.660800	-11.104000	25.401139	0.000486	20.791316
936.246233	-3.011700	3.660800	-11.024000	25.427734	0.000484	20.785304
937.245687	-2.986600	3.661300	-10.934000	25.471125	0.000485	20.801375
938.246642	-2.978600	3.660000	-10.901000	25.435366	0.000486	20.804348
939.247716	-3.005400	3.659400	-10.997000	25.502436	0.000487	20.780661
940.248917	-3.013200	3.658300	-11.022000	25.506167	0.000484	20.791047
941.245955	-3.001400	3.659900	-10.984000	25.453507	0.000484	20.795063
942.244694	-2.994500	3.658900	-10.956000	25.410389	0.000483	20.797285
943.249489	-3.005900	3.657900	-10.995000	25.408550	0.000483	20.792119
944.245671	-3.005000	3.658700	-10.993000	25.458031	0.000483	20.805296
945.249861	-3.007200	3.657600	-10.998000	25.473387	0.000485	20.780888
946.246700	-2.999800	3.658500	-10.973000	25.461135	0.000482	20.787551
947.246852	-3.000900	3.658400	-10.977000	25.474430	0.000483	20.827454
948.248441	-2.999500	3.658700	-10.973000	25.456015	0.000482	20.793315
949.248076	-3.003300	3.657600	-10.984000	25.423036	0.000484	20.795286
950.251609	-3.006700	3.656500	-10.992000	25.375344	0.000481	20.800976
951.248914	-2.993000	3.656300	-10.942000	25.356603	0.000482	20.811081
952.247988	-2.980800	3.657400	-10.901000	25.387547	0.000479	20.799953
953.248697	-2.995600	3.656300	-10.952000	25.400022	0.000481	20.801100
954.247782	-3.002800	3.655000	-10.975000	25.419280	0.000479	20.787247
955.247146	-2.994300	3.656200	-10.947000	25.394655	0.000482	20.799978
956.249448	-3.001000	3.656200	-10.972000	25.413462	0.000480	20.765757
957.247547	-3.021500	3.655700	-11.045000	25.413540	0.000481	20.785276
958.248659	-3.017400	3.654400	-11.025000	25.397658	0.000481	20.789716
959.249243	-3.020900	3.655100	-11.041000	25.446047	0.000482	20.813650
960.248976	-2.999800	3.654500	-10.962000	25.476263	0.000480	20.789939
961.252053	-3.039800	3.653600	-11.105000	25.449328	0.000479	20.778538
962.248756	-2.992200	3.654000	-10.933000	25.453274	0.000478	20.806683
963.249132	-3.002700	3.653600	-10.970000	25.415527	0.000479	20.792961
964.250480	-2.980500	3.654200	-10.891000	25.432128	0.000480	20.800148
965.250568	-2.995300	3.655000	-10.947000	25.408941	0.000479	20.826650
966.251163	-2.999300	3.653700	-10.958000	25.440775	0.000478	20.795081
967.252217	-2.993800	3.653800	-10.938000	25.456308	0.000479	20.803566
968.252311	-3.006400	3.653200	-10.981000	25.446639	0.000478	20.807133
969.252062	-3.024800	3.653700	-11.051000	25.424644	0.000477	20.824400
970.254276	-2.991800	3.653400	-10.929000	25.399691	0.000478	20.827793
971.252363	-3.001000	3.652600	-10.960000	25.364599	0.000476	20.816740
972.256136	-2.993100	3.651500	-10.928000	25.354457	0.000475	20.815565
973.251749	-2.993900	3.652000	-10.932000	25.382988	0.000475	20.816711
974.249986	-3.027000	3.650500	-11.050000	25.446960	0.000473	20.813145
975.255212	-2.999300	3.651200	-10.950000	25.489283	0.000474	20.812497
976.250352	-3.009000	3.650300	-10.983000	25.484984	0.000475	20.823827
977.253948	-3.002700	3.651000	-10.962000	25.485756	0.000474	20.830766
978.255048	-3.011800	3.649900	-10.992000	25.499025	0.000473	20.844565
979.253407	-3.008000	3.648600	-10.973000	25.539828	0.000475	20.825798
980.252589	-2.994300	3.649900	-10.928000	25.543809	0.000472	20.830270
981.258951	-2.998700	3.648800	-10.941000	25.537442	0.000473	20.830989
982.253134	-2.993700	3.648000	-10.920000	25.535906	0.000472	20.810480
983.256300	-3.003900	3.649900	-10.962000	25.497989	0.000474	20.804171
984.254220	-3.007800	3.649300	-10.976000	25.475621	0.000473	20.827227
985.257887	-2.986200	3.648900	-10.895000	25.491598	0.000472	20.824779
986.254479	-2.970300	3.649600	-10.839000	25.490903	0.000473	20.837832
987.254996	-2.997200	3.648600	-10.934000	25.518415	0.000472	20.801450
988.259401	-3.006500	3.647400	-10.965000	25.541452	0.000471	20.816049
989.254696	-3.012800	3.645500	-10.982000	25.527284	0.000471	20.827425
990.257428	-2.992000	3.645700	-10.907000	25.518711	0.000470	20.819291
991.262481	-3.009400	3.645600	-10.970000	25.500276	0.000470	20.819743
992.257396	-3.010600	3.645000	-10.973000	25.532629	0.000470	20.837060
993.255928	-3.022100	3.645800	-11.017000	25.531710	0.000468	20.842775
994.258758	-3.001300	3.645600	-10.941000	25.518990	0.000467	20.810087
995.256556	-2.972600	3.646600	-10.838000	25.504628	0.000467	20.853510
996.260972	-3.027400	3.644000	-11.031000	25.455896	0.000465	20.847247
997.260634	-2.982900	3.646000	-10.875000	25.416757	0.000468	20.837817
998.258299	-2.993200	3.644200	-10.907000	25.479952	0.000467	20.823041
999.259768	-2.993100	3.643500	-10.904000	25.507013	0.000466	20.857802
1000.259268	-3.005400	3.643200	-10.948000	25.492429	0.000465	20.834622
1001.258139	-3.000700	3.642900	-10.930000	25.486167	0.000465	20.834024
1002.261146	-2.998100	3.643200	-10.922000	25.455702	0.000464	20.838518
1003.259625	-2.994300	3.643000	-10.908000	25.454733	0.000465	20.849398
1004.267680	-3.013400	3.642700	-10.976000	25.456174	0.000464	20.835673
1005.261315	-3.009300	3.642600	-10.960000	25.462407	0.000464	20.831975
1006.259454	-2.990100	3.642700	-10.891000	25.506523	0.000464	20.832181
1007.259593	-2.986900	3.642800	-10.879000	25.551078	0.000462	20.840414
1008.266502	-2.997900	3.641000	-10.914000	25.548840	0.000464	20.849073
1009.264035	-2.979100	3.641400	-10.847000	25.590310	0.000463	20.827659
1010.264459	-2.996200	3.641200	-10.909000	25.576347	0.000464	20.837817
1011.263773	-3.000100	3.640500	-10.920000	25.559425	0.000463	20.841685
1012.263578	-3.026100	3.640000	-11.014000	25.563998	0.000461	20.845803
1013.263504	-3.002800	3.639600	-10.928000	25.517506	0.000460	20.840365
1014.263659	-3.001700	3.639100	-10.923000	25.523049	0.000461	20.822224
1015.266665	-3.000300	3.638000	-10.914000	25.561042	0.000461	20.842835
1016.263975	-2.994800	3.638900	-10.897000	25.546060	0.000461	20.841539
1017.264174	-3.001900	3.640100	-10.927000	25.568075	0.000461	20.838044
1018.264221	-3.004200	3.637300	-10.926000	25.595461	0.000459	20.829038
1019.264070	-3.002200	3.638300	-10.922000	25.592829	0.000460	20.850102
1020.264984	-2.997500	3.638700	-10.906000	25.628735	0.000460	20.836851
1021.269451	-2.997600	3.637800	-10.904000	25.590966	0.000459	20.829739
1022.267750	-3.006000	3.637700	-10.934000	25.568652	0.000458	20.857589
1023.267573	-3.008000	3.636700	-10.939000	25.575484	0.000458	20.842640
1024.267536	-3.018300	3.637100	-10.977000	25.613356	0.000457	20.848432
1025.266648	-2.980700	3.636400	-10.839000	25.579835	0.000458	20.847958
1026.270826	-2.994900	3.636500	-10.890000	25.529267	0.000456	20.841270
1027.267590	-3.001800	3.635700	-10.913000	25.482626	0.000457	20.850856
1028.267608	-3.005200	3.633700	-10.919000	25.462298	0.000455	20.849883
1029.267257	-3.001800	3.636700	-10.916000	25.499176	0.000458	20.847562
1030.267197	-2.997200	3.635800	-10.897000	25.477957	0.000455	20.850909
1031.268405	-2.979000	3.636100	-10.830000	25.495625	0.000457	20.876710
1032.266632	-3.014900	3.634600	-10.958000	25.495649	0.000453	20.856821
1033.272729	-3.023900	3.633800	-10.987000	25.486682	0.000456	20.850661
1034.268345	-2.995900	3.633700	-10.885000	25.495103	0.000455	20.861962
1035.268487	-3.025300	3.632500	-10.988000	25.475593	0.000455	20.849957
1036.268377	-2.996600	3.634300	-10.889000	25.482488	0.000453	20.854511
1037.269083	-2.987900	3.634000	-10.857000	25.486086	0.000453	20.838684
1038.268177	-3.004200	3.634300	-10.917000	25.516530	0.000455	20.864039
1039.269223	-2.971500	3.634000	-10.797000	25.551796	0.000453	20.866739
1040.271317	-3.019300	3.632500	-10.966000	25.575399	0.000454	20.862942
1041.269090	-2.988800	3.631800	-10.854000	25.586829	0.000453	20.853085
1042.271490	-3.008200	3.632100	-10.924000	25.599777	0.000452	20.837166
1043.268826	-2.987400	3.632400	-10.851000	25.586561	0.000451	20.856135
1044.270882	-3.011600	3.631300	-10.935000	25.608102	0.000453	20.855958
1045.270581	-2.990800	3.631600	-10.861000	25.575653	0.000451	20.857507
1046.270648	-2.998400	3.632200	-10.890000	25.544992	0.000451	20.841415
1047.272597	-3.017000	3.630700	-10.953000	25.540870	0.000451	20.865723
1048.272126	-3.018200	3.629300	-10.953000	25.544792	0.000451	20.851645
1049.270529	-3.004900	3.630000	-10.907000	25.567831	0.000447	20.860083
1050.271590	-2.985200	3.630200	-10.836000	25.632416	0.000450	20.869470
1051.271834	-2.991300	3.629500	-10.856000	25.667404	0.000450	20.869997
1052.272300	-3.004200	3.628600	-10.901000	25.683807	0.000448	20.866558
1053.275233	-2.996000	3.627900	-10.868000	25.636122	0.000449	20.882675
1054.271994	-2.985200	3.629700	-10.834000	25.598160	0.000449	20.874894
1055.271568	-3.021400	3.626300	-10.955000	25.602807	0.000444	20.873872
1056.271270	-2.999600	3.628300	-10.882000	25.616428	0.000448	20.892766
1057.273103	-2.996300	3.627000	-10.867000	25.590313	0.000448	20.898306
1058.274550	-3.001100	3.627000	-10.884000	25.622667	0.000447	20.880067
1059.273703	-3.009900	3.626000	-10.913000	25.614518	0.000446	20.869039
1060.274258	-2.995700	3.625400	-10.860000	25.602071	0.000446	20.867917
1061.275578	-3.015600	3.626100	-10.934000	25.606024	0.000444	20.860508
1062.278996	-2.986300	3.626400	-10.829000	25.653410	0.000444	20.860211
1063.275704	-3.007400	3.626700	-10.905000	25.660220	0.000445	20.863731
1064.276835	-2.976100	3.625900	-10.791000	25.648291	0.000444	20.884939
1065.277110	-2.978900	3.625600	-10.800000	25.628840	0.000444	20.871094
1066.276554	-3.019200	3.625000	-10.944000	25.634956	0.000443	20.877237
1067.279703	-3.010100	3.624500	-10.909000	25.604223	0.000447	20.877191
1068.278147	-3.027500	3.622700	-10.967000	25.612774	0.000443	20.869658
1069.281405	-3.005700	3.624800	-10.895000	25.643214	0.000444	20.877944
1070.279067	-2.983900	3.623900	-10.813000	25.644060	0.000443	20.876423
1071.278462	-2.993700	3.624900	-10.851000	25.675221	0.000440	20.865996
1072.294860	-2.996000	3.621900	-10.850000	25.696391	0.000443	20.883938
1073.278405	-2.991000	3.623100	-10.836000	25.716468	0.000442	20.900309
1074.276579	-2.988100	3.623100	-10.826000	25.738831	0.000441	20.874410
1075.282169	-3.001100	3.621700	-10.867000	25.722087	0.000441	20.857118
1076.277479	-3.005400	3.622600	-10.886000	25.705121	0.000441	20.871845
1077.279183	-2.995300	3.621500	-10.847000	25.709771	0.000440	20.889790
1078.280455	-3.007000	3.622200	-10.890000	25.683983	0.000439	20.864839
1079.280371	-2.980000	3.622100	-10.793000	25.685202	0.000437	20.882658
1080.280540	-2.992900	3.620500	-10.835000	25.624278	0.000438	20.885003
1081.287489	-2.997600	3.619400	-10.848000	25.655563	0.000438	20.879915
1082.280101	-3.031000	3.619300	-10.969000	25.635513	0.000438	20.887753
1083.279061	-2.993600	3.618900	-10.832000	25.603089	0.000438	20.876526
1084.287858	-3.006600	3.620800	-10.884000	25.579360	0.000437	20.885885
1085.279654	-2.998500	3.620100	-10.854000	25.554689	0.000436	20.882445
1086.279161	-2.972200	3.619000	-10.755000	25.564632	0.000436	20.872991
1087.279836	-2.990900	3.620200	-10.827000	25.566747	0.000438	20.882226
1088.278417	-2.985600	3.618500	-10.802000	25.575717	0.000439	20.878907
1089.280530	-3.003100	3.617000	-10.861000	25.605235	0.000434	20.874414
1090.285602	-2.995800	3.618400	-10.839000	25.618232	0.000435	20.878932
1091.283376	-3.000900	3.617400	-10.855000	25.611130	0.000435	20.877015
1092.280458	-2.986300	3.617900	-10.803000	25.614336	0.000434	20.869804
1093.279366	-3.001300	3.618100	-10.858000	25.586608	0.000436	20.884155
1094.285121	-2.988500	3.616400	-10.806000	25.572571	0.000435	20.876696
1095.280212	-3.002200	3.616000	-10.855000	25.558259	0.000435	20.849522
1096.285441	-3.034900	3.615200	-10.970000	25.537312	0.000432	20.886805
1097.285403	-3.009800	3.615300	-10.879000	25.534057	0.000434	20.862674
1098.287352	-3.019600	3.615900	-10.918000	25.559401	0.000435	20.871530
1099.288783	-3.013200	3.614300	-10.890000	25.580752	0.000435	20.848405
1100.286759	-2.999400	3.612800	-10.835000	25.506129	0.000434	20.864500
1101.293680	-3.005800	3.615300	-10.867000	25.525836	0.000433	20.844937
1102.290660	-2.993300	3.615000	-10.820000	25.559905	0.000432	20.871088
1103.284419	-2.995700	3.614700	-10.827000	25.519653	0.000433	20.855322
1104.294421	-3.014500	3.613700	-10.893000	25.523007	0.000432	20.860113
1105.287398	-2.994600	3.614300	-10.823000	25.527380	0.000432	20.857866
1106.301508	-3.018600	3.612000	-10.902000	25.529371	0.000431	20.854176
1107.291949	-2.986900	3.614100	-10.794000	25.569872	0.000433	20.852651
1108.284894	-2.974700	3.612500	-10.745000	25.610524	0.000432	20.848907
1109.284595	-2.990300	3.612500	-10.801000	25.648017	0.000431	20.841519
1110.287800	-3.007900	3.610800	-10.860000	25.680074	0.000432	20.854275
1111.284168	-3.013700	3.612200	-10.885000	25.717117	0.000430	20.841696
1112.290934	-3.016000	3.611300	-10.890000	25.712918	0.000432	20.835582
1113.289564	-3.018400	3.611300	-10.899000	25.690230	0.000429	20.846933
1114.295595	-2.983800	3.611800	-10.776000	25.679225	0.000431	20.853422
1115.300139	-2.986500	3.611000	-10.783000	25.714158	0.000430	20.843465
1116.284988	-2.980400	3.610000	-10.758000	25.728813	0.000428	20.860081
1117.298793	-2.985900	3.610100	-10.778000	25.677185	0.000427	20.835253
1118.288384	-3.001800	3.608800	-10.832000	25.666894	0.000428	20.840563
1119.288950	-2.992600	3.608500	-10.798000	25.705604	0.000427	20.863796
1120.292064	-3.009100	3.608200	-10.856000	25.681455	0.000427	20.843808
1121.300219	-2.986700	3.608600	-10.777000	25.633724	0.000427	20.843284
1122.289267	-2.992700	3.606500	-10.792000	25.680577	0.000424	20.846720
1123.291705	-2.998300	3.608900	-10.818000	25.694641	0.000427	20.852785
1124.289782	-2.992500	3.607600	-10.795000	25.733403	0.000426	20.859001
1125.301380	-3.011300	3.607200	-10.861000	25.703959	0.000424	20.843652
1126.290683	-2.999200	3.605900	-10.814000	25.696751	0.000425	20.840206
1127.291590	-3.007100	3.606300	-10.844000	25.722760	0.000426	20.850209
1128.300702	-2.995000	3.606400	-10.800000	25.736549	0.000424	20.863109
1129.297274	-3.019600	3.606200	-10.888000	25.696194	0.000425	20.855293
1130.291544	-2.997900	3.605600	-10.809000	25.661612	0.000423	20.832414
1131.291315	-2.993700	3.604700	-10.791000	25.701711	0.000422	20.852774
1132.300652	-2.985100	3.605800	-10.763000	25.677209	0.000424	20.827216
1133.292002	-3.008300	3.604000	-10.841000	25.705657	0.000424	20.834926
1134.294936	-3.033200	3.604500	-10.932000	25.738049	0.000421	20.823841
1135.299493	-3.010100	3.603300	-10.846000	25.712734	0.000422	20.850569
1136.292749	-3.026100	3.602900	-10.902000	25.713749	0.000422	20.850166
1137.305633	-3.020600	3.602700	-10.881000	25.751584	0.000420	20.837909
1138.293711	-2.995200	3.603900	-10.793000	25.745997	0.000421	20.829927
1139.308939	-3.015300	3.603200	-10.863000	25.739582	0.000421	20.857621
1140.302411	-3.010400	3.603200	-10.846000	25.741093	0.000420	20.841122
1141.303592	-3.011000	3.601600	-10.843000	25.737168	0.000421	20.843818
1142.297242	-2.985700	3.601100	-10.750000	25.672713	0.000421	20.820330
1143.295208	-2.998600	3.600900	-10.797000	25.699322	0.000419	20.832357
1144.298694	-2.999100	3.601700	-10.801000	25.701929	0.000418	20.837346
1145.299761	-2.989600	3.600300	-10.763000	25.678945	0.000418	20.843184
1146.296162	-3.009100	3.600500	-10.833000	25.664508	0.000416	20.835322
1147.304497	-3.001800	3.600600	-10.808000	25.661799	0.000418	20.836394
1148.297246	-2.993300	3.600900	-10.778000	25.710719	0.000416	20.843329
1149.307252	-3.009700	3.599800	-10.834000	25.722792	0.000416	20.828430
1150.300184	-2.992900	3.600400	-10.775000	25.697226	0.000415	20.835941
1151.296312	-2.995500	3.599600	-10.782000	25.666837	0.000415	20.827230
1152.297757	-2.994300	3.599100	-10.776000	25.708728	0.000414	20.833270
1153.301057	-3.000700	3.599600	-10.801000	25.715436	0.000414	20.831947
1154.296597	-2.980200	3.599500	-10.726000	25.716901	0.000413	20.813505
1155.301821	-3.004800	3.596600	-10.806000	25.742889	0.000415	20.829650
1156.304334	-2.990800	3.597200	-10.757000	25.815981	0.000415	20.813455
1157.299721	-3.035600	3.597100	-10.918000	25.782393	0.000415	20.843252
1158.313625	-3.031500	3.597100	-10.903000	25.742072	0.000413	20.840209
1159.298770	-2.996700	3.597400	-10.780000	25.732927	0.000412	20.836239
1160.303583	-2.988300	3.595900	-10.744000	25.703391	0.000410	20.812737
1161.299344	-2.999100	3.595700	-10.784000	25.701971	0.000410	20.816526
1162.298803	-3.006600	3.596100	-10.810000	25.740959	0.000412	20.818703
1163.299758	-2.976500	3.596400	-10.704000	25.747191	0.000410	20.838712
1164.299965	-2.999200	3.595800	-10.783000	25.725701	0.000412	20.812861
1165.299627	-3.017900	3.594700	-10.846000	25.724113	0.000409	20.826912
1166.311528	-3.007300	3.594700	-10.810000	25.734530	0.000410	20.829314
1167.300611	-2.991500	3.594300	-10.751000	25.763420	0.000408	20.822772
1168.303470	-3.027000	3.593300	-10.876000	25.800785	0.000409	20.795345
1169.301057	-3.005000	3.594800	-10.801000	25.796914	0.000408	20.831759
1170.302659	-3.012100	3.592400	-10.820000	25.820363	0.000410	20.820702
1171.305073	-2.999100	3.593000	-10.775000	25.795941	0.000409	20.824145
1172.301489	-2.993400	3.594200	-10.759000	25.787593	0.000408	20.813862
1173.303213	-2.977500	3.593500	-10.699000	25.786430	0.000407	20.810324
1174.306682	-3.000800	3.592300	-10.779000	25.757459	0.000410	20.822949
1175.309729	-2.991100	3.592000	-10.743000	25.787776	0.000406	20.795554
1176.305228	-2.993700	3.592000	-10.751000	25.764392	0.000405	20.806679
1177.304147	-3.026600	3.590800	-10.867000	25.785687	0.000405	20.809577
1178.302005	-3.010300	3.589800	-10.806000	25.740374	0.000406	20.812426
1179.303620	-2.996500	3.589800	-10.756000	25.749667	0.000405	20.808010
1180.303457	-2.992900	3.590700	-10.746000	25.707104	0.000406	20.820734
1181.303566	-3.007400	3.589100	-10.793000	25.704973	0.000405	20.809584
1182.303534	-3.002000	3.589800	-10.776000	25.719706	0.000405	20.815373
1183.309860	-3.003800	3.589600	-10.782000	25.781072	0.000404	20.804942
1184.314158	-3.013200	3.588100	-10.811000	25.786709	0.000403	20.804439
1185.304289	-3.005700	3.588500	-10.786000	25.778835	0.000404	20.814549
1186.305617	-2.995900	3.588600	-10.750000	25.794712	0.000402	20.808685
1187.306610	-2.993600	3.588300	-10.741000	25.797618	0.000404	20.800699
1188.304291	-3.002200	3.588500	-10.773000	25.772600	0.000403	20.791690
1189.305079	-3.011900	3.586800	-10.803000	25.782115	0.000404	20.810731
1190.305933	-2.997000	3.588100	-10.753000	25.793888	0.000400	20.799323
1191.305920	-2.998000	3.587900	-10.755000	25.817961	0.000403	20.798374
1192.308270	-2.979400	3.587300	-10.687000	25.779702	0.000402	20.832488
1193.310711	-2.975100	3.587500	-10.672000	25.745070	0.000400	20.776839
1194.317306	-3.013800	3.586200	-10.807000	25.767552	0.000402	20.804637
1195.317904	-3.020600	3.584100	-10.825000	25.789935	0.000400	20.791559
1196.310767	-2.986900	3.585700	-10.709000	25.791200	0.000402	20.803261
1197.309201	-3.000400	3.586300	-10.759000	25.777261	0.000399	20.776931
1198.312374	-2.986600	3.583900	-10.703000	25.757882	0.000401	20.786864
1199.309811	-2.995500	3.584600	-10.737000	25.739969	0.000397	20.807277
1200.312480	-2.997500	3.585800	-10.748000	25.788938	0.000400	20.791032
1201.308179	-2.989600	3.584700	-10.716000	25.769158	0.000398	20.806725
1202.308589	-3.000700	3.583700	-10.752000	25.742600	0.000398	20.816558
1203.310174	-3.003500	3.585000	-10.766000	25.741054	0.000396	20.800306
1204.314230	-2.979800	3.582900	-10.675000	25.777726	0.000398	20.807744
1205.308760	-3.015000	3.584800	-10.807000	25.756184	0.000396	20.793693
1206.309030	-3.018100	3.583200	-10.814000	25.806093	0.000398	20.819644
1207.309551	-3.005400	3.582400	-10.765000	25.813716	0.000394	20.803593
1208.311422	-3.001900	3.582900	-10.754000	25.766685	0.000394	20.804715
1209.309904	-3.010600	3.581700	-10.781000	25.751753	0.000396	20.792086
1210.310302	-2.992400	3.581900	-10.717000	25.801091	0.000394	20.800395
1211.310942	-2.967900	3.581600	-10.628000	25.829117	0.000393	20.792985
1212.310286	-3.003700	3.580900	-10.754000	25.877853	0.000391	20.788364
1213.310747	-3.004200	3.580900	-10.756000	25.863369	0.000394	20.797047
1214.308000	-3.009500	3.580300	-10.773000	25.796688	0.000393	20.802610
1215.313894	-2.984100	3.580300	-10.683000	25.819197	0.000391	20.782072
1216.313336	-2.984900	3.580400	-10.685000	25.774925	0.000393	20.804457
1217.317066	-3.006700	3.579500	-10.761000	25.775520	0.000391	20.800787
1218.314109	-3.023000	3.578900	-10.818000	25.725483	0.000391	20.810270
1219.318229	-3.004600	3.578600	-10.751000	25.720812	0.000390	20.794673
1220.312548	-3.004400	3.578800	-10.751000	25.705705	0.000389	20.790406
1221.311969	-2.997600	3.578100	-10.725000	25.731944	0.000392	20.784992
1222.313254	-2.986000	3.578500	-10.685000	25.704117	0.000389	20.772688
1223.312676	-3.009200	3.576600	-10.762000	25.698276	0.000388	20.791004
1224.315478	-3.016500	3.577200	-10.790000	25.683120	0.000390	20.786687
1225.324707	-2.988900	3.577800	-10.693000	25.688852	0.000388	20.800979
1226.314232	-3.002200	3.576200	-10.735000	25.702767	0.000389	20.804050
1227.314839	-2.979800	3.577700	-10.660000	25.699713	0.000388	20.785335
1228.325797	-2.987100	3.576500	-10.682000	25.678913	0.000388	20.787203
1229.314558	-2.980300	3.574600	-10.652000	25.674090	0.000387	20.816024
1230.325030	-2.992000	3.577100	-10.702000	25.732159	0.000387	20.766241
1231.313962	-2.987200	3.574800	-10.677000	25.772431	0.000386	20.769235
1232.316502	-3.003300	3.574300	-10.733000	25.693425	0.000385	20.780915
1233.315005	-2.960400	3.576100	-10.586000	25.679558	0.000384	20.783109
1234.314608	-3.018600	3.572800	-10.784000	25.699706	0.000385	20.775845
1235.314622	-3.002500	3.573700	-10.729000	25.755187	0.000384	20.782734
1236.316765	-2.992800	3.573900	-10.696000	25.755356	0.000383	20.791913
1237.316527	-3.019300	3.572600	-10.786000	25.723109	0.000384	20.781807
1238.315914	-3.023700	3.572000	-10.800000	25.732800	0.000386	20.787748
1239.318914	-2.997900	3.572000	-10.707000	25.774837	0.000382	20.790618
1240.316324	-2.999000	3.572200	-10.712000	25.838088	0.000383	20.791566
1241.318408	-2.989600	3.573000	-10.681000	25.811754	0.000383	20.775070
1242.321321	-3.005300	3.572800	-10.736000	25.777891	0.000383	20.782780
1243.316035	-2.993000	3.571600	-10.689000	25.787976	0.000382	20.780583
1244.324247	-2.993000	3.571600	-10.689000	25.836746	0.000381	20.769829
1245.318580	-3.011400	3.571500	-10.755000	25.847599	0.000381	20.784999
1246.319642	-3.023900	3.570300	-10.796000	25.828645	0.000380	20.778286
1247.320421	-2.974600	3.571300	-10.622000	25.846581	0.000380	20.781605
1248.320266	-2.992300	3.570300	-10.683000	25.875324	0.000380	20.764960
1249.320270	-3.003300	3.569700	-10.720000	25.869037	0.000380	20.759118
1250.320868	-2.992100	3.568700	-10.677000	25.870058	0.000381	20.770576
1251.333004	-2.980300	3.570300	-10.639000	25.857585	0.000380	20.778435
1252.322057	-2.987200	3.568800	-10.660000	25.925700	0.000378	20.772894
1253.323350	-2.994600	3.568200	-10.684000	25.902048	0.000378	20.779479
1254.327757	-2.983200	3.568100	-10.643000	25.852788	0.000378	20.770770
1255.329770	-2.982300	3.569100	-10.643000	25.805509	0.000380	20.782073
1256.322740	-3.024800	3.565800	-10.784000	25.770603	0.000379	20.754122
1257.325518	-2.977900	3.567200	-10.622000	25.791799	0.000377	20.783948
1258.329477	-3.010300	3.566700	-10.736000	25.748018	0.000375	20.784542
1259.323016	-3.020300	3.565900	-10.769000	25.780642	0.000375	20.784121
1260.323321	-2.977200	3.567900	-10.622000	25.795099	0.000376	20.764978
1261.325120	-2.975700	3.565200	-10.608000	25.796188	0.000378	20.791676
1262.326228	-2.984200	3.564500	-10.635000	25.752764	0.000374	20.758014
1263.328123	-3.007700	3.564600	-10.720000	25.716489	0.000375	20.759985
1264.326525	-2.997700	3.564600	-10.685000	25.787469	0.000375	20.735976
1265.333683	-3.021700	3.564300	-10.770000	25.793733	0.000375	20.764553
1266.334226	-2.990000	3.564500	-10.656000	25.769409	0.000376	20.773311
1267.325009	-3.024800	3.563900	-10.779000	25.757858	0.000373	20.759337
1268.328484	-3.035100	3.562500	-10.811000	25.742777	0.000373	20.775010
1269.325875	-3.007900	3.562400	-10.714000	25.756121	0.000372	20.770870
1270.326710	-3.004400	3.561800	-10.700000	25.796635	0.000373	20.759408
1271.329372	-2.983900	3.562600	-10.630000	25.809729	0.000373	20.763078
1272.326027	-2.982600	3.563200	-10.626000	25.775918	0.000373	20.754720
1273.329854	-3.015900	3.562000	-10.742000	25.814875	0.000373	20.776308
1274.330236	-2.990700	3.561500	-10.650000	25.839839	0.000372	20.762030
1275.337306	-2.983600	3.562000	-10.627000	25.864457	0.000371	20.766846
1276.329975	-2.999800	3.561200	-10.681000	25.859167	0.000371	20.779550
1277.329770	-3.013300	3.559800	-10.726000	25.888529	0.000371	20.759260
1278.333557	-3.013800	3.559600	-10.726000	25.876553	0.000371	20.780894
1279.332598	-3.018200	3.558900	-10.740000	25.844954	0.000368	20.748202
1280.329225	-2.989100	3.560100	-10.639000	25.802296	0.000370	20.772207
1281.335412	-3.017700	3.559700	-10.741000	25.791862	0.000367	20.751294
1282.333976	-3.017800	3.559100	-10.740000	25.754123	0.000368	20.772657
1283.328980	-3.009700	3.557200	-10.704000	25.738944	0.000369	20.754564
1284.336147	-2.986000	3.558000	-10.623000	25.782939	0.000368	20.775049
1285.331392	-3.012000	3.558600	-10.717000	25.789601	0.000369	20.781266
1286.331381	-3.015900	3.556700	-10.726000	25.790943	0.000367	20.746577
1287.342743	-3.004800	3.557900	-10.690000	25.770120	0.000366	20.772604
1288.334360	-3.013400	3.557200	-10.718000	25.781498	0.000364	20.745625
1289.333610	-3.001600	3.557500	-10.677000	25.831139	0.000366	20.754713
1290.331445	-2.997500	3.557200	-10.662000	25.843235	0.000367	20.762597
1291.331761	-3.028200	3.556500	-10.769000	25.831209	0.000365	20.756680
1292.331219	-2.998300	3.556700	-10.663000	25.842640	0.000365	20.753463
1293.335986	-3.008500	3.555500	-10.696000	25.846310	0.000364	20.759996
1294.338957	-3.026400	3.555100	-10.759000	25.808130	0.000363	20.741082
1295.331609	-3.005900	3.554500	-10.683000	25.760746	0.000365	20.750385
1296.331963	-3.008700	3.553200	-10.690000	25.789417	0.000365	20.761167
1297.332272	-2.991800	3.554600	-10.634000	25.781890	0.000364	20.755028
1298.332298	-2.992600	3.554700	-10.637000	25.763653	0.000365	20.767529
1299.338256	-3.015000	3.554200	-10.715000	25.817014	0.000365	20.761387
1300.336037	-2.994600	3.554800	-10.645000	25.841062	0.000363	20.750930
1301.334724	-2.989300	3.553500	-10.621000	25.908751	0.000361	20.756341
1302.333965	-2.978400	3.553400	-10.583000	25.840061	0.000364	20.738545
1303.335410	-3.019300	3.551800	-10.724000	25.816609	0.000363	20.784688
1304.335124	-3.011300	3.553600	-10.700000	25.760606	0.000359	20.745028
1305.338716	-3.009400	3.551900	-10.688000	25.734615	0.000360	20.731723
1306.335986	-3.008300	3.551300	-10.683000	25.788181	0.000361	20.751390
1307.338916	-2.989000	3.551200	-10.613000	25.797717	0.000362	20.754331
1308.339516	-2.992900	3.551400	-10.628000	25.827751	0.000361	20.733290
1309.349420	-3.012900	3.549400	-10.693000	25.793367	0.000358	20.748538
1310.341940	-3.017000	3.549100	-10.706000	25.799225	0.000358	20.745414
1311.338875	-3.010500	3.548400	-10.682000	25.858199	0.000360	20.741118
1312.341928	-3.010700	3.549100	-10.684000	25.872976	0.000358	20.748850
1313.343432	-3.008600	3.548300	-10.675000	25.855857	0.000359	20.764370
1314.343878	-2.980000	3.548400	-10.574000	25.861644	0.000357	20.755485
1315.341105	-2.995900	3.549000	-10.632000	25.879231	0.000357	20.760825
1316.339641	-2.994500	3.547600	-10.622000	25.914204	0.000357	20.747120
1317.346193	-3.012300	3.547600	-10.686000	25.938497	0.000358	20.766310
1318.344050	-3.025100	3.547800	-10.731000	25.892835	0.000356	20.745567
1319.340582	-3.008600	3.546600	-10.670000	25.902895	0.000355	20.760415
1320.341121	-3.007500	3.546700	-10.665000	25.928952	0.000355	20.746289
1321.344370	-3.014700	3.546800	-10.692000	25.943404	0.000357	20.747057
1322.341041	-2.997500	3.547700	-10.633000	25.934856	0.000355	20.755539
1323.348285	-3.007800	3.546900	-10.667000	25.947197	0.000355	20.750394
1324.348343	-2.964900	3.546400	-10.513000	25.942900	0.000353	20.743706
1325.341657	-2.998000	3.546000	-10.630000	25.960356	0.000355	20.766459
1326.355454	-3.001100	3.544800	-10.637000	25.971958	0.000355	20.752036
1327.345285	-3.022400	3.543400	-10.709000	25.955633	0.000353	20.767404
1328.341908	-3.001000	3.545900	-10.640000	25.920454	0.000354	20.761934
1329.358412	-2.989900	3.544600	-10.597000	25.891991	0.000353	20.772220
1330.344111	-2.990500	3.543300	-10.595000	25.775199	0.000352	20.782921
1331.345169	-3.020600	3.543100	-10.701000	25.730302	0.000350	20.775282
1332.345649	-3.006000	3.543600	-10.651000	25.760189	0.000353	20.751248
1333.344210	-2.993600	3.543100	-10.606000	25.788956	0.000351	20.775402
1334.342938	-3.017700	3.542200	-10.689000	25.837278	0.000349	20.743810
1335.343210	-2.993200	3.542100	-10.600000	25.825449	0.000350	20.752791
1336.344197	-3.002100	3.542100	-10.633000	25.772878	0.000349	20.773003
1337.347068	-3.009700	3.540400	-10.655000	25.816900	0.000350	20.756057
1338.346478	-2.998000	3.540900	-10.615000	25.817668	0.000348	20.744974
1339.348739	-2.993000	3.541800	-10.599000	25.837691	0.000349	20.766984
1340.347089	-3.005400	3.541000	-10.641000	25.798513	0.000350	20.766510
1341.345172	-3.008300	3.540500	-10.650000	25.777095	0.000348	20.774868
1342.350261	-2.979600	3.541400	-10.551000	25.782189	0.000348	20.791839
1343.348732	-3.021600	3.539600	-10.694000	25.823696	0.000348	20.765729
1344.356158	-2.994700	3.539300	-10.598000	25.835746	0.000345	20.775937
1345.348213	-2.966200	3.540200	-10.499000	25.878298	0.000347	20.779801
1346.351335	-2.994400	3.537800	-10.593000	25.829434	0.000347	20.786192
1347.358850	-3.013600	3.539000	-10.664000	25.801212	0.000345	20.797671
1348.354640	-2.988300	3.538400	-10.573000	25.814058	0.000347	20.758418
1349.354148	-3.024700	3.537000	-10.698000	25.812442	0.000345	20.784295
1350.351658	-3.028200	3.536100	-10.707000	25.805608	0.000345	20.775534
1351.355721	-2.996900	3.536800	-10.598000	25.800616	0.000344	20.774313
1352.352407	-2.991100	3.536400	-10.577000	25.847420	0.000346	20.787190
1353.354734	-3.001100	3.535700	-10.610000	25.823196	0.000344	20.768545
1354.354677	-3.013800	3.536200	-10.656000	25.820889	0.000343	20.788987
1355.358693	-3.008200	3.535900	-10.636000	25.862648	0.000343	20.799168
1356.351731	-2.982000	3.535800	-10.543000	25.912231	0.000341	20.780226
1357.357008	-3.006200	3.533700	-10.622000	25.948323	0.000340	20.770018
1358.352306	-2.977200	3.535700	-10.524000	25.911833	0.000342	20.777930
1359.352381	-3.019700	3.532600	-10.666000	25.921893	0.000340	20.765276
1360.350554	-3.002700	3.534800	-10.613000	25.895687	0.000341	20.781624
1361.357276	-3.002300	3.533700	-10.609000	25.889255	0.000339	20.781801
1362.350649	-2.997500	3.533000	-10.589000	25.859245	0.000340	20.775361
1363.352638	-2.986400	3.534000	-10.553000	25.851245	0.000339	20.771592
1364.354131	-3.002600	3.533100	-10.607000	25.833658	0.000340	20.781426
1365.364424	-3.023300	3.530700	-10.673000	25.874624	0.000338	20.803138
1366.356025	-2.990400	3.531500	-10.559000	25.893873	0.000340	20.778853
1367.362459	-3.032300	3.531700	-10.708000	25.851468	0.000340	20.795523
1368.352345	-2.995100	3.532600	-10.579000	25.863916	0.000338	20.781001
1369.354135	-2.994200	3.532100	-10.575000	25.849357	0.000337	20.781549
1370.357085	-3.003700	3.530400	-10.603000	25.863151	0.000339	20.798725
1371.352945	-2.984600	3.530700	-10.537000	25.839075	0.000337	20.791609
1372.352765	-2.978400	3.530000	-10.512000	25.826581	0.000336	20.792809
1373.352767	-3.004400	3.528800	-10.601000	25.761518	0.000338	20.793361
1374.356033	-2.982500	3.530100	-10.527000	25.748424	0.000336	20.790639
1375.353131	-2.990500	3.530500	-10.556000	25.717518	0.000336	20.784252
1376.360108	-2.990600	3.529800	-10.555000	25.719780	0.000336	20.772773
1377.355018	-3.020700	3.527800	-10.656000	25.714513	0.000333	20.802571
1378.352376	-3.033900	3.526500	-10.698000	25.739187	0.000335	20.798905
1379.361255	-2.990300	3.528500	-10.549000	25.785472	0.000334	20.787550
1380.353560	-3.004800	3.528000	-10.600000	25.829638	0.000335	20.801096
1381.359646	-2.949100	3.527600	-10.402000	25.855926	0.000336	20.774872
1382.352395	-3.000400	3.526200	-10.579000	25.920170	0.000335	20.795788
1383.354958	-2.976100	3.528300	-10.499000	25.962344	0.000333	20.800699
1384.362473	-2.980000	3.527100	-10.510000	25.906457	0.000330	20.789125
1385.357402	-2.992900	3.526100	-10.552000	25.874834	0.000331	20.799082
1386.353110	-3.005000	3.525500	-10.593000	25.916644	0.000332	20.806944
1387.356497	-2.998600	3.525800	-10.570000	25.945483	0.000333	20.788976
1388.360233	-2.997400	3.525200	-10.565000	25.915900	0.000332	20.769213
1389.362837	-2.998100	3.523000	-10.562000	25.849198	0.000330	20.802252
1390.358320	-2.972400	3.526100	-10.480000	25.905144	0.000330	20.805822
1391.357774	-3.012700	3.523700	-10.615000	25.911005	0.000332	20.790374
1392.357559	-3.008000	3.522600	-10.595000	25.874813	0.000331	20.784836
1393.358424	-2.990900	3.523400	-10.537000	25.865870	0.000330	20.781541
1394.358295	-3.002200	3.523400	-10.577000	25.845672	0.000329	20.778321
1395.370915	-3.005200	3.521500	-10.582000	25.787539	0.000329	20.797213
1396.361892	-3.014200	3.520700	-10.610000	25.789304	0.000328	20.796141
1397.359684	-2.999700	3.523000	-10.567000	25.813106	0.000326	20.784489
1398.359736	-3.021200	3.521300	-10.637000	25.840730	0.000329	20.812238
1399.364681	-2.989400	3.521700	-10.527000	25.883506	0.000328	20.807793
1400.373458	-3.021000	3.519800	-10.632000	25.932120	0.000327	20.792620
1401.371225	-2.992500	3.520300	-10.533000	25.895605	0.000326	20.795292
1402.360915	-2.993600	3.519700	-10.535000	25.940619	0.000329	20.804004
1403.361736	-2.999500	3.519000	-10.554000	25.947896	0.000324	20.803253
1404.375262	-3.005700	3.519100	-10.576000	25.958652	0.000325	20.798887
1405.361027	-2.989500	3.518900	-10.519000	25.944370	0.000327	20.789280
1406.361156	-2.970800	3.519200	-10.455000	25.959646	0.000326	20.794195
1407.370380	-3.033600	3.517500	-10.670000	25.970747	0.000325	20.788279
1408.362007	-3.005000	3.517100	-10.568000	25.911230	0.000322	20.809566
1409.370628	-3.008000	3.516800	-10.577000	25.873517	0.000324	20.810086
1410.367543	-3.011700	3.516700	-10.591000	25.880128	0.000323	20.793969
1411.367967	-2.995800	3.518000	-10.538000	25.907031	0.000322	20.789227
1412.363927	-3.005400	3.515700	-10.566000	25.918634	0.000326	20.798038
1413.361269	-2.994900	3.517000	-10.532000	25.969159	0.000325	20.819873
1414.360505	-3.011600	3.515900	-10.588000	25.993799	0.000324	20.804800
1415.368123	-3.004900	3.516600	-10.566000	25.970673	0.000323	20.798162
1416.364046	-3.002900	3.515600	-10.556000	25.952464	0.000322	20.816852
1417.365006	-3.002900	3.514700	-10.553000	25.923773	0.000321	20.820270
1418.363869	-2.986800	3.516200	-10.501000	25.976411	0.000321	20.816254
1419.364732	-3.011900	3.512500	-10.579000	25.988731	0.000322	20.788328
1420.368788	-3.017000	3.511900	-10.594000	25.948664	0.000322	20.811137
1421.364202	-2.990900	3.514200	-10.510000	25.929162	0.000321	20.812882
1422.365930	-2.989200	3.512800	-10.499000	25.887754	0.000321	20.820121
1423.366240	-2.978500	3.512800	-10.461000	25.891104	0.000319	20.822064
1424.367945	-2.996500	3.512500	-10.524000	25.895352	0.000321	20.808314
1425.365850	-3.002700	3.512500	-10.547000	25.893316	0.000320	20.817648
1426.372253	-3.001800	3.511600	-10.540000	25.922477	0.000322	20.817071
1427.373616	-3.009900	3.510700	-10.566000	25.914105	0.000318	20.817669
1428.369894	-2.985300	3.511500	-10.481000	25.953898	0.000320	20.813551
1429.381054	-2.990800	3.511600	-10.501000	25.918497	0.000319	20.823030
1430.372550	-2.953800	3.513400	-10.377000	25.883894	0.000318	20.829994
1431.376920	-3.005100	3.510200	-10.547000	25.866406	0.000319	20.828072
1432.367077	-3.006500	3.510200	-10.552000	25.865610	0.000317	20.822531
1433.370643	-3.004800	3.510200	-10.546000	25.881953	0.000319	20.806708
1434.367200	-2.996000	3.511000	-10.518000	25.896335	0.000319	20.815465
1435.374382	-3.011800	3.508700	-10.567000	25.920206	0.000317	20.798194
1436.369038	-2.977100	3.508700	-10.445000	25.961615	0.000317	20.823675
1437.373688	-3.004500	3.506800	-10.535000	26.004661	0.000317	20.832782
1438.371851	-2.987500	3.508800	-10.481000	26.037101	0.000316	20.826020
1439.369990	-3.019400	3.506300	-10.586000	26.008184	0.000315	20.817355
1440.376935	-2.999900	3.508100	-10.523000	26.036475	0.000313	20.825865
1441.376107	-2.988900	3.507400	-10.482000	26.031037	0.000315	20.818031
1442.374046	-2.999000	3.506800	-10.516000	26.011512	0.000315	20.832079
1443.373890	-3.020100	3.506000	-10.588000	26.006567	0.000314	20.825688
1444.376661	-2.998200	3.505600	-10.510000	25.967790	0.000314	20.828930
1445.384190	-2.996200	3.505300	-10.501000	25.937687	0.000315	20.836144
1446.382905	-3.001200	3.506200	-10.522000	25.925091	0.000315	20.795042
1447.375181	-3.003000	3.504500	-10.523000	25.939994	0.000314	20.833721
1448.375885	-2.974900	3.503400	-10.421000	25.916892	0.000313	20.834694
1449.378633	-2.969200	3.504900	-10.405000	25.921633	0.000312	20.814327
1450.377238	-2.996800	3.503300	-10.498000	25.915670	0.000313	20.848639
1451.375814	-2.990600	3.504200	-10.479000	25.905709	0.000312	20.823934
1452.384944	-3.006900	3.503200	-10.533000	25.857044	0.000310	20.842376
1453.375067	-3.002000	3.502500	-10.513000	25.901063	0.000310	20.861465
1454.378051	-2.984300	3.503500	-10.455000	25.919294	0.000309	20.840900
1455.375181	-2.996700	3.502100	-10.493000	25.938617	0.000311	20.832812
1456.382229	-3.015100	3.500700	-10.554000	25.954939	0.000308	20.832140
1457.387558	-2.993800	3.501700	-10.482000	25.945074	0.000311	20.830289
1458.378282	-2.975400	3.501400	-10.417000	25.975628	0.000309	20.832536
1459.379772	-3.016100	3.500800	-10.558000	26.014052	0.000310	20.826096
1460.378046	-2.971200	3.501200	-10.401000	26.046091	0.000309	20.845009
1461.378617	-3.007700	3.500200	-10.526000	26.040505	0.000308	20.864526
1462.387101	-3.015900	3.499600	-10.554000	26.008136	0.000307	20.851445
1463.379749	-2.997200	3.501200	-10.492000	25.985933	0.000307	20.839571
1464.377989	-2.989800	3.500500	-10.465000	25.997229	0.000310	20.841436
1465.390715	-3.011600	3.498100	-10.534000	25.988980	0.000307	20.859226
1466.387609	-3.019800	3.498700	-10.563000	25.941908	0.000305	20.848919
1467.379644	-3.023700	3.496300	-10.571000	25.920197	0.000306	20.851290
1468.393595	-2.999000	3.498100	-10.490000	25.922705	0.000306	20.837215
1469.383437	-3.040600	3.496700	-10.631000	25.938154	0.000306	20.857475
1470.383409	-3.003200	3.497100	-10.502000	25.875997	0.000306	20.864733
1471.388097	-3.012200	3.496200	-10.531000	25.910726	0.000304	20.860267
1472.378555	-3.011600	3.496300	-10.529000	25.862926	0.000305	20.842594
1473.379718	-3.000300	3.495700	-10.488000	25.882277	0.000303	20.838801
1474.394928	-3.003800	3.494500	-10.496000	25.884137	0.000307	20.857738
1475.379328	-2.977400	3.496600	-10.409000	25.869308	0.000305	20.845686
1476.381195	-2.993100	3.495200	-10.460000	25.897399	0.000303	20.850672
1477.380755	-2.985400	3.494300	-10.431000	25.889597	0.000302	20.862275
1478.389465	-3.015400	3.494200	-10.536000	25.902338	0.000303	20.840461
1479.380385	-2.999800	3.493300	-10.479000	25.893543	0.000304	20.879513
1480.381249	-3.001600	3.493100	-10.484000	25.899904	0.000300	20.877369
1481.382070	-3.000700	3.493000	-10.480000	25.938128	0.000303	20.862190
1482.384582	-2.993100	3.492900	-10.453000	25.925036	0.000301	20.874167
1483.387677	-3.013100	3.492700	-10.523000	25.971785	0.000301	20.849063
1484.408648	-3.005800	3.492900	-10.498000	25.916093	0.000300	20.853331
1485.383413	-2.998900	3.493200	-10.475000	25.933627	0.000301	20.872841
1486.394145	-3.000000	3.492100	-10.476000	25.939815	0.000301	20.873368
1487.386600	-2.989800	3.490400	-10.435000	25.925952	0.000299	20.850433
1488.383507	-2.991800	3.491900	-10.446000	25.936409	0.000299	20.877058
1489.384162	-2.998000	3.492300	-10.469000	25.909824	0.000298	20.884489
1490.388238	-2.989800	3.490400	-10.435000	25.861533	0.000299	20.870117
1491.386580	-2.993600	3.489900	-10.446000	25.867024	0.000297	20.873262
1492.385409	-3.017400	3.489500	-10.527000	25.904111	0.000299	20.864052
1493.386203	-2.976300	3.489500	-10.385000	25.941369	0.000298	20.880145
1494.384659	-2.996300	3.489200	-10.454000	25.968521	0.000296	20.861431
1495.385430	-3.015000	3.488500	-10.517000	26.030444	0.000295	20.879072
1496.384510	-3.029400	3.487700	-10.565000	26.013282	0.000298	20.881270
1497.388041	-2.979900	3.487800	-10.392000	25.969909	0.000296	20.884161
1498.384708	-2.993200	3.488900	-10.441000	26.007890	0.000298	20.872534
1499.394231	-2.985400	3.487600	-10.411000	25.996831	0.000296	20.868536
1500.385646	-3.003400	3.486300	-10.470000	25.926090	0.000297	20.892769
1501.394266	-3.011300	3.486500	-10.497000	25.998398	0.000294	20.893816
1502.386858	-3.016400	3.487100	-10.517000	26.032822	0.000295	20.873875
1503.384015	-3.004400	3.486100	-10.473000	25.997627	0.000294	20.860327
1504.386572	-2.994200	3.487400	-10.441000	25.958205	0.000294	20.888524
1505.385113	-3.000600	3.485800	-10.459000	25.993728	0.000294	20.889599
1506.391516	-3.007100	3.484900	-10.478000	26.021421	0.000294	20.900352
1507.389215	-3.004800	3.484300	-10.469000	26.029786	0.000293	20.895006
1508.389107	-2.992000	3.485000	-10.426000	26.073129	0.000293	20.890191
1509.390405	-3.012300	3.482900	-10.490000	26.102957	0.000292	20.865635
1510.389557	-3.004300	3.483600	-10.465000	26.126404	0.000292	20.886822
1511.391204	-3.005200	3.483500	-10.467000	26.139243	0.000292	20.876017
1512.389925	-3.000800	3.482700	-10.450000	26.129331	0.000291	20.894030
1513.392792	-2.988800	3.482800	-10.408000	26.135561	0.000290	20.890333
1514.392432	-3.011400	3.483000	-10.488000	26.142864	0.000291	20.897671
1515.401983	-3.019200	3.482000	-10.512000	26.111124	0.000290	20.903236
1516.391820	-3.017100	3.481700	-10.503000	26.030150	0.000290	20.899164
1517.393059	-2.985600	3.481600	-10.394000	26.006973	0.000290	20.904801
1518.395499	-3.001700	3.481800	-10.450000	25.968946	0.000290	20.910692
1519.396394	-3.011400	3.479600	-10.477000	26.001183	0.000287	20.909889
1520.395511	-2.993600	3.479500	-10.415000	26.053796	0.000289	20.914859
1521.396101	-3.010800	3.479100	-10.474000	26.085558	0.000289	20.890351
1522.397938	-2.992000	3.480200	-10.412000	26.110643	0.000289	20.903701
1523.396976	-2.967600	3.480600	-10.328000	26.138382	0.000288	20.903124
1524.398446	-3.008200	3.479400	-10.466000	26.099018	0.000288	20.886332
1525.398035	-2.979100	3.480100	-10.366000	26.072320	0.000286	20.888904
1526.414062	-3.003700	3.478000	-10.447000	26.086946	0.000288	20.908339
1527.399522	-3.000900	3.478300	-10.437000	26.027112	0.000286	20.900853
1528.401208	-2.983400	3.479100	-10.379000	26.035656	0.000286	20.894265
1529.402430	-3.038100	3.476100	-10.560000	26.017772	0.000286	20.886254
1530.400794	-3.006600	3.476000	-10.450000	26.031359	0.000286	20.900853
1531.401900	-2.981800	3.477700	-10.368000	26.037969	0.000286	20.878573
1532.399969	-3.012000	3.476300	-10.469000	26.082653	0.000285	20.893122
1533.400329	-2.999400	3.476200	-10.425000	26.047531	0.000284	20.889127
1534.400600	-2.998200	3.476600	-10.422000	26.043805	0.000286	20.874953
1535.408250	-3.017900	3.474700	-10.486000	26.023167	0.000286	20.893097
1536.402859	-2.986100	3.475200	-10.377000	25.971552	0.000283	20.903354
1537.399998	-2.997000	3.475900	-10.416000	25.962240	0.000284	20.900162
1538.404518	-2.981900	3.475100	-10.362000	25.931883	0.000283	20.881046
1539.404338	-3.001600	3.474400	-10.428000	26.003969	0.000281	20.878077
1540.402301	-2.982200	3.474400	-10.360000	26.001957	0.000283	20.887435
1541.403102	-2.985600	3.474000	-10.371000	25.974433	0.000283	20.882542
1542.403833	-2.998200	3.473600	-10.414000	26.032288	0.000281	20.883295
1543.406526	-2.989800	3.473200	-10.383000	26.035317	0.000281	20.869744
1544.410145	-3.009800	3.471900	-10.449000	26.044407	0.000282	20.864653
1545.404377	-2.971800	3.472700	-10.319000	25.989588	0.000280	20.884491
1546.403175	-3.005300	3.472800	-10.436000	26.004172	0.000281	20.860265
1547.405513	-2.996400	3.471200	-10.400000	25.996445	0.000279	20.872890
1548.406008	-2.985500	3.472300	-10.366000	26.009607	0.000280	20.873311
1549.407841	-2.984200	3.472800	-10.363000	25.956672	0.000282	20.860906
1550.406737	-2.996800	3.469900	-10.397000	26.000588	0.000280	20.870888
1551.405322	-2.999300	3.470000	-10.406000	25.992811	0.000280	20.861653
1552.407022	-2.954400	3.471900	-10.257000	26.006670	0.000278	20.867042
1553.404163	-2.970500	3.471300	-10.311000	26.058681	0.000279	20.859081
1554.405850	-3.003900	3.469700	-10.421000	26.085580	0.000279	20.866193
1555.409521	-2.979900	3.471000	-10.342000	26.096286	0.000278	20.864622
1556.412069	-2.995000	3.469800	-10.390000	26.042512	0.000279	20.865595
1557.406049	-2.991600	3.469000	-10.377000	26.041988	0.000279	20.868861
1558.415058	-3.010400	3.467700	-10.438000	26.017124	0.000278	20.869009
1559.409905	-3.004600	3.468200	-10.419000	26.029866	0.000278	20.846251
1560.406135	-3.001900	3.467000	-10.406000	26.065704	0.000278	20.862818
1561.409640	-3.007200	3.466000	-10.422000	26.116694	0.000276	20.853834
1562.407492	-3.002800	3.466400	-10.409000	26.125361	0.000276	20.868706
1563.407714	-3.025400	3.467000	-10.488000	26.139295	0.000278	20.867534
1564.413712	-3.007700	3.465700	-10.423000	26.166883	0.000276	20.864435
1565.408601	-2.997100	3.465800	-10.386000	26.126076	0.000276	20.845718
1566.408582	-2.993200	3.466500	-10.376000	26.074963	0.000276	20.833716
1567.408685	-2.971200	3.466300	-10.298000	26.030399	0.000273	20.858166
1568.407514	-2.994800	3.466100	-10.380000	26.045353	0.000274	20.854699
1569.409869	-3.003500	3.464800	-10.405000	26.006355	0.000274	20.848234
1570.413912	-2.983500	3.464700	-10.336000	26.065099	0.000272	20.840400
1571.409145	-3.000600	3.463300	-10.391000	26.089287	0.000274	20.854745
1572.411169	-3.016800	3.464100	-10.449000	26.133346	0.000272	20.864401
1573.410273	-2.990800	3.464800	-10.361000	26.124700	0.000272	20.837224
1574.411309	-3.002600	3.464100	-10.401000	26.102420	0.000273	20.847078
1575.412925	-3.020800	3.461800	-10.455000	26.073584	0.000273	20.848451
1576.412638	-3.010500	3.461500	-10.419000	26.087316	0.000271	20.859402
1577.417887	-3.011900	3.461700	-10.426000	26.066577	0.000270	20.849471
1578.413619	-2.995000	3.462400	-10.368000	26.045714	0.000270	20.852690
1579.414184	-3.007900	3.460000	-10.407000	26.022509	0.000271	20.862566
1580.415718	-3.007600	3.460200	-10.406000	26.013592	0.000271	20.872098
1581.418170	-2.978300	3.461500	-10.308000	26.052286	0.000270	20.846966
1582.417287	-2.999600	3.460600	-10.380000	26.054023	0.000270	20.856297
1583.420861	-2.994000	3.460600	-10.360000	26.064578	0.000270	20.858367
1584.416393	-2.988200	3.459300	-10.336000	26.048656	0.000269	20.854698
1585.415825	-3.017700	3.458600	-10.436000	26.038644	0.000269	20.854122
1586.419423	-3.005800	3.458300	-10.394000	26.048153	0.000268	20.848029
1587.416066	-2.996700	3.458200	-10.363000	26.109850	0.000268	20.841742
1588.420660	-3.005700	3.458700	-10.395000	26.103687	0.000266	20.834602
1589.418013	-3.011600	3.458100	-10.413000	26.044797	0.000268	20.844658
1590.418992	-3.010800	3.457500	-10.408000	26.065562	0.000268	20.851296
1591.418832	-3.015800	3.458000	-10.428000	26.058551	0.000267	20.841881
1592.419585	-3.005200	3.457200	-10.389000	26.077625	0.000267	20.843976
1593.422632	-2.986800	3.456800	-10.324000	26.113837	0.000266	20.840059
1594.420932	-2.986700	3.455300	-10.318000	26.157769	0.000266	20.860967
1595.419663	-3.001700	3.456800	-10.376000	26.184369	0.000266	20.836489
1596.422855	-3.036200	3.455700	-10.491000	26.119469	0.000265	20.843821
1597.419118	-3.004300	3.455400	-10.381000	26.075136	0.000265	20.837208
1598.417825	-2.979200	3.456100	-10.295000	26.029433	0.000265	20.844868
1599.422306	-3.019800	3.454400	-10.430000	26.065645	0.000265	20.836681
1600.422517	-3.028200	3.453300	-10.457000	26.100316	0.000264	20.836904
1601.421572	-3.004900	3.455000	-10.381000	26.126791	0.000263	20.827471
1602.425710	-2.990500	3.454500	-10.329000	26.098102	0.000263	20.820929
1603.422169	-3.009000	3.453000	-10.389000	26.065861	0.000264	20.838795
1604.424086	-3.009500	3.452800	-10.391000	26.029723	0.000261	20.838048
1605.423450	-2.990100	3.452700	-10.323000	25.971049	0.000261	20.831255
1606.422379	-2.992300	3.452800	-10.331000	25.957161	0.000261	20.831053
1607.430913	-2.989900	3.452800	-10.322000	25.906682	0.000263	20.823489
1608.424554	-3.000800	3.453300	-10.362000	25.933162	0.000260	20.833021
1609.425860	-2.997200	3.451500	-10.344000	25.931324	0.000262	20.829752
1610.424625	-3.016900	3.451800	-10.412000	25.932141	0.000260	20.831522
1611.432474	-2.985100	3.452200	-10.304000	25.993295	0.000260	20.828001
1612.433221	-3.023500	3.449600	-10.429000	26.008493	0.000259	20.846589
1613.424070	-2.989900	3.449900	-10.314000	25.998406	0.000260	20.843567
1614.423082	-2.992100	3.450100	-10.322000	26.029776	0.000259	20.835730
1615.433891	-2.992500	3.451000	-10.326000	26.093685	0.000262	20.830242
1616.425110	-2.987400	3.449200	-10.303000	26.115241	0.000261	20.818711
1617.424962	-3.000100	3.448700	-10.345000	26.083152	0.000259	20.822504
1618.435751	-2.993900	3.449600	-10.327000	26.070309	0.000258	20.818608
1619.425628	-2.972600	3.448500	-10.250000	26.099194	0.000257	20.831035
1620.428331	-2.985800	3.447500	-10.292000	26.139724	0.000257	20.825767
1621.425947	-2.960900	3.448500	-10.209000	26.142379	0.000257	20.823694
1622.424700	-3.001400	3.446800	-10.344000	26.087267	0.000257	20.820000
1623.425444	-3.000800	3.448000	-10.346000	26.043404	0.000255	20.802007
1624.425565	-2.991200	3.448500	-10.315000	26.090194	0.000255	20.814406
1625.429365	-3.023400	3.444800	-10.415000	26.137331	0.000255	20.819095
1626.429679	-2.999900	3.445800	-10.335000	26.161125	0.000255	20.819297
1627.425817	-3.013500	3.446200	-10.384000	26.157871	0.000253	20.827881
1628.426044	-2.998000	3.446000	-10.330000	26.138450	0.000255	20.845823
1629.427435	-3.007100	3.445100	-10.359000	26.113514	0.000254	20.813182
1630.426160	-3.022300	3.444800	-10.411000	26.107774	0.000254	20.838708
1631.428091	-3.010600	3.444200	-10.368000	26.097220	0.000253	20.808190
1632.425938	-3.001200	3.445900	-10.341000	26.079315	0.000255	20.807269
1633.425578	-3.022300	3.445100	-10.410000	26.101245	0.000252	20.819346
1634.425655	-2.992800	3.444300	-10.307000	26.063169	0.000252	20.813805
1635.427588	-3.016900	3.442500	-10.385000	26.084010	0.000251	20.838538
1636.425553	-2.972100	3.444900	-10.238000	26.122977	0.000251	20.809414
1637.427233	-3.006200	3.442000	-10.346000	26.176672	0.000252	20.813582
1638.438065	-3.013900	3.440500	-10.368000	26.204783	0.000251	20.818122
1639.429868	-2.984300	3.442900	-10.273000	26.228776	0.000251	20.820896
1640.429338	-2.983300	3.442800	-10.270000	26.150050	0.000251	20.817651
1641.439292	-2.979600	3.440700	-10.251000	26.123452	0.000250	20.808469
1642.428235	-3.008600	3.440400	-10.350000	26.097174	0.000250	20.820471
1643.429599	-3.002000	3.441300	-10.330000	26.145979	0.000248	20.815457
1644.433984	-3.022400	3.439400	-10.394000	26.197042	0.000250	20.823145
1645.428771	-3.001000	3.441300	-10.326000	26.183231	0.000247	20.803578
1646.439480	-2.995200	3.440700	-10.305000	26.193415	0.000247	20.825191
1647.429670	-3.003100	3.439100	-10.327000	26.166146	0.000246	20.801582
1648.431562	-3.010700	3.438000	-10.350000	26.126681	0.000248	20.800334
1649.429890	-3.021200	3.438600	-10.388000	26.154349	0.000248	20.792099
1650.429180	-3.004100	3.438500	-10.327000	26.145383	0.000246	20.795419
1651.434764	-3.004700	3.438400	-10.331000	26.166297	0.000246	20.783242
1652.451501	-3.031300	3.436500	-10.416000	26.195077	0.000245	20.805524
1653.440853	-3.015700	3.437300	-10.365000	26.193862	0.000244	20.794346
1654.438292	-3.027600	3.436100	-10.402000	26.174590	0.000244	20.791576
1655.436187	-2.964200	3.438300	-10.191000	26.169079	0.000245	20.789357
1656.431649	-3.013900	3.435300	-10.353000	26.172755	0.000246	20.828138
1657.434492	-3.026200	3.433900	-10.390000	26.160039	0.000242	20.797343
1658.431925	-3.028200	3.434400	-10.399000	26.173424	0.000243	20.781869
1659.430851	-3.011500	3.434600	-10.342000	26.202507	0.000247	20.790231
1660.431081	-3.011000	3.435000	-10.342000	26.240627	0.000244	20.784916
1661.432790	-3.003400	3.434500	-10.315000	26.215694	0.000242	20.797792
1662.435145	-3.002100	3.435300	-10.313000	26.156585	0.000242	20.792924
1663.437757	-2.974600	3.434800	-10.217000	26.166149	0.000245	20.784990
1664.431080	-3.015200	3.433800	-10.353000	26.153408	0.000244	20.779300
1665.432098	-3.006300	3.434900	-10.325000	26.229476	0.000241	20.787460
1666.434899	-2.982400	3.434200	-10.241000	26.161501	0.000241	20.810192
1667.435926	-3.012400	3.432600	-10.339000	26.107235	0.000242	20.798812
1668.435606	-3.005600	3.433200	-10.318000	26.105967	0.000241	20.804651
1669.436353	-2.989000	3.432700	-10.259000	26.137883	0.000241	20.799735
1670.432439	-2.993800	3.432400	-10.274000	26.136738	0.000241	20.787206
1671.431985	-2.999200	3.430800	-10.289000	26.158149	0.000240	20.785960
1672.437661	-2.988800	3.430500	-10.252000	26.106686	0.000239	20.782613
1673.442681	-3.008300	3.431200	-10.322000	26.090740	0.000238	20.795515
1674.433869	-2.970400	3.431000	-10.190000	26.054057	0.000239	20.790426
1675.437740	-2.999000	3.430700	-10.288000	26.004101	0.000239	20.783382
1676.437521	-3.017200	3.428800	-10.344000	26.016723	0.000238	20.789425
1677.439490	-2.993600	3.428700	-10.263000	26.018780	0.000237	20.797656
1678.435761	-2.987100	3.429100	-10.242000	26.092600	0.000240	20.802599
1679.435899	-3.002800	3.428200	-10.293000	26.142817	0.000238	20.790470
1680.445224	-2.983300	3.429300	-10.230000	26.137827	0.000239	20.784507
1681.444368	-2.982600	3.429000	-10.227000	26.158759	0.000237	20.787522
1682.432367	-2.998000	3.428500	-10.278000	26.112864	0.000237	20.775544
1683.433732	-2.993100	3.427100	-10.257000	26.057056	0.000236	20.768308
1684.444433	-2.991800	3.427700	-10.253000	26.097661	0.000236	20.769278
1685.434195	-2.999700	3.427300	-10.280000	26.114252	0.000234	20.777413
1686.444068	-3.012900	3.426600	-10.323000	26.173859	0.000235	20.790841
1687.448293	-3.006700	3.427100	-10.303000	26.145297	0.000235	20.798651
1688.445026	-3.030300	3.425200	-10.378000	26.156024	0.000234	20.779084
1689.435194	-2.999100	3.425100	-10.272000	26.137374	0.000234	20.787371
1690.435434	-3.016900	3.425200	-10.332000	26.130570	0.000233	20.774844
1691.442992	-3.004100	3.425500	-10.290000	26.105930	0.000233	20.766681
1692.449930	-2.998300	3.425000	-10.268000	26.083405	0.000233	20.796206
1693.437087	-3.012000	3.423700	-10.311000	26.068030	0.000233	20.773645
1694.441421	-2.971500	3.425500	-10.178000	26.087005	0.000233	20.778486
1695.447877	-2.979700	3.425100	-10.205000	26.121752	0.000232	20.779734
1696.441054	-3.002200	3.423600	-10.278000	26.161042	0.000233	20.786022
1697.443921	-3.004200	3.422600	-10.281000	26.117206	0.000232	20.771847
1698.445315	-2.997300	3.423000	-10.259000	26.110702	0.000231	20.782855
1699.443786	-2.987700	3.422600	-10.224000	26.086829	0.000229	20.799172
1700.439188	-2.979100	3.423100	-10.197000	26.062191	0.000232	20.775839
1701.442819	-3.028400	3.421400	-10.360000	26.063585	0.000231	20.790042
1702.440627	-2.995700	3.423300	-10.254000	26.099768	0.000231	20.772343
1703.446884	-2.957100	3.421100	-10.115000	26.093362	0.000230	20.772545
1704.459936	-3.002300	3.421100	-10.270000	26.120411	0.000232	20.776016
1705.446221	-2.998600	3.421000	-10.257000	26.154833	0.000230	20.778836
1706.441131	-2.982200	3.421100	-10.201000	26.151031	0.000231	20.749410
1707.443836	-3.008900	3.419400	-10.288000	26.132402	0.000227	20.764357
1708.448785	-2.998500	3.419800	-10.253000	26.137966	0.000227	20.778008
1709.441081	-3.023200	3.419300	-10.336000	26.162926	0.000227	20.754250
1710.442702	-3.010000	3.418600	-10.288000	26.153214	0.000230	20.785744
1711.440980	-3.014500	3.419000	-10.306000	26.191411	0.000226	20.763907
1712.441617	-2.988500	3.419600	-10.218000	26.222254	0.000226	20.776883
1713.441604	-2.990700	3.417300	-10.219000	26.206458	0.000227	20.775235
1714.442346	-3.012500	3.417900	-10.295000	26.154756	0.000226	20.780181
1715.445869	-3.003300	3.417200	-10.262000	26.182294	0.000225	20.758066
1716.442041	-2.994000	3.416900	-10.230000	26.142509	0.000225	20.771194
1717.441911	-2.995200	3.415600	-10.229000	26.135604	0.000226	20.768522
1718.450700	-2.980200	3.416300	-10.181000	26.161708	0.000224	20.785744
1719.450654	-3.001400	3.415800	-10.251000	26.204277	0.000224	20.764509
1720.441061	-2.985500	3.416500	-10.199000	26.227793	0.000225	20.765854
1721.446491	-3.022100	3.414900	-10.319000	26.202313	0.000223	20.763483
1722.443038	-3.001800	3.415400	-10.251000	26.205366	0.000223	20.770344
1723.451409	-3.013500	3.414700	-10.289000	26.174498	0.000222	20.786742
1724.447629	-2.977700	3.414400	-10.166000	26.173206	0.000222	20.753200
1725.444910	-2.986300	3.414800	-10.197000	26.156018	0.000223	20.755369
1726.457629	-2.994200	3.413900	-10.221000	26.170473	0.000220	20.758515
1727.448058	-2.993900	3.412800	-10.216000	26.169554	0.000223	20.763756
1728.454663	-3.023600	3.412900	-10.318000	26.164114	0.000221	20.772988
1729.446537	-2.990500	3.412100	-10.203000	26.101282	0.000222	20.766752
1730.452909	-2.999400	3.412500	-10.235000	26.099441	0.000221	20.774860
1731.453832	-2.993900	3.412400	-10.215000	26.148943	0.000220	20.764382
1732.447037	-2.992100	3.411700	-10.208000	26.125151	0.000220	20.796900
1733.447614	-2.983100	3.412000	-10.177000	26.174374	0.000220	20.773341
1734.458614	-2.994200	3.412700	-10.218000	26.177678	0.000219	20.786143
1735.447538	-3.007400	3.410900	-10.256000	26.195186	0.000218	20.762959
1736.460571	-3.027300	3.410500	-10.324000	26.149039	0.000217	20.762107
1737.449352	-3.011100	3.410100	-10.266000	26.135530	0.000218	20.761335
1738.448046	-2.990700	3.411000	-10.200000	26.173949	0.000216	20.777655
1739.448448	-2.999900	3.409200	-10.226000	26.185249	0.000218	20.772415
1740.449965	-3.026100	3.408500	-10.313000	26.204274	0.000219	20.753126
1741.448951	-3.005700	3.409200	-10.245000	26.206930	0.000219	20.774286
1742.448441	-2.986600	3.409700	-10.182000	26.201712	0.000217	20.776155
1743.448875	-2.994800	3.408800	-10.208000	26.226571	0.000218	20.759411
1744.448457	-3.000500	3.408000	-10.224000	26.247906	0.000217	20.739598
1745.449961	-3.000900	3.408100	-10.225000	26.183485	0.000215	20.781074
1746.448539	-3.005900	3.407000	-10.240000	26.184802	0.000217	20.769594
1747.453917	-2.996600	3.407300	-10.209000	26.188352	0.000216	20.788335
1748.451151	-3.006800	3.407600	-10.245000	26.204567	0.000214	20.775706
1749.450629	-2.979200	3.408600	-10.154000	26.243783	0.000216	20.798044
1750.451843	-3.007000	3.405900	-10.240000	26.253839	0.000214	20.772114
1751.450792	-3.007700	3.405300	-10.241000	26.291314	0.000214	20.764255
1752.457089	-2.999400	3.405000	-10.213000	26.232604	0.000213	20.784913
1753.451210	-3.010800	3.404700	-10.250000	26.227589	0.000214	20.755218
1754.449856	-2.984500	3.406000	-10.164000	26.202159	0.000214	20.774708
1755.453834	-3.001100	3.403700	-10.214000	26.206060	0.000212	20.788586
1756.449594	-2.987300	3.404200	-10.168000	26.213807	0.000214	20.772663
1757.452873	-2.975300	3.404500	-10.129000	26.213656	0.000212	20.781994
1758.453670	-2.980200	3.404200	-10.145000	26.204096	0.000213	20.769542
1759.456261	-2.989500	3.404200	-10.176000	26.203948	0.000212	20.769393
1760.452567	-2.977800	3.403500	-10.134000	26.164953	0.000212	20.803229
1761.455298	-2.971800	3.404500	-10.116000	26.137686	0.000212	20.785787
1762.450774	-2.991900	3.403600	-10.183000	26.144317	0.000213	20.782019
1763.452667	-3.007100	3.402600	-10.231000	26.150396	0.000212	20.781489
1764.454299	-3.002400	3.402200	-10.214000	26.182958	0.000211	20.805200
1765.450612	-3.000000	3.400800	-10.202000	26.191476	0.000210	20.781991
1766.450182	-3.017000	3.400700	-10.259000	26.224129	0.000210	20.792045
1767.454419	-2.995600	3.401000	-10.187000	26.263316	0.000210	20.770258
1768.453315	-2.982500	3.400400	-10.141000	26.249063	0.000208	20.795289
1769.453937	-3.012200	3.399300	-10.238000	26.274094	0.000210	20.784883
1770.458056	-3.008600	3.399200	-10.226000	26.229169	0.000206	20.795686
1771.454918	-2.999900	3.398800	-10.195000	26.212706	0.000208	20.807592
1772.455191	-3.014100	3.399100	-10.244000	26.218344	0.000209	20.766790
1773.458250	-3.006000	3.398500	-10.215000	26.210248	0.000208	20.796114
1774.464239	-3.009800	3.398200	-10.227000	26.217545	0.000207	20.797756
1775.456195	-3.042900	3.396800	-10.335000	26.233141	0.000208	20.773599
1776.460756	-2.995500	3.396000	-10.172000	26.265771	0.000206	20.794536
1777.457217	-3.019600	3.397100	-10.257000	26.297031	0.000206	20.800347
1778.454397	-2.990100	3.397700	-10.159000	26.267507	0.000207	20.779212
1779.455019	-3.017800	3.395700	-10.246000	26.255215	0.000207	20.781558
1780.454457	-2.995900	3.395800	-10.173000	26.224568	0.000205	20.764035
1781.454966	-2.996100	3.395900	-10.173000	26.275202	0.000206	20.794530
1782.462373	-3.014800	3.396600	-10.239000	26.283944	0.000205	20.775341
1783.455994	-3.000300	3.396000	-10.188000	26.266931	0.000204	20.785745
1784.458609	-2.976000	3.395500	-10.104000	26.307035	0.000205	20.788115
1785.461670	-2.996500	3.395500	-10.174000	26.370354	0.000204	20.790111
1786.459320	-2.996100	3.393300	-10.164000	26.382623	0.000203	20.788692
1787.459102	-2.978700	3.395500	-10.114000	26.354563	0.000206	20.797000
1788.460354	-2.973300	3.393600	-10.089000	26.307850	0.000203	20.788460
1789.458841	-2.987400	3.394100	-10.139000	26.330995	0.000202	20.798445
1790.458510	-3.011400	3.391700	-10.212000	26.324341	0.000200	20.802188
1791.461386	-2.970400	3.392800	-10.077000	26.292582	0.000204	20.800617
1792.459464	-2.968000	3.392900	-10.069000	26.245890	0.000200	20.802058
1793.458620	-2.998600	3.392400	-10.172000	26.264242	0.000203	20.777353
1794.464274	-3.008900	3.392300	-10.207000	26.264887	0.000200	20.810717
1795.457232	-2.960700	3.391200	-10.040000	26.325430	0.000201	20.804705
1796.458442	-2.995900	3.391500	-10.159000	26.370345	0.000201	20.795792
1797.468686	-3.001300	3.390000	-10.173000	26.396542	0.000201	20.803630
1798.467373	-3.029000	3.390000	-10.268000	26.436562	0.000200	20.795489
1799.460994	-2.989900	3.389300	-10.132000	26.455355	0.000200	20.802050
1800.462961	-2.987900	3.390200	-10.128000	26.457439	0.000200	20.804619
1801.460217	-2.989200	3.388600	-10.128000	26.492942	0.000197	20.810432
1802.459279	-2.985300	3.389800	-10.118000	26.442291	0.000201	20.801721
1803.461478	-3.004300	3.388800	-10.180000	26.436479	0.000199	20.787345
1804.463434	-3.022600	3.389400	-10.244000	26.390941	0.000198	20.792784
1805.462689	-2.995000	3.388600	-10.148000	26.309593	0.000196	20.815342
1806.464278	-2.977000	3.388300	-10.086000	26.294147	0.000197	20.811198
1807.462913	-2.975600	3.388000	-10.081000	26.257514	0.000196	20.799515
1808.463568	-2.997300	3.386800	-10.151000	26.321654	0.000197	20.809445
1809.468450	-2.996600	3.386400	-10.146000	26.310876	0.000197	20.815209
1810.466507	-2.997000	3.387100	-10.149000	26.285470	0.000196	20.813384
1811.467104	-2.991200	3.386400	-10.129000	26.298804	0.000196	20.812085
1812.468027	-3.012500	3.385900	-10.199000	26.291375	0.000194	20.812207
1813.466146	-3.001300	3.385500	-10.160000	26.315188	0.000195	20.805318
1814.465872	-3.015100	3.385700	-10.207000	26.361226	0.000194	20.796584
1815.468889	-2.993000	3.385600	-10.132000	26.386249	0.000195	20.836906
1816.465423	-3.014500	3.384400	-10.202000	26.406063	0.000194	20.805612
1817.467298	-3.021000	3.384500	-10.224000	26.385975	0.000194	20.811500
1818.471565	-3.024200	3.382300	-10.228000	26.375818	0.000194	20.808879
1819.475992	-3.006100	3.383600	-10.171000	26.395558	0.000194	20.824451
1820.469057	-2.982700	3.384900	-10.095000	26.416236	0.000194	20.820104
1821.469491	-2.997100	3.383100	-10.139000	26.437191	0.000193	20.807026
1822.470051	-2.977300	3.381900	-10.068000	26.415388	0.000193	20.823519
1823.474033	-3.005800	3.383000	-10.168000	26.405333	0.000192	20.831905
1824.471976	-2.978600	3.382000	-10.073000	26.390928	0.000193	20.832125
1825.471464	-2.987500	3.382800	-10.105000	26.424796	0.000192	20.846250
1826.469425	-2.986300	3.381200	-10.096000	26.428570	0.000190	20.824914
1827.471261	-2.984000	3.381100	-10.087000	26.397903	0.000189	20.815902
1828.472050	-2.989400	3.380800	-10.105000	26.368453	0.000190	20.822339
1829.473774	-3.011000	3.380000	-10.177000	26.375974	0.000190	20.809035
1830.474682	-3.006200	3.380400	-10.162000	26.377907	0.000192	20.811927
1831.474208	-2.997100	3.381400	-10.134000	26.303710	0.000190	20.828869
1832.474135	-3.032300	3.379500	-10.246000	26.269986	0.000188	20.835281
1833.474621	-3.015000	3.378800	-10.186000	26.255507	0.000190	20.851076
1834.478257	-3.001000	3.379700	-10.141000	26.237973	0.000187	20.839620
1835.476036	-2.997000	3.378400	-10.124000	26.297346	0.000186	20.824370
1836.476685	-3.003100	3.379000	-10.147000	26.377427	0.000187	20.820927
1837.478009	-2.982600	3.378400	-10.076000	26.380853	0.000186	20.819155
1838.478191	-2.992600	3.377800	-10.108000	26.378765	0.000187	20.822746
1839.479653	-2.973700	3.377800	-10.043000	26.365926	0.000188	20.841610
1840.479321	-3.004300	3.377900	-10.147000	26.376604	0.000185	20.849971
1841.476111	-2.992800	3.377000	-10.106000	26.442623	0.000186	20.831452
1842.477750	-2.997100	3.376700	-10.119000	26.471103	0.000185	20.841111
1843.480678	-2.989100	3.376100	-10.091000	26.444137	0.000186	20.841982
1844.476418	-2.982100	3.376600	-10.068000	26.476610	0.000186	20.833370
1845.482065	-2.999900	3.375700	-10.126000	26.455928	0.000184	20.851462
1846.479348	-2.995800	3.375200	-10.110000	26.387147	0.000185	20.843972
1847.476197	-2.991100	3.376100	-10.096000	26.333487	0.000183	20.821338
1848.479586	-3.014900	3.373900	-10.171000	26.373663	0.000184	20.817619
1849.482584	-3.008200	3.374200	-10.149000	26.420714	0.000184	20.839777
1850.477441	-2.991700	3.374600	-10.095000	26.477921	0.000187	20.845119
1851.480655	-3.019200	3.372600	-10.181000	26.533507	0.000184	20.842671
1852.481178	-3.018200	3.373000	-10.179000	26.519254	0.000183	20.839250
1853.478598	-3.002200	3.372700	-10.124000	26.492863	0.000182	20.841646
1854.481411	-2.993400	3.373000	-10.095000	26.457702	0.000182	20.850400
1855.483130	-2.980200	3.372700	-10.050000	26.480321	0.000181	20.859384
1856.480727	-3.007900	3.372500	-10.143000	26.464976	0.000181	20.844435
1857.482231	-3.011800	3.372200	-10.156000	26.429789	0.000181	20.836570
1858.485586	-3.009200	3.370400	-10.142000	26.397759	0.000181	20.868861
1859.484275	-2.980300	3.371700	-10.048000	26.441183	0.000177	20.858452
1860.485695	-3.004500	3.369000	-10.122000	26.401629	0.000179	20.846673
1861.483709	-3.007700	3.369600	-10.134000	26.415187	0.000181	20.851291
1862.482342	-3.003800	3.369000	-10.119000	26.369996	0.000179	20.844278
1863.482740	-2.989500	3.369500	-10.072000	26.382108	0.000178	20.834641
1864.485037	-2.990900	3.370200	-10.079000	26.360727	0.000178	20.845394
1865.482307	-2.977500	3.370200	-10.034000	26.365270	0.000178	20.846166
1866.483900	-3.002400	3.368800	-10.114000	26.441100	0.000178	20.849361
1867.482614	-3.004200	3.368100	-10.117000	26.496241	0.000176	20.873963
1868.482981	-2.999000	3.367700	-10.099000	26.519652	0.000175	20.865253
1869.493894	-3.016300	3.367100	-10.155000	26.560613	0.000176	20.864701
1870.486279	-2.991700	3.368800	-10.077000	26.595987	0.000175	20.855216
1871.486907	-3.006300	3.365900	-10.118000	26.579577	0.000176	20.873332
1872.484416	-3.004800	3.367100	-10.116000	26.550902	0.000175	20.872009
1873.486313	-3.006100	3.366000	-10.118000	26.619642	0.000175	20.859555
1874.485408	-3.000300	3.366000	-10.098000	26.629248	0.000174	20.875849
1875.487086	-3.003400	3.365200	-10.107000	26.630712	0.000175	20.858356
1876.486577	-2.984000	3.366200	-10.044000	26.599404	0.000173	20.870504
1877.490303	-3.020700	3.364300	-10.161000	26.615613	0.000172	20.859299
1878.490862	-3.000200	3.365300	-10.096000	26.592353	0.000170	20.869580
1879.488006	-3.016900	3.363500	-10.146000	26.598183	0.000173	20.874018
1880.488368	-3.003600	3.363800	-10.103000	26.605132	0.000173	20.872943
1881.492141	-2.990700	3.363200	-10.057000	26.563375	0.000174	20.875063
1882.490726	-2.980100	3.364500	-10.025000	26.543314	0.000172	20.880028
1883.488691	-2.984000	3.363700	-10.036000	26.483280	0.000171	20.865203
1884.490157	-2.971300	3.363300	-9.992300	26.500114	0.000171	20.860313
1885.490145	-3.008100	3.362000	-10.112000	26.460088	0.000169	20.875083
1886.490916	-2.985900	3.362800	-10.040000	26.463711	0.000171	20.848380
1887.492261	-2.970700	3.363800	-9.991800	26.426986	0.000171	20.861727
1888.488361	-3.014900	3.361900	-10.134000	26.465321	0.000171	20.878446
1889.491796	-2.993600	3.361600	-10.062000	26.452510	0.000171	20.873630
1890.494422	-3.006000	3.359800	-10.098000	26.487964	0.000170	20.887454
1891.491897	-2.993000	3.360500	-10.056000	26.527611	0.000170	20.883209
1892.499708	-3.001900	3.360300	-10.086000	26.570705	0.000171	20.881483
1893.493845	-2.994800	3.360400	-10.063000	26.591534	0.000170	20.903841
1894.497884	-3.029600	3.358100	-10.173000	26.610968	0.000168	20.871698
1895.494482	-3.001600	3.360300	-10.085000	26.640829	0.000169	20.897446
1896.494438	-3.007800	3.359900	-10.104000	26.656865	0.000169	20.898869
1897.494352	-3.000500	3.359500	-10.079000	26.659942	0.000168	20.887264
1898.498117	-3.010300	3.358900	-10.111000	26.611281	0.000166	20.900934
1899.496282	-2.986500	3.358700	-10.031000	26.564686	0.000167	20.905777
1900.498580	-2.992300	3.356700	-10.044000	26.554926	0.000168	20.904975
1901.497481	-2.996800	3.358000	-10.061000	26.545317	0.000167	20.912384
1902.495669	-3.020800	3.356800	-10.139000	26.555393	0.000166	20.898806
1903.496622	-2.996800	3.356000	-10.056000	26.578654	0.000166	20.913652
1904.498665	-2.986600	3.358300	-10.029000	26.619388	0.000166	20.894385
1905.497383	-2.989000	3.356100	-10.031000	26.682889	0.000163	20.911753
1906.496402	-2.994400	3.356600	-10.050000	26.698502	0.000162	20.906113
1907.500385	-3.004400	3.356000	-10.082000	26.656005	0.000164	20.883780
1908.496829	-3.004300	3.355300	-10.080000	26.607942	0.000164	20.887146
1909.497689	-2.979700	3.357200	-10.002000	26.611394	0.000161	20.901047
1910.498856	-2.994600	3.355000	-10.046000	26.566160	0.000161	20.920058
1911.499269	-2.992100	3.354300	-10.035000	26.547563	0.000160	20.910849
1912.499701	-2.988600	3.354100	-10.023000	26.500688	0.000162	20.909725
1913.498192	-3.017900	3.353100	-10.118000	26.534849	0.000162	20.930784
1914.501742	-3.018300	3.352800	-10.118000	26.575267	0.000161	20.923523
1915.501856	-3.026800	3.353100	-10.149000	26.622410	0.000159	20.901690
1916.499464	-2.998800	3.353100	-10.054000	26.595574	0.000161	20.900317
1917.498630	-3.008000	3.353300	-10.086000	26.561487	0.000159	20.902561
1918.504493	-3.014300	3.352300	-10.104000	26.609053	0.000159	20.896323
1919.501362	-3.020000	3.351800	-10.122000	26.574447	0.000158	20.924596
1920.498791	-3.001500	3.352200	-10.060000	26.615530	0.000159	20.906627
1921.498940	-3.001400	3.351700	-10.058000	26.559156	0.000156	20.921078
1922.500371	-3.016600	3.351200	-10.109000	26.529757	0.000159	20.921872
1923.498029	-3.021400	3.349800	-10.120000	26.559800	0.000157	20.901340
1924.499980	-3.025100	3.349500	-10.132000	26.575860	0.000157	20.928860
1925.498104	-3.027100	3.348800	-10.137000	26.625413	0.000156	20.932206
1926.505131	-3.002500	3.349200	-10.055000	26.648028	0.000157	20.910847
1927.506879	-2.981400	3.350300	-9.987500	26.669077	0.000157	20.911618
1928.501457	-2.984000	3.349800	-9.994000	26.608057	0.000157	20.896745
1929.508738	-2.974700	3.348600	-9.960000	26.627250	0.000155	20.934527
1930.504425	-2.984800	3.348300	-9.993000	26.686577	0.000157	20.921624
1931.502307	-3.023200	3.347000	-10.116000	26.615135	0.000155	20.928038
1932.504385	-3.007600	3.347300	-10.066000	26.590109	0.000154	20.910469
1933.502726	-2.993400	3.347600	-10.020000	26.568041	0.000155	20.917683
1934.503442	-2.983200	3.345900	-9.980200	26.634347	0.000155	20.919852
1935.503956	-2.977800	3.347800	-9.968300	26.632984	0.000153	20.920378
1936.515067	-3.005200	3.346300	-10.056000	26.629088	0.000154	20.948226
1937.503729	-3.003300	3.345600	-10.046000	26.636012	0.000154	20.910621
1938.504045	-3.011500	3.346700	-10.078000	26.679108	0.000152	20.916486
1939.504733	-2.967900	3.345700	-9.928400	26.717707	0.000152	20.888439
1940.507466	-2.973700	3.346600	-9.950500	26.639042	0.000153	20.929312
1941.505082	-2.962300	3.346000	-9.910900	26.688442	0.000152	20.916861
1942.506103	-2.995000	3.344100	-10.015000	26.687498	0.000153	20.922550
1943.506530	-2.975400	3.344800	-9.951800	26.631594	0.000152	20.914714
1944.510809	-3.001000	3.343700	-10.034000	26.659397	0.000152	20.925593
1945.507681	-2.990300	3.343800	-9.997800	26.733718	0.000151	20.910698
1946.505951	-2.991300	3.344700	-10.004000	26.762163	0.000151	20.897097
1947.507846	-2.981200	3.343500	-9.966700	26.727093	0.000150	20.902142
1948.507532	-3.002300	3.342800	-10.035000	26.715648	0.000149	20.896800
1949.508117	-2.976700	3.342000	-9.947900	26.744244	0.000151	20.910375
1950.507941	-3.001300	3.343000	-10.032000	26.759807	0.000149	20.905634
1951.510624	-3.001200	3.341900	-10.029000	26.758168	0.000149	20.884547
1952.512178	-2.993900	3.342600	-10.007000	26.774153	0.000147	20.919582
1953.513571	-2.996400	3.341700	-10.012000	26.801209	0.000148	20.898897
1954.509757	-3.014300	3.340900	-10.069000	26.780632	0.000146	20.906657
1955.510431	-3.002900	3.341500	-10.033000	26.736029	0.000147	20.901168
1956.517313	-3.018400	3.340300	-10.082000	26.676384	0.000147	20.903318
1957.513551	-2.999500	3.339000	-10.014000	26.644109	0.000145	20.898373
1958.513947	-3.024300	3.339600	-10.098000	26.658783	0.000145	20.892736
1959.515532	-3.010500	3.339400	-10.052000	26.616679	0.000146	20.926271
1960.514412	-2.971100	3.338600	-9.919000	26.603052	0.000146	20.893136
1961.515049	-3.001800	3.338600	-10.021000	26.616657	0.000146	20.892113
1962.516207	-3.022800	3.336500	-10.084000	26.640144	0.000144	20.884431
1963.517930	-2.995100	3.338900	-9.998700	26.689519	0.000145	20.892816
1964.514131	-2.990300	3.337100	-9.978100	26.727647	0.000146	20.887052
1965.515422	-2.991500	3.338100	-9.984100	26.679444	0.000141	20.883637
1966.515889	-3.003600	3.335700	-10.018000	26.667900	0.000142	20.874877
1967.517457	-3.005900	3.336000	-10.027000	26.648263	0.000141	20.910609
1968.513550	-2.971600	3.336400	-9.913400	26.697443	0.000143	20.884662
1969.515674	-2.991100	3.337200	-9.980300	26.663038	0.000141	20.894643
1970.512957	-2.997200	3.335000	-9.994700	26.651820	0.000140	20.892375
1971.515882	-2.998600	3.334900	-9.998900	26.682427	0.000142	20.892325
1972.514446	-3.006100	3.335300	-10.025000	26.669572	0.000141	20.876558
1973.514724	-3.006000	3.333700	-10.020000	26.678161	0.000140	20.873338
1974.521146	-3.011800	3.334800	-10.043000	26.692935	0.000139	20.872070
1975.520241	-3.001200	3.334500	-10.006000	26.652497	0.000138	20.887840
1976.519746	-2.992400	3.333300	-9.973300	26.637406	0.000138	20.893532
1977.518334	-3.011200	3.334700	-10.041000	26.637582	0.000139	20.880433
1978.518728	-2.998500	3.331900	-9.990000	26.697410	0.000138	20.879413
1979.516786	-2.996600	3.333300	-9.987200	26.718905	0.000137	20.863566
1980.518563	-2.980700	3.332600	-9.932200	26.778975	0.000136	20.878440
1981.518796	-3.004800	3.331600	-10.010000	26.774980	0.000136	20.877269
1982.519666	-2.993200	3.331600	-9.971200	26.805461	0.000138	20.879466
1983.522892	-2.993600	3.331800	-9.973700	26.807747	0.000136	20.865644
1984.520791	-3.007000	3.330900	-10.014000	26.796824	0.000137	20.863671
1985.523916	-2.996800	3.330900	-9.980400	26.786177	0.000134	20.889000
1986.522892	-3.006900	3.332500	-10.020000	26.766644	0.000132	20.861777
1987.521664	-3.008800	3.330700	-10.021000	26.674357	0.000135	20.871411
1988.521340	-3.004100	3.330200	-10.004000	26.625702	0.000134	20.842889
1989.523424	-2.994000	3.329800	-9.967900	26.640324	0.000133	20.870388
1990.519893	-3.012500	3.328500	-10.026000	26.637274	0.000134	20.869219
1991.521312	-3.002000	3.329200	-9.993000	26.705638	0.000133	20.877729
1992.519635	-3.005300	3.327700	-10.000000	26.728726	0.000134	20.872966
1993.521585	-2.983500	3.329500	-9.932100	26.771443	0.000132	20.869445
1994.519652	-3.008700	3.328500	-10.013000	26.766230	0.000132	20.863257
1995.518394	-3.003900	3.327800	-9.995700	26.815227	0.000133	20.862733
1996.519985	-3.029800	3.327100	-10.079000	26.822923	0.000131	20.867152
1997.523309	-2.998400	3.327500	-9.976500	26.816918	0.000132	20.854477
1998.522643	-3.010900	3.326000	-10.013000	26.784280	0.000128	20.858171
1999.526254	-3.001300	3.326100	-9.981900	26.755836	0.000132	20.852333
2000.524091	-3.004000	3.325300	-9.988800	26.731287	0.000129	20.860842
2001.523630	-2.989400	3.326200	-9.942100	26.760031	0.000129	20.866981
2002.530205	-3.007800	3.325700	-10.002000	26.844993	0.000130	20.862791
2003.527621	-3.013200	3.324800	-10.018000	26.871626	0.000129	20.863491
2004.528494	-3.030900	3.324800	-10.076000	26.925360	0.000129	20.863469
2005.530540	-3.004600	3.323600	-9.985300	26.887933	0.000129	20.832000
2006.525928	-3.026200	3.323900	-10.057000	26.882499	0.000127	20.845502
2007.525528	-2.996800	3.324900	-9.963300	26.879771	0.000129	20.843707
2008.526043	-2.995400	3.322700	-9.952100	26.816830	0.000127	20.854863
2009.530149	-3.021900	3.323700	-10.044000	26.842397	0.000126	20.830310
2010.534025	-3.015300	3.321400	-10.014000	26.851677	0.000129	20.834900
2011.525113	-2.999600	3.322500	-9.965500	26.816935	0.000127	20.857813
2012.527606	-3.012200	3.321900	-10.005000	26.752921	0.000125	20.827592
2013.532682	-3.010300	3.321200	-9.996400	26.715068	0.000126	20.837425
2014.532251	-2.974300	3.321500	-9.877800	26.724676	0.000127	20.854196
2015.528461	-2.981900	3.322600	-9.906900	26.724602	0.000125	20.841794
2016.529912	-2.988600	3.322100	-9.927700	26.696579	0.000126	20.844915
2017.530480	-2.995000	3.320900	-9.945200	26.744786	0.000124	20.840749
2018.532398	-2.973700	3.319800	-9.871200	26.795919	0.000125	20.833364
2019.529828	-3.012500	3.320000	-10.000000	26.809721	0.000124	20.833017
2020.531142	-3.017100	3.320300	-10.016000	26.830026	0.000125	20.822139
2021.530257	-3.011600	3.318100	-9.991700	26.832930	0.000124	20.849714
2022.530101	-3.006300	3.318100	-9.974100	26.880358	0.000123	20.844771
2023.536119	-2.995000	3.318700	-9.938300	26.859412	0.000123	20.842676
2024.530132	-2.994300	3.318200	-9.934400	26.849237	0.000121	20.850464
2025.529009	-2.988300	3.318200	-9.914700	26.861501	0.000124	20.830079
2026.529242	-3.010100	3.318500	-9.987900	26.857926	0.000122	20.844501
2027.530005	-3.007700	3.316900	-9.974400	26.877260	0.000122	20.840708
2028.534090	-3.000600	3.316900	-9.951100	26.937074	0.000122	20.843007
2029.531425	-3.018700	3.317100	-10.012000	26.963578	0.000119	20.845951
2030.537526	-3.000700	3.316200	-9.949800	26.946532	0.000120	20.844457
2031.530085	-3.011100	3.315000	-9.980100	26.929384	0.000121	20.846654
2032.531310	-2.994400	3.315800	-9.927500	26.930802	0.000118	20.831010
2033.529836	-2.987000	3.316500	-9.905200	26.962394	0.000120	20.836700
2034.536393	-2.996200	3.315200	-9.932000	26.948448	0.000118	20.823151
2035.533002	-2.998200	3.314800	-9.936800	26.865682	0.000117	20.843291
2036.533745	-3.021100	3.312600	-10.007000	26.852034	0.000117	20.840000
2037.546258	-3.018200	3.314400	-10.003000	26.855014	0.000117	20.850582
2038.535557	-3.000500	3.313800	-9.941800	26.904081	0.000117	20.825478
2039.533926	-3.010100	3.312400	-9.969700	26.977096	0.000117	20.847691
2040.536079	-3.008600	3.311700	-9.962200	26.975509	0.000114	20.828078
2041.539200	-2.997100	3.313800	-9.931000	26.993056	0.000115	20.821068
2042.537011	-3.008900	3.312000	-9.964900	27.041743	0.000116	20.823088
2043.543734	-2.995800	3.311100	-9.918200	27.068275	0.000116	20.835545
2044.536890	-3.023700	3.311300	-10.012000	27.081550	0.000116	20.819973
2045.538141	-3.010100	3.311700	-9.967400	27.046017	0.000114	20.834498
2046.538147	-3.030000	3.310200	-10.029000	26.956363	0.000115	20.812144
2047.539388	-3.010000	3.310800	-9.964000	27.001179	0.000113	20.812166
2048.537905	-3.005500	3.309200	-9.944700	27.048629	0.000114	20.809151
2049.536734	-3.006000	3.310800	-9.951800	27.035107	0.000112	20.822104
2050.536483	-2.992400	3.310000	-9.903600	26.947059	0.000111	20.820806
2051.538641	-3.004100	3.309000	-9.940100	26.952745	0.000112	20.808506
2052.540036	-2.984400	3.309300	-9.876100	26.992876	0.000110	20.824205
2053.538603	-3.001400	3.308400	-9.928700	27.016229	0.000113	20.815921
2054.541105	-2.986700	3.308200	-9.879700	26.990672	0.000110	20.817722
2055.538069	-2.986000	3.308000	-9.876900	26.934262	0.000110	20.829275
2056.538423	-2.981600	3.309000	-9.865200	26.914707	0.000112	20.829526
2057.538281	-2.968300	3.308400	-9.818900	26.919401	0.000109	20.811012
2058.540214	-2.983500	3.307000	-9.865700	26.921114	0.000109	20.815580
2059.541138	-3.001800	3.306100	-9.923100	26.887438	0.000107	20.784087
2060.542064	-2.978200	3.307000	-9.847800	26.864978	0.000109	20.796118
2061.540581	-3.020700	3.304800	-9.981600	26.870887	0.000109	20.806326
2062.541935	-2.989500	3.305500	-9.880500	26.907618	0.000109	20.807225
2063.541718	-2.982900	3.306800	-9.863000	26.926628	0.000107	20.806425
2064.539613	-2.996600	3.303900	-9.899600	26.935019	0.000106	20.812967
2065.542612	-3.008500	3.304000	-9.939400	26.938246	0.000106	20.824746
2066.539302	-3.004800	3.303500	-9.925400	26.902705	0.000107	20.816509
2067.541433	-3.004300	3.304300	-9.926400	26.908419	0.000105	20.810875
2068.542046	-3.004200	3.304100	-9.925100	26.926760	0.000105	20.796126
2069.540194	-3.015200	3.303000	-9.959000	26.898742	0.000106	20.801618
2070.541157	-3.021000	3.301600	-9.973600	26.948502	0.000104	20.798550
2071.539924	-2.999400	3.302300	-9.904400	26.998559	0.000101	20.805739
2072.549164	-3.017000	3.301100	-9.958200	26.984590	0.000103	20.797381
2073.542001	-2.999900	3.301500	-9.903900	27.002880	0.000103	20.799178
2074.545613	-3.014500	3.300700	-9.949300	27.025887	0.000103	20.814729
2075.542255	-3.020000	3.299900	-9.963600	27.044176	9.974981E-5	20.814630
2076.545028	-3.005500	3.300200	-9.917700	27.092889	0.000101	20.791548
2077.540428	-3.023200	3.300100	-9.976300	27.138622	0.000101	20.785861
2078.542411	-3.010600	3.299600	-9.933400	27.117533	9.932078E-5	20.794997
2079.541086	-3.010000	3.300000	-9.932600	27.153166	0.000101	20.801437
2080.548348	-3.006500	3.300200	-9.920900	27.176891	0.000101	20.783574
2081.543817	-2.978700	3.299800	-9.828600	27.168528	9.737364E-5	20.785120
2082.542415	-3.014400	3.299700	-9.945600	27.188827	0.000101	20.809804
2083.546849	-2.996300	3.300100	-9.887300	27.157815	9.974981E-5	20.802794
2084.544984	-3.003800	3.298400	-9.906700	27.157568	9.823170E-5	20.790692
2085.541187	-3.005600	3.297700	-9.910600	27.105047	9.859473E-5	20.782439
2086.546249	-3.009000	3.298100	-9.922800	27.059610	9.598754E-5	20.804073
2087.546038	-2.985200	3.298700	-9.846300	27.092964	9.836371E-5	20.785460
2088.545685	-2.986600	3.296000	-9.843400	27.102766	9.664759E-5	20.789154
2089.542346	-3.009200	3.295900	-9.917100	27.113412	9.879274E-5	20.783266
2090.543272	-2.981300	3.296300	-9.826100	27.115948	9.651558E-5	20.782971
2091.547116	-3.003100	3.295300	-9.895200	27.058134	9.730764E-5	20.794053
2092.546855	-3.028200	3.293300	-9.971600	27.034039	9.559151E-5	20.788314
2093.548914	-3.007700	3.294300	-9.907000	27.039253	9.463444E-5	20.789764
2094.547302	-2.995000	3.296000	-9.870400	27.049132	9.476645E-5	20.780733
2095.546488	-3.002500	3.293200	-9.886500	27.126628	9.437042E-5	20.798928
2096.548256	-3.032800	3.292400	-9.984700	27.180546	9.394139E-5	20.786302
2097.547893	-3.019400	3.292300	-9.940100	27.169929	9.443643E-5	20.783209
2098.546581	-3.011200	3.293700	-9.917000	27.160623	9.255529E-5	20.776221
2099.546548	-2.986300	3.294100	-9.836000	27.188046	9.503047E-5	20.775827
2100.548689	-3.038800	3.291100	-9.999600	27.160826	9.255529E-5	20.778796
2101.547173	-3.012200	3.292100	-9.916100	27.145020	9.291831E-5	20.781864
2102.547966	-3.017100	3.291000	-9.928500	27.134574	9.113618E-5	20.775151
2103.548355	-3.008600	3.290600	-9.899000	27.086067	9.067415E-5	20.779946
2104.547346	-2.988500	3.291200	-9.834500	27.081848	9.100417E-5	20.773806
2105.550899	-2.987800	3.291300	-9.833000	27.104380	9.314933E-5	20.785561
2106.551196	-2.977600	3.291600	-9.799300	27.180925	9.222526E-5	20.773881
2107.554019	-3.015300	3.289300	-9.916900	27.226652	9.133420E-5	20.767242
2108.551012	-3.005300	3.290200	-9.887300	27.197055	8.786895E-5	20.770664
2109.551953	-2.995500	3.289100	-9.851800	27.163535	8.866100E-5	20.752596
2110.550156	-2.988500	3.290000	-9.831800	27.155517	8.813297E-5	20.784362
2111.552352	-2.991600	3.289400	-9.839700	27.199261	8.895803E-5	20.776676
2112.556256	-2.987000	3.287500	-9.819200	27.188717	8.796795E-5	20.766545
2113.554234	-3.006700	3.286800	-9.881600	27.171225	8.876001E-5	20.760805
2114.555096	-2.995600	3.287100	-9.845900	27.235189	8.988209E-5	20.763976
2115.555833	-3.007000	3.287500	-9.883900	27.263026	8.961807E-5	20.767320
2116.555963	-3.047800	3.285600	-10.012000	27.282377	8.800096E-5	20.768293
2117.557897	-3.015600	3.284500	-9.904000	27.338097	8.704389E-5	20.758435
2118.556220	-3.014300	3.285400	-9.902000	27.368044	8.783594E-5	20.769120
2119.557626	-2.996200	3.286100	-9.844800	27.308604	8.717590E-5	20.750578
2120.553019	-2.994900	3.283900	-9.832600	27.245341	8.704389E-5	20.760436
2121.555106	-3.001000	3.283600	-9.852400	27.273153	8.691188E-5	20.767075
2122.560214	-2.987100	3.284300	-9.808700	27.246210	8.479972E-5	20.769371
2123.554136	-3.005800	3.284000	-9.870200	27.276998	8.592180E-5	20.760985
2124.558602	-2.985100	3.284000	-9.801600	27.260774	8.628483E-5	20.767425
2125.558525	-2.986500	3.283700	-9.805100	27.224424	8.559178E-5	20.774485
2126.557258	-2.987000	3.283500	-9.806800	27.201800	8.509674E-5	20.775436
2127.555893	-3.000900	3.282100	-9.848300	27.196589	8.585580E-5	20.760238
2128.554023	-3.012300	3.281600	-9.884600	27.205173	8.136747E-5	20.745638
2129.560789	-3.003700	3.281000	-9.853900	27.170264	8.341362E-5	20.754622
2130.557486	-2.986700	3.281700	-9.800500	27.190510	8.479972E-5	20.771668
2131.554011	-2.985400	3.282900	-9.800500	27.177782	8.463471E-5	20.753175
2132.560456	-3.018300	3.280100	-9.899500	27.161578	8.186251E-5	20.776233
2133.557192	-2.998700	3.279400	-9.833000	27.128430	7.922231E-5	20.738625
2134.557794	-2.972300	3.279700	-9.747700	27.187756	8.354563E-5	20.764155
2135.558222	-3.009000	3.279200	-9.866000	27.221845	8.291858E-5	20.760037
2136.557034	-2.990200	3.278900	-9.804200	27.244971	8.060842E-5	20.763858
2137.556002	-3.003300	3.278900	-9.846700	27.254871	8.116946E-5	20.759590
2138.558225	-2.989500	3.278500	-9.800200	27.267050	7.958534E-5	20.755245
2139.558371	-3.009100	3.277900	-9.862300	27.290424	8.087243E-5	20.753628
2140.559032	-3.005800	3.277300	-9.850500	27.337360	8.001437E-5	20.770022
2141.557398	-2.989800	3.277600	-9.797400	27.374424	8.001437E-5	20.765581
2142.560405	-2.994500	3.278000	-9.814600	27.391441	8.248955E-5	20.760889
2143.557517	-3.010200	3.275900	-9.859800	27.400298	7.958534E-5	20.749884
2144.558423	-3.018200	3.275400	-9.884700	27.391589	7.856227E-5	20.742545
2145.561450	-2.992500	3.276300	-9.803500	27.385933	7.717616E-5	20.764357
2146.556959	-2.996600	3.275900	-9.815700	27.322178	7.697815E-5	20.735782
2147.558501	-2.984100	3.274500	-9.770000	27.340660	7.912331E-5	20.748684
2148.558934	-2.992900	3.274000	-9.797800	27.358694	7.938733E-5	20.756395
2149.556943	-3.012700	3.275000	-9.865600	27.329443	7.648311E-5	20.736452
2150.558972	-2.986000	3.275900	-9.781100	27.346066	7.575706E-5	20.756020
2151.558304	-2.966500	3.274100	-9.711800	27.309895	7.546004E-5	20.767050
2152.565947	-2.988400	3.272900	-9.779800	27.292529	7.506401E-5	20.757167
2153.558478	-3.016900	3.272900	-9.873100	27.333934	7.694515E-5	20.757567
2154.560879	-2.972900	3.274000	-9.731800	27.398456	7.384292E-5	20.758462
2155.560566	-2.996600	3.271300	-9.801800	27.392180	7.245682E-5	20.738398
2156.560678	-3.006100	3.272700	-9.836900	27.440800	7.489900E-5	20.765026
2157.558691	-3.017500	3.270200	-9.866700	27.467390	7.437096E-5	20.753371
2158.560641	-3.008600	3.270400	-9.838200	27.456279	7.470098E-5	20.756891
2159.561901	-3.019700	3.269600	-9.872000	27.459603	7.377692E-5	20.753597
2160.562651	-3.021800	3.270300	-9.879400	27.484775	7.278684E-5	20.749525
2161.559484	-2.998200	3.268300	-9.798600	27.485046	7.394193E-5	20.749323
2162.562435	-2.993700	3.269200	-9.786200	27.424002	7.182977E-5	20.758559
2163.562363	-2.997200	3.268300	-9.795400	27.347151	7.001464E-5	20.759956
2164.561793	-2.979800	3.269000	-9.740700	27.308173	7.192878E-5	20.745877
2165.560391	-2.994300	3.269900	-9.789700	27.265352	7.037767E-5	20.748322
2166.562548	-3.018800	3.267100	-9.861100	27.320999	7.077370E-5	20.757830
2167.562464	-3.025900	3.267300	-9.885000	27.354542	7.044367E-5	20.761227
2168.560805	-3.022400	3.266500	-9.871300	27.361017	7.021265E-5	20.763948
2169.564466	-3.001500	3.266100	-9.802200	27.381479	7.024566E-5	20.750867
2170.566201	-2.999500	3.267100	-9.798600	27.359600	6.902457E-5	20.741185
2171.565549	-3.020800	3.266000	-9.864600	27.368284	6.975062E-5	20.763672
2172.562909	-2.984300	3.266600	-9.747100	27.420620	6.697842E-5	20.755156
2173.566464	-3.013400	3.264500	-9.836700	27.402587	6.767147E-5	20.731323
2174.566812	-3.010000	3.264700	-9.825700	27.393432	6.948660E-5	20.750563
2175.569524	-3.010900	3.263800	-9.825600	27.378152	6.720943E-5	20.772176
2176.565994	-3.021800	3.263200	-9.859900	27.339453	6.856253E-5	20.756479
2177.568987	-2.998400	3.263000	-9.782900	27.352204	6.800149E-5	20.749866
2178.566749	-2.983400	3.263600	-9.736000	27.393854	6.516328E-5	20.767584
2179.566618	-2.973800	3.264000	-9.705000	27.432252	6.595534E-5	20.761169
2180.565830	-2.984100	3.262800	-9.735900	27.454009	6.555931E-5	20.752237
2181.570472	-2.999500	3.261700	-9.782400	27.407248	6.664839E-5	20.781059
2182.574939	-3.018500	3.262800	-9.848100	27.423399	6.503128E-5	20.777866
2183.570089	-2.993000	3.260600	-9.757900	27.417223	6.483326E-5	20.765963
2184.569379	-3.007300	3.261600	-9.808100	27.363639	6.476726E-5	20.754732
2185.573502	-2.994600	3.261600	-9.766200	27.391546	6.631837E-5	20.755779
2186.571282	-2.989700	3.259100	-9.743000	27.468071	6.592234E-5	20.756427
2187.571403	-3.003600	3.259600	-9.789700	27.454527	6.377718E-5	20.759870
2188.571669	-2.997000	3.258400	-9.765000	27.483673	6.453624E-5	20.754580
2189.573867	-2.999100	3.257800	-9.769300	27.519441	6.549331E-5	20.765910
2190.574385	-3.022500	3.257900	-9.845500	27.479980	6.318314E-5	20.800177
2191.573568	-3.003900	3.258500	-9.787600	27.419305	6.262210E-5	20.775644
2192.578998	-3.009000	3.255700	-9.795200	27.398373	6.278711E-5	20.773078
2193.570677	-2.982800	3.257600	-9.715600	27.438955	6.262210E-5	20.745152
2194.572905	-3.022600	3.256100	-9.840900	27.430844	5.971789E-5	20.765442
2195.578208	-3.004000	3.255800	-9.779600	27.470286	6.136801E-5	20.762922
2196.571532	-2.996400	3.256100	-9.755600	27.523171	5.849680E-5	20.753541
2197.573254	-2.982200	3.256100	-9.709900	27.573047	5.984990E-5	20.768163
2198.578207	-2.973100	3.255000	-9.676700	27.578184	5.876082E-5	20.786134
2199.578639	-3.015200	3.256200	-9.817100	27.632352	5.928885E-5	20.758134
2200.574072	-2.993500	3.254100	-9.741000	27.668635	6.054295E-5	20.767617
2201.573385	-3.004200	3.254500	-9.776200	27.592522	5.961888E-5	20.776379
2202.579694	-3.025400	3.253300	-9.840900	27.620032	5.998191E-5	20.776558
2203.577564	-3.013900	3.251800	-9.800100	27.643488	6.097198E-5	20.760805
2204.578790	-3.020200	3.250700	-9.816200	27.616185	5.833178E-5	20.773162
2205.577283	-2.996600	3.251200	-9.742000	27.602125	5.935486E-5	20.775136
2206.575019	-3.028800	3.251300	-9.846400	27.570577	5.720970E-5	20.775635
2207.574130	-3.030500	3.250800	-9.850600	27.513135	5.744072E-5	20.775687
2208.580366	-2.980600	3.252000	-9.692200	27.531317	5.796876E-5	20.770747
2209.578290	-3.009600	3.250200	-9.781300	27.537148	5.612062E-5	20.766182
2210.578200	-2.979200	3.250400	-9.682800	27.508425	5.506455E-5	20.782803
2211.581772	-2.996600	3.248500	-9.733800	27.495701	5.714370E-5	20.767629
2212.578692	-2.993900	3.249100	-9.726800	27.533880	5.707769E-5	20.773800
2213.583838	-2.970900	3.249500	-9.653400	27.564234	5.562559E-5	20.766408
2214.578122	-2.960900	3.250200	-9.622400	27.646626	5.575760E-5	20.764437
2215.579467	-3.002500	3.249500	-9.755800	27.667288	5.684668E-5	20.774797
2216.583787	-3.008600	3.247900	-9.771200	27.658634	5.546057E-5	20.767037
2217.586254	-2.991300	3.247400	-9.712400	27.593581	5.605462E-5	20.775073
2218.582777	-2.987400	3.248100	-9.702200	27.565081	5.338142E-5	20.780537
2219.577935	-3.002300	3.247300	-9.748600	27.519923	5.493254E-5	20.758335
2220.580747	-2.962800	3.248200	-9.623100	27.530883	5.387646E-5	20.762249
2221.590214	-3.027400	3.244900	-9.822500	27.538324	5.575760E-5	20.766417
2222.585927	-3.024700	3.243900	-9.811300	27.469912	5.470152E-5	20.771082
2223.584899	-3.033800	3.242300	-9.835500	27.456050	5.288639E-5	20.777050
2224.580515	-3.006800	3.243300	-9.750200	27.534930	5.377745E-5	20.763950
2225.586134	-2.977800	3.244600	-9.661000	27.566205	5.222634E-5	20.788306
2226.586109	-2.999100	3.243800	-9.727200	27.609686	5.341442E-5	20.770415
2227.579182	-3.007300	3.242500	-9.750700	27.562214	5.433849E-5	20.787609
2228.582897	-3.002000	3.241600	-9.730700	27.590960	5.381045E-5	20.774332
2229.582327	-2.992200	3.242300	-9.700600	27.565611	5.344743E-5	20.773009
2230.587677	-3.012000	3.241300	-9.762200	27.556734	5.245735E-5	20.792053
2231.583348	-3.012400	3.240600	-9.761200	27.571441	5.268837E-5	20.762280
2232.583341	-2.994800	3.241000	-9.705700	27.628061	5.258936E-5	20.769464
2233.582207	-2.995400	3.240000	-9.704100	27.685801	5.027919E-5	20.781572
2234.581468	-2.982400	3.239900	-9.661700	27.665613	5.011418E-5	20.793974
2235.585320	-3.008500	3.239400	-9.744600	27.565965	5.212733E-5	20.768624
2236.581176	-2.999600	3.239700	-9.716400	27.502834	5.140128E-5	20.785238
2237.586711	-3.010500	3.239300	-9.750700	27.572532	5.291939E-5	20.786611
2238.584474	-2.995700	3.237800	-9.698300	27.598974	5.041120E-5	20.779077
2239.585298	-3.000000	3.236700	-9.708800	27.646044	5.262237E-5	20.765748
2240.585019	-3.008500	3.237600	-9.739200	27.625532	5.159929E-5	20.776877
2241.587808	-3.010600	3.237100	-9.744700	27.633694	5.196232E-5	20.778925
2242.586092	-3.006400	3.237700	-9.732400	27.634214	5.212733E-5	20.767121
2243.585281	-2.994000	3.236300	-9.689300	27.646638	5.087324E-5	20.774407
2244.586094	-2.990000	3.236200	-9.675700	27.745065	4.928912E-5	20.782889
2245.586504	-2.988000	3.235500	-9.667100	27.809118	4.783702E-5	20.787606
2246.585324	-3.015700	3.233800	-9.751800	27.860717	4.783702E-5	20.788328
2247.585082	-3.001700	3.234200	-9.707300	27.862303	4.912411E-5	20.791821
2248.584669	-2.995600	3.233600	-9.685900	27.899524	4.787002E-5	20.802729
2249.588100	-2.987800	3.233600	-9.661000	27.892482	4.780401E-5	20.814608
2250.586986	-2.992000	3.234000	-9.675300	27.884221	4.684694E-5	20.801077
2251.587645	-2.988500	3.233500	-9.662900	27.826396	4.562585E-5	20.800727
2252.589462	-3.005500	3.234300	-9.719600	27.839461	4.641791E-5	20.783057
2253.588829	-3.025900	3.230300	-9.774100	27.814491	4.701195E-5	20.786850
2254.591107	-3.027600	3.232700	-9.786500	27.821682	4.612089E-5	20.802147
2255.595158	-2.993000	3.230700	-9.668500	27.869019	4.724297E-5	20.793364
2256.591684	-2.989100	3.232900	-9.662500	27.863366	4.582387E-5	20.803321
2257.594465	-3.000200	3.230100	-9.689800	27.831006	4.595588E-5	20.816746
2258.592337	-3.008700	3.229800	-9.716500	27.825248	4.608789E-5	20.800520
2259.594373	-2.995300	3.230800	-9.675800	27.819178	4.608789E-5	20.796308
2260.589967	-3.005000	3.228600	-9.700700	27.805811	4.493280E-5	20.790442
2261.600832	-3.003700	3.229100	-9.698600	27.783664	4.390973E-5	20.819836
2262.590801	-3.009000	3.228200	-9.712600	27.812478	4.529583E-5	20.816117
2263.591947	-3.017600	3.227500	-9.738500	27.800773	4.460278E-5	20.793432
2264.598052	-2.999200	3.227400	-9.678500	27.848432	4.466878E-5	20.815792
2265.591266	-2.986500	3.226900	-9.636200	27.876597	4.387672E-5	20.809052
2266.593626	-3.020900	3.226100	-9.744900	27.876920	4.166556E-5	20.804635
2267.593512	-2.999600	3.225800	-9.674700	27.845183	4.489980E-5	20.817264
2268.590422	-2.991100	3.225000	-9.645300	27.788098	4.443777E-5	20.806755
2269.594316	-2.997100	3.224400	-9.663000	27.805106	4.301866E-5	20.812492
2270.591722	-3.014100	3.223100	-9.713500	27.786682	4.288665E-5	20.799166
2271.595674	-3.003700	3.225200	-9.686200	27.798384	4.216060E-5	20.802408
2272.594339	-2.986800	3.224400	-9.629700	27.716127	4.120353E-5	20.819201
2273.593443	-2.996300	3.223800	-9.658400	27.738198	4.202859E-5	20.804902
2274.593372	-2.997000	3.222600	-9.657200	27.776612	4.166556E-5	20.804679
2275.593555	-2.982600	3.222000	-9.608900	27.833196	4.064249E-5	20.824166
2276.593778	-2.998600	3.220700	-9.657200	27.812614	4.004844E-5	20.827159
2277.594994	-2.993600	3.220500	-9.639900	27.737921	3.991643E-5	20.811262
2278.595976	-3.007200	3.220000	-9.682200	27.716346	3.978442E-5	20.793817
2279.594602	-2.991400	3.222900	-9.639900	27.669251	4.084050E-5	20.805222
2280.596082	-3.007000	3.220500	-9.683200	27.673889	4.169856E-5	20.816527
2281.595158	-2.999800	3.219800	-9.657600	27.761772	3.955341E-5	20.800651
2282.600401	-3.008500	3.217900	-9.680500	27.746920	3.843133E-5	20.836438
2283.594620	-2.963400	3.219600	-9.540500	27.802138	4.097251E-5	20.818988
2284.600261	-2.984200	3.217100	-9.599000	27.817664	3.919038E-5	20.825604
2285.597993	-2.978500	3.218400	-9.585400	27.755568	3.826631E-5	20.822855
2286.600422	-2.984700	3.217700	-9.602500	27.735828	3.945440E-5	20.809629
2287.602178	-3.020000	3.215600	-9.710200	27.692673	3.975142E-5	20.828316
2288.597225	-3.009900	3.214900	-9.676000	27.758315	3.925639E-5	20.827516
2289.603095	-3.008000	3.216900	-9.675700	27.762805	3.961941E-5	20.837250
2290.600705	-3.005700	3.216100	-9.665800	27.763624	3.975142E-5	20.853247
2291.597637	-2.988400	3.215000	-9.607300	27.793525	3.856333E-5	20.822174
2292.599727	-3.007300	3.214300	-9.665600	27.798554	3.915738E-5	20.838140
2293.598485	-2.993100	3.213900	-9.619200	27.788515	3.790329E-5	20.828511
2294.599334	-3.005400	3.214000	-9.657900	27.810010	3.674820E-5	20.838763
2295.597797	-2.994000	3.214100	-9.622400	27.808821	3.595614E-5	20.828558
2296.602175	-3.023600	3.213000	-9.714100	27.830247	3.549411E-5	20.813612
2297.597774	-2.990200	3.211700	-9.602800	27.856901	3.615416E-5	20.844703
2298.598836	-3.028400	3.211800	-9.726300	27.845120	3.509808E-5	20.831425
2299.599900	-3.024100	3.211400	-9.711200	27.822903	3.585714E-5	20.808591
2300.600018	-3.016300	3.210300	-9.682600	27.831285	3.480106E-5	20.825561
2301.598797	-3.015600	3.209400	-9.677800	27.881147	3.526309E-5	20.843501
2302.599676	-3.012300	3.209300	-9.666800	27.919530	3.457004E-5	20.845150
2303.600786	-2.975900	3.210600	-9.553300	27.942909	3.427302E-5	20.827430
2304.600308	-3.000300	3.209100	-9.627800	27.904283	3.457004E-5	20.845450
2305.601410	-2.999200	3.207600	-9.618700	27.968748	3.424002E-5	20.837790
2306.599658	-2.978300	3.208800	-9.555100	27.994853	3.523009E-5	20.860272
2307.599618	-2.994300	3.208500	-9.607000	27.966020	3.305193E-5	20.853061
2308.601964	-2.982100	3.208300	-9.566400	27.949212	3.232588E-5	20.847998
2309.602090	-2.984900	3.205900	-9.568200	27.927936	3.196285E-5	20.850765
2310.600965	-2.991400	3.205800	-9.589000	27.922089	3.357997E-5	20.840139
2311.602570	-3.000800	3.207000	-9.622900	27.976214	2.994970E-5	20.850520
2312.604549	-3.014900	3.205900	-9.664800	28.027411	3.090677E-5	20.845156
2313.601854	-3.011200	3.204700	-9.649000	27.942198	3.275491E-5	20.849947
2314.601111	-3.017900	3.203400	-9.666900	27.956306	3.334895E-5	20.857508
2315.605217	-3.012800	3.202400	-9.647800	27.898860	3.212786E-5	20.853743
2316.603862	-3.003000	3.201900	-9.614500	27.946862	3.120379E-5	20.842788
2317.602633	-2.983900	3.202300	-9.554900	27.931738	3.143481E-5	20.841790
2318.608070	-3.004700	3.201500	-9.618200	27.935162	2.994970E-5	20.846184
2319.601517	-2.983800	3.203100	-9.556500	27.937493	2.928965E-5	20.856590
2320.602009	-2.993400	3.200900	-9.580700	27.999924	2.892663E-5	20.848781
2321.609539	-3.010600	3.201000	-9.635700	28.028510	2.955367E-5	20.863330
2322.605499	-3.012100	3.201100	-9.640800	27.968341	2.849760E-5	20.862509
2323.602689	-2.983400	3.200400	-9.547500	27.939429	2.787055E-5	20.837204
2324.606800	-3.025800	3.199100	-9.678600	27.902783	2.981769E-5	20.851053
2325.603080	-3.005600	3.197500	-9.610000	27.864407	3.100578E-5	20.846568
2326.603225	-2.981500	3.200000	-9.540000	27.848808	2.843159E-5	20.842248
2327.608336	-2.996000	3.200000	-9.586400	27.844768	2.948767E-5	20.844346
2328.605171	-3.016900	3.195400	-9.638400	27.890491	2.816757E-5	20.863810
2329.604850	-2.998300	3.196700	-9.583600	28.010668	3.021372E-5	20.855803
2330.604965	-3.000200	3.195400	-9.585100	28.037967	2.836559E-5	20.853885
2331.605329	-3.020600	3.195600	-9.651800	28.074634	2.585740E-5	20.856181
2332.609331	-3.005000	3.194900	-9.598900	28.082518	2.707849E-5	20.850367
2333.612298	-2.988300	3.194200	-9.544900	28.058077	2.717750E-5	20.861325
2334.607002	-2.997700	3.193500	-9.572500	28.053813	2.711149E-5	20.849447
2335.611382	-2.991800	3.192800	-9.551700	28.046504	2.496634E-5	20.849202
2336.610513	-2.990200	3.193200	-9.547400	27.969374	2.450430E-5	20.853593
2337.613940	-2.989000	3.193000	-9.543300	27.952046	2.476832E-5	20.873134
2338.612130	-3.013800	3.191500	-9.617200	28.014205	2.450430E-5	20.867423
2339.614945	-3.015900	3.192400	-9.626800	28.061882	2.516435E-5	20.863732
2340.614483	-3.016000	3.189500	-9.617700	28.073337	2.321721E-5	20.856298
2341.614308	-2.997300	3.189700	-9.559900	28.152790	2.721050E-5	20.874640
2342.618320	-3.000700	3.189500	-9.569900	28.160873	2.457031E-5	20.852434
2343.616159	-3.006300	3.188100	-9.583800	28.182569	2.295319E-5	20.869059
2344.614241	-2.990700	3.189500	-9.537800	28.152826	2.523036E-5	20.870884
2345.616806	-2.998200	3.187800	-9.556700	28.138524	2.476832E-5	20.872133
2346.612358	-3.007200	3.188100	-9.586600	28.094450	2.252416E-5	20.875179
2347.615017	-3.018300	3.185200	-9.612200	28.023749	2.562638E-5	20.865176
2348.616894	-3.005900	3.186100	-9.576200	28.039795	2.437229E-5	20.878482
2349.611072	-2.968000	3.187500	-9.459500	28.018081	2.457031E-5	20.856152
2350.614553	-3.005700	3.185500	-9.572900	28.043468	2.460331E-5	20.868904
2351.621757	-2.999800	3.184600	-9.552200	28.080685	2.391026E-5	20.867013
2352.611098	-2.994300	3.185300	-9.536700	28.074217	2.473532E-5	20.871881
2353.615235	-2.991500	3.184700	-9.526600	28.026547	2.351423E-5	20.883164
2354.616808	-3.008700	3.183000	-9.575700	27.978502	2.334922E-5	20.887908
2355.616995	-2.988000	3.183400	-9.509900	27.984278	2.209513E-5	20.874757
2356.620736	-2.984000	3.182100	-9.494300	28.056826	2.245815E-5	20.871444
2357.615927	-3.009300	3.180300	-9.569200	28.038631	2.546137E-5	20.856923
2358.614913	-2.987500	3.180300	-9.500300	28.030254	2.216113E-5	20.873620
2359.622369	-2.986600	3.180800	-9.498400	28.053482	2.259016E-5	20.882777
2360.615495	-2.992000	3.180400	-9.515100	28.090647	2.331622E-5	20.880834
2361.616952	-2.985100	3.178300	-9.486600	28.080460	2.532936E-5	20.884803
2362.617751	-2.996700	3.179000	-9.525700	28.073940	2.292019E-5	20.881559
2363.615060	-3.000600	3.176700	-9.531000	28.098784	2.325021E-5	20.868637
2364.618489	-2.995900	3.177500	-9.519200	28.141076	2.374525E-5	20.860003
2365.617465	-3.005400	3.176000	-9.544200	28.164080	2.400927E-5	20.886006
2366.616776	-3.024200	3.175700	-9.603000	28.202180	2.245815E-5	20.887853
2367.629213	-3.027000	3.173400	-9.605100	28.243603	2.490033E-5	20.891624
2368.617558	-3.038200	3.173900	-9.641700	28.146607	2.094004E-5	20.891175
2369.616310	-2.994200	3.174300	-9.503700	28.103672	2.209513E-5	20.887781
2370.617950	-3.003800	3.171700	-9.526700	28.045118	2.103905E-5	20.889529
2371.619858	-2.982700	3.171900	-9.459900	28.059224	2.245815E-5	20.891875
2372.618514	-2.993000	3.170700	-9.488900	28.074223	2.361324E-5	20.883266
2373.619188	-2.971000	3.170700	-9.420100	28.089148	2.325021E-5	20.881695
2374.619876	-2.997900	3.169200	-9.500100	28.110267	2.259016E-5	20.899160
2375.621758	-3.008100	3.169200	-9.532000	28.130572	2.202912E-5	20.874559
2376.617795	-2.995300	3.169200	-9.491900	28.191301	2.252416E-5	20.889703
2377.622386	-3.031300	3.167900	-9.600700	28.209174	2.206212E-5	20.916228
2378.621687	-3.015300	3.167700	-9.550600	28.234359	2.110505E-5	20.899861
2379.615112	-3.013600	3.167100	-9.543300	28.246899	1.988396E-5	20.889727
2380.630648	-2.986100	3.166200	-9.453500	28.266257	1.915791E-5	20.897363
2381.620068	-3.000100	3.164900	-9.493200	28.219556	2.169910E-5	20.904397
2382.618834	-3.009200	3.165100	-9.523500	28.223499	2.021399E-5	20.869015
2383.620819	-3.006900	3.163800	-9.511800	28.176698	2.044500E-5	20.881165
2384.623335	-2.992300	3.163200	-9.463600	28.234750	1.869588E-5	20.890298
2385.627988	-3.012200	3.162100	-9.522900	28.281099	2.176510E-5	20.889074
2386.620123	-3.006500	3.162400	-9.506700	28.314784	2.107205E-5	20.906867
2387.632412	-3.018200	3.160700	-9.538900	28.357637	1.816784E-5	20.895014
2388.622987	-2.992500	3.161000	-9.458600	28.359693	2.127006E-5	20.896136
2389.623560	-2.970300	3.160000	-9.385000	28.394659	1.971895E-5	20.877292
2390.621229	-3.005100	3.159100	-9.492700	28.375528	1.945493E-5	20.870357
2391.627358	-2.995000	3.158400	-9.458400	28.332528	1.816784E-5	20.882061
2392.622526	-2.985700	3.158400	-9.429000	28.245502	1.839885E-5	20.886424
2393.625770	-2.996600	3.157300	-9.459900	28.219329	1.829985E-5	20.878091
2394.623587	-3.002700	3.156500	-9.475900	28.175504	2.054401E-5	20.883282
2395.629096	-2.989100	3.155000	-9.429700	28.201484	1.902590E-5	20.871032
2396.625478	-3.009400	3.155600	-9.495500	28.211319	1.681474E-5	20.884726
2397.630187	-2.993300	3.154300	-9.441000	28.263250	1.697975E-5	20.875845
2398.628264	-2.989900	3.153900	-9.429300	28.312051	1.800282E-5	20.876142
2399.630625	-2.983200	3.154300	-9.408800	28.304566	1.783781E-5	20.882830
2400.632322	-2.996100	3.152000	-9.442100	28.277674	1.925692E-5	20.887047
2401.626024	-3.004100	3.152400	-9.469300	28.283226	1.681474E-5	20.875569
2402.630263	-3.001100	3.150500	-9.454700	28.277720	1.674873E-5	20.872396
2403.629518	-3.004100	3.149400	-9.460500	28.203830	1.602268E-5	20.876238
2404.628351	-2.997100	3.150000	-9.440100	28.193644	1.697975E-5	20.863614
2405.630836	-2.982600	3.150300	-9.394800	28.224555	1.536263E-5	20.871974
2406.638012	-2.989500	3.148900	-9.412600	28.232260	1.516462E-5	20.867878
2407.634881	-2.991300	3.146900	-9.412100	28.265475	1.394353E-5	20.848689
2408.631849	-3.001900	3.146000	-9.442600	28.317524	1.651772E-5	20.856998
2409.634348	-2.997500	3.146700	-9.430800	28.262721	1.664973E-5	20.876260
2410.628297	-2.992000	3.144000	-9.405700	28.258633	1.539563E-5	20.848913
2411.630363	-3.012500	3.143400	-9.469000	28.309863	1.529663E-5	20.870146
2412.631383	-3.000500	3.143300	-9.430600	28.341713	1.450457E-5	20.864757
2413.630566	-3.001800	3.142200	-9.431100	28.383176	1.318447E-5	20.863834
2414.630180	-2.997700	3.141800	-9.417100	28.337102	1.443856E-5	20.871968
2415.636526	-3.004600	3.141700	-9.438300	28.301783	1.424055E-5	20.858218
2416.631464	-3.013400	3.140000	-9.461500	28.252705	1.572566E-5	20.856694
2417.628587	-3.023900	3.138300	-9.488800	28.222715	1.546164E-5	20.871069
2418.632589	-2.991900	3.138400	-9.388900	28.271395	1.272244E-5	20.875036
2419.633634	-2.992200	3.139000	-9.391800	28.305572	1.199638E-5	20.855395
2420.632022	-3.006500	3.137400	-9.432000	28.377873	1.579166E-5	20.867503
2421.634003	-2.979600	3.137000	-9.345600	28.339278	1.334948E-5	20.850927
2422.631957	-3.011000	3.135700	-9.441000	28.293451	1.150135E-5	20.863580
2423.631984	-2.982000	3.136300	-9.351800	28.324307	1.305246E-5	20.858612
2424.636804	-2.996200	3.134900	-9.391900	28.348573	1.199638E-5	20.846062
2425.631565	-3.018600	3.133100	-9.456800	28.401190	1.103931E-5	20.858265
2426.633193	-2.982800	3.132400	-9.342900	28.342747	1.354750E-5	20.840195
2427.636873	-3.013400	3.129700	-9.430700	28.266928	1.127033E-5	20.858686
2428.638953	-3.003200	3.130100	-9.399800	28.274439	1.367951E-5	20.859136
2429.633767	-2.991900	3.130500	-9.365500	28.324800	1.090730E-5	20.856737
2430.635312	-2.943800	3.129600	-9.211900	28.337142	1.334948E-5	20.843561
2431.633484	-2.997300	3.126800	-9.371300	28.371992	1.077529E-5	20.860633
2432.635725	-2.990100	3.126400	-9.346400	28.376057	1.169936E-5	20.852399
2433.634934	-3.013300	3.125600	-9.417800	28.363513	1.183137E-5	20.853043
2434.634213	-3.007000	3.123900	-9.392900	28.333178	1.226040E-5	20.847155
2435.635629	-3.003900	3.123900	-9.382100	28.316447	1.090730E-5	20.854016
2436.638411	-3.018500	3.121900	-9.422500	28.373971	1.252442E-5	20.861203
2437.636794	-3.032600	3.122100	-9.467100	28.360189	1.160035E-5	20.865343
2438.634517	-3.028400	3.121300	-9.451900	28.375208	1.222740E-5	20.834475
2439.638784	-3.001800	3.121200	-9.368400	28.406459	1.094031E-5	20.840338
2440.638879	-2.990900	3.120500	-9.332600	28.433175	9.983235E-6	20.842110
2441.639264	-2.980600	3.119300	-9.296200	28.514330	1.087430E-5	20.830428
2442.638598	-2.988000	3.118200	-9.316200	28.525704	1.090730E-5	20.862269
2443.639781	-2.980100	3.116500	-9.286600	28.526968	1.173236E-5	20.863068
2444.636497	-2.985900	3.116100	-9.303600	28.569265	9.884227E-6	20.845448
2445.642309	-2.985500	3.115500	-9.300400	28.586758	1.084130E-5	20.860221
2446.640668	-3.011500	3.115400	-9.381300	28.607301	9.356189E-6	20.835392
2447.638592	-3.004800	3.113900	-9.355700	28.595036	8.102096E-6	20.848169
2448.639658	-3.008600	3.113300	-9.365200	28.561409	1.133633E-5	20.847019
2449.636958	-2.994700	3.113200	-9.322200	28.525254	1.153435E-5	20.855179
2450.637143	-3.004100	3.110000	-9.342200	28.474626	1.107231E-5	20.850660
2451.645410	-2.977100	3.111200	-9.261600	28.419338	1.021425E-5	20.850462
2452.640051	-2.998300	3.110000	-9.323900	28.426254	1.100631E-5	20.842253
2453.645448	-2.992200	3.108100	-9.299200	28.475146	9.587206E-6	20.853555
2454.644600	-3.002800	3.106600	-9.327200	28.519977	1.080830E-5	20.849390
2455.646401	-3.009900	3.104800	-9.343500	28.509566	8.432121E-6	20.846492
2456.648278	-2.980600	3.105400	-9.255000	28.420702	7.937084E-6	20.852783
2457.644511	-3.017000	3.102200	-9.358100	28.449323	7.805075E-6	20.838457
2458.643219	-3.017500	3.102400	-9.360800	28.469099	8.960159E-6	20.838457
2459.646243	-3.003800	3.102700	-9.318200	28.529713	7.112024E-6	20.836911
2460.652678	-2.995000	3.101100	-9.286800	28.576050	8.894155E-6	20.841850
2461.647414	-3.018200	3.099500	-9.354200	28.548174	8.432121E-6	20.831320
2462.646232	-2.999700	3.099600	-9.297200	28.522873	8.564130E-6	20.840927
2463.650469	-3.032700	3.099600	-9.398600	28.611012	8.894155E-6	20.820638
2464.646085	-2.990900	3.098300	-9.266300	28.667431	7.046019E-6	20.825305
2465.650553	-2.995300	3.096000	-9.272700	28.591512	6.649990E-6	20.836560
2466.645365	-2.995300	3.095700	-9.271500	28.575773	5.230885E-6	20.835882
2467.648365	-3.013000	3.093800	-9.319500	28.584672	7.904082E-6	20.811654
2468.645573	-3.006700	3.093600	-9.300500	28.507529	7.673065E-6	20.837329
2469.648160	-2.995500	3.092300	-9.261600	28.545494	8.300111E-6	20.822931
2470.649889	-2.988700	3.090700	-9.235600	28.569554	5.164880E-6	20.830567
2471.650595	-2.985800	3.090000	-9.223900	28.551217	7.574058E-6	20.852402
2472.657912	-2.997900	3.088300	-9.257700	28.537142	7.112024E-6	20.815943
2473.648275	-2.988300	3.087200	-9.224700	28.503812	5.362895E-6	20.825999
2474.650066	-2.995500	3.085600	-9.242000	28.526513	6.550982E-6	20.824205
2475.653646	-3.006500	3.085900	-9.276700	28.521134	4.405824E-6	20.833012
2476.648879	-2.985400	3.085900	-9.211800	28.535902	6.815002E-6	20.832712
2477.648321	-2.999600	3.083600	-9.248500	28.532683	3.811781E-6	20.821410
2478.650978	-3.003800	3.083100	-9.260400	28.582343	5.230885E-6	20.828274
2479.650643	-2.991000	3.081100	-9.214600	28.697907	5.626914E-6	20.811905
2480.651609	-3.017600	3.079400	-9.291600	28.661582	6.154953E-6	20.842173
2481.656754	-2.987800	3.079500	-9.200100	28.675781	6.385970E-6	20.811905
2482.653887	-3.006700	3.077100	-9.251600	28.689781	4.768851E-6	20.824109
2483.651123	-3.004700	3.076300	-9.242300	28.754991	4.009795E-6	20.813454
2484.651498	-3.007400	3.075500	-9.248100	28.791064	4.999868E-6	20.830824
2485.651938	-2.999700	3.075200	-9.223800	28.700386	4.009795E-6	20.811084
2486.649234	-3.000000	3.073600	-9.220300	28.621969	2.161659E-6	20.815078
2487.654195	-3.010700	3.070800	-9.244800	28.631757	4.636841E-6	20.801703
2488.653623	-2.988300	3.070800	-9.176000	28.629554	3.250739E-6	20.827459
2489.652672	-3.014500	3.070400	-9.255000	28.597519	2.953717E-6	20.825066
2490.654768	-2.980800	3.070400	-9.151400	28.637658	4.669844E-6	20.803380
2491.657819	-3.011600	3.067800	-9.238200	28.712561	3.184734E-6	20.803906
2492.652169	-3.011600	3.066100	-9.233000	28.746432	3.250739E-6	20.816212
2493.659531	-3.001000	3.065600	-9.199200	28.757213	4.240812E-6	20.805735
2494.657329	-3.031200	3.064300	-9.287500	28.716779	1.270594E-6	20.794405
2495.652902	-2.996700	3.064300	-9.181900	28.607264	2.953717E-6	20.809751
2496.657516	-2.985000	3.063000	-9.142700	28.603673	3.118730E-6	20.814195
2497.654958	-3.031700	3.060600	-9.277800	28.684698	2.194662E-6	20.817093
2498.653787	-3.002800	3.060900	-9.190500	28.746540	2.590691E-6	20.794984
2499.656398	-3.029400	3.059300	-9.267000	28.771389	4.306817E-6	20.809584
2500.658675	-2.987600	3.058800	-9.137100	28.753182	2.920715E-6	20.817796
2501.657274	-3.016600	3.056200	-9.218600	28.762670	4.009795E-6	20.792740
2502.655979	-2.998800	3.053900	-9.157500	28.813387	3.646768E-6	20.796887
2503.660257	-3.004300	3.052600	-9.170400	28.870164	3.135231E-7	20.809038
2504.657341	-2.992900	3.053000	-9.136900	28.815048	3.679771E-6	20.792871
2505.657728	-3.004400	3.051400	-9.166800	28.783560	2.227664E-6	20.791498
2506.658926	-2.974900	3.051800	-9.076300	28.801278	8.745644E-7	20.819776
2507.656642	-2.970500	3.049800	-9.058700	28.836380	1.699625E-6	20.806299
2508.664639	-3.008300	3.046600	-9.164200	28.874680	1.155085E-7	20.814536
2509.658783	-3.032400	3.046400	-9.235900	28.877012	4.075800E-6	20.810247
2510.662143	-2.989400	3.046900	-9.106900	28.830046	-1.815134E-7	20.795176
2511.659523	-3.007400	3.044000	-9.153800	28.822019	1.402603E-6	20.816014
2512.660011	-3.017000	3.041500	-9.175300	28.847981	3.976793E-6	20.805657
2513.671813	-2.996900	3.041200	-9.113100	28.850808	-3.795279E-7	20.803764
2514.662951	-3.005900	3.040900	-9.140000	28.886607	6.765498E-7	20.802369
2515.661488	-3.011100	3.037800	-9.146200	28.891289	9.735717E-7	20.796655
2516.663919	-3.014400	3.036900	-9.153200	28.816282	4.785352E-7	20.796958
2517.661122	-3.007500	3.037700	-9.134800	28.769679	-4.455328E-7	20.807387
2518.667114	-2.991100	3.036100	-9.080200	28.752392	9.405693E-7	20.810836
2519.663654	-3.020200	3.034100	-9.162400	28.736858	1.204589E-6	20.805620
2520.663933	-2.992200	3.032100	-9.072000	28.716641	1.650122E-8	20.793317
2521.663204	-2.984100	3.031800	-9.046200	28.762181	2.557688E-6	20.790825
2522.660874	-3.011500	3.030400	-9.124700	28.739316	-8.745644E-7	20.793398
2523.666281	-2.987200	3.029200	-9.047500	28.679483	1.468608E-6	20.794296
2524.664438	-3.019000	3.026300	-9.135600	28.669969	-1.155085E-7	20.791826
2525.665628	-3.007200	3.025700	-9.098100	28.630403	7.095522E-7	20.799391
2526.666524	-3.011600	3.024800	-9.108800	28.714149	2.722700E-6	20.801712
2527.663697	-2.965100	3.024400	-8.966100	28.814685	4.455328E-7	20.797721
2528.667701	-2.989700	3.022400	-9.034900	28.846000	5.445401E-7	20.785644
2529.667465	-2.985900	3.021800	-9.022200	28.845606	-3.135231E-7	20.785247
2530.673773	-2.999700	3.019300	-9.056600	28.813526	9.075668E-7	20.786121
2531.666813	-2.989300	3.019000	-9.024100	28.789569	-4.950365E-8	20.789016
2532.671745	-2.993500	3.017000	-9.030600	28.818854	-1.485109E-7	20.775367
2533.671606	-3.013400	3.015700	-9.086600	28.825447	-2.805207E-7	20.799078
2534.667790	-2.991200	3.015100	-9.018100	28.842739	9.405693E-7	20.807963
2535.671015	-3.004400	3.011800	-9.048300	28.872663	-5.775425E-7	20.797805
2536.671716	-3.039400	3.011100	-9.150500	28.875093	2.475182E-7	20.772752
2537.668791	-2.986600	3.011100	-8.991700	28.890010	-1.485109E-7	20.773555
2538.667726	-2.998800	3.008200	-9.019700	28.951640	5.445401E-7	20.769737
2539.669665	-3.011700	3.006600	-9.053900	28.963556	2.062652E-6	20.786958
2540.673409	-2.993300	3.007000	-8.999400	29.029442	1.485109E-7	20.775578
2541.671791	-3.055900	3.002200	-9.173100	28.940200	-4.455328E-7	20.769591
2542.671134	-3.028300	3.002800	-9.092400	28.873641	-4.125304E-7	20.792627
2543.669355	-3.027500	3.001200	-9.085100	28.820953	-4.125304E-7	20.802612
2544.671422	-2.987400	3.000600	-8.963200	28.921679	-8.250608E-8	20.805934
2545.669390	-2.994400	3.000600	-8.984000	28.980730	-2.293669E-6	20.777708
2546.672009	-2.999900	2.997400	-8.991000	29.035397	-2.145158E-7	20.787743
2547.670515	-2.995900	2.996400	-8.976300	29.050927	1.303596E-6	20.782053
2548.675513	-2.997800	2.994900	-8.976500	29.068714	-5.775425E-7	20.783853
2549.672627	-2.998000	2.993100	-8.972900	29.046796	1.435606E-6	20.802547
2550.676441	-3.013400	2.991200	-9.012900	28.985024	-1.402603E-6	20.767810
2551.676067	-3.007300	2.991400	-8.995200	29.024752	-2.805207E-7	20.765163
2552.674199	-3.004900	2.989300	-8.981500	29.008502	-5.445401E-7	20.764912
2553.679519	-3.006700	2.986500	-8.978900	29.033721	-2.194662E-6	20.787951
2554.673570	-2.999500	2.986600	-8.957600	29.007764	-1.155085E-7	20.751840
2555.675801	-2.999200	2.985900	-8.955100	28.984237	-1.650122E-8	20.751369
2556.675369	-2.965400	2.984900	-8.850300	28.953246	-1.138584E-6	20.776571
2557.682789	-3.009100	2.982700	-8.974200	28.941210	-1.072579E-6	20.765866
2558.675933	-3.005700	2.980000	-8.956100	28.975166	-1.435606E-6	20.761670
2559.676576	-2.974800	2.980400	-8.864500	28.902272	-6.105450E-7	20.776899
2560.674988	-2.979500	2.978000	-8.872200	28.939896	-1.237591E-6	20.769285
2561.678162	-2.998000	2.978000	-8.926400	28.928428	-1.732628E-6	20.789026
2562.676532	-3.025400	2.974200	-8.996800	28.909901	-2.392676E-6	20.756609
2563.675896	-2.995600	2.973800	-8.907600	28.867243	-3.795279E-7	20.749670
2564.680033	-3.024000	2.972400	-8.987800	28.873460	-4.785352E-7	20.751192
2565.678060	-3.005000	2.971700	-8.929400	28.875294	-2.095654E-6	20.759678
2566.679462	-3.013000	2.967800	-8.941500	28.844527	-1.237591E-6	20.765194
2567.678862	-3.013700	2.967800	-8.943400	28.901678	-1.501611E-6	20.751170
2568.679971	-2.978600	2.967500	-8.838200	28.904373	-1.765630E-6	20.784706
2569.677001	-3.029000	2.964100	-8.977400	28.859312	-4.455328E-7	20.766812
2570.680874	-3.003100	2.962800	-8.896700	28.793735	-2.029649E-6	20.760496
2571.679712	-2.996100	2.961800	-8.872200	28.850766	-2.062652E-6	20.745874
2572.683758	-2.986200	2.960700	-8.840800	28.915690	-6.765498E-7	20.770028
2573.682930	-2.993300	2.958500	-8.855000	28.952723	8.085595E-7	20.781734
2574.685838	-2.975300	2.958000	-8.800200	28.871027	-1.336598E-6	20.760595
2575.682291	-3.005600	2.955800	-8.883600	28.799405	-2.392676E-6	20.761940
2576.684837	-2.981300	2.954700	-8.808500	28.815107	-1.732628E-6	20.760687
2577.689408	-3.046500	2.951900	-8.991900	28.799279	-5.775425E-7	20.752329
2578.685690	-2.979700	2.949600	-8.787900	28.796079	-2.524686E-6	20.763805
2579.684449	-3.017600	2.948500	-8.896700	28.799276	-2.326671E-6	20.770818
2580.686300	-2.993400	2.946400	-8.819000	28.833957	-1.138584E-6	20.763554
2581.684165	-3.007900	2.946800	-8.862900	28.877480	-1.534613E-6	20.760458
2582.683208	-2.999600	2.944700	-8.831900	28.891625	-4.125304E-7	20.760957
2583.684375	-2.978200	2.943300	-8.764700	28.957017	5.775425E-7	20.767093
2584.685784	-2.997100	2.941000	-8.812700	29.056512	-1.204589E-6	20.759705
2585.689211	-2.972800	2.941100	-8.742200	29.127618	-2.227664E-6	20.755487
2586.683781	-3.006800	2.938300	-8.834300	29.118698	-1.072579E-6	20.775423
2587.685859	-2.997700	2.937600	-8.805300	29.098363	-7.755571E-7	20.756829
2588.688410	-2.985800	2.934400	-8.760700	29.157231	-1.485109E-7	20.753085
2589.683659	-2.977500	2.933500	-8.733600	29.205419	-5.775425E-7	20.748538
2590.689731	-2.979300	2.932200	-8.734500	29.147325	-1.815134E-7	20.755905
2591.688900	-2.998300	2.929800	-8.784000	29.188779	2.145158E-7	20.746468
2592.687847	-2.976200	2.927600	-8.712100	29.131050	-2.260666E-6	20.773170
2593.686721	-2.997500	2.927400	-8.774100	29.050905	-1.237591E-6	20.775392
2594.688054	-2.990900	2.925000	-8.747800	29.068387	-1.765630E-6	20.758868
2595.687612	-2.958200	2.924800	-8.651000	29.119086	-2.953718E-6	20.748786
2596.691789	-3.017900	2.921700	-8.816800	29.127356	-3.349747E-6	20.783199
2597.688509	-3.006100	2.919800	-8.776100	29.114426	-2.194662E-6	20.758790
2598.688002	-3.011500	2.917200	-8.784300	29.094761	-3.514759E-6	20.760786
2599.689855	-3.017300	2.915400	-8.796000	29.060929	-3.085727E-6	20.754197
2600.690370	-2.976200	2.915800	-8.676800	29.109767	-2.194662E-6	20.748879
2601.689601	-2.976100	2.913100	-8.669000	29.161900	-2.953718E-6	20.767747
2602.689126	-2.994900	2.910700	-8.716500	29.180001	-1.303596E-6	20.781246
2603.691285	-2.990700	2.909000	-8.699300	29.150853	-2.095654E-6	20.772262
2604.690227	-2.965300	2.908600	-8.624000	29.133765	-2.425679E-6	20.739870
2605.689021	-2.999800	2.905800	-8.716200	29.153971	-6.435474E-7	20.769240
2606.692222	-2.988500	2.905300	-8.681700	29.212987	-2.392676E-6	20.773235
2607.696606	-2.988200	2.900900	-8.667500	29.239336	-1.105581E-6	20.762803
2608.689250	-3.006500	2.899900	-8.716600	29.315085	-6.435474E-7	20.746682
2609.693313	-2.988700	2.899000	-8.663800	29.282074	-1.633620E-6	20.774580
2610.693013	-2.989200	2.896400	-8.657200	29.220958	-1.765630E-6	20.762775
2611.693651	-2.982800	2.894400	-8.632600	29.182449	-1.204589E-6	20.748625
2612.696263	-3.018200	2.892900	-8.730200	29.201446	-3.151732E-6	20.753543
2613.694637	-3.006600	2.891500	-8.692600	29.174872	-2.623693E-6	20.767068
2614.692924	-3.002700	2.888900	-8.674100	29.155699	-2.689698E-6	20.769559
2615.693037	-2.991900	2.887700	-8.638700	29.106590	-2.854710E-6	20.782662
2616.699235	-2.989300	2.886700	-8.628200	29.160110	-2.161659E-6	20.767365
2617.691030	-3.015600	2.884100	-8.695800	29.217763	-2.326671E-6	20.760030
2618.692753	-2.978600	2.882900	-8.586300	29.254881	-1.138584E-6	20.772305
2619.696537	-2.986900	2.880700	-8.603100	29.251637	-5.428900E-6	20.775674
2620.699076	-3.001100	2.878900	-8.639100	29.215952	-2.194662E-6	20.761998
2621.693163	-2.990600	2.876900	-8.602500	29.146408	1.485109E-7	20.773948
2622.699053	-3.004500	2.874900	-8.636800	29.158593	-3.976793E-6	20.764415
2623.699363	-3.014800	2.871700	-8.655800	29.144206	-4.669844E-6	20.778367
2624.695564	-2.990400	2.871400	-8.585500	29.212135	-3.217737E-6	20.758151
2625.700041	-3.039000	2.867500	-8.713300	29.167903	-3.465255E-7	20.763364
2626.694317	-3.014800	2.866100	-8.639100	29.185137	-4.438827E-6	20.787844
2627.700909	-2.998400	2.865600	-8.590600	29.215918	-3.481756E-6	20.773818
2628.705226	-2.985400	2.862900	-8.545200	29.249942	-1.732628E-6	20.762112
2629.703641	-2.948200	2.861500	-8.435300	29.270942	-2.227664E-6	20.769999
2630.701858	-2.994300	2.859700	-8.561800	29.359240	6.105450E-7	20.761313
2631.698817	-2.985200	2.856800	-8.526700	29.382584	-2.788705E-6	20.768245
2632.699726	-2.991900	2.855800	-8.543900	29.353985	-2.425679E-6	20.758387
2633.693097	-3.003600	2.851600	-8.564100	29.344552	-1.996647E-6	20.769742
2634.699234	-3.004400	2.849800	-8.560900	29.267317	-3.316744E-6	20.784838
2635.698425	-2.971600	2.848700	-8.463800	29.304882	-2.722700E-6	20.763426
2636.703775	-2.987100	2.847600	-8.505400	29.358561	-1.567615E-6	20.775327
2637.703884	-3.016900	2.844800	-8.581900	29.376167	-1.105581E-6	20.784537
2638.696888	-3.002400	2.842700	-8.534400	29.439251	-1.204589E-6	20.767988
2639.699666	-3.008200	2.839600	-8.540700	29.457373	-2.458681E-6	20.789099
2640.700704	-2.974900	2.838300	-8.443400	29.462101	-2.986720E-6	20.775373
2641.697554	-3.015300	2.834700	-8.546800	29.426842	-9.405693E-7	20.769231
2642.699508	-2.998000	2.832800	-8.492000	29.461526	-8.415620E-7	20.784751
2643.705357	-2.994900	2.830900	-8.477100	29.462123	-3.118730E-6	20.770653
2644.706026	-2.993200	2.829400	-8.468000	29.537259	-1.303596E-6	20.776690
2645.700169	-2.968900	2.827600	-8.394200	29.583923	-7.755571E-7	20.763987
2646.700214	-2.999900	2.824500	-8.472300	29.611200	4.455328E-7	20.789589
2647.701959	-2.995700	2.823100	-8.456400	29.547776	-2.359674E-6	20.777335
2648.701873	-3.017800	2.819500	-8.507400	29.434411	-2.392676E-6	20.774964
2649.702185	-3.012100	2.815700	-8.479600	29.369120	-2.194662E-6	20.781227
2650.702424	-2.984100	2.815200	-8.400500	29.278590	-1.534613E-6	20.772965
2651.703204	-3.006600	2.811900	-8.453000	29.348693	-8.745644E-7	20.772020
2652.705859	-2.976600	2.811400	-8.367600	29.345818	-5.445401E-7	20.779554
2653.703492	-2.996300	2.806600	-8.408100	29.378575	-2.260666E-6	20.790757
2654.704685	-3.012900	2.804100	-8.447700	29.395486	-9.735717E-7	20.785517
2655.703709	-2.946400	2.802800	-8.257200	29.323922	-5.115377E-7	20.797315
2656.701630	-3.028400	2.799600	-8.477300	29.279402	-2.821708E-6	20.778051
2657.701664	-3.010300	2.797000	-8.418800	29.256692	-2.194662E-6	20.784562
2658.706324	-3.045300	2.793400	-8.505700	29.303741	-1.699625E-6	20.787881
2659.703076	-3.020300	2.790100	-8.425900	29.334269	-2.491683E-6	20.766491
2660.704065	-3.025900	2.787900	-8.434500	29.401645	2.145158E-7	20.796940
2661.708477	-2.971900	2.786000	-8.278700	29.449330	4.455328E-7	20.781940
2662.707512	-3.005700	2.782600	-8.362200	29.506546	-9.735717E-7	20.792198
2663.710509	-3.019800	2.778900	-8.390800	29.516965	-8.250608E-8	20.791795
2664.711028	-2.973800	2.777800	-8.260400	29.526643	-1.468608E-6	20.811034
2665.705090	-2.986800	2.774700	-8.286800	29.581058	-1.105581E-6	20.807566
2666.704117	-3.006200	2.770000	-8.326200	29.612421	-2.656696E-6	20.795561
2667.710519	-3.002800	2.767900	-8.310700	29.541025	1.138584E-6	20.807040
2668.719122	-2.997300	2.764400	-8.284300	29.445410	-2.128657E-6	20.793636
2669.710404	-2.988000	2.762700	-8.253900	29.417606	-1.501611E-6	20.813501
2670.712190	-2.986000	2.759500	-8.238900	29.408391	-2.062652E-6	20.789515
2671.711718	-3.011900	2.755900	-8.298700	29.488014	-9.075668E-7	20.778259
2672.708321	-2.975100	2.752100	-8.187100	29.558595	-9.405693E-7	20.781603
2673.710699	-2.995600	2.750100	-8.237300	29.486999	-8.085595E-7	20.793832
2674.706945	-2.999600	2.746100	-8.236000	29.534406	-5.115377E-7	20.788039
2675.706919	-2.995100	2.743000	-8.213500	29.628723	-2.920715E-6	20.782123
2676.712261	-3.027100	2.738400	-8.288800	29.608400	-1.485109E-7	20.800990
2677.712461	-3.005600	2.736400	-8.223700	29.612458	-9.075668E-7	20.810771
2678.714520	-2.971200	2.733700	-8.121700	29.600552	-1.666623E-6	20.805407
2679.711419	-3.000600	2.729700	-8.190200	29.558386	-1.930642E-6	20.802255
2680.709912	-3.008300	2.726500	-8.201400	29.627257	-1.468608E-6	20.808146
2681.710735	-2.989500	2.723700	-8.141800	29.693123	-5.445401E-7	20.800582
2682.709033	-2.983500	2.719000	-8.111400	29.739805	-2.227664E-6	20.816827
2683.707819	-2.993800	2.715500	-8.128900	29.652154	-2.656696E-6	20.811909
2684.709520	-3.000300	2.711700	-8.134700	29.657425	-6.105450E-7	20.810111
2685.715920	-3.021600	2.707800	-8.180600	29.634678	-2.326671E-6	20.817524
2686.709705	-3.011900	2.704600	-8.145100	29.682026	-1.666623E-6	20.811679
2687.709466	-3.000900	2.700900	-8.103600	29.707942	-1.650122E-8	20.812677
2688.711398	-3.046700	2.693600	-8.205900	29.712842	-1.204589E-6	20.819039
2689.713597	-3.023400	2.691400	-8.135800	29.743706	-1.996647E-6	20.799897
2690.720316	-3.002600	2.687600	-8.069800	29.841544	-7.425547E-7	20.815095
2691.718115	-3.024200	2.681800	-8.109200	29.808851	-1.155085E-7	20.839028
2692.718789	-2.973600	2.679900	-7.968400	29.817983	-2.293669E-6	20.811726
2693.715465	-2.978100	2.675400	-7.967000	29.724197	-1.402603E-6	20.817685
2694.715312	-2.969100	2.671100	-7.929800	29.612163	-1.996647E-6	20.795301
2695.713286	-2.957700	2.666900	-7.887100	29.621100	-1.567615E-6	20.815216
2696.715948	-2.999400	2.661700	-7.982400	29.663405	4.950364E-8	20.844587
2697.717174	-3.003500	2.657200	-7.980000	29.702019	-2.145158E-7	20.806706
2698.715416	-3.006100	2.653500	-7.975300	29.710832	-4.125304E-7	20.812271
2699.714637	-3.016100	2.647800	-7.985500	29.748649	-2.161659E-6	20.792552
2700.721573	-3.029000	2.642200	-8.002000	29.815527	4.125304E-7	20.809724
2701.717441	-3.008100	2.638100	-7.934200	29.855867	-1.204589E-6	20.811044
2702.716779	-2.977400	2.632500	-7.837000	29.919767	5.775425E-7	20.810995
2703.720728	-2.988400	2.629600	-7.857000	29.899395	-9.405693E-7	20.826013
2704.717848	-3.010900	2.623900	-7.899300	29.931347	-6.435474E-7	20.807973
2705.718571	-3.017800	2.617100	-7.897300	29.877817	-2.194662E-6	20.821798
2706.720926	-2.977900	2.613300	-7.780900	29.882814	-1.633620E-6	20.834897
2707.723059	-3.000200	2.607300	-7.821400	29.915209	1.501611E-6	20.817304
2708.716962	-3.032400	2.602300	-7.890300	29.931593	-4.125304E-7	20.819601
2709.720360	-2.969300	2.598500	-7.714900	29.890906	-1.039577E-6	20.817453
2710.716257	-3.000000	2.590400	-7.770400	29.866701	-9.075668E-7	20.821969
2711.717769	-2.990800	2.585500	-7.730800	29.899219	-6.435474E-7	20.822043
2712.723656	-3.013100	2.578500	-7.767000	29.922508	-4.785352E-7	20.826087
2713.721590	-3.032600	2.572900	-7.802300	29.895534	1.996647E-6	20.816905
2714.721276	-2.988100	2.567900	-7.672000	29.901521	-1.171586E-6	20.831950
2715.719747	-2.999600	2.562000	-7.684700	29.942106	1.600618E-6	20.834944
2716.720590	-2.992600	2.555700	-7.645900	29.899591	-1.485109E-7	20.818151
2717.720220	-2.985500	2.550400	-7.612700	29.889864	-2.359674E-6	20.810239
2718.722148	-2.992300	2.542900	-7.607400	29.847467	-1.600618E-6	20.835291
2719.718285	-2.999700	2.538300	-7.613400	29.861224	-1.468608E-6	20.825929
2720.723573	-3.014700	2.531700	-7.631400	29.958163	9.735717E-7	20.819369
2721.727368	-3.020400	2.524800	-7.625100	29.967020	1.600618E-6	20.829248
2722.722116	-2.986700	2.520100	-7.526000	30.054446	-5.775425E-7	20.836810
2723.721485	-3.010200	2.512000	-7.560300	30.095790	1.831635E-6	20.830144
2724.723487	-3.020300	2.506400	-7.569300	30.042938	-1.303596E-6	20.838954
2725.718830	-3.021400	2.499000	-7.549500	29.983003	1.501611E-6	20.852952
