LabVIEW Measurement	
Writer_Version	2
Reader_Version	2
Separator	Tab
Decimal_Separator	.
Multi_Headings	No
X_Columns	One
Time_Pref	Absolute
Operator	admin
Description	Clolumns are: time, Current, Voltage, Power, Battery Temp, and Chamber Temp
Date	2024/08/16
Time	13:07:17.8513970375061035156
***End_of_Header***	
	
Channels	6						
Samples	1	1	1	1	1	1	
Date	2024/09/19	2024/09/19	2024/09/19	2024/09/19	2024/09/19	2024/09/19	
Time	16:20:51.8991241455078125	16:20:51.9061799049377441407	16:20:51.9121441841125488281	16:20:51.8814902305603027344	16:20:51.8814902305603027344	16:20:51.8814902305603027344	
X_Dimension	Time	Time	Time	Time	Time	Time	
X0	0.0000000000000000E+0	0.0000000000000000E+0	0.0000000000000000E+0	0.0000000000000000E+0	0.0000000000000000E+0	0.0000000000000000E+0	
Delta_X	1.000000	1.000000	1.000000	1.000000	1.000000	1.000000	
***End_of_Header***							
X_Value	Untitled	Untitled 1	Untitled 2	Untitled 3	Untitled 4	Untitled 5	Comment
0.000000	0.024438	4.089400	0.100020	20.807500	0.000473	20.846380
1.005294	-2.979600	3.915200	-11.665000	20.803406	0.000474	20.847975
2.002557	-2.998600	3.908700	-11.719000	20.834527	0.000472	20.850173
3.002573	-2.988600	3.903700	-11.666000	20.821680	0.000469	20.849654
4.001345	-2.983000	3.901800	-11.638000	20.823177	0.000470	20.857315
5.003617	-2.977200	3.897700	-11.603000	20.815467	0.000470	20.860510
6.002565	-3.011600	3.894200	-11.727000	20.835579	0.000471	20.848854
7.002438	-3.005400	3.893000	-11.699000	20.822031	0.000469	20.822031
8.007586	-3.024000	3.889700	-11.761000	20.836403	0.000469	20.824550
9.007189	-3.007000	3.888900	-11.693000	20.848034	0.000469	20.855146
10.007812	-3.033000	3.886400	-11.786000	20.849630	0.000467	20.834457
11.011250	-3.010200	3.885700	-11.696000	20.862886	0.000466	20.841076
12.011679	-2.987300	3.886200	-11.607000	20.864555	0.000469	20.828047
13.008759	-3.007300	3.882800	-11.676000	20.865404	0.000467	20.831267
14.011188	-2.994700	3.881500	-11.623000	20.895570	0.000465	20.839624
15.009236	-3.004200	3.880900	-11.658000	20.860959	0.000465	20.828718
16.009233	-2.987500	3.880100	-11.591000	20.888636	0.000464	20.836482
17.007947	-3.004800	3.878500	-11.653000	20.901734	0.000463	20.835830
18.012991	-2.997500	3.878400	-11.625000	20.901260	0.000464	20.829667
19.015781	-2.981100	3.876600	-11.556000	20.919128	0.000464	20.826199
20.011425	-2.981500	3.877000	-11.558000	20.932975	0.000463	20.822505
21.017886	-3.004400	3.874600	-11.640000	20.944600	0.000462	20.815166
22.016203	-2.996500	3.874500	-11.610000	20.931750	0.000463	20.842617
23.010265	-3.009600	3.873400	-11.656000	20.955658	0.000461	20.819112
24.014946	-3.016700	3.872700	-11.682000	20.949045	0.000463	20.831464
25.013604	-3.000200	3.873000	-11.618000	20.982458	0.000460	20.824579
26.011265	-2.984600	3.872700	-11.557000	20.978641	0.000461	20.821710
27.011952	-3.005100	3.871700	-11.633000	20.992142	0.000461	20.815773
28.011879	-2.992400	3.870800	-11.582000	21.011475	0.000461	20.809980
29.011140	-2.992000	3.871200	-11.581000	21.005535	0.000460	20.852400
30.011497	-3.002400	3.869000	-11.616000	21.023031	0.000460	20.844296
31.012174	-2.982400	3.869500	-11.540000	21.017090	0.000461	20.837880
32.013433	-2.995600	3.870200	-11.593000	21.020013	0.000459	20.816149
33.019921	-3.003800	3.868200	-11.618000	21.055212	0.000457	20.826224
34.013523	-3.006800	3.868500	-11.631000	21.047484	0.000461	20.816124
35.019174	-3.012800	3.866400	-11.648000	21.056664	0.000460	20.818667
36.018305	-3.011600	3.866100	-11.643000	21.063577	0.000458	20.817996
37.018542	-3.001700	3.866700	-11.606000	21.061508	0.000456	20.805495
38.018236	-3.001300	3.865900	-11.602000	21.079996	0.000461	20.800754
39.019687	-2.997600	3.866500	-11.589000	21.095515	0.000456	20.822915
40.019416	-2.987600	3.865500	-11.547000	21.113232	0.000457	20.810291
41.016895	-2.995800	3.866900	-11.584000	21.105272	0.000458	20.812760
42.021990	-2.993500	3.864700	-11.568000	21.125507	0.000458	20.803129
43.021812	-2.989100	3.865700	-11.553000	21.117375	0.000459	20.811116
44.018670	-2.999700	3.865300	-11.594000	21.136686	0.000458	20.792500
45.020688	-2.988700	3.864200	-11.548000	21.143648	0.000457	20.800413
46.021433	-2.981100	3.865900	-11.524000	21.154526	0.000459	20.799914
47.017773	-2.992700	3.864400	-11.565000	21.162628	0.000458	20.806122
48.017840	-2.995800	3.863600	-11.574000	21.146240	0.000457	20.800161
49.021219	-3.008800	3.861700	-11.618000	21.156545	0.000457	20.789132
50.025894	-3.000900	3.864000	-11.594000	21.201575	0.000455	20.800512
51.021524	-3.007600	3.862300	-11.615000	21.191878	0.000456	20.804562
52.024497	-3.014900	3.862000	-11.643000	21.207366	0.000455	20.795874
53.022880	-3.010900	3.861200	-11.625000	21.216347	0.000457	20.784469
54.021236	-3.014200	3.862200	-11.641000	21.209440	0.000455	20.804112
55.022966	-3.007900	3.860600	-11.610000	21.242717	0.000457	20.792357
56.023510	-3.006000	3.860100	-11.602000	21.249032	0.000457	20.814321
57.019509	-2.974600	3.861600	-11.486000	21.247936	0.000457	20.798526
58.023732	-2.974300	3.861400	-11.484000	21.272503	0.000454	20.784222
59.024430	-2.987800	3.861400	-11.536000	21.282481	0.000456	20.811274
60.020463	-2.984000	3.861300	-11.521000	21.286776	0.000457	20.809881
61.022296	-2.984700	3.860900	-11.523000	21.276448	0.000456	20.788169
62.030193	-3.012600	3.861000	-11.630000	21.312695	0.000457	20.795034
63.027969	-3.010600	3.860800	-11.622000	21.305181	0.000456	20.796526
64.034494	-3.004700	3.859700	-11.596000	21.319824	0.000455	20.797425
65.023838	-3.010000	3.857400	-11.609000	21.344222	0.000457	20.791962
66.023452	-3.003900	3.859900	-11.594000	21.344439	0.000457	20.788860
67.025263	-2.998000	3.859300	-11.569000	21.347337	0.000457	20.802191
68.027117	-2.991800	3.858900	-11.544000	21.363050	0.000457	20.789937
69.027843	-3.004400	3.858800	-11.593000	21.365622	0.000455	20.786820
70.023761	-2.983600	3.859100	-11.513000	21.378394	0.000456	20.786796
71.024665	-3.007000	3.856600	-11.596000	21.392186	0.000457	20.795854
72.030694	-3.004500	3.858800	-11.593000	21.386050	0.000455	20.798724
73.024074	-3.011000	3.857800	-11.615000	21.418577	0.000457	20.788593
74.032895	-3.005100	3.858500	-11.594000	21.403037	0.000455	20.789166
75.026952	-2.998000	3.858600	-11.567000	21.439952	0.000455	20.781056
76.037599	-2.999900	3.857300	-11.570000	21.429427	0.000456	20.805614
77.032387	-3.004900	3.857500	-11.590000	21.446137	0.000456	20.791512
78.033921	-2.999200	3.856800	-11.567000	21.451448	0.000457	20.786870
79.033128	-3.003500	3.856200	-11.581000	21.462126	0.000457	20.761991
80.029349	-2.984600	3.856700	-11.510000	21.457466	0.000455	20.775821
81.033849	-3.011000	3.856800	-11.612000	21.488939	0.000456	20.798778
82.031710	-3.006400	3.855600	-11.591000	21.482083	0.000455	20.797133
83.039946	-2.993300	3.857100	-11.545000	21.495272	0.000458	20.801796
84.031608	-3.000400	3.856900	-11.571000	21.480207	0.000456	20.801420
85.034217	-3.010800	3.856700	-11.611000	21.490607	0.000457	20.787171
86.026697	-3.031200	3.853200	-11.679000	21.506971	0.000457	20.788845
87.034317	-3.002100	3.856500	-11.576000	21.537450	0.000458	20.802749
88.028989	-2.989900	3.854700	-11.524000	21.531636	0.000456	20.799776
89.035892	-2.998400	3.854800	-11.558000	21.548897	0.000457	20.793814
90.038262	-3.004900	3.854000	-11.580000	21.550619	0.000460	20.789848
91.029641	-2.999300	3.853800	-11.557000	21.570294	0.000456	20.779663
92.033534	-2.972800	3.854900	-11.458000	21.563290	0.000459	20.774551
93.030416	-2.986200	3.855200	-11.511000	21.584785	0.000459	20.777095
94.029617	-2.993400	3.854900	-11.538000	21.588003	0.000458	20.795014
95.029483	-2.994200	3.853900	-11.539000	21.590150	0.000459	20.787206
96.033646	-3.010200	3.852900	-11.597000	21.594938	0.000458	20.771134
97.033024	-2.974000	3.853600	-11.459000	21.601270	0.000459	20.786005
98.028061	-2.997200	3.854700	-11.553000	21.625815	0.000458	20.787334
99.029525	-3.000700	3.851900	-11.558000	21.614345	0.000458	20.780123
100.030813	-3.008000	3.851500	-11.584000	21.614587	0.000460	20.785581
101.030698	-3.025100	3.853400	-11.654000	21.632320	0.000460	20.782464
102.033759	-3.010100	3.853400	-11.598000	21.647882	0.000461	20.758682
103.033775	-3.003600	3.852200	-11.569000	21.647709	0.000460	20.780320
104.030214	-3.012800	3.852100	-11.605000	21.660428	0.000461	20.775505
105.038732	-3.013300	3.852600	-11.608000	21.675214	0.000462	20.769914
106.034130	-3.004700	3.851800	-11.573000	21.694215	0.000460	20.785136
107.034407	-3.000100	3.851000	-11.552000	21.684734	0.000464	20.795563
108.032103	-2.988700	3.851700	-11.510000	21.697127	0.000462	20.779515
109.038390	-2.991600	3.851600	-11.521000	21.701470	0.000461	20.776749
110.034681	-2.978100	3.852900	-11.474000	21.711942	0.000460	20.771583
111.036405	-2.991200	3.852400	-11.522000	21.728199	0.000464	20.767938
112.032362	-3.000200	3.850800	-11.552000	21.733208	0.000463	20.770106
113.033447	-2.994900	3.852500	-11.537000	21.758347	0.000464	20.785309
114.037743	-2.984700	3.851000	-11.494000	21.753111	0.000462	20.776749
115.031427	-2.995900	3.850100	-11.532000	21.769189	0.000464	20.760598
116.035377	-2.988800	3.852300	-11.513000	21.752237	0.000465	20.779194
117.038193	-3.001000	3.850600	-11.554000	21.755080	0.000464	20.782513
118.037023	-3.004100	3.848700	-11.561000	21.784680	0.000465	20.778947
119.037198	-3.004500	3.849600	-11.565000	21.815266	0.000465	20.778266
120.059884	-3.003000	3.850900	-11.563000	21.802233	0.000465	20.756212
121.044138	-3.016500	3.849600	-11.610000	21.800935	0.000466	20.771035
122.044249	-3.006200	3.849600	-11.572000	21.828560	0.000464	20.768338
123.042445	-3.022400	3.849200	-11.633000	21.832527	0.000464	20.754765
124.044943	-3.018800	3.848000	-11.615000	21.840507	0.000467	20.778873
125.038122	-2.994300	3.849900	-11.527000	21.865791	0.000466	20.777629
126.041074	-3.011600	3.847700	-11.587000	21.878799	0.000468	20.738016
127.041422	-2.994700	3.848500	-11.524000	21.886299	0.000466	20.775396
128.040019	-2.996300	3.847700	-11.527000	21.901610	0.000467	20.787877
129.039100	-2.982200	3.848400	-11.475000	21.890814	0.000467	20.788924
130.049651	-2.999100	3.847200	-11.537000	21.901660	0.000468	20.761374
131.040987	-2.991300	3.848300	-11.510000	21.897939	0.000466	20.778038
132.044776	-3.005400	3.846400	-11.559000	21.911208	0.000468	20.751964
133.047830	-2.984700	3.847100	-11.482000	21.911751	0.000470	20.761043
134.044310	-2.965700	3.847400	-11.408000	21.927229	0.000470	20.766105
135.042150	-2.997100	3.847400	-11.530000	21.925261	0.000469	20.783101
136.047918	-3.000000	3.847700	-11.542000	21.960259	0.000468	20.782573
137.045488	-2.989200	3.847100	-11.499000	21.984189	0.000469	20.778078
138.048632	-3.003700	3.846300	-11.552000	21.982719	0.000471	20.753846
139.042750	-2.998600	3.847400	-11.536000	21.992261	0.000469	20.758657
140.050369	-3.021700	3.846200	-11.621000	21.960229	0.000470	20.769741
141.052070	-3.002000	3.845900	-11.545000	21.969752	0.000470	20.758884
142.047140	-2.996700	3.846800	-11.526000	21.981910	0.000471	20.752088
143.051378	-2.996800	3.845900	-11.525000	21.994531	0.000469	20.756662
144.043223	-3.000800	3.845000	-11.537000	21.999317	0.000469	20.765246
145.052509	-2.981200	3.845100	-11.462000	22.021307	0.000472	20.746482
146.049622	-3.006300	3.845700	-11.561000	22.016191	0.000470	20.763646
147.045596	-3.010800	3.844900	-11.576000	22.043716	0.000472	20.749475
148.045606	-2.982000	3.845900	-11.467000	22.066224	0.000471	20.747825
149.045779	-2.977100	3.845000	-11.446000	22.069564	0.000471	20.761127
150.053283	-3.013000	3.843600	-11.580000	22.084720	0.000471	20.756385
151.045482	-2.990900	3.844700	-11.498000	22.079984	0.000471	20.775826
152.050402	-3.021800	3.844400	-11.616000	22.100132	0.000473	20.756642
153.051757	-3.005400	3.843300	-11.550000	22.111075	0.000472	20.756691
154.048340	-3.024100	3.843200	-11.622000	22.110823	0.000472	20.747430
155.050731	-2.998300	3.844700	-11.526000	22.124760	0.000476	20.765177
156.052086	-2.979200	3.843600	-11.450000	22.118302	0.000472	20.750176
157.051570	-3.015000	3.843600	-11.587000	22.148440	0.000474	20.747633
158.050960	-2.988600	3.842600	-11.482000	22.139545	0.000473	20.735408
159.052290	-3.003700	3.843900	-11.545000	22.147370	0.000476	20.761734
160.053339	-3.019000	3.843100	-11.601000	22.158889	0.000474	20.756671
161.051044	-3.023000	3.841300	-11.611000	22.179628	0.000474	20.757047
162.060166	-2.964000	3.844300	-11.394000	22.179806	0.000473	20.747741
163.059901	-3.003300	3.841200	-11.535000	22.196435	0.000475	20.747321
164.051472	-2.985900	3.840700	-11.467000	22.178217	0.000475	20.730503
165.059127	-2.994100	3.842200	-11.503000	22.199548	0.000474	20.748067
166.052711	-3.009300	3.841500	-11.559000	22.203465	0.000477	20.743928
167.059494	-3.014500	3.841800	-11.580000	22.207303	0.000475	20.734020
168.059741	-2.989400	3.841800	-11.484000	22.218678	0.000476	20.735452
169.061740	-2.991100	3.841500	-11.489000	22.205246	0.000477	20.725796
170.059410	-2.987600	3.842000	-11.478000	22.214495	0.000475	20.722728
171.060605	-2.989900	3.841000	-11.483000	22.239717	0.000476	20.747035
172.055346	-3.015700	3.840400	-11.581000	22.243910	0.000476	20.763562
173.056491	-3.000900	3.841000	-11.526000	22.255877	0.000477	20.735714
174.054524	-2.997500	3.840400	-11.511000	22.258023	0.000476	20.724586
175.053795	-3.010900	3.840400	-11.562000	22.268096	0.000477	20.756010
176.054873	-3.004300	3.839200	-11.532000	22.271386	0.000476	20.745079
177.056387	-3.004700	3.839700	-11.536000	22.273428	0.000476	20.712509
178.053439	-3.006800	3.839700	-11.544000	22.289983	0.000478	20.747104
179.055876	-3.005900	3.838500	-11.537000	22.287038	0.000479	20.730404
180.056224	-3.009800	3.839400	-11.555000	22.307676	0.000476	20.716455
181.055172	-3.003500	3.837600	-11.526000	22.291176	0.000478	20.726961
182.059862	-3.004500	3.838900	-11.533000	22.325847	0.000478	20.724694
183.059718	-2.988800	3.838300	-11.472000	22.340551	0.000477	20.726142
184.063567	-2.987200	3.838600	-11.465000	22.333527	0.000479	20.737127
185.058894	-3.006400	3.838600	-11.540000	22.348127	0.000478	20.734677
186.057537	-3.015400	3.838100	-11.573000	22.359092	0.000480	20.739967
187.062446	-2.998600	3.837900	-11.508000	22.378535	0.000479	20.724823
188.066916	-2.995400	3.837800	-11.495000	22.382896	0.000480	20.741044
189.066684	-3.017500	3.837100	-11.577000	22.371956	0.000480	20.745736
190.060708	-2.999000	3.838300	-11.509000	22.407567	0.000480	20.741567
191.062220	-3.003400	3.837900	-11.527000	22.398422	0.000480	20.721503
192.063997	-3.012600	3.837000	-11.559000	22.399818	0.000477	20.724798
193.065721	-2.988500	3.836700	-11.464000	22.390477	0.000480	20.730617
194.063065	-3.010700	3.835600	-11.547000	22.399276	0.000481	20.746541
195.064974	-2.987700	3.837000	-11.463000	22.397278	0.000479	20.739799
196.065489	-3.013200	3.835900	-11.557000	22.422975	0.000481	20.715744
197.066070	-2.991900	3.835200	-11.473000	22.421357	0.000483	20.734988
198.066836	-2.970200	3.836900	-11.395000	22.445978	0.000483	20.727875
199.066085	-2.992300	3.835000	-11.474000	22.458988	0.000482	20.708661
200.069482	-2.979100	3.836300	-11.428000	22.442190	0.000483	20.736411
201.068328	-2.999200	3.836600	-11.506000	22.436316	0.000485	20.725786
202.070733	-3.015000	3.833700	-11.558000	22.427640	0.000485	20.735117
203.072822	-2.997700	3.835300	-11.496000	22.439058	0.000484	20.703875
204.071057	-3.005000	3.833700	-11.520000	22.432582	0.000483	20.729160
205.066833	-3.011500	3.833800	-11.545000	22.456355	0.000485	20.731629
206.077665	-2.997900	3.833100	-11.490000	22.492362	0.000484	20.730706
207.067439	-2.979700	3.834000	-11.423000	22.505274	0.000487	20.725618
208.066250	-3.007900	3.834000	-11.531000	22.501338	0.000485	20.719780
209.068677	-3.001200	3.833200	-11.504000	22.500564	0.000486	20.706675
210.072258	-3.001500	3.832800	-11.503000	22.513746	0.000486	20.721775
211.073787	-2.999000	3.831800	-11.490000	22.502285	0.000489	20.712193
212.073934	-2.995600	3.833200	-11.481000	22.511611	0.000487	20.714895
213.073969	-3.014400	3.832000	-11.550000	22.496056	0.000486	20.715438
214.070086	-2.993700	3.833900	-11.476000	22.538691	0.000487	20.731111
215.070957	-2.990500	3.833000	-11.462000	22.546542	0.000488	20.712420
216.074572	-2.992800	3.831500	-11.466000	22.552376	0.000488	20.738179
217.070472	-3.003600	3.832500	-11.511000	22.595112	0.000489	20.737833
218.073506	-2.998800	3.832200	-11.490000	22.572713	0.000491	20.707338
219.071845	-3.009300	3.831500	-11.528000	22.605182	0.000492	20.706666
220.076248	-3.014200	3.831100	-11.547000	22.601868	0.000491	20.700027
221.071863	-3.010000	3.830700	-11.529000	22.619384	0.000492	20.709511
222.070888	-3.000600	3.829300	-11.490000	22.644025	0.000491	20.718071
223.075538	-2.987400	3.830400	-11.442000	22.652526	0.000491	20.709990
224.071725	-2.976900	3.829800	-11.400000	22.639616	0.000491	20.707491
225.079545	-2.991900	3.830600	-11.460000	22.646821	0.000492	20.714707
226.082642	-3.024900	3.829400	-11.582000	22.662793	0.000493	20.716955
227.073469	-2.997300	3.830400	-11.480000	22.676022	0.000493	20.717404
228.074554	-3.006900	3.829100	-11.512000	22.652255	0.000491	20.696441
229.077069	-2.988000	3.829300	-11.441000	22.642097	0.000493	20.726572
230.073588	-3.008500	3.829100	-11.519000	22.668557	0.000494	20.708978
231.076754	-2.988800	3.828000	-11.440000	22.663626	0.000493	20.727748
232.079254	-3.000100	3.828700	-11.485000	22.652092	0.000496	20.721410
233.082163	-2.993000	3.827900	-11.456000	22.676831	0.000496	20.703041
234.080914	-3.004000	3.829300	-11.502000	22.675663	0.000498	20.721312
235.077024	-3.004200	3.828600	-11.501000	22.698261	0.000496	20.723085
236.081008	-2.979700	3.827700	-11.404000	22.689741	0.000496	20.722611
237.080760	-2.989800	3.827500	-11.443000	22.694800	0.000498	20.725782
238.084297	-2.979700	3.826500	-11.401000	22.735164	0.000499	20.705520
239.079271	-2.995000	3.826900	-11.461000	22.730682	0.000498	20.718101
240.079679	-2.981300	3.826600	-11.408000	22.744976	0.000499	20.730524
241.079601	-3.000900	3.826900	-11.483000	22.753496	0.000501	20.712505
242.081373	-2.991000	3.827900	-11.449000	22.757534	0.000502	20.718447
243.080443	-3.014800	3.825100	-11.530000	22.770556	0.000502	20.718689
244.080334	-3.015100	3.825900	-11.535000	22.759891	0.000500	20.723179
245.081573	-3.012600	3.826400	-11.527000	22.769461	0.000501	20.710479
246.079666	-3.030100	3.824200	-11.587000	22.836199	0.000502	20.713799
247.082215	-2.982200	3.824700	-11.405000	22.820102	0.000502	20.733235
248.083992	-2.983900	3.826300	-11.416000	22.823809	0.000503	20.709921
249.083666	-2.995400	3.824900	-11.456000	22.832852	0.000502	20.707600
250.085194	-3.031700	3.823300	-11.589000	22.838206	0.000503	20.729086
251.084849	-3.002600	3.824600	-11.483000	22.842283	0.000501	20.720368
252.085272	-3.006600	3.824600	-11.497000	22.840188	0.000502	20.740555
253.086612	-3.002900	3.824700	-11.484000	22.857675	0.000504	20.719192
254.086259	-3.000000	3.822800	-11.467000	22.853509	0.000504	20.729244
255.084913	-3.008100	3.822300	-11.497000	22.847376	0.000505	20.723573
256.087231	-2.985700	3.823000	-11.414000	22.827921	0.000503	20.714040
257.089596	-3.019500	3.821800	-11.539000	22.844753	0.000504	20.727110
258.087773	-2.998300	3.824000	-11.465000	22.840419	0.000504	20.739364
259.086917	-3.007000	3.823300	-11.496000	22.862329	0.000505	20.739028
260.086667	-3.020300	3.821900	-11.542000	22.854160	0.000505	20.715670
261.091846	-2.986300	3.824300	-11.419000	22.868003	0.000507	20.723376
262.088818	-2.970700	3.822900	-11.355000	22.889745	0.000506	20.725243
263.090401	-2.964500	3.822700	-11.331000	22.919931	0.000506	20.721345
264.091836	-3.030900	3.819800	-11.577000	22.926227	0.000506	20.724808
265.087321	-2.994000	3.821900	-11.442000	22.907414	0.000508	20.728720
266.088414	-2.994300	3.820900	-11.439000	22.939094	0.000509	20.722052
267.090567	-3.019000	3.821800	-11.536000	22.945690	0.000507	20.743360
268.089536	-3.015100	3.820300	-11.517000	22.980183	0.000508	20.740935
269.088422	-3.011000	3.820500	-11.502000	22.943644	0.000509	20.733723
270.089809	-3.010300	3.821700	-11.504000	22.953602	0.000510	20.725208
271.088940	-2.999500	3.821400	-11.461000	22.984625	0.000509	20.744437
272.089570	-3.014500	3.818700	-11.511000	22.984925	0.000510	20.744264
273.086705	-3.027700	3.818600	-11.560000	22.988657	0.000507	20.733778
274.087823	-3.012500	3.819400	-11.505000	22.994859	0.000510	20.728611
275.089723	-2.991400	3.819100	-11.424000	23.018639	0.000510	20.738213
276.090722	-2.979200	3.820000	-11.380000	22.969989	0.000512	20.744946
277.089317	-3.016100	3.817200	-11.512000	22.987326	0.000509	20.765162
278.090421	-2.988500	3.817500	-11.408000	22.994967	0.000512	20.736781
279.090101	-2.962200	3.817900	-11.308000	23.025599	0.000511	20.760361
280.092452	-3.001300	3.818200	-11.458000	23.027941	0.000509	20.752750
281.088590	-2.978400	3.819400	-11.375000	23.017308	0.000511	20.748734
282.090474	-3.005800	3.818000	-11.476000	23.047466	0.000510	20.755718
283.098794	-2.998200	3.817800	-11.446000	23.064871	0.000513	20.752295
284.092086	-2.995700	3.818300	-11.437000	23.095526	0.000512	20.742234
285.092101	-3.012500	3.816100	-11.494000	23.085121	0.000512	20.745084
286.091072	-2.994800	3.817500	-11.432000	23.093904	0.000513	20.763369
287.093663	-2.995800	3.816100	-11.431000	23.134032	0.000512	20.745731
288.089806	-3.008200	3.816500	-11.480000	23.113532	0.000512	20.756484
289.097693	-3.019200	3.814800	-11.516000	23.136615	0.000513	20.750690
290.093368	-2.970800	3.815700	-11.335000	23.150189	0.000512	20.748171
291.095614	-2.987600	3.815800	-11.399000	23.157563	0.000512	20.732326
292.092327	-2.967000	3.816300	-11.321000	23.147173	0.000514	20.766012
293.094708	-2.981400	3.814900	-11.373000	23.131287	0.000512	20.763843
294.094111	-3.007400	3.815600	-11.474000	23.113202	0.000514	20.755205
295.095905	-3.015700	3.815000	-11.504000	23.170708	0.000514	20.767785
296.093910	-3.001600	3.813800	-11.447000	23.133746	0.000514	20.756351
297.099128	-2.990500	3.815700	-11.409000	23.145753	0.000515	20.759848
298.097561	-2.984400	3.813500	-11.380000	23.141746	0.000515	20.755832
299.095020	-2.998800	3.814000	-11.436000	23.162408	0.000512	20.770847
300.096294	-2.981400	3.814400	-11.372000	23.160224	0.000515	20.768185
301.095575	-2.999900	3.812500	-11.436000	23.183932	0.000517	20.769183
302.100969	-3.018600	3.812900	-11.508000	23.192276	0.000514	20.763320
303.102805	-2.993000	3.812200	-11.409000	23.204948	0.000516	20.753259
304.099234	-2.990700	3.813600	-11.404000	23.205662	0.000518	20.756346
305.099073	-2.982300	3.813700	-11.373000	23.202010	0.000517	20.768333
306.100738	-2.993400	3.811700	-11.409000	23.210547	0.000515	20.761715
307.099030	-3.033200	3.811100	-11.559000	23.198821	0.000517	20.774147
308.098164	-3.006300	3.811500	-11.457000	23.240133	0.000518	20.757225
309.098880	-3.002300	3.812100	-11.444000	23.242898	0.000514	20.747667
310.104339	-3.026000	3.810500	-11.529000	23.219014	0.000518	20.780158
311.101368	-2.973000	3.811400	-11.330000	23.219261	0.000518	20.747213
312.101423	-3.013200	3.811700	-11.485000	23.216993	0.000516	20.765804
313.104546	-3.015300	3.809900	-11.487000	23.218536	0.000516	20.778730
314.098839	-3.000900	3.811800	-11.438000	23.253947	0.000518	20.772966
315.101263	-3.026800	3.809500	-11.530000	23.258575	0.000518	20.765276
316.102677	-3.006300	3.810200	-11.454000	23.273218	0.000519	20.784218
317.101303	-2.991000	3.811200	-11.398000	23.288382	0.000519	20.757689
318.103269	-2.994900	3.810600	-11.412000	23.315546	0.000520	20.763103
319.104123	-3.018400	3.808100	-11.493000	23.281882	0.000519	20.777253
320.103468	-3.003600	3.810200	-11.443000	23.275652	0.000520	20.771010
321.102470	-2.978500	3.809400	-11.346000	23.286110	0.000520	20.784810
322.104226	-2.989500	3.808200	-11.384000	23.299382	0.000519	20.761127
323.103322	-3.010500	3.807000	-11.459000	23.302718	0.000521	20.784386
324.102206	-3.024400	3.807800	-11.516000	23.336038	0.000521	20.777950
325.104665	-3.001300	3.807100	-11.426000	23.345293	0.000521	20.778691
326.103040	-3.016500	3.806500	-11.481000	23.332593	0.000520	20.803895
327.101827	-3.003400	3.808800	-11.438000	23.316286	0.000520	20.775698
328.101919	-2.996100	3.806900	-11.404000	23.334362	0.000521	20.795237
329.102639	-2.999700	3.806400	-11.417000	23.381469	0.000520	20.775120
330.106913	-3.031700	3.805800	-11.537000	23.372909	0.000522	20.792619
331.102993	-3.007100	3.806100	-11.444000	23.379754	0.000522	20.803747
332.104998	-3.000600	3.807800	-11.425000	23.381173	0.000521	20.784781
333.107213	-3.003300	3.806900	-11.432000	23.373776	0.000523	20.794437
334.103901	-3.000000	3.805600	-11.415000	23.382469	0.000522	20.776123
335.109241	-3.017900	3.804800	-11.481000	23.399352	0.000520	20.778819
336.110232	-2.992900	3.805300	-11.388000	23.413071	0.000521	20.802053
337.107686	-3.005000	3.804800	-11.432000	23.424597	0.000521	20.785630
338.110945	-2.994100	3.805300	-11.392000	23.431446	0.000522	20.795341
339.113714	-2.991000	3.805100	-11.380000	23.438241	0.000522	20.783660
340.109495	-3.004800	3.803900	-11.429000	23.462169	0.000526	20.793894
341.112300	-3.011900	3.803700	-11.455000	23.448205	0.000525	20.789379
342.109941	-3.002700	3.803100	-11.419000	23.461125	0.000521	20.783837
343.111218	-2.972600	3.805100	-11.310000	23.463145	0.000524	20.793449
344.113634	-2.988300	3.803000	-11.364000	23.459858	0.000525	20.787784
345.111258	-2.983600	3.803000	-11.345000	23.476316	0.000525	20.805703
346.113282	-2.996700	3.802400	-11.393000	23.465313	0.000524	20.800838
347.109701	-2.992900	3.802600	-11.380000	23.484609	0.000523	20.811644
348.110322	-2.982000	3.802400	-11.337000	23.509507	0.000524	20.792031
349.112003	-2.998900	3.801700	-11.400000	23.483786	0.000523	20.792802
350.110978	-3.000300	3.802100	-11.405000	23.472212	0.000527	20.799692
351.115338	-2.966000	3.801500	-11.275000	23.490808	0.000527	20.781348
352.113518	-2.982700	3.802000	-11.340000	23.524717	0.000528	20.799218
353.112792	-2.981100	3.801400	-11.331000	23.536375	0.000527	20.796205
354.112643	-2.989800	3.801700	-11.365000	23.518898	0.000526	20.795281
355.114906	-2.982700	3.799700	-11.333000	23.553182	0.000529	20.799776
356.113558	-2.993100	3.801000	-11.376000	23.537025	0.000527	20.790219
357.113245	-3.008700	3.800000	-11.432000	23.549698	0.000529	20.789646
358.121985	-3.015300	3.799900	-11.456000	23.563366	0.000529	20.801924
359.114716	-3.019500	3.800000	-11.473000	23.531896	0.000529	20.798828
360.120056	-3.010000	3.799300	-11.435000	23.562119	0.000529	20.792614
361.117825	-3.004600	3.798200	-11.411000	23.528787	0.000531	20.807565
362.115473	-2.995800	3.799300	-11.381000	23.564366	0.000528	20.819048
363.114936	-2.991600	3.799700	-11.366000	23.559114	0.000530	20.804300
364.117578	-2.988300	3.799000	-11.351000	23.561380	0.000530	20.801830
365.114542	-2.989100	3.798100	-11.351000	23.570367	0.000532	20.798511
366.116513	-2.994700	3.798100	-11.373000	23.579177	0.000531	20.796437
367.123749	-2.989800	3.796800	-11.351000	23.579226	0.000532	20.814030
368.117132	-3.000800	3.796400	-11.391000	23.577886	0.000532	20.811738
369.115088	-3.007500	3.798100	-11.422000	23.614330	0.000531	20.821246
370.116427	-3.015400	3.795600	-11.445000	23.616621	0.000532	20.801732
371.119340	-2.989600	3.796100	-11.347000	23.623445	0.000534	20.813314
372.115153	-2.989700	3.797200	-11.352000	23.624465	0.000533	20.796793
373.116143	-2.987300	3.796000	-11.339000	23.647468	0.000533	20.814163
374.122750	-3.010600	3.796200	-11.428000	23.626184	0.000534	20.821749
375.118690	-3.011200	3.795300	-11.427000	23.625061	0.000533	20.790752
376.120815	-2.990000	3.796300	-11.349000	23.624066	0.000533	20.800660
377.125005	-2.993500	3.795300	-11.360000	23.625933	0.000533	20.833351
378.123283	-2.999500	3.795800	-11.384000	23.605220	0.000533	20.818752
379.120820	-3.014200	3.794000	-11.435000	23.634318	0.000534	20.804300
380.124595	-2.992900	3.795100	-11.358000	23.646275	0.000533	20.812494
381.121354	-3.005600	3.793700	-11.401000	23.639545	0.000536	20.805273
382.123986	-3.017000	3.792600	-11.441000	23.689334	0.000535	20.840014
383.123913	-3.002800	3.792200	-11.385000	23.680747	0.000533	20.835672
384.121242	-3.007500	3.792400	-11.406000	23.696655	0.000535	20.820327
385.121917	-3.010400	3.793500	-11.418000	23.717789	0.000536	20.831558
386.120868	-3.013000	3.792700	-11.426000	23.716070	0.000535	20.832679
387.123276	-2.995800	3.792400	-11.360000	23.748977	0.000537	20.836749
388.123841	-3.001600	3.793200	-11.385000	23.754258	0.000536	20.827345
389.122500	-2.998100	3.792900	-11.371000	23.747184	0.000536	20.840167
390.123876	-3.012900	3.790700	-11.420000	23.726819	0.000537	20.833499
391.127678	-2.994200	3.792600	-11.355000	23.742977	0.000538	20.805130
392.119546	-2.996700	3.792400	-11.363000	23.718838	0.000538	20.792782
393.123828	-2.986200	3.791300	-11.320000	23.733218	0.000537	20.823320
394.126007	-2.992700	3.790900	-11.344000	23.710665	0.000539	20.845279
395.124577	-3.002300	3.791200	-11.382000	23.748081	0.000539	20.816410
396.121798	-3.016500	3.789400	-11.430000	23.756840	0.000538	20.824244
397.125929	-3.006500	3.789300	-11.392000	23.781480	0.000541	20.826664
398.120619	-2.997600	3.789300	-11.358000	23.800864	0.000541	20.824288
399.122681	-3.010200	3.789000	-11.405000	23.783771	0.000539	20.831331
400.124661	-3.013300	3.789700	-11.418000	23.801815	0.000541	20.838043
401.121521	-3.013300	3.788400	-11.415000	23.833720	0.000541	20.836843
402.122663	-3.011600	3.787800	-11.407000	23.837873	0.000540	20.831524
403.126902	-2.981600	3.788100	-11.293000	23.822568	0.000540	20.845575
404.122111	-3.005600	3.787300	-11.382000	23.800938	0.000540	20.827207
405.124932	-2.997500	3.786900	-11.350000	23.808805	0.000539	20.835569
406.125280	-2.993100	3.788000	-11.337000	23.811243	0.000541	20.834695
407.123395	-2.999200	3.787800	-11.359000	23.847705	0.000540	20.850865
408.121617	-3.010300	3.788500	-11.403000	23.875973	0.000540	20.842701
409.125072	-2.989700	3.786500	-11.320000	23.893326	0.000540	20.842083
410.122920	-2.985100	3.786500	-11.303000	23.929036	0.000543	20.847071
411.122087	-2.983600	3.786500	-11.296000	23.907832	0.000541	20.840982
412.128281	-2.987700	3.786900	-11.313000	23.883845	0.000539	20.851067
413.125237	-2.994600	3.785300	-11.335000	23.902562	0.000542	20.855611
414.124700	-2.992700	3.784800	-11.325000	23.905123	0.000540	20.834472
415.122952	-3.020000	3.784800	-11.429000	23.914580	0.000542	20.852489
416.124131	-3.020500	3.784400	-11.429000	23.941537	0.000541	20.844434
417.123021	-3.002000	3.784300	-11.359000	23.940217	0.000542	20.851645
418.125784	-3.004400	3.784900	-11.370000	23.920806	0.000540	20.845456
419.124881	-2.981700	3.785500	-11.286000	23.904005	0.000542	20.855635
420.135140	-3.010400	3.784300	-11.391000	23.911472	0.000540	20.841787
421.126864	-3.000400	3.784500	-11.354000	23.928524	0.000541	20.856989
422.128663	-2.995200	3.784600	-11.334000	23.938400	0.000540	20.862624
423.124381	-2.995200	3.783100	-11.329000	23.954599	0.000542	20.844730
424.124922	-3.023700	3.781900	-11.433000	23.944152	0.000541	20.875504
425.124064	-2.995600	3.783600	-11.334000	23.941690	0.000541	20.860233
426.125889	-3.004100	3.782900	-11.363000	23.951018	0.000541	20.870062
427.125860	-3.000400	3.782600	-11.348000	23.956224	0.000542	20.863429
428.131159	-2.987800	3.782900	-11.301000	23.948260	0.000541	20.861606
429.129963	-2.984700	3.782300	-11.288000	23.985209	0.000544	20.860727
430.129230	-3.004500	3.781700	-11.361000	24.005048	0.000545	20.886310
431.128111	-2.993900	3.781300	-11.320000	24.017439	0.000543	20.841841
432.131896	-2.984700	3.782000	-11.288000	24.007116	0.000542	20.865627
433.129226	-3.010700	3.780400	-11.381000	24.046058	0.000542	20.857739
434.129490	-2.997400	3.779800	-11.329000	24.032175	0.000542	20.863730
435.132114	-3.020500	3.779000	-11.413000	24.037075	0.000542	20.875282
436.135126	-3.015200	3.779200	-11.394000	24.025157	0.000542	20.863804
437.130157	-3.003500	3.780200	-11.353000	24.050712	0.000544	20.882320
438.133724	-3.006900	3.779100	-11.361000	24.033519	0.000542	20.856070
439.132216	-3.006800	3.779000	-11.362000	24.040986	0.000543	20.873040
440.129918	-2.994000	3.777000	-11.308000	24.020286	0.000543	20.879307
441.130019	-2.985800	3.778700	-11.282000	24.012948	0.000544	20.860095
442.131513	-2.985300	3.778700	-11.280000	24.046339	0.000544	20.858495
443.131450	-2.999300	3.778600	-11.332000	24.036588	0.000546	20.874319
444.130866	-3.030100	3.776900	-11.444000	24.041493	0.000545	20.874023
445.130648	-3.006500	3.777700	-11.357000	24.054106	0.000545	20.858223
446.130476	-2.999900	3.776800	-11.329000	24.042163	0.000547	20.873746
447.131476	-2.994500	3.777700	-11.311000	24.075159	0.000548	20.887397
448.132111	-2.984600	3.777800	-11.275000	24.117979	0.000544	20.874393
449.134172	-3.023900	3.777100	-11.420000	24.114897	0.000545	20.860396
450.128964	-2.998700	3.775800	-11.322000	24.085506	0.000546	20.878808
451.136388	-3.024800	3.775600	-11.420000	24.120767	0.000549	20.871025
452.134630	-2.995300	3.776300	-11.310000	24.119496	0.000546	20.877336
453.133013	-3.015900	3.774400	-11.383000	24.103348	0.000546	20.875366
454.136326	-3.005600	3.774400	-11.344000	24.128203	0.000548	20.889387
455.133647	-3.004600	3.776600	-11.346000	24.142183	0.000548	20.872116
456.133971	-3.032200	3.774000	-11.442000	24.165299	0.000548	20.870170
457.136671	-2.996600	3.775700	-11.313000	24.189354	0.000546	20.876280
458.135884	-2.999700	3.774200	-11.320000	24.214783	0.000548	20.867647
459.135936	-3.006600	3.775200	-11.350000	24.209957	0.000549	20.867548
460.142258	-3.027700	3.773300	-11.422000	24.179146	0.000546	20.847551
461.136593	-3.001800	3.774700	-11.330000	24.146650	0.000548	20.854312
462.134389	-2.985800	3.773600	-11.266000	24.166057	0.000550	20.842483
463.136469	-2.987800	3.772800	-11.271000	24.149555	0.000548	20.847743
464.137977	-2.997100	3.771400	-11.301000	24.169952	0.000548	20.852554
465.142175	-3.008200	3.772100	-11.347000	24.180751	0.000548	20.872867
466.140022	-2.999200	3.772200	-11.313000	24.172168	0.000552	20.859043
467.136235	-3.003000	3.771700	-11.326000	24.145887	0.000550	20.871089
468.136901	-3.031500	3.771400	-11.431000	24.152747	0.000549	20.881288
469.135480	-3.008800	3.772600	-11.350000	24.189364	0.000550	20.846420
470.137911	-2.991700	3.772700	-11.286000	24.209317	0.000550	20.814751
471.134109	-2.982100	3.770900	-11.244000	24.221775	0.000550	20.826773
472.136999	-2.994700	3.771200	-11.292000	24.214655	0.000552	20.851873
473.137584	-3.008700	3.770300	-11.343000	24.214650	0.000552	20.839540
474.144843	-2.976900	3.772000	-11.227000	24.198745	0.000551	20.833070
475.139309	-2.997600	3.769200	-11.297000	24.211553	0.000550	20.849235
476.140504	-2.994500	3.769800	-11.287000	24.226203	0.000549	20.848282
477.143593	-2.981000	3.769500	-11.236000	24.255550	0.000551	20.837891
478.137985	-3.017300	3.767400	-11.367000	24.241192	0.000552	20.851937
479.144550	-3.008800	3.769300	-11.340000	24.227926	0.000550	20.840529
480.140147	-3.015800	3.768700	-11.364000	24.217744	0.000549	20.841694
481.139905	-2.998100	3.768700	-11.298000	24.207290	0.000549	20.849701
482.139204	-3.009700	3.768200	-11.340000	24.204621	0.000551	20.841808
483.142024	-3.013500	3.767700	-11.354000	24.226538	0.000549	20.841507
484.140552	-3.011400	3.767600	-11.345000	24.230020	0.000549	20.864912
485.139720	-2.984100	3.767000	-11.240000	24.253823	0.000547	20.829521
486.140450	-3.006400	3.768000	-11.328000	24.225982	0.000552	20.845691
487.142654	-2.968400	3.768100	-11.185000	24.264981	0.000548	20.851144
488.139153	-3.016100	3.766100	-11.358000	24.260776	0.000550	20.836969
489.142014	-3.001100	3.765400	-11.299000	24.260121	0.000549	20.835364
490.143456	-2.996700	3.766400	-11.286000	24.270668	0.000550	20.834564
491.143390	-2.967200	3.766800	-11.176000	24.267281	0.000550	20.840175
492.142058	-2.994800	3.766500	-11.278000	24.241524	0.000551	20.842788
493.144596	-3.005900	3.764600	-11.315000	24.257773	0.000552	20.828741
494.141832	-2.998600	3.765200	-11.289000	24.251500	0.000552	20.845208
495.144737	-2.987300	3.764800	-11.246000	24.269704	0.000553	20.842605
496.142696	-3.003500	3.763900	-11.304000	24.254922	0.000550	20.826830
497.143037	-3.003300	3.765600	-11.308000	24.289099	0.000550	20.818913
498.148660	-2.976700	3.764400	-11.205000	24.314398	0.000552	20.831488
499.146773	-2.996700	3.764600	-11.279000	24.294964	0.000554	20.831908
500.151817	-3.012700	3.762600	-11.334000	24.305457	0.000552	20.879889
501.144310	-2.999200	3.764300	-11.289000	24.337343	0.000553	20.831272
502.143428	-2.989500	3.763700	-11.251000	24.352138	0.000554	20.828096
503.147256	-3.000600	3.763000	-11.291000	24.381463	0.000553	20.843763
504.146855	-2.989600	3.762800	-11.249000	24.355565	0.000551	20.834379
505.145721	-3.015300	3.762900	-11.344000	24.327624	0.000553	20.829583
506.148866	-3.005500	3.761900	-11.306000	24.340500	0.000552	20.846766
507.149771	-3.004900	3.762800	-11.306000	24.347383	0.000552	20.824275
508.148109	-2.999500	3.761900	-11.283000	24.389120	0.000554	20.811142
509.153250	-3.006600	3.762400	-11.311000	24.394886	0.000551	20.807443
510.145111	-2.985000	3.762100	-11.229000	24.384906	0.000552	20.824458
511.147711	-2.993900	3.760800	-11.259000	24.377236	0.000553	20.831462
512.148604	-3.018500	3.760900	-11.351000	24.382007	0.000552	20.830559
513.148580	-3.003800	3.759400	-11.292000	24.377103	0.000552	20.825166
514.148219	-2.996700	3.760100	-11.267000	24.395055	0.000552	20.814725
515.152426	-2.983900	3.760400	-11.220000	24.396463	0.000552	20.825147
516.146216	-3.027900	3.759000	-11.381000	24.374909	0.000553	20.855206
517.149434	-3.019900	3.759000	-11.351000	24.394362	0.000550	20.829203
518.154497	-2.968300	3.759300	-11.157000	24.385545	0.000554	20.814668
519.147742	-3.016700	3.758500	-11.337000	24.385319	0.000553	20.835777
520.156367	-3.000700	3.757900	-11.275000	24.428393	0.000552	20.825885
521.151425	-2.994000	3.757200	-11.248000	24.424233	0.000553	20.835937
522.148677	-3.006700	3.757100	-11.295000	24.447461	0.000556	20.835532
523.150678	-3.017300	3.757000	-11.335000	24.461355	0.000552	20.830979
524.155059	-2.984400	3.757500	-11.213000	24.444932	0.000554	20.831572
525.147924	-2.968000	3.757700	-11.152000	24.430395	0.000553	20.828842
526.152083	-2.984800	3.757700	-11.215000	24.448301	0.000553	20.841590
527.150331	-3.000700	3.757700	-11.275000	24.457793	0.000554	20.815552
528.157428	-2.975400	3.757000	-11.178000	24.463933	0.000553	20.813651
529.153696	-2.982400	3.756500	-11.203000	24.440642	0.000554	20.824898
530.152409	-2.972900	3.756100	-11.166000	24.421038	0.000551	20.828938
531.154037	-3.014100	3.755700	-11.319000	24.396846	0.000553	20.833592
532.152719	-2.987000	3.754300	-11.212000	24.401741	0.000552	20.821907
533.157093	-3.000600	3.754700	-11.264000	24.425043	0.000554	20.820154
534.156421	-2.974400	3.755500	-11.170000	24.432852	0.000554	20.814237
535.154078	-2.989700	3.754600	-11.224000	24.436973	0.000552	20.820269
536.156954	-2.996500	3.754300	-11.248000	24.468860	0.000552	20.847043
537.155272	-3.011500	3.753900	-11.302000	24.482532	0.000553	20.834682
538.156814	-3.020500	3.754600	-11.340000	24.464515	0.000553	20.830356
539.155124	-3.000000	3.754500	-11.262000	24.429487	0.000551	20.821767
540.155054	-2.995000	3.754000	-11.243000	24.441323	0.000553	20.819891
541.157258	-3.004300	3.752600	-11.273000	24.450742	0.000553	20.811323
542.155529	-2.991900	3.752500	-11.226000	24.479838	0.000554	20.831030
543.155159	-3.013100	3.751500	-11.303000	24.484333	0.000553	20.816574
544.160141	-2.989400	3.752600	-11.217000	24.531785	0.000554	20.827673
545.158706	-2.980100	3.752500	-11.182000	24.523973	0.000553	20.831215
546.159245	-2.986500	3.752600	-11.206000	24.518795	0.000554	20.798045
547.162696	-3.004700	3.751700	-11.272000	24.505676	0.000552	20.827082
548.158257	-2.987700	3.751900	-11.208000	24.520318	0.000551	20.819487
549.159255	-3.002500	3.749700	-11.257000	24.490840	0.000552	20.819310
550.165439	-3.014900	3.749700	-11.304000	24.480615	0.000554	20.819957
551.165693	-3.006600	3.750200	-11.275000	24.521998	0.000555	20.814535
552.160061	-2.991300	3.750300	-11.217000	24.544003	0.000552	20.815751
553.163598	-3.001300	3.750200	-11.254000	24.528729	0.000552	20.834089
554.158143	-2.997300	3.749400	-11.237000	24.505563	0.000553	20.826020
555.160927	-3.000500	3.749400	-11.249000	24.495043	0.000553	20.828267
556.162285	-3.000600	3.749500	-11.250000	24.537144	0.000553	20.797014
557.163697	-2.988800	3.748800	-11.204000	24.549771	0.000552	20.814900
558.161329	-2.997700	3.747900	-11.234000	24.546065	0.000552	20.814026
559.165510	-2.989200	3.749000	-11.205000	24.553971	0.000553	20.812001
560.170045	-3.008500	3.748400	-11.276000	24.566627	0.000554	20.819484
561.161688	-3.009900	3.746800	-11.276000	24.584728	0.000554	20.821051
562.161416	-3.010900	3.747700	-11.283000	24.580319	0.000555	20.824687
563.165916	-3.011200	3.747200	-11.283000	24.603790	0.000552	20.812202
564.164962	-3.003100	3.747400	-11.253000	24.607940	0.000553	20.825375
565.169152	-2.991500	3.746600	-11.207000	24.619030	0.000553	20.826545
566.164174	-2.978500	3.748700	-11.165000	24.611564	0.000552	20.807200
567.163793	-2.992800	3.747400	-11.214000	24.599022	0.000553	20.831600
568.163002	-2.995800	3.745400	-11.220000	24.606406	0.000552	20.816250
569.167597	-3.011000	3.744800	-11.275000	24.593816	0.000552	20.805039
570.166209	-3.019600	3.744900	-11.307000	24.559191	0.000552	20.815342
571.167778	-3.002700	3.746400	-11.248000	24.549735	0.000553	20.811545
572.167477	-3.009200	3.744800	-11.268000	24.546320	0.000553	20.814282
573.163679	-3.020800	3.744700	-11.311000	24.596309	0.000555	20.827929
574.165697	-2.994400	3.744900	-11.213000	24.606426	0.000552	20.815321
575.167679	-3.010600	3.744900	-11.273000	24.567577	0.000550	20.828024
576.165639	-3.001300	3.745100	-11.239000	24.607942	0.000551	20.819213
577.168900	-3.006600	3.744600	-11.258000	24.634721	0.000551	20.816685
578.168279	-3.014200	3.743800	-11.284000	24.649369	0.000550	20.813366
579.173013	-3.010800	3.743300	-11.270000	24.648079	0.000549	20.798321
580.173039	-3.000000	3.742800	-11.228000	24.637079	0.000549	20.808620
581.170333	-3.002400	3.741700	-11.232000	24.658318	0.000551	20.793897
582.170670	-3.015200	3.742200	-11.283000	24.684903	0.000549	20.815357
583.172378	-2.988900	3.742400	-11.184000	24.652796	0.000552	20.825813
584.173864	-2.999700	3.742000	-11.223000	24.611533	0.000548	20.806695
585.173246	-3.012700	3.742200	-11.273000	24.660081	0.000548	20.808942
586.170045	-3.023200	3.740000	-11.306000	24.622327	0.000550	20.826535
587.171853	-2.997900	3.742600	-11.219000	24.623848	0.000548	20.791551
588.176080	-2.987100	3.741300	-11.175000	24.630858	0.000549	20.796214
589.166266	-2.982300	3.740800	-11.154000	24.667744	0.000550	20.782493
590.169960	-3.009200	3.739800	-11.253000	24.650429	0.000550	20.806369
591.170351	-3.009100	3.739900	-11.252000	24.663417	0.000548	20.799488
592.171324	-2.988900	3.740800	-11.180000	24.656650	0.000548	20.801706
593.177008	-3.007800	3.738800	-11.244000	24.657875	0.000548	20.780650
594.171894	-2.997600	3.740500	-11.212000	24.658121	0.000548	20.778052
595.172718	-2.991600	3.739400	-11.186000	24.662797	0.000547	20.784641
596.172422	-2.962200	3.738800	-11.074000	24.674138	0.000547	20.811193
597.174211	-2.983400	3.738400	-11.152000	24.685305	0.000547	20.800589
598.173224	-3.012300	3.738200	-11.259000	24.724602	0.000548	20.792607
599.176106	-3.003800	3.737400	-11.225000	24.709585	0.000547	20.811676
600.175907	-2.999500	3.739200	-11.215000	24.674072	0.000547	20.786472
601.178465	-3.004200	3.736700	-11.224000	24.678699	0.000547	20.808658
602.175258	-3.005600	3.736600	-11.230000	24.658454	0.000546	20.809206
603.173190	-2.984900	3.738500	-11.158000	24.651868	0.000546	20.799752
604.175461	-3.004900	3.736600	-11.226000	24.653959	0.000547	20.815601
605.176526	-3.003300	3.737300	-11.223000	24.610564	0.000547	20.801455
606.173076	-3.007200	3.737200	-11.238000	24.613350	0.000548	20.773905
607.176068	-3.011100	3.736400	-11.249000	24.644069	0.000547	20.789556
608.177652	-2.983600	3.736100	-11.147000	24.677401	0.000546	20.779381
609.175747	-2.998900	3.736800	-11.205000	24.691429	0.000545	20.795828
610.177424	-3.031300	3.733600	-11.317000	24.705875	0.000546	20.774763
611.183463	-2.998800	3.734600	-11.198000	24.711176	0.000546	20.787668
612.181533	-2.988100	3.734500	-11.158000	24.732019	0.000546	20.766385
613.176007	-3.010400	3.735600	-11.245000	24.732142	0.000545	20.778837
614.175664	-3.019200	3.733700	-11.272000	24.718691	0.000546	20.778614
615.175689	-3.002700	3.733600	-11.210000	24.745455	0.000544	20.782239
616.176040	-2.972600	3.734200	-11.099000	24.728153	0.000544	20.794274
617.178484	-2.992200	3.733900	-11.171000	24.706020	0.000548	20.775382
618.178169	-2.989900	3.735000	-11.166000	24.712039	0.000546	20.766249
619.178615	-3.006600	3.732600	-11.221000	24.692716	0.000545	20.790955
620.180106	-2.995600	3.732900	-11.181000	24.704459	0.000545	20.775712
621.182302	-3.003300	3.733100	-11.211000	24.720076	0.000546	20.759615
622.178713	-3.006600	3.733600	-11.225000	24.724378	0.000547	20.765829
623.179907	-3.007600	3.732100	-11.224000	24.701003	0.000547	20.761813
624.182478	-3.008100	3.731600	-11.224000	24.715429	0.000544	20.763961
625.183600	-3.014500	3.731400	-11.248000	24.684992	0.000545	20.799326
626.187490	-3.008500	3.731400	-11.225000	24.733360	0.000547	20.772472
627.179497	-3.008000	3.732100	-11.225000	24.775066	0.000544	20.784928
628.191485	-2.991600	3.731900	-11.164000	24.785238	0.000548	20.770480
629.181290	-3.019500	3.730100	-11.262000	24.741351	0.000546	20.755835
630.182468	-2.994100	3.730100	-11.167000	24.737193	0.000547	20.762568
631.190166	-2.995100	3.730000	-11.171000	24.726379	0.000546	20.776373
632.183235	-2.970100	3.732100	-11.084000	24.749384	0.000547	20.754887
633.181953	-2.978400	3.730100	-11.109000	24.786635	0.000545	20.751019
634.182875	-3.007800	3.729800	-11.218000	24.798575	0.000546	20.769166
635.185713	-3.013900	3.728300	-11.236000	24.794520	0.000546	20.761777
636.186569	-3.023000	3.729100	-11.272000	24.758287	0.000547	20.760977
637.186674	-3.001900	3.728100	-11.189000	24.775970	0.000547	20.756911
638.183531	-3.012500	3.728800	-11.233000	24.801336	0.000548	20.765772
639.185785	-2.984200	3.728600	-11.126000	24.810312	0.000548	20.756289
640.187312	-2.974000	3.729200	-11.090000	24.827719	0.000547	20.764750
641.185554	-2.983600	3.728200	-11.123000	24.856518	0.000547	20.757617
642.185732	-2.982500	3.729600	-11.121000	24.847070	0.000546	20.747659
643.184801	-2.981500	3.728900	-11.117000	24.863251	0.000546	20.771487
644.189194	-2.990700	3.727700	-11.147000	24.833019	0.000544	20.756792
645.186794	-3.006400	3.727000	-11.203000	24.781389	0.000546	20.755711
646.186746	-2.987100	3.726100	-11.129000	24.807905	0.000545	20.742019
647.185829	-3.009300	3.726200	-11.213000	24.838409	0.000546	20.747502
648.185440	-2.986500	3.726500	-11.129000	24.827464	0.000544	20.749320
649.185132	-2.987200	3.725800	-11.128000	24.829477	0.000545	20.770307
650.185938	-3.003600	3.725600	-11.189000	24.788270	0.000545	20.756453
651.187485	-2.983700	3.725500	-11.115000	24.792670	0.000545	20.746644
652.185530	-2.996000	3.725200	-11.160000	24.810073	0.000546	20.747988
653.187770	-2.998100	3.725200	-11.168000	24.783389	0.000545	20.749184
654.186364	-3.009600	3.724600	-11.208000	24.782169	0.000544	20.744166
655.190409	-3.009400	3.724000	-11.206000	24.805911	0.000545	20.747604
656.190919	-2.993100	3.724400	-11.146000	24.807127	0.000546	20.750721
657.187397	-3.013900	3.723800	-11.221000	24.841140	0.000546	20.746923
658.184934	-2.997900	3.723300	-11.160000	24.838654	0.000545	20.767189
659.191764	-3.017200	3.723300	-11.233000	24.886559	0.000547	20.740351
660.186430	-2.996900	3.723100	-11.157000	24.860423	0.000546	20.754423
661.187629	-2.998800	3.723500	-11.165000	24.870492	0.000546	20.744614
662.194139	-3.006700	3.722300	-11.192000	24.905718	0.000545	20.749623
663.187532	-3.011000	3.722500	-11.208000	24.905020	0.000544	20.743706
664.185565	-3.006600	3.722600	-11.192000	24.928460	0.000544	20.748266
665.193539	-3.016500	3.720500	-11.222000	24.876744	0.000544	20.737612
666.194446	-2.980000	3.722800	-11.092000	24.842847	0.000543	20.743896
667.191453	-3.013600	3.721800	-11.214000	24.831426	0.000543	20.739071
668.185393	-2.996300	3.721200	-11.149000	24.866387	0.000547	20.740020
669.190804	-3.001900	3.721400	-11.170000	24.858248	0.000543	20.740386
670.187700	-3.001200	3.721300	-11.168000	24.861256	0.000544	20.726808
671.190845	-2.995000	3.721900	-11.146000	24.879602	0.000545	20.740481
672.193066	-3.001900	3.719400	-11.164000	24.861946	0.000543	20.751210
673.197069	-3.003100	3.719300	-11.169000	24.835213	0.000543	20.757572
674.188558	-2.998900	3.719800	-11.154000	24.819195	0.000544	20.740072
675.188533	-2.988600	3.719300	-11.115000	24.828398	0.000543	20.750731
676.189495	-3.011200	3.719300	-11.199000	24.882892	0.000542	20.758008
677.194037	-3.001300	3.719000	-11.161000	24.892887	0.000541	20.746228
678.192999	-3.002200	3.718900	-11.163000	24.921134	0.000541	20.757984
679.195057	-3.022100	3.717300	-11.233000	24.926823	0.000543	20.754211
680.196218	-3.016500	3.718000	-11.215000	24.915185	0.000543	20.747746
681.195578	-3.011400	3.717300	-11.194000	24.881315	0.000542	20.742200
682.191461	-2.996400	3.719000	-11.142000	24.869327	0.000541	20.752928
683.190758	-2.990500	3.717000	-11.115000	24.876364	0.000541	20.744818
684.191625	-3.015700	3.717200	-11.209000	24.858408	0.000541	20.757616
685.191644	-3.017600	3.715300	-11.211000	24.850573	0.000539	20.758288
686.197494	-3.013000	3.717200	-11.198000	24.871779	0.000542	20.764399
687.190923	-3.011400	3.717000	-11.192000	24.810961	0.000539	20.761682
688.192608	-2.986700	3.716700	-11.100000	24.831573	0.000539	20.761504
689.197276	-2.984100	3.717800	-11.093000	24.832542	0.000539	20.731656
690.195492	-2.991800	3.715900	-11.116000	24.877001	0.000541	20.751147
691.193961	-3.000500	3.714500	-11.145000	24.931079	0.000538	20.741886
692.193427	-2.973400	3.716900	-11.051000	24.944055	0.000540	20.745902
693.197424	-3.000200	3.716300	-11.148000	24.955192	0.000540	20.764193
694.196573	-3.001400	3.717300	-11.156000	24.950846	0.000537	20.744657
695.201081	-3.026300	3.715600	-11.243000	24.950472	0.000538	20.745230
696.199386	-2.997900	3.714100	-11.133000	24.904225	0.000539	20.747176
697.196259	-3.006000	3.714400	-11.165000	24.932742	0.000536	20.757307
698.200165	-2.989600	3.714300	-11.103000	24.916758	0.000538	20.743634
699.202003	-2.990700	3.713400	-11.105000	24.974358	0.000537	20.754033
700.199381	-2.960100	3.714700	-10.995000	24.950521	0.000538	20.754763
701.204438	-3.014800	3.713600	-11.196000	24.902315	0.000537	20.766596
702.201653	-2.982900	3.714100	-11.078000	24.891798	0.000539	20.749877
703.195584	-2.985300	3.712800	-11.083000	24.927657	0.000536	20.771643
704.198394	-2.993900	3.713400	-11.117000	24.882724	0.000539	20.752623
705.203716	-3.000700	3.713100	-11.141000	24.876607	0.000537	20.746958
706.202629	-3.017900	3.711900	-11.201000	24.886852	0.000535	20.762931
707.201835	-3.020200	3.711500	-11.208000	24.861994	0.000538	20.744146
708.204524	-3.021700	3.711300	-11.214000	24.868382	0.000534	20.731116
709.203330	-2.996600	3.711300	-11.120000	24.911570	0.000536	20.758816
710.197195	-3.029200	3.709900	-11.237000	24.927263	0.000537	20.753229
711.201258	-2.983600	3.710500	-11.070000	24.947901	0.000534	20.749287
712.202789	-3.006400	3.709600	-11.152000	24.943127	0.000536	20.734064
713.205301	-3.016700	3.709600	-11.189000	24.927242	0.000535	20.743725
714.198925	-3.001300	3.711000	-11.137000	24.898248	0.000531	20.765834
715.204827	-2.996900	3.711200	-11.121000	24.922046	0.000535	20.747519
716.201249	-3.013500	3.709800	-11.179000	24.942663	0.000534	20.778171
717.201382	-3.008900	3.709200	-11.159000	24.976051	0.000532	20.751939
718.203571	-2.988200	3.709400	-11.084000	25.014840	0.000533	20.753889
719.201794	-2.966800	3.710400	-11.007000	25.010465	0.000533	20.773206
720.204430	-2.996600	3.709200	-11.114000	25.023569	0.000535	20.755539
721.205222	-3.012400	3.707200	-11.166000	24.985828	0.000533	20.763175
722.204018	-2.983700	3.710300	-11.069000	24.988962	0.000534	20.760631
723.205611	-3.013400	3.708900	-11.175000	25.001544	0.000532	20.759983
724.206375	-2.998300	3.708800	-11.119000	25.007217	0.000532	20.775635
725.206137	-2.991900	3.707100	-11.090000	25.018348	0.000534	20.766894
726.205660	-2.998300	3.706000	-11.110000	25.000895	0.000533	20.768341
727.208688	-3.004400	3.706100	-11.133000	24.995501	0.000533	20.774782
728.204252	-3.014900	3.708000	-11.177000	25.065087	0.000535	20.775878
729.205601	-2.994000	3.708400	-11.102000	25.007631	0.000531	20.766094
730.207149	-3.007100	3.706100	-11.143000	25.008724	0.000532	20.758656
731.210854	-3.000500	3.706000	-11.119000	25.022402	0.000532	20.757213
732.209523	-3.011200	3.705300	-11.156000	25.038487	0.000529	20.761505
733.215621	-2.987000	3.705400	-11.067000	25.084227	0.000532	20.757633
734.212552	-2.994900	3.704500	-11.094000	25.062898	0.000530	20.775103
735.211462	-2.990900	3.705300	-11.081000	25.046016	0.000531	20.772856
736.211292	-3.022900	3.704800	-11.197000	25.015165	0.000531	20.770337
737.213280	-2.995600	3.704500	-11.096000	25.024312	0.000530	20.778096
738.212105	-3.001300	3.703900	-11.116000	25.039058	0.000530	20.750224
739.213775	-3.007400	3.703700	-11.138000	25.015863	0.000529	20.774357
740.212046	-2.991400	3.704400	-11.080000	25.059094	0.000530	20.771285
741.215022	-2.971900	3.704900	-11.010000	25.064988	0.000530	20.779098
742.214435	-2.987100	3.704900	-11.065000	25.084901	0.000527	20.776328
743.215396	-2.976900	3.703300	-11.022000	25.074559	0.000531	20.752669
744.218814	-2.978500	3.703700	-11.030000	25.105663	0.000527	20.781523
745.212110	-2.986800	3.703400	-11.061000	25.112276	0.000528	20.768721
746.215491	-2.989100	3.700700	-11.061000	25.058429	0.000528	20.763031
747.214086	-3.006100	3.702200	-11.129000	25.066582	0.000527	20.767422
748.217817	-2.995000	3.702900	-11.089000	25.060918	0.000527	20.761262
749.216829	-3.007500	3.701900	-11.132000	25.075389	0.000527	20.761089
750.214688	-3.021400	3.701300	-11.182000	25.090951	0.000527	20.789514
751.215480	-3.010000	3.702300	-11.142000	25.091074	0.000527	20.756446
752.213872	-2.994800	3.700500	-11.082000	25.069971	0.000526	20.776039
753.217489	-3.002900	3.701000	-11.113000	25.096020	0.000527	20.790334
754.216028	-3.010600	3.701500	-11.143000	25.104949	0.000528	20.783651
755.214815	-2.977500	3.701200	-11.019000	25.083969	0.000527	20.791988
756.216864	-3.011600	3.700900	-11.144000	25.090680	0.000529	20.782129
757.224358	-3.014900	3.700000	-11.154000	25.101593	0.000526	20.766531
758.215520	-3.010200	3.699100	-11.134000	25.076785	0.000525	20.773871
759.219921	-2.991800	3.697900	-11.062000	25.084663	0.000526	20.773244
760.218175	-2.994400	3.699100	-11.075000	25.086429	0.000523	20.753205
761.222699	-3.009300	3.699000	-11.131000	25.072756	0.000524	20.773145
762.219737	-3.008200	3.697200	-11.120000	25.029032	0.000524	20.764816
763.217889	-2.987300	3.697300	-11.044000	25.023335	0.000524	20.794659
764.216769	-2.990100	3.699700	-11.061000	25.050909	0.000523	20.774922
765.218753	-2.995000	3.698000	-11.075000	25.035596	0.000523	20.776147
766.220837	-2.994500	3.698500	-11.074000	25.046087	0.000522	20.774349
767.218217	-3.001200	3.697600	-11.096000	25.072863	0.000524	20.767562
768.217751	-3.021800	3.696600	-11.169000	25.108490	0.000523	20.773455
769.223145	-3.021700	3.697900	-11.173000	25.137273	0.000521	20.788599
770.218515	-2.996300	3.697600	-11.079000	25.153143	0.000522	20.772762
771.219613	-3.007600	3.696700	-11.117000	25.159258	0.000522	20.793126
772.219569	-3.009500	3.695200	-11.119000	25.183666	0.000521	20.775430
773.221281	-3.013300	3.695400	-11.134000	25.186450	0.000522	20.772061
774.219939	-3.011700	3.695600	-11.129000	25.169250	0.000523	20.770441
775.218418	-3.016000	3.695400	-11.144000	25.179645	0.000522	20.775187
776.222630	-3.015900	3.696100	-11.145000	25.176635	0.000521	20.784967
777.221322	-3.004200	3.694400	-11.097000	25.113718	0.000522	20.797670
778.249466	-3.004400	3.695600	-11.101000	25.064722	0.000521	20.783573
779.224618	-2.994700	3.695500	-11.066000	25.056043	0.000520	20.782447
780.226440	-3.011700	3.694900	-11.126000	25.076030	0.000519	20.782122
781.222290	-3.018000	3.692600	-11.143000	25.074219	0.000521	20.790735
782.226312	-3.013700	3.694400	-11.133000	25.104448	0.000520	20.796899
783.222258	-2.994700	3.694100	-11.062000	25.100103	0.000522	20.784476
784.223424	-3.007800	3.693900	-11.110000	25.110716	0.000519	20.783276
785.229012	-2.990400	3.693700	-11.044000	25.157574	0.000519	20.793807
786.223365	-3.017600	3.693800	-11.146000	25.174331	0.000519	20.806361
787.225145	-3.022600	3.693600	-11.164000	25.165181	0.000518	20.787692
788.221092	-3.013300	3.692900	-11.127000	25.141196	0.000520	20.791589
789.223176	-2.992200	3.692600	-11.048000	25.104448	0.000518	20.796425
790.225027	-2.989400	3.691700	-11.035000	25.073254	0.000518	20.783128
791.224280	-2.982400	3.692600	-11.011000	25.056643	0.000518	20.780679
792.224194	-2.986100	3.693100	-11.027000	25.044814	0.000518	20.799624
793.224166	-3.002200	3.690900	-11.079000	25.068132	0.000516	20.795530
794.226225	-3.011600	3.690300	-11.112000	25.085112	0.000517	20.791238
795.227230	-2.990700	3.689800	-11.034000	25.104034	0.000518	20.788896
796.225755	-2.984000	3.691800	-11.016000	25.135975	0.000518	20.793460
797.228958	-3.003000	3.690300	-11.081000	25.168417	0.000518	20.779561
798.233497	-3.002700	3.689500	-11.078000	25.143237	0.000518	20.796483
799.228889	-3.001600	3.690600	-11.076000	25.142268	0.000518	20.795984
800.229971	-3.019900	3.688300	-11.138000	25.121457	0.000519	20.780308
801.231865	-2.994000	3.690000	-11.047000	25.128344	0.000518	20.782481
802.232162	-3.009100	3.688200	-11.097000	25.101298	0.000517	20.812229
803.230566	-3.005500	3.688000	-11.083000	25.094961	0.000517	20.794961
804.227101	-2.983900	3.688400	-11.004000	25.112187	0.000518	20.787597
805.227803	-2.986800	3.688800	-11.017000	25.136226	0.000516	20.803669
806.231081	-3.010200	3.688500	-11.102000	25.146720	0.000516	20.791444
807.240688	-3.004900	3.688000	-11.081000	25.158252	0.000515	20.814876
808.229876	-3.029600	3.688100	-11.172000	25.142198	0.000516	20.803026
809.230692	-3.017200	3.687400	-11.125000	25.135335	0.000514	20.801826
810.230175	-3.014800	3.687900	-11.118000	25.168746	0.000515	20.803599
811.235041	-2.995000	3.687300	-11.042000	25.150079	0.000515	20.813783
812.232323	-2.975100	3.687400	-10.969000	25.172529	0.000514	20.796017
813.234826	-2.971800	3.687100	-10.957000	25.216727	0.000516	20.816682
814.231984	-3.005300	3.686100	-11.077000	25.220082	0.000514	20.794446
815.232053	-2.988600	3.686900	-11.018000	25.212830	0.000514	20.818933
816.232824	-2.994500	3.685700	-11.036000	25.210518	0.000514	20.794801
817.234877	-2.992200	3.686800	-11.030000	25.203614	0.000514	20.814897
818.235153	-3.000200	3.684900	-11.055000	25.237019	0.000513	20.805760
819.229649	-2.996500	3.684900	-11.041000	25.185663	0.000512	20.789763
820.234787	-3.021800	3.685500	-11.136000	25.185018	0.000512	20.803814
821.232398	-3.013100	3.686200	-11.106000	25.196756	0.000514	20.792839
822.231406	-3.015500	3.684300	-11.109000	25.210128	0.000513	20.811953
823.233220	-3.005600	3.683600	-11.071000	25.223923	0.000513	20.818216
824.233270	-3.013100	3.683100	-11.097000	25.225644	0.000513	20.806668
825.229428	-3.006200	3.683800	-11.074000	25.226116	0.000513	20.811883
826.233267	-2.959900	3.684600	-10.905000	25.255771	0.000512	20.813207
827.231760	-2.993000	3.682900	-11.022000	25.243270	0.000513	20.808243
828.231270	-2.980200	3.683100	-10.976000	25.222962	0.000511	20.798760
829.234262	-2.995200	3.682300	-11.028000	25.253434	0.000512	20.804697
830.231526	-2.989300	3.682800	-11.008000	25.269117	0.000511	20.798632
831.231681	-3.016500	3.681900	-11.106000	25.294968	0.000512	20.823638
832.233729	-3.004600	3.682400	-11.064000	25.243639	0.000511	20.804347
833.233596	-3.033200	3.680500	-11.162000	25.217935	0.000512	20.836386
834.235301	-3.008000	3.680400	-11.070000	25.196358	0.000511	20.820888
835.235893	-2.991400	3.682000	-11.013000	25.196382	0.000511	20.814749
836.231409	-3.008100	3.682100	-11.075000	25.217311	0.000510	20.825328
837.236720	-2.998100	3.681800	-11.038000	25.235799	0.000508	20.830140
838.232687	-2.986500	3.680900	-10.992000	25.238432	0.000510	20.816187
839.235693	-2.986900	3.679400	-10.989000	25.201097	0.000508	20.832758
840.232704	-2.995300	3.680300	-11.023000	25.227446	0.000506	20.828866
841.230857	-2.990000	3.678700	-10.998000	25.250337	0.000509	20.823873
842.231062	-2.999200	3.678200	-11.031000	25.197815	0.000509	20.837998
843.230813	-2.989300	3.679500	-10.999000	25.238107	0.000508	20.838146
844.233140	-3.014700	3.679400	-11.092000	25.252222	0.000506	20.817230
845.232049	-3.013300	3.677800	-11.081000	25.232337	0.000508	20.820500
846.231765	-3.015100	3.678600	-11.090000	25.228933	0.000507	20.835099
847.233979	-3.000600	3.678900	-11.038000	25.172032	0.000507	20.831553
848.243165	-3.005100	3.677300	-11.049000	25.210908	0.000505	20.823641
849.232570	-2.988500	3.679000	-10.994000	25.235166	0.000505	20.832349
850.231714	-2.987200	3.678400	-10.988000	25.277124	0.000506	20.832749
851.232254	-3.010200	3.677600	-11.069000	25.230645	0.000505	20.839189
852.235307	-2.991100	3.677200	-10.999000	25.227639	0.000505	20.829059
853.231952	-2.998000	3.677000	-11.023000	25.205815	0.000504	20.846029
854.238792	-3.001200	3.677800	-11.037000	25.265815	0.000505	20.833722
855.238207	-2.994900	3.675800	-11.007000	25.268102	0.000505	20.833174
856.234453	-2.988300	3.677300	-10.988000	25.234772	0.000506	20.831005
857.234540	-3.011000	3.675400	-11.064000	25.225376	0.000504	20.825365
858.234316	-2.977400	3.677000	-10.947000	25.227536	0.000503	20.849818
859.240633	-3.015700	3.674900	-11.082000	25.171161	0.000504	20.830205
860.237864	-3.025300	3.674900	-11.117000	25.248694	0.000501	20.852568
861.238170	-3.006500	3.674300	-11.046000	25.262887	0.000501	20.844058
862.240442	-2.980800	3.675400	-10.955000	25.270040	0.000502	20.837016
863.240642	-2.988800	3.674000	-10.979000	25.298675	0.000502	20.836843
864.240239	-3.000800	3.673300	-11.022000	25.259749	0.000501	20.851339
865.239989	-2.981400	3.674600	-10.954000	25.211975	0.000502	20.856480
866.238782	-3.013600	3.674300	-11.072000	25.241532	0.000500	20.841585
867.236789	-3.013900	3.672100	-11.067000	25.285847	0.000500	20.849566
868.243555	-3.020300	3.673600	-11.094000	25.313508	0.000500	20.859321
869.244150	-3.004900	3.672900	-11.035000	25.312095	0.000502	20.837515
870.238944	-3.000700	3.671800	-11.017000	25.306749	0.000500	20.836414
871.242133	-3.003100	3.672900	-11.029000	25.272299	0.000499	20.843077
872.239083	-2.979200	3.673100	-10.942000	25.274089	0.000499	20.837288
873.240605	-3.009300	3.671000	-11.046000	25.264993	0.000500	20.849492
874.241561	-3.000500	3.672200	-11.017000	25.291115	0.000499	20.846796
875.245348	-3.003300	3.670600	-11.023000	25.344183	0.000499	20.843654
876.242351	-2.994700	3.670900	-10.992000	25.333248	0.000498	20.855433
877.244767	-3.009800	3.669200	-11.042000	25.321811	0.000497	20.870502
878.247946	-2.994100	3.671800	-10.993000	25.314732	0.000497	20.845852
879.240937	-3.003000	3.668800	-11.016000	25.303846	0.000495	20.862896
880.245001	-2.991600	3.669500	-10.977000	25.289456	0.000495	20.855087
881.245021	-3.004200	3.670800	-11.026000	25.278044	0.000495	20.867336
882.242451	-3.014900	3.668800	-11.059000	25.253191	0.000495	20.864669
883.243416	-3.012100	3.668000	-11.048000	25.279091	0.000494	20.853215
884.246057	-2.974700	3.670200	-10.916000	25.283391	0.000496	20.875549
885.245688	-3.011000	3.668400	-11.044000	25.298852	0.000497	20.851245
886.249730	-3.023800	3.668500	-11.092000	25.286952	0.000496	20.861107
887.242903	-2.994600	3.667800	-10.983000	25.302831	0.000495	20.857610
888.247925	-2.995100	3.667400	-10.984000	25.315134	0.000494	20.859057
889.243530	-3.001300	3.667900	-11.008000	25.313599	0.000494	20.878851
890.246712	-2.994200	3.669300	-10.986000	25.276936	0.000492	20.874283
891.248220	-3.009600	3.666400	-11.034000	25.269876	0.000494	20.860084
892.251453	-3.003100	3.667500	-11.013000	25.325528	0.000490	20.873760
893.245670	-3.002000	3.666700	-11.007000	25.330373	0.000492	20.858711
894.244249	-3.014500	3.667000	-11.053000	25.299805	0.000490	20.860736
895.250221	-2.983200	3.668100	-10.942000	25.269975	0.000492	20.862554
896.250585	-2.983700	3.666300	-10.938000	25.299382	0.000492	20.867423
897.248253	-3.012900	3.665100	-11.041000	25.305718	0.000491	20.874733
898.247756	-2.984400	3.666600	-10.941000	25.273856	0.000490	20.855545
899.253178	-3.015200	3.666400	-11.054000	25.294955	0.000492	20.861556
900.249464	-2.985500	3.665900	-10.943000	25.262000	0.000489	20.861659
901.251107	-2.981100	3.666300	-10.929000	25.284196	0.000491	20.886788
902.253177	-3.001400	3.664900	-10.999000	25.315488	0.000491	20.880274
903.247545	-3.013700	3.664900	-11.044000	25.347448	0.000490	20.882018
904.250337	-3.004500	3.665300	-11.012000	25.348737	0.000492	20.866244
905.251883	-3.000200	3.664500	-10.994000	25.356814	0.000488	20.888577
906.257002	-3.010700	3.664700	-11.032000	25.384301	0.000489	20.880141
907.254654	-2.998000	3.663200	-10.981000	25.374364	0.000488	20.869216
908.248685	-3.007600	3.662500	-11.014000	25.408088	0.000489	20.874155
909.249524	-3.028700	3.662100	-11.091000	25.409677	0.000490	20.890448
910.254086	-3.002500	3.663100	-10.998000	25.391807	0.000487	20.886730
911.252680	-3.008600	3.662300	-11.018000	25.370558	0.000488	20.876773
912.248182	-3.005600	3.661800	-11.005000	25.349854	0.000489	20.874951
913.250820	-2.995200	3.662200	-10.968000	25.348191	0.000488	20.909314
914.252697	-2.983900	3.662100	-10.927000	25.355299	0.000486	20.886581
915.256123	-3.001900	3.661400	-10.990000	25.364768	0.000486	20.887554
916.256183	-2.979500	3.661500	-10.908000	25.343809	0.000487	20.871253
917.260677	-2.983900	3.661200	-10.923000	25.344758	0.000488	20.891644
918.257857	-3.013000	3.659900	-11.027000	25.321339	0.000486	20.892786
919.258398	-2.995900	3.660800	-10.966000	25.322205	0.000487	20.894604
920.252597	-2.997000	3.659400	-10.967000	25.302223	0.000488	20.884973
921.258322	-2.995100	3.660000	-10.960000	25.321162	0.000486	20.900194
922.255179	-3.000200	3.658200	-10.974000	25.305574	0.000485	20.874113
923.257356	-3.002600	3.659100	-10.986000	25.312929	0.000487	20.882445
924.257277	-2.997700	3.659100	-10.968000	25.312255	0.000487	20.879399
925.254972	-3.014100	3.658200	-11.025000	25.310333	0.000485	20.875098
926.255785	-2.995700	3.659700	-10.962000	25.379795	0.000485	20.877988
927.257063	-3.013500	3.657900	-11.022000	25.378974	0.000485	20.871948
928.257519	-3.008600	3.658700	-11.006000	25.426539	0.000487	20.869924
929.256385	-3.002400	3.658500	-10.983000	25.379832	0.000488	20.877077
930.257445	-3.007500	3.657900	-11.001000	25.398277	0.000487	20.889907
931.256858	-2.976400	3.656900	-10.883000	25.450161	0.000485	20.877048
932.259884	-3.018000	3.655900	-11.033000	25.479653	0.000486	20.872999
933.258812	-2.991600	3.656300	-10.937000	25.456763	0.000486	20.862341
934.261442	-3.003900	3.656500	-10.982000	25.421891	0.000484	20.870472
935.264964	-2.994400	3.656900	-10.949000	25.422334	0.000484	20.872813
936.263122	-2.988000	3.656200	-10.924000	25.377269	0.000484	20.881141
937.258989	-2.991700	3.656400	-10.938000	25.314586	0.000483	20.849024
938.264319	-3.001300	3.656500	-10.974000	25.337171	0.000482	20.860795
939.263621	-3.007300	3.654400	-10.989000	25.357723	0.000483	20.872895
940.259039	-2.985000	3.655200	-10.910000	25.410483	0.000482	20.879879
941.261219	-2.997300	3.654900	-10.954000	25.442071	0.000482	20.871770
942.267742	-2.999800	3.654800	-10.963000	25.445545	0.000484	20.863879
943.264551	-3.002700	3.655200	-10.975000	25.430184	0.000479	20.859360
944.266962	-3.007900	3.654600	-10.991000	25.449909	0.000480	20.863520
945.261970	-3.005000	3.655200	-10.983000	25.472549	0.000479	20.863495
946.264717	-2.991800	3.654100	-10.931000	25.485745	0.000479	20.835022
947.263823	-3.023200	3.653000	-11.043000	25.526174	0.000480	20.879887
948.264659	-3.014000	3.651300	-11.004000	25.508429	0.000479	20.866810
949.263923	-3.000000	3.652400	-10.956000	25.483996	0.000479	20.881153
950.266053	-2.995000	3.653400	-10.942000	25.496174	0.000477	20.877735
951.264598	-3.003900	3.652400	-10.970000	25.490729	0.000480	20.880328
952.263509	-2.985600	3.651800	-10.902000	25.473752	0.000479	20.868022
953.265057	-2.990300	3.651300	-10.918000	25.477878	0.000475	20.875484
954.265506	-2.984700	3.651600	-10.897000	25.459385	0.000476	20.841743
955.264647	-2.973100	3.651000	-10.853000	25.446616	0.000477	20.849782
956.261488	-2.983000	3.651000	-10.890000	25.451231	0.000477	20.866744
957.263766	-2.992700	3.650400	-10.923000	25.446990	0.000477	20.864855
958.266860	-2.986500	3.651100	-10.904000	25.467063	0.000476	20.857513
959.265295	-2.998300	3.649800	-10.942000	25.420321	0.000477	20.867947
960.265716	-2.988000	3.649700	-10.905000	25.429289	0.000475	20.857513
961.266511	-3.001000	3.650100	-10.953000	25.386244	0.000477	20.849378
962.268414	-3.002600	3.649900	-10.958000	25.398000	0.000476	20.839372
963.267590	-3.006700	3.649100	-10.971000	25.436864	0.000475	20.859904
964.273113	-3.002000	3.647900	-10.950000	25.451408	0.000475	20.838473
965.272022	-2.993700	3.648200	-10.921000	25.455156	0.000476	20.866418
966.271026	-3.002400	3.647800	-10.951000	25.459328	0.000476	20.834099
967.274466	-3.008500	3.647100	-10.971000	25.472425	0.000475	20.844880
968.268364	-3.013100	3.647300	-10.988000	25.507386	0.000474	20.855331
969.277266	-2.984800	3.647400	-10.885000	25.530768	0.000474	20.835665
970.280898	-2.990200	3.647500	-10.906000	25.539739	0.000474	20.841829
971.272210	-2.995100	3.646200	-10.919000	25.516747	0.000474	20.854301
972.272565	-3.006500	3.646800	-10.963000	25.482226	0.000474	20.848083
973.274554	-3.023100	3.646000	-11.021000	25.497380	0.000472	20.836750
974.278727	-3.008500	3.646600	-10.970000	25.497253	0.000473	20.852268
975.277114	-2.994600	3.645800	-10.917000	25.476626	0.000472	20.843408
976.272495	-2.989600	3.645000	-10.896000	25.485843	0.000471	20.852664
977.276372	-2.983700	3.645100	-10.875000	25.507977	0.000471	20.851184
978.274700	-2.984700	3.645500	-10.880000	25.499056	0.000470	20.845070
979.275352	-2.981000	3.644300	-10.863000	25.471715	0.000471	20.858865
980.277099	-3.021800	3.642700	-11.006000	25.472081	0.000471	20.849749
981.277787	-2.983300	3.644500	-10.871000	25.489374	0.000470	20.845779
982.277552	-2.995700	3.642200	-10.910000	25.514694	0.000470	20.856032
983.274509	-3.011100	3.642300	-10.967000	25.548980	0.000471	20.861541
984.276746	-2.979400	3.643000	-10.853000	25.559737	0.000468	20.820662
985.275343	-3.005900	3.641400	-10.945000	25.563260	0.000470	20.851225
986.284947	-2.997200	3.641000	-10.912000	25.559351	0.000469	20.839240
987.278507	-2.972500	3.641500	-10.823000	25.533499	0.000467	20.843149
988.279458	-3.005200	3.641600	-10.942000	25.484694	0.000468	20.831596
989.278663	-3.038800	3.640600	-11.062000	25.443336	0.000467	20.824204
990.276461	-2.992300	3.640700	-10.893000	25.432418	0.000468	20.839319
991.275633	-3.019300	3.640600	-10.991000	25.451646	0.000467	20.854359
992.274944	-2.984100	3.641200	-10.865000	25.475403	0.000468	20.855930
993.284306	-3.022700	3.639600	-11.001000	25.514736	0.000466	20.848963
994.276592	-3.004600	3.639500	-10.935000	25.571784	0.000466	20.843191
995.279134	-3.007700	3.640000	-10.947000	25.576575	0.000464	20.849899
996.279003	-3.015000	3.637900	-10.968000	25.581982	0.000466	20.840631
997.280170	-3.019200	3.637800	-10.983000	25.589088	0.000465	20.858673
998.281558	-2.993000	3.640400	-10.895000	25.591441	0.000464	20.835906
999.280060	-2.999600	3.638700	-10.914000	25.560847	0.000464	20.829363
1000.281359	-3.016700	3.637400	-10.972000	25.594085	0.000464	20.844726
1001.280633	-3.001600	3.639500	-10.923000	25.588494	0.000464	20.831050
1002.280478	-3.025300	3.636000	-11.000000	25.592513	0.000461	20.841724
1003.280955	-3.016600	3.635700	-10.967000	25.591963	0.000461	20.844017
1004.283349	-3.001600	3.637900	-10.919000	25.614716	0.000462	20.850272
1005.285055	-2.986800	3.636800	-10.862000	25.642393	0.000462	20.856258
1006.284813	-2.992900	3.636500	-10.883000	25.625221	0.000461	20.862245
1007.284588	-2.986400	3.635200	-10.856000	25.611374	0.000462	20.849761
1008.285252	-3.024600	3.634600	-10.992000	25.608784	0.000463	20.847634
1009.285321	-2.997300	3.634300	-10.892000	25.585868	0.000462	20.842637
1010.283681	-3.019300	3.635500	-10.974000	25.607430	0.000460	20.851489
1011.286415	-2.986700	3.635400	-10.856000	25.581661	0.000463	20.850739
1012.279589	-3.001100	3.634700	-10.907000	25.618059	0.000460	20.843673
1013.283148	-3.034700	3.632700	-11.022000	25.615744	0.000460	20.851779
1014.286026	-3.028900	3.632900	-11.003000	25.593970	0.000461	20.849351
1015.285741	-2.958100	3.635100	-10.751000	25.570934	0.000459	20.844234
1016.292092	-2.979500	3.634300	-10.827000	25.559296	0.000459	20.827331
1017.289831	-3.002000	3.633600	-10.907000	25.573907	0.000459	20.850539
1018.290706	-2.985000	3.633500	-10.845000	25.543654	0.000458	20.836752
1019.286356	-2.986200	3.632800	-10.847000	25.504367	0.000459	20.852300
1020.294690	-2.982200	3.633900	-10.835000	25.483637	0.000458	20.836699
1021.289078	-2.991900	3.632000	-10.866000	25.453217	0.000456	20.820850
1022.285246	-3.011400	3.630900	-10.933000	25.513675	0.000455	20.850268
1023.285801	-2.986500	3.632300	-10.847000	25.526867	0.000457	20.827007
1024.285054	-3.001000	3.631100	-10.896000	25.554100	0.000456	20.825432
1025.286546	-3.004900	3.630400	-10.909000	25.592187	0.000458	20.838077
1026.289114	-2.997500	3.630500	-10.882000	25.532102	0.000454	20.847436
1027.292910	-3.002800	3.631300	-10.904000	25.520340	0.000458	20.835625
1028.289361	-3.012900	3.630600	-10.938000	25.492701	0.000454	20.843430
1029.289315	-3.017800	3.630200	-10.954000	25.512134	0.000455	20.839711
1030.289048	-3.019600	3.628800	-10.957000	25.542442	0.000456	20.831268
1031.291048	-3.014700	3.629200	-10.940000	25.554989	0.000456	20.833437
1032.288345	-2.982900	3.630400	-10.828000	25.546138	0.000455	20.832609
1033.286249	-3.002600	3.629100	-10.896000	25.599291	0.000455	20.826721
1034.293314	-2.999700	3.628900	-10.885000	25.544939	0.000453	20.853215
1035.291018	-3.005000	3.627400	-10.900000	25.534224	0.000454	20.818748
1036.293255	-3.006500	3.628600	-10.908000	25.533009	0.000452	20.827959
1037.292061	-2.999100	3.627200	-10.878000	25.531338	0.000454	20.824384
1038.298234	-3.001600	3.627100	-10.886000	25.555438	0.000453	20.829621
1039.295376	-2.996400	3.627100	-10.867000	25.515302	0.000452	20.822505
1040.293080	-3.004100	3.626000	-10.892000	25.549991	0.000452	20.822254
1041.297878	-2.991500	3.627000	-10.849000	25.529410	0.000453	20.835724
1042.295781	-2.994000	3.625100	-10.852000	25.514572	0.000450	20.813237
1043.292817	-2.978400	3.625700	-10.797000	25.523761	0.000452	20.815827
1044.293976	-3.007400	3.624300	-10.899000	25.581834	0.000449	20.832896
1045.301663	-2.973900	3.626100	-10.782000	25.603298	0.000449	20.826477
1046.302315	-2.973400	3.625500	-10.779000	25.591865	0.000448	20.837754
1047.297190	-3.023600	3.624600	-10.958000	25.578694	0.000448	20.834010
1048.298169	-3.012500	3.624200	-10.917000	25.536523	0.000448	20.824849
1049.303811	-3.007100	3.623400	-10.895000	25.535448	0.000448	20.815235
1050.299613	-3.032300	3.623400	-10.987000	25.548618	0.000449	20.828462
1051.299905	-2.994400	3.622900	-10.847000	25.544591	0.000450	20.846702
1052.300228	-2.980700	3.622200	-10.796000	25.606580	0.000448	20.825033
1053.296896	-2.984000	3.623400	-10.811000	25.610977	0.000448	20.821862
1054.307305	-2.999400	3.623200	-10.867000	25.626532	0.000444	20.826579
1055.301293	-3.016400	3.621700	-10.924000	25.659078	0.000446	20.827973
1056.302497	-3.000000	3.623900	-10.870000	25.607866	0.000446	20.807358
1057.301213	-3.002800	3.620500	-10.870000	25.575011	0.000448	20.833156
1058.308167	-3.007400	3.620400	-10.887000	25.573172	0.000444	20.846481
1059.299938	-2.970500	3.621900	-10.758000	25.585271	0.000444	20.826865
1060.301864	-3.012100	3.620500	-10.905000	25.583502	0.000444	20.814657
1061.308111	-3.004300	3.619900	-10.874000	25.590284	0.000444	20.816253
1062.307551	-3.015300	3.620100	-10.915000	25.635853	0.000444	20.809388
1063.302256	-3.005000	3.619600	-10.876000	25.631055	0.000442	20.815000
1064.302081	-2.985800	3.619500	-10.805000	25.676725	0.000442	20.817247
1065.306498	-2.993800	3.620600	-10.838000	25.644348	0.000442	20.836411
1066.307423	-3.013100	3.618100	-10.902000	25.683252	0.000441	20.818114
1067.305468	-2.983500	3.618300	-10.795000	25.631520	0.000441	20.801717
1068.304615	-2.984300	3.617700	-10.795000	25.599539	0.000439	20.805634
1069.303301	-2.993300	3.619300	-10.833000	25.611515	0.000439	20.819083
1070.305460	-2.989400	3.617500	-10.813000	25.634180	0.000440	20.792060
1071.308137	-2.999400	3.617100	-10.848000	25.661582	0.000440	20.811996
1072.306026	-2.988900	3.617500	-10.811000	25.614073	0.000440	20.839669
1073.304885	-2.983700	3.616900	-10.790000	25.617057	0.000438	20.819908
1074.310338	-2.986100	3.616300	-10.798000	25.625202	0.000439	20.811967
1075.303393	-3.012500	3.615700	-10.891000	25.614721	0.000437	20.806656
1076.307337	-3.030300	3.615400	-10.955000	25.624332	0.000439	20.791653
1077.310657	-3.032600	3.615100	-10.963000	25.640133	0.000438	20.825066
1078.308681	-2.996700	3.616500	-10.836000	25.637723	0.000438	20.815534
1079.311204	-3.011500	3.615300	-10.887000	25.651287	0.000436	20.811613
1080.305649	-3.031400	3.614700	-10.957000	25.658517	0.000437	20.787580
1081.308717	-2.998300	3.615100	-10.838000	25.668328	0.000438	20.816401
1082.307967	-3.003500	3.613500	-10.853000	25.657696	0.000437	20.820894
1083.306606	-3.013600	3.613800	-10.890000	25.680003	0.000435	20.812480
1084.308973	-2.995900	3.614400	-10.827000	25.671830	0.000437	20.808064
1085.309481	-3.004400	3.612700	-10.853000	25.681342	0.000436	20.788220
1086.308359	-3.003100	3.612400	-10.848000	25.644519	0.000435	20.808135
1087.308875	-3.002300	3.611900	-10.843000	25.635373	0.000437	20.818389
1088.333438	-2.998900	3.612500	-10.833000	25.635250	0.000433	20.811627
1089.310444	-3.002800	3.610800	-10.841000	25.609108	0.000433	20.796277
1090.309939	-3.002100	3.612200	-10.843000	25.620463	0.000434	20.801992
1091.314044	-2.997000	3.610000	-10.819000	25.596582	0.000432	20.796500
1092.311468	-3.003300	3.609600	-10.840000	25.582792	0.000433	20.811100
1093.311851	-3.001000	3.610000	-10.831000	25.631216	0.000430	20.795721
1094.316052	-3.005600	3.608900	-10.846000	25.647218	0.000433	20.817957
1095.314004	-2.992400	3.610500	-10.804000	25.644561	0.000433	20.794901
1096.317231	-2.999500	3.609400	-10.825000	25.643064	0.000431	20.811414
1097.316293	-2.975400	3.609700	-10.739000	25.660855	0.000431	20.797990
1098.315698	-3.021200	3.607100	-10.897000	25.629940	0.000430	20.786380
1099.318689	-3.009000	3.608100	-10.855000	25.682194	0.000431	20.819896
1100.319835	-3.002700	3.608200	-10.833000	25.654190	0.000431	20.799355
1101.316014	-3.013300	3.606400	-10.866000	25.623397	0.000431	20.798301
1102.319637	-2.988200	3.608400	-10.782000	25.622978	0.000432	20.805940
1103.320292	-2.982400	3.608300	-10.760000	25.660045	0.000429	20.781528
1104.319355	-2.991100	3.606500	-10.787000	25.655517	0.000429	20.795473
1105.319895	-3.012700	3.606300	-10.864000	25.665132	0.000429	20.783793
1106.319314	-3.022500	3.606200	-10.898000	25.646939	0.000428	20.789702
1107.316914	-2.972500	3.607600	-10.723000	25.608624	0.000428	20.801007
1108.319329	-3.003400	3.605800	-10.828000	25.650585	0.000426	20.783407
1109.321270	-3.007000	3.604200	-10.836000	25.649563	0.000428	20.791864
1110.317778	-2.975800	3.605600	-10.728000	25.635270	0.000427	20.797423
1111.321306	-3.003100	3.604900	-10.825000	25.597526	0.000427	20.797921
1112.320276	-2.974000	3.605600	-10.722000	25.612630	0.000426	20.781322
1113.321429	-3.009000	3.603700	-10.843000	25.618492	0.000427	20.771563
1114.318621	-2.984600	3.604700	-10.758000	25.705920	0.000426	20.790147
1115.323291	-3.003600	3.602600	-10.820000	25.724155	0.000424	20.782384
1116.322241	-2.983900	3.602500	-10.748000	25.693643	0.000426	20.779238
1117.324956	-2.992000	3.602800	-10.778000	25.676292	0.000424	20.778881
1118.319796	-2.991600	3.602400	-10.776000	25.651740	0.000423	20.794050
1119.321762	-2.965000	3.603300	-10.684000	25.656059	0.000425	20.792699
1120.319736	-3.019400	3.602900	-10.878000	25.634040	0.000423	20.784334
1121.323717	-2.999600	3.602000	-10.803000	25.610008	0.000420	20.779638
1122.327826	-2.990600	3.600500	-10.767000	25.625088	0.000422	20.789093
1123.323470	-3.019500	3.600600	-10.871000	25.651472	0.000422	20.777660
1124.322755	-2.985600	3.600900	-10.750000	25.660985	0.000419	20.800016
1125.325392	-2.990000	3.601300	-10.767000	25.653354	0.000421	20.781446
1126.322996	-3.027500	3.599900	-10.898000	25.617471	0.000420	20.782865
1127.323770	-2.986700	3.600600	-10.753000	25.662288	0.000420	20.793265
1128.327292	-3.010200	3.599000	-10.833000	25.722017	0.000418	20.793038
1129.324121	-3.000600	3.600200	-10.802000	25.724271	0.000418	20.774914
1130.324347	-3.008600	3.600000	-10.830000	25.681436	0.000416	20.767452
1131.329345	-3.020300	3.597900	-10.866000	25.694306	0.000417	20.780852
1132.325568	-2.988700	3.599900	-10.758000	25.728090	0.000417	20.775905
1133.325470	-3.007500	3.598800	-10.823000	25.775440	0.000417	20.787430
1134.328192	-3.003700	3.598600	-10.808000	25.809528	0.000415	20.784214
1135.326039	-2.997700	3.597500	-10.783000	25.764308	0.000417	20.761550
1136.325189	-3.010000	3.598600	-10.830000	25.724980	0.000414	20.789851
1137.326947	-2.984000	3.599100	-10.738000	25.683881	0.000416	20.788400
1138.327896	-3.023800	3.596400	-10.874000	25.703110	0.000413	20.779264
1139.325735	-3.016100	3.596200	-10.845000	25.701743	0.000415	20.787848
1140.331185	-3.002300	3.596400	-10.797000	25.712347	0.000414	20.768627
1141.324726	-3.031700	3.595700	-10.900000	25.701215	0.000413	20.778783
1142.327681	-2.978400	3.596700	-10.712000	25.698407	0.000411	20.789713
1143.334472	-2.978600	3.596200	-10.710000	25.687923	0.000411	20.787717
1144.333413	-2.999100	3.595300	-10.781000	25.671421	0.000412	20.766875
1145.326634	-3.009000	3.594200	-10.814000	25.651840	0.000411	20.784193
1146.328019	-3.007500	3.594100	-10.809000	25.643835	0.000411	20.799387
1147.329005	-3.002800	3.593300	-10.789000	25.638692	0.000410	20.762452
1148.329672	-3.020900	3.591500	-10.849000	25.633551	0.000411	20.775782
1149.329825	-2.985200	3.594000	-10.728000	25.637177	0.000412	20.786061
1150.328372	-3.014200	3.593400	-10.830000	25.653577	0.000410	20.784041
1151.333612	-2.999100	3.593300	-10.776000	25.704185	0.000411	20.766118
1152.329638	-2.995700	3.593700	-10.764000	25.727489	0.000409	20.755860
1153.331469	-3.001700	3.592500	-10.783000	25.724730	0.000408	20.763047
1154.331891	-2.989000	3.592800	-10.738000	25.746371	0.000408	20.776249
1155.329583	-2.996500	3.592100	-10.762000	25.746646	0.000410	20.771784
1156.328789	-2.991600	3.590600	-10.741000	25.760483	0.000409	20.773829
1157.333804	-3.034700	3.590400	-10.894000	25.774218	0.000408	20.783832
1158.329822	-3.011100	3.589700	-10.808000	25.786343	0.000409	20.764243
1159.328126	-2.987400	3.590500	-10.726000	25.769449	0.000407	20.778093
1160.333797	-2.978100	3.589100	-10.688000	25.726590	0.000407	20.782934
1161.334253	-2.984000	3.589600	-10.710000	25.706341	0.000408	20.778242
1162.336463	-2.992700	3.590000	-10.743000	25.682512	0.000407	20.780860
1163.331254	-2.991000	3.588500	-10.732000	25.684449	0.000408	20.778539
1164.335436	-3.004300	3.588600	-10.780000	25.675603	0.000407	20.791939
1165.330772	-3.001300	3.588200	-10.769000	25.677094	0.000405	20.764986
1166.338313	-2.983800	3.588700	-10.707000	25.680299	0.000405	20.768206
1167.338060	-2.996600	3.588600	-10.753000	25.709815	0.000406	20.783627
1168.332304	-2.996500	3.588100	-10.751000	25.746953	0.000404	20.776834
1169.333508	-3.002500	3.587900	-10.772000	25.754379	0.000403	20.790931
1170.340111	-3.002600	3.585100	-10.764000	25.787394	0.000404	20.808447
1171.332789	-3.009400	3.585300	-10.789000	25.806000	0.000406	20.768341
1172.335909	-2.995900	3.586100	-10.743000	25.754918	0.000405	20.758756
1173.336673	-2.975700	3.586700	-10.672000	25.760706	0.000405	20.789226
1174.330478	-3.006300	3.585600	-10.779000	25.794467	0.000403	20.781413
1175.334992	-3.002500	3.585000	-10.763000	25.808227	0.000404	20.774372
1176.334695	-2.972900	3.586200	-10.661000	25.794711	0.000401	20.793037
1177.336362	-2.992100	3.584700	-10.725000	25.799604	0.000402	20.778986
1178.340385	-3.014300	3.584100	-10.803000	25.820764	0.000403	20.795500
1179.334484	-2.996200	3.583600	-10.736000	25.828415	0.000401	20.774262
1180.341953	-2.982200	3.584400	-10.688000	25.791964	0.000400	20.798338
1181.336925	-2.999100	3.583700	-10.747000	25.805949	0.000400	20.792472
1182.335346	-3.003800	3.583400	-10.763000	25.804230	0.000401	20.784107
1183.339047	-3.012400	3.581400	-10.787000	25.810042	0.000401	20.794213
1184.338453	-2.978500	3.582000	-10.669000	25.800077	0.000400	20.774720
1185.337450	-3.006300	3.581900	-10.767000	25.823724	0.000401	20.768602
1186.344174	-2.992900	3.583300	-10.724000	25.784194	0.000399	20.781525
1187.339533	-2.996800	3.580700	-10.730000	25.788738	0.000400	20.779925
1188.344098	-2.975600	3.581500	-10.656000	25.806475	0.000397	20.783517
1189.339390	-3.003200	3.581100	-10.754000	25.824109	0.000397	20.790800
1190.335094	-2.995500	3.581300	-10.727000	25.862860	0.000397	20.778518
1191.341249	-3.004600	3.580100	-10.756000	25.856273	0.000397	20.794661
1192.338118	-2.994500	3.580400	-10.720000	25.836396	0.000396	20.792711
1193.343092	-3.014200	3.579000	-10.787000	25.801935	0.000397	20.772319
1194.337470	-3.008300	3.579500	-10.767000	25.800914	0.000395	20.792630
1195.341914	-3.010800	3.579200	-10.775000	25.824438	0.000396	20.789708
1196.340604	-3.014000	3.578800	-10.786000	25.820165	0.000394	20.791105
1197.338777	-2.998100	3.578600	-10.728000	25.835936	0.000393	20.793671
1198.342639	-2.990400	3.577900	-10.698000	25.825153	0.000394	20.785685
1199.341614	-3.021600	3.577900	-10.810000	25.803014	0.000392	20.801378
1200.343407	-3.003300	3.577600	-10.743000	25.774192	0.000394	20.804195
1201.337073	-3.009300	3.577100	-10.764000	25.743336	0.000392	20.780788
1202.340626	-3.012100	3.576700	-10.773000	25.739659	0.000389	20.787051
1203.337885	-3.006700	3.575700	-10.750000	25.755705	0.000392	20.819764
1204.342110	-3.003600	3.576000	-10.740000	25.779230	0.000392	20.791237
1205.340457	-3.026900	3.575200	-10.821000	25.808845	0.000394	20.797752
1206.348690	-3.021800	3.574800	-10.801000	25.832914	0.000391	20.805335
1207.344756	-3.005400	3.575200	-10.743000	25.834056	0.000390	20.789412
1208.338848	-2.981900	3.575800	-10.662000	25.799450	0.000392	20.806807
1209.347341	-3.004700	3.575100	-10.741000	25.739945	0.000388	20.821003
1210.341866	-3.012800	3.575500	-10.771000	25.732441	0.000390	20.803983
1211.343927	-2.993400	3.575200	-10.701000	25.749654	0.000389	20.814635
1212.341313	-3.006400	3.574300	-10.745000	25.781781	0.000390	20.787162
1213.345695	-3.027200	3.573500	-10.816000	25.760536	0.000389	20.802806
1214.345662	-3.025200	3.572500	-10.806000	25.746350	0.000389	20.811790
1215.349481	-2.991600	3.572000	-10.686000	25.745875	0.000388	20.799933
1216.349281	-3.014800	3.571400	-10.766000	25.798620	0.000385	20.784636
1217.350506	-2.996400	3.572400	-10.704000	25.785826	0.000387	20.810665
1218.344055	-2.985600	3.573100	-10.667000	25.792286	0.000386	20.807197
1219.346970	-2.983800	3.572500	-10.658000	25.757873	0.000386	20.797286
1220.350091	-2.969900	3.571500	-10.606000	25.732512	0.000385	20.793623
1221.346138	-2.991900	3.569900	-10.680000	25.775018	0.000384	20.798386
1222.344191	-2.982800	3.570800	-10.650000	25.831214	0.000382	20.813110
1223.350212	-3.021800	3.570400	-10.789000	25.829650	0.000384	20.815806
1224.356087	-3.001000	3.571300	-10.716000	25.785875	0.000385	20.807869
1225.352905	-3.002300	3.570900	-10.720000	25.743292	0.000384	20.815831
1226.353171	-3.009100	3.568400	-10.737000	25.780710	0.000382	20.812639
1227.344126	-3.002200	3.569500	-10.716000	25.765503	0.000382	20.812536
1228.351646	-3.010000	3.568700	-10.741000	25.750598	0.000383	20.790927
1229.351095	-3.015100	3.567400	-10.755000	25.756960	0.000382	20.815809
1230.343605	-3.011700	3.568500	-10.746000	25.825328	0.000380	20.814783
1231.354146	-3.010700	3.568500	-10.743000	25.793906	0.000381	20.835850
1232.349085	-3.010500	3.568100	-10.741000	25.786156	0.000380	20.822376
1233.351715	-2.995100	3.568800	-10.688000	25.769085	0.000379	20.811393
1234.354829	-2.999200	3.568800	-10.703000	25.788914	0.000380	20.835104
1235.358322	-2.996800	3.566800	-10.688000	25.804939	0.000378	20.819432
1236.348860	-2.984000	3.567000	-10.643000	25.799894	0.000379	20.816736
1237.364851	-3.007300	3.564900	-10.720000	25.811353	0.000379	20.820660
1238.358009	-3.019900	3.565200	-10.766000	25.786159	0.000378	20.808155
1239.347695	-2.986400	3.565700	-10.648000	25.786184	0.000376	20.812921
1240.351401	-3.021200	3.564200	-10.767000	25.803874	0.000379	20.827372
1241.365180	-3.018300	3.565400	-10.761000	25.814231	0.000375	20.824499
1242.357447	-3.019300	3.563800	-10.759000	25.823893	0.000377	20.831834
1243.351438	-3.037200	3.563200	-10.821000	25.821413	0.000374	20.818438
1244.349794	-3.010100	3.563000	-10.724000	25.811078	0.000376	20.806159
1245.351357	-2.994200	3.562700	-10.667000	25.848790	0.000374	20.816541
1246.355864	-2.986600	3.563000	-10.640000	25.889706	0.000376	20.817815
1247.359622	-2.976700	3.563100	-10.605000	25.849586	0.000373	20.810228
1248.349124	-2.995600	3.562300	-10.670000	25.868744	0.000373	20.800076
1249.352788	-2.996900	3.561500	-10.673000	25.836598	0.000372	20.803820
1250.355322	-3.015500	3.561600	-10.739000	25.832847	0.000369	20.824233
1251.354164	-3.000400	3.561700	-10.686000	25.808154	0.000372	20.831670
1252.359645	-2.990600	3.560500	-10.647000	25.847979	0.000372	20.816675
1253.355440	-2.998600	3.561000	-10.677000	25.865792	0.000372	20.826034
1254.357838	-2.974100	3.561200	-10.590000	25.904573	0.000370	20.808568
1255.350991	-2.996600	3.561700	-10.673000	25.910162	0.000369	20.826037
1256.355862	-3.015200	3.559500	-10.731000	25.902463	0.000370	20.825888
1257.354438	-2.998300	3.561300	-10.677000	25.900948	0.000369	20.829108
1258.353766	-2.987500	3.560000	-10.634000	25.923631	0.000369	20.817757
1259.359725	-2.968100	3.560500	-10.567000	25.914790	0.000370	20.801289
1260.364781	-3.019000	3.558300	-10.742000	25.855192	0.000368	20.818231
1261.354142	-3.015600	3.558600	-10.731000	25.831148	0.000369	20.838173
1262.358231	-2.997000	3.558700	-10.665000	25.791153	0.000369	20.821705
1263.357190	-2.991800	3.558400	-10.644000	25.735525	0.000369	20.821305
1264.353862	-3.005500	3.557800	-10.690000	25.730931	0.000370	20.835183
1265.364504	-2.996800	3.559000	-10.665000	25.721092	0.000370	20.815817
1266.360029	-3.024000	3.557500	-10.757000	25.753266	0.000367	20.829168
1267.355993	-3.006000	3.556500	-10.689000	25.775005	0.000368	20.835356
1268.357538	-2.972900	3.556400	-10.572000	25.791177	0.000367	20.834532
1269.357688	-2.968900	3.556400	-10.557000	25.833737	0.000368	20.813747
1270.359626	-2.995700	3.555800	-10.651000	25.807973	0.000371	20.826747
1271.362662	-2.980600	3.553900	-10.592000	25.807251	0.000367	20.845936
1272.359060	-2.996900	3.554100	-10.650000	25.867418	0.000367	20.843788
1273.360763	-3.014000	3.554400	-10.712000	25.852860	0.000366	20.829638
1274.359206	-3.014900	3.553600	-10.713000	25.834181	0.000370	20.836478
1275.359002	-3.009600	3.554300	-10.697000	25.839567	0.000369	20.831931
1276.363091	-2.990500	3.554200	-10.628000	25.865330	0.000367	20.809923
1277.357901	-2.966500	3.554700	-10.544000	25.888482	0.000367	20.838396
1278.364512	-2.999500	3.552500	-10.655000	25.850222	0.000367	20.829833
1279.361917	-3.005300	3.552000	-10.674000	25.839884	0.000366	20.843630
1280.358530	-2.992900	3.552600	-10.632000	25.875038	0.000368	20.856183
1281.360196	-3.003400	3.552000	-10.667000	25.878342	0.000363	20.824890
1282.361198	-2.977400	3.552100	-10.575000	25.848229	0.000362	20.843952
1283.366954	-3.016200	3.550600	-10.709000	25.852474	0.000365	20.838259
1284.359433	-3.013100	3.550100	-10.696000	25.856895	0.000362	20.833217
1285.359344	-2.988700	3.550500	-10.611000	25.809172	0.000363	20.831745
1286.361135	-3.004800	3.550300	-10.667000	25.869663	0.000363	20.846043
1287.359713	-2.988700	3.550400	-10.610000	25.825171	0.000362	20.825057
1288.359515	-3.004000	3.550300	-10.664000	25.849093	0.000361	20.840078
1289.356761	-2.985400	3.550600	-10.600000	25.900364	0.000361	20.847487
1290.361154	-3.005700	3.549800	-10.669000	25.909008	0.000360	20.841472
1291.361724	-2.988400	3.549800	-10.607000	25.912636	0.000362	20.842746
1292.363046	-2.987900	3.548100	-10.601000	25.872143	0.000360	20.841897
1293.363880	-3.004500	3.548600	-10.661000	25.856148	0.000361	20.852380
1294.366911	-3.002800	3.547500	-10.652000	25.831347	0.000360	20.857338
1295.361078	-3.001600	3.548700	-10.651000	25.845634	0.000361	20.846086
1296.365263	-2.991100	3.547000	-10.608000	25.844591	0.000360	20.845513
1297.365138	-3.002600	3.545600	-10.645000	25.837733	0.000361	20.855693
1298.364944	-2.992900	3.547300	-10.616000	25.808989	0.000360	20.861906
1299.366404	-3.005100	3.546000	-10.655000	25.830230	0.000357	20.870440
1300.361876	-3.002500	3.547900	-10.651000	25.801218	0.000358	20.848411
1301.365342	-2.999300	3.545100	-10.632000	25.812966	0.000358	20.835556
1302.360834	-3.024200	3.544400	-10.718000	25.874429	0.000358	20.866477
1303.358582	-2.990300	3.545300	-10.600000	25.905729	0.000358	20.864255
1304.361982	-3.032500	3.543200	-10.743000	25.826285	0.000356	20.844667
1305.363503	-2.981800	3.544300	-10.567000	25.774714	0.000355	20.854029
1306.363332	-3.022100	3.542500	-10.704000	25.769345	0.000354	20.848163
1307.362729	-3.022300	3.541900	-10.703000	25.795082	0.000355	20.834661
1308.369668	-2.989300	3.543900	-10.592000	25.830237	0.000356	20.853852
1309.360106	-3.004100	3.544000	-10.645000	25.867303	0.000356	20.870698
1310.368546	-3.021800	3.542400	-10.703000	25.866412	0.000354	20.854156
1311.365267	-2.990100	3.543100	-10.593000	25.831582	0.000355	20.848566
1312.370883	-3.002200	3.541900	-10.632000	25.883679	0.000354	20.869604
1313.365813	-2.984400	3.542900	-10.572000	25.871206	0.000352	20.867032
1314.371717	-3.027400	3.541000	-10.719000	25.847557	0.000353	20.855604
1315.366412	-3.007100	3.541100	-10.648000	25.857669	0.000353	20.862443
1316.362551	-2.988000	3.540600	-10.578000	25.858345	0.000351	20.856010
1317.368248	-3.003000	3.539400	-10.628000	25.844484	0.000352	20.862948
1318.365086	-3.006300	3.540500	-10.643000	25.827294	0.000351	20.867965
1319.371761	-3.000200	3.540000	-10.620000	25.833258	0.000350	20.891024
1320.370649	-3.004000	3.539300	-10.630000	25.828985	0.000349	20.849750
1321.368671	-3.003400	3.538800	-10.627000	25.847594	0.000352	20.861331
1322.365074	-2.986400	3.538400	-10.566000	25.872290	0.000351	20.851052
1323.367434	-2.991400	3.539500	-10.587000	25.814609	0.000349	20.855224
1324.367123	-2.992200	3.538100	-10.586000	25.885259	0.000349	20.844166
1325.372437	-3.023300	3.536700	-10.692000	25.897481	0.000351	20.875883
1326.368008	-3.007600	3.536200	-10.634000	25.859845	0.000348	20.878852
1327.368256	-3.014500	3.537300	-10.663000	25.877510	0.000349	20.860563
1328.366253	-3.023000	3.535300	-10.687000	25.901584	0.000348	20.891858
1329.374004	-2.984600	3.537700	-10.558000	25.867256	0.000347	20.859745
1330.378511	-3.000300	3.537200	-10.612000	25.840573	0.000347	20.888890
1331.372253	-2.989800	3.537000	-10.574000	25.828054	0.000349	20.855927
1332.370183	-2.971700	3.537000	-10.510000	25.835659	0.000348	20.878738
1333.375445	-2.990300	3.536700	-10.574000	25.891475	0.000349	20.878859
1334.372334	-2.976400	3.536900	-10.526000	25.863702	0.000347	20.872295
1335.381935	-3.000600	3.534600	-10.605000	25.883603	0.000347	20.864787
1336.371538	-2.989000	3.534400	-10.563000	25.877566	0.000345	20.885747
1337.372770	-2.991600	3.533400	-10.569000	25.896220	0.000346	20.864660
1338.368509	-2.973100	3.534100	-10.507000	25.936088	0.000343	20.873417
1339.376911	-2.973700	3.533900	-10.508000	25.955115	0.000346	20.875462
1340.377002	-2.982500	3.533200	-10.536000	25.973496	0.000344	20.877808
1341.371904	-2.996000	3.533500	-10.585000	25.930572	0.000345	20.892056
1342.375838	-2.991900	3.532200	-10.567000	25.888270	0.000345	20.886544
1343.374308	-2.991500	3.532500	-10.567000	25.879919	0.000345	20.871991
1344.370524	-2.997300	3.531200	-10.583000	25.906745	0.000346	20.865750
1345.377917	-3.019100	3.531700	-10.661000	25.912412	0.000347	20.887563
1346.379938	-2.990000	3.531900	-10.560000	25.968122	0.000344	20.878099
1347.371773	-3.001200	3.531200	-10.597000	25.920084	0.000343	20.909019
1348.379290	-2.978700	3.530500	-10.515000	25.860486	0.000342	20.885186
1349.379374	-2.987200	3.530400	-10.545000	25.855414	0.000343	20.866342
1350.377870	-2.993400	3.529800	-10.566000	25.892477	0.000343	20.899304
1351.382698	-3.006300	3.528700	-10.606000	25.882762	0.000344	20.892390
1352.379328	-2.986000	3.529100	-10.537000	25.848254	0.000342	20.893285
1353.374925	-2.986500	3.530500	-10.543000	25.796832	0.000341	20.879564
1354.380993	-2.993300	3.528000	-10.559000	25.775936	0.000342	20.904091
1355.383053	-3.012300	3.528100	-10.627000	25.773967	0.000339	20.893580
1356.382597	-3.010300	3.527400	-10.617000	25.768848	0.000342	20.912618
1357.378499	-2.999500	3.528500	-10.582000	25.818186	0.000341	20.890583
1358.378008	-2.981700	3.526400	-10.514000	25.877011	0.000340	20.890880
1359.381462	-2.978000	3.527600	-10.503000	25.875895	0.000341	20.882173
1360.378245	-3.005400	3.525300	-10.594000	25.916060	0.000339	20.901184
1361.385633	-2.999900	3.525200	-10.574000	25.890326	0.000341	20.908047
1362.380273	-2.999500	3.525900	-10.575000	25.860784	0.000337	20.912983
1363.380156	-3.012000	3.524300	-10.613000	25.843919	0.000338	20.895094
1364.382332	-2.985000	3.526100	-10.525000	25.810878	0.000337	20.899836
1365.380208	-2.998300	3.525300	-10.569000	25.857304	0.000337	20.909014
1366.381085	-3.019600	3.524600	-10.642000	25.909618	0.000337	20.928849
1367.386768	-3.013400	3.523400	-10.616000	25.896551	0.000337	20.903870
1368.381926	-3.005800	3.524600	-10.594000	25.896029	0.000336	20.903820
1369.378813	-3.018300	3.522900	-10.633000	25.901690	0.000335	20.903817
1370.379868	-2.978300	3.524700	-10.497000	25.886012	0.000336	20.919834
1371.379914	-3.006600	3.521500	-10.587000	25.888545	0.000336	20.911474
1372.389734	-2.972200	3.522400	-10.468000	25.921905	0.000334	20.924123
1373.381999	-3.006700	3.521500	-10.587000	25.928512	0.000335	20.911796
1374.389169	-3.011600	3.520500	-10.601000	25.956630	0.000335	20.918232
1375.390142	-2.991500	3.522400	-10.536000	25.938695	0.000335	20.912543
1376.383121	-3.024500	3.519600	-10.644000	25.917900	0.000336	20.932901
1377.386532	-3.015800	3.520400	-10.616000	25.919140	0.000334	20.908545
1378.383300	-3.020600	3.518800	-10.628000	25.900659	0.000335	20.922694
1379.384922	-3.002500	3.519400	-10.566000	25.907143	0.000335	20.913562
1380.386697	-2.995200	3.519400	-10.540000	25.877532	0.000332	20.916056
1381.385808	-2.983400	3.520400	-10.501000	25.870871	0.000331	20.916004
1382.386955	-3.002000	3.518800	-10.562000	25.896655	0.000332	20.909664
1383.384212	-2.979100	3.519500	-10.484000	25.817805	0.000333	20.922440
1384.387907	-3.009700	3.516400	-10.582000	25.817827	0.000331	20.901600
1385.391066	-2.985300	3.519500	-10.505000	25.831861	0.000330	20.928497
1386.391585	-3.016600	3.516200	-10.606000	25.847434	0.000332	20.909056
1387.391863	-3.027500	3.516700	-10.646000	25.814893	0.000331	20.910032
1388.392721	-3.007500	3.517300	-10.578000	25.843982	0.000330	20.913174
1389.395293	-3.011100	3.515700	-10.585000	25.855060	0.000330	20.915768
1390.393397	-3.007200	3.516000	-10.572000	25.829198	0.000332	20.890739
1391.389738	-3.008300	3.515300	-10.575000	25.854134	0.000330	20.913416
1392.395030	-2.981200	3.515700	-10.479000	25.871623	0.000329	20.906329
1393.394729	-2.990600	3.516200	-10.514000	25.883747	0.000328	20.900965
1394.394098	-3.006800	3.514400	-10.566000	25.890204	0.000327	20.894649
1395.387472	-2.980700	3.514800	-10.475000	25.937448	0.000327	20.907971
1396.395072	-3.001000	3.512900	-10.542000	25.955354	0.000327	20.903202
1397.396602	-3.010500	3.512800	-10.574000	25.979572	0.000327	20.905247
1398.391734	-3.029600	3.513300	-10.643000	25.973462	0.000327	20.908591
1399.391713	-3.009700	3.513700	-10.574000	26.003018	0.000327	20.897035
1400.392623	-3.039100	3.513100	-10.676000	25.998296	0.000327	20.895136
1401.396075	-3.031800	3.512300	-10.647000	26.011803	0.000325	20.898749
1402.388434	-3.014800	3.511800	-10.587000	25.963939	0.000325	20.896180
1403.396306	-3.006600	3.512600	-10.560000	25.982789	0.000326	20.911797
1404.395950	-2.995200	3.511500	-10.518000	25.994464	0.000326	20.888442
1405.393010	-2.991600	3.511900	-10.505000	25.967307	0.000325	20.885814
1406.401988	-2.978500	3.512500	-10.462000	25.950415	0.000326	20.891128
1407.396961	-3.016200	3.510400	-10.587000	25.891890	0.000324	20.892551
1408.397310	-3.021000	3.508500	-10.597000	25.869901	0.000324	20.911236
1409.396797	-2.966900	3.512000	-10.418000	25.881574	0.000324	20.877921
1410.398333	-2.977400	3.509700	-10.449000	25.899461	0.000322	20.890199
1411.403404	-3.006500	3.509600	-10.551000	25.917911	0.000322	20.867958
1412.398520	-2.960200	3.509200	-10.387000	25.952241	0.000324	20.881584
1413.399648	-2.989800	3.509600	-10.492000	25.977548	0.000322	20.877611
1414.394422	-3.003500	3.507300	-10.534000	25.966641	0.000323	20.888463
1415.399772	-3.003500	3.506800	-10.532000	25.957198	0.000322	20.882771
1416.396561	-2.965800	3.508400	-10.405000	25.937203	0.000323	20.879278
1417.400657	-2.979300	3.507800	-10.450000	25.895219	0.000320	20.888308
1418.395711	-3.005800	3.507400	-10.542000	25.890295	0.000321	20.891423
1419.397050	-2.992200	3.507300	-10.494000	25.901595	0.000322	20.881912
1420.399009	-2.997200	3.506000	-10.507000	25.931379	0.000323	20.865842
1421.396276	-3.011500	3.506000	-10.558000	25.931249	0.000320	20.858600
1422.398970	-2.989200	3.506100	-10.479000	25.898757	0.000321	20.890914
1423.400765	-3.007600	3.505100	-10.541000	25.933976	0.000320	20.890735
1424.401032	-2.985800	3.504700	-10.464000	25.898353	0.000319	20.866328
1425.398395	-2.991600	3.505600	-10.487000	25.921474	0.000319	20.864900
1426.401042	-2.976700	3.504800	-10.431000	25.972794	0.000319	20.870939
1427.395383	-3.014100	3.503600	-10.559000	26.020257	0.000319	20.876898
1428.394971	-2.985400	3.504700	-10.462000	26.019137	0.000316	20.864869
1429.400600	-3.000000	3.502200	-10.506000	25.998021	0.000316	20.886325
1430.395866	-2.989800	3.503600	-10.474000	26.013070	0.000318	20.880109
1431.400617	-3.005800	3.502200	-10.526000	26.034776	0.000317	20.882951
1432.402360	-3.000400	3.501600	-10.505000	26.003203	0.000317	20.882997
1433.405105	-3.002200	3.502500	-10.515000	26.004936	0.000316	20.880472
1434.407964	-2.998400	3.502400	-10.501000	26.006028	0.000315	20.862130
1435.401854	-3.012600	3.501400	-10.547000	26.055797	0.000314	20.879889
1436.403488	-3.017400	3.500400	-10.562000	26.043401	0.000316	20.885452
1437.398792	-3.006500	3.500900	-10.525000	26.018062	0.000314	20.865684
1438.400549	-2.986900	3.501100	-10.456000	25.977348	0.000315	20.869824
1439.408338	-2.985500	3.499600	-10.447000	25.990335	0.000313	20.875285
1440.402154	-2.998500	3.499500	-10.492000	26.003546	0.000315	20.867696
1441.414485	-2.979700	3.500500	-10.429000	26.052750	0.000313	20.891526
1442.413888	-2.973300	3.499000	-10.402000	26.055008	0.000315	20.870088
1443.409625	-2.976800	3.498000	-10.412000	26.072836	0.000313	20.891318
1444.410802	-2.965300	3.498900	-10.375000	26.015061	0.000313	20.849868
1445.404097	-2.987900	3.498500	-10.452000	25.980856	0.000314	20.881409
1446.414581	-2.995100	3.497800	-10.476000	25.982691	0.000311	20.882304
1447.403223	-3.031200	3.496700	-10.598000	26.012270	0.000313	20.867452
1448.410081	-2.992400	3.496300	-10.461000	25.999207	0.000311	20.871871
1449.412011	-3.006500	3.495900	-10.509000	26.005339	0.000310	20.866652
1450.410974	-3.008000	3.495700	-10.515000	26.024732	0.000311	20.884238
1451.408415	-2.987200	3.496300	-10.444000	25.990527	0.000309	20.856987
1452.409928	-3.005200	3.495500	-10.504000	26.024901	0.000312	20.864022
1453.405245	-2.986100	3.495600	-10.437000	26.006043	0.000309	20.875894
1454.417404	-2.975800	3.495000	-10.399000	26.043674	0.000309	20.852063
1455.414145	-3.012300	3.493900	-10.524000	26.093592	0.000309	20.889888
1456.409796	-3.039800	3.492900	-10.616000	26.080027	0.000308	20.848286
1457.415758	-3.006200	3.493500	-10.502000	26.107021	0.000308	20.858339
1458.410369	-2.989200	3.493100	-10.441000	26.114621	0.000310	20.880673
1459.418047	-2.983000	3.494600	-10.424000	26.125595	0.000306	20.873208
1460.426625	-2.995600	3.492600	-10.460000	26.128223	0.000308	20.867314
1461.416361	-3.000800	3.493600	-10.482000	26.095138	0.000306	20.882908
1462.418263	-3.003300	3.490600	-10.483000	26.084828	0.000307	20.866859
1463.408255	-3.007500	3.492300	-10.502000	26.084128	0.000306	20.859992
1464.412776	-2.984900	3.491400	-10.420000	26.075883	0.000306	20.860717
1465.417992	-3.025600	3.491700	-10.564000	26.055887	0.000306	20.865756
1466.412065	-2.985500	3.492300	-10.425000	26.036881	0.000305	20.876531
1467.416837	-3.015300	3.490200	-10.523000	26.049694	0.000304	20.883715
1468.420463	-3.000300	3.490800	-10.473000	26.035537	0.000303	20.866172
1469.414633	-2.986500	3.490900	-10.424000	26.013701	0.000304	20.865571
1470.419044	-3.004000	3.490800	-10.486000	25.990074	0.000301	20.862696
1471.418084	-2.986900	3.489300	-10.421000	26.001799	0.000300	20.851242
1472.418567	-2.986800	3.488300	-10.418000	25.987067	0.000302	20.850666
1473.419918	-2.985700	3.487500	-10.412000	26.026065	0.000301	20.856656
1474.415087	-3.022700	3.488700	-10.545000	26.055719	0.000302	20.861320
1475.420104	-3.021500	3.487800	-10.537000	26.093546	0.000299	20.861395
1476.421788	-2.986000	3.488000	-10.415000	26.072831	0.000297	20.867608
1477.416252	-3.002000	3.487700	-10.469000	26.020399	0.000299	20.853334
1478.425039	-2.998700	3.486500	-10.454000	26.001148	0.000300	20.851537
1479.420157	-2.997400	3.485800	-10.447000	25.962451	0.000298	20.841109
1480.413177	-2.985200	3.487100	-10.409000	26.040917	0.000298	20.862569
1481.423800	-2.973700	3.487000	-10.368000	26.043998	0.000297	20.867087
1482.413094	-3.012100	3.485700	-10.499000	26.089452	0.000298	20.843058
1483.414991	-3.018200	3.484200	-10.515000	26.050907	0.000296	20.843210
1484.417960	-3.014100	3.484600	-10.502000	26.042162	0.000296	20.864769
1485.414791	-3.017000	3.483000	-10.507000	26.050111	0.000295	20.869436
1486.419833	-3.001200	3.483600	-10.454000	26.023288	0.000295	20.842013
1487.418329	-2.994700	3.484200	-10.433000	26.098100	0.000294	20.856962
1488.416121	-3.000300	3.484000	-10.453000	26.093483	0.000294	20.864176
1489.415363	-3.019200	3.483100	-10.515000	26.101086	0.000294	20.848108
1490.422241	-2.986900	3.483700	-10.404000	26.065816	0.000298	20.848233
1491.417427	-3.007000	3.482300	-10.471000	26.089291	0.000294	20.840051
1492.420106	-2.990100	3.482900	-10.413000	26.064906	0.000295	20.853956
1493.424175	-3.019800	3.481000	-10.512000	26.025909	0.000295	20.844172
1494.415248	-2.985200	3.482800	-10.395000	25.997994	0.000292	20.843153
1495.412340	-2.997100	3.481700	-10.434000	26.029789	0.000294	20.836217
1496.420131	-3.024700	3.479700	-10.524000	26.004779	0.000293	20.841435
1497.415133	-2.997900	3.480800	-10.434000	26.026883	0.000292	20.828082
1498.417433	-2.995700	3.480600	-10.426000	26.071595	0.000292	20.847875
1499.417100	-2.993300	3.479400	-10.414000	26.095317	0.000292	20.828088
1500.421250	-2.997400	3.479100	-10.428000	26.074281	0.000293	20.833031
1501.423602	-3.007900	3.478700	-10.462000	26.061842	0.000292	20.810101
1502.416301	-2.984900	3.478300	-10.381000	26.028656	0.000291	20.838872
1503.428326	-3.015000	3.478100	-10.486000	26.048631	0.000289	20.823854
1504.416415	-2.997100	3.478100	-10.423000	26.060155	0.000289	20.835432
1505.421095	-3.018300	3.478300	-10.498000	26.046497	0.000287	20.819339
1506.420643	-3.040600	3.476900	-10.570000	26.012222	0.000288	20.827102
1507.418775	-2.993800	3.477900	-10.411000	26.023353	0.000290	20.862467
1508.418901	-3.021600	3.476700	-10.504000	26.027505	0.000289	20.821595
1509.422138	-3.002000	3.476200	-10.435000	26.077454	0.000287	20.820098
1510.421266	-2.979200	3.477600	-10.359000	26.064219	0.000289	20.829085
1511.426374	-2.977400	3.476700	-10.350000	26.036826	0.000287	20.826692
1512.425517	-3.000500	3.477400	-10.432000	26.037326	0.000286	20.834780
1513.418486	-2.984900	3.475600	-10.374000	26.049398	0.000287	20.829366
1514.421110	-3.002600	3.476000	-10.436000	26.014481	0.000284	20.838855
1515.426858	-2.973700	3.474700	-10.332000	26.011128	0.000286	20.832168
1516.427640	-3.001600	3.474900	-10.429000	26.013741	0.000285	20.826732
1517.430954	-3.008100	3.473900	-10.448000	25.975665	0.000285	20.833047
1518.420672	-2.992100	3.473200	-10.392000	25.995412	0.000285	20.828706
1519.426061	-3.004100	3.473600	-10.435000	26.047180	0.000284	20.835198
1520.429759	-2.976200	3.473600	-10.337000	26.085087	0.000285	20.825396
1521.426452	-2.989500	3.472200	-10.379000	26.042069	0.000286	20.828640
1522.428887	-2.991800	3.472600	-10.389000	25.985341	0.000283	20.814320
1523.425954	-3.006500	3.471200	-10.436000	25.987500	0.000284	20.819808
1524.426200	-3.002500	3.471900	-10.424000	26.002753	0.000282	20.812848
1525.431389	-3.002000	3.471500	-10.421000	25.967234	0.000283	20.831690
1526.424187	-2.999100	3.471000	-10.409000	25.955839	0.000281	20.825457
1527.424129	-2.978500	3.472400	-10.342000	25.938873	0.000283	20.836861
1528.428785	-3.011000	3.468900	-10.444000	25.953380	0.000282	20.820143
1529.427506	-3.003400	3.470800	-10.424000	25.970374	0.000280	20.822042
1530.425142	-3.001900	3.470500	-10.417000	26.025122	0.000280	20.801657
1531.432496	-2.992200	3.469900	-10.382000	26.080833	0.000282	20.798363
1532.429058	-3.024400	3.468900	-10.491000	26.041442	0.000280	20.811416
1533.428280	-2.998400	3.467500	-10.396000	26.017824	0.000280	20.804756
1534.428831	-3.014100	3.469700	-10.456000	25.988690	0.000278	20.797771
1535.435852	-2.978000	3.468600	-10.328000	26.000365	0.000279	20.819932
1536.434233	-2.987900	3.469200	-10.365000	25.990482	0.000280	20.808580
1537.439969	-3.002900	3.466700	-10.409000	26.028289	0.000278	20.808158
1538.430365	-2.965300	3.469000	-10.285000	26.095273	0.000280	20.795328
1539.433988	-2.991800	3.467000	-10.372000	26.090234	0.000278	20.808282
1540.429265	-2.969300	3.467400	-10.295000	26.041229	0.000278	20.798400
1541.435573	-2.982200	3.468500	-10.343000	26.039566	0.000278	20.790565
1542.435611	-3.013800	3.465200	-10.443000	25.988597	0.000279	20.802419
1543.428768	-2.978000	3.467100	-10.324000	25.988172	0.000279	20.803414
1544.440198	-3.019900	3.465600	-10.465000	26.036932	0.000279	20.814471
1545.434517	-3.032800	3.465000	-10.508000	26.037975	0.000276	20.789914
1546.434992	-3.023000	3.464900	-10.474000	26.048058	0.000275	20.808106
1547.432847	-2.990700	3.464900	-10.362000	26.077042	0.000276	20.794554
1548.435529	-3.022400	3.464200	-10.469000	26.037179	0.000277	20.800969
1549.431973	-3.004900	3.463700	-10.407000	26.039961	0.000277	20.794755
1550.435100	-2.999000	3.464200	-10.388000	26.032904	0.000277	20.794777
1551.434386	-2.997600	3.462000	-10.376000	26.058909	0.000275	20.811422
1552.433581	-3.001700	3.462400	-10.393000	26.101007	0.000274	20.804883
1553.431849	-2.983300	3.461800	-10.326000	26.105877	0.000275	20.805035
1554.433777	-2.975000	3.462200	-10.299000	26.127183	0.000276	20.801313
1555.433291	-2.971200	3.462900	-10.288000	26.166004	0.000272	20.825147
1556.433450	-2.985500	3.461200	-10.332000	26.164486	0.000274	20.784742
1557.432055	-2.996400	3.461800	-10.372000	26.205591	0.000271	20.784321
1558.435455	-2.994700	3.460600	-10.363000	26.199802	0.000275	20.797944
1559.437388	-2.995800	3.461700	-10.369000	26.185896	0.000272	20.788238
1560.435037	-3.004200	3.460300	-10.395000	26.149115	0.000271	20.780676
1561.439932	-2.993700	3.460400	-10.359000	26.165979	0.000272	20.801889
1562.440546	-3.015300	3.459000	-10.429000	26.156116	0.000271	20.781547
1563.438369	-2.998600	3.459700	-10.373000	26.139036	0.000272	20.776238
1564.438677	-3.012900	3.458500	-10.419000	26.084589	0.000270	20.789809
1565.440685	-3.005400	3.458500	-10.394000	26.079152	0.000271	20.786716
1566.439402	-3.002800	3.458200	-10.384000	26.114094	0.000271	20.779151
1567.435594	-3.004900	3.459100	-10.394000	26.073214	0.000271	20.784070
1568.437174	-2.999800	3.457600	-10.371000	26.017306	0.000270	20.795226
1569.436838	-3.016800	3.456200	-10.425000	26.068597	0.000272	20.782749
1570.442531	-3.006000	3.456500	-10.388000	26.091992	0.000269	20.789660
1571.441749	-3.018500	3.455400	-10.429000	26.074553	0.000267	20.813390
1572.442925	-2.998100	3.456800	-10.363000	26.131032	0.000268	20.774360
1573.436087	-2.985300	3.456000	-10.316000	26.113869	0.000269	20.795047
1574.445433	-2.989000	3.456100	-10.329000	26.135850	0.000268	20.762605
1575.444790	-2.985200	3.456100	-10.316000	26.089780	0.000267	20.802137
1576.438323	-2.989700	3.455800	-10.331000	26.041093	0.000267	20.798263
1577.446429	-2.999300	3.455100	-10.363000	26.007685	0.000266	20.784612
1578.443586	-2.973500	3.456200	-10.276000	25.997975	0.000266	20.783865
1579.440247	-3.012000	3.452800	-10.399000	26.007389	0.000266	20.787159
1580.441529	-2.980900	3.453700	-10.294000	26.040918	0.000265	20.775327
1581.440181	-2.978600	3.452600	-10.283000	26.071740	0.000266	20.763148
1582.446468	-2.986600	3.453900	-10.315000	26.082869	0.000265	20.771959
1583.439923	-3.001600	3.452900	-10.363000	26.092627	0.000264	20.775126
1584.450379	-3.046900	3.450900	-10.513000	26.083464	0.000265	20.797213
1585.444932	-2.993700	3.452100	-10.334000	26.103484	0.000265	20.759956
1586.443127	-3.000600	3.452700	-10.359000	26.110587	0.000265	20.756661
1587.446689	-2.980000	3.451400	-10.284000	26.143965	0.000263	20.731877
1588.446703	-2.990100	3.451900	-10.320000	26.158072	0.000264	20.766442
1589.438656	-2.970700	3.452500	-10.256000	26.143940	0.000261	20.788278
1590.442255	-3.001800	3.450500	-10.357000	26.091212	0.000260	20.769910
1591.447794	-3.002800	3.450500	-10.359000	26.081774	0.000261	20.767065
1592.440777	-2.997000	3.449800	-10.338000	26.095237	0.000260	20.780593
1593.446901	-3.014200	3.448300	-10.393000	26.092205	0.000260	20.755735
1594.447335	-2.997200	3.449800	-10.338000	26.136168	0.000262	20.778572
1595.440306	-2.993800	3.448000	-10.321000	26.176776	0.000259	20.787609
1596.451448	-3.002200	3.448200	-10.351000	26.189835	0.000260	20.760427
1597.447381	-3.014800	3.447400	-10.393000	26.198430	0.000259	20.769064
1598.443408	-3.012700	3.447400	-10.385000	26.175383	0.000258	20.743059
1599.448661	-2.993200	3.447900	-10.319000	26.141210	0.000257	20.779372
1600.444316	-2.990600	3.447000	-10.307000	26.120053	0.000257	20.772811
1601.446189	-3.003800	3.446300	-10.351000	26.114140	0.000256	20.778724
1602.444690	-3.001600	3.446600	-10.344000	26.110738	0.000260	20.786685
1603.452998	-2.993800	3.446600	-10.318000	26.100036	0.000257	20.774509
1604.442125	-2.999200	3.446900	-10.337000	26.036281	0.000255	20.765927
1605.446083	-3.009300	3.446100	-10.370000	26.081413	0.000255	20.758641
1606.450742	-2.988200	3.445700	-10.296000	26.116506	0.000255	20.747435
1607.448276	-2.991500	3.444700	-10.304000	26.114671	0.000257	20.786843
1608.447062	-3.011600	3.442600	-10.366000	26.124953	0.000255	20.770623
1609.448688	-2.987600	3.445200	-10.291000	26.170155	0.000256	20.782852
1610.446315	-2.997100	3.443200	-10.319000	26.149618	0.000255	20.755576
1611.454203	-3.009400	3.442600	-10.359000	26.130348	0.000253	20.767034
1612.450212	-3.002700	3.442200	-10.335000	26.115219	0.000254	20.756100
1613.454522	-2.987300	3.443300	-10.285000	26.127988	0.000252	20.753757
1614.456401	-2.999700	3.441900	-10.323000	26.117011	0.000253	20.768806
1615.448964	-3.002300	3.442700	-10.335000	26.139816	0.000253	20.779393
1616.451335	-2.984400	3.441200	-10.269000	26.161322	0.000252	20.763070
1617.454075	-3.021000	3.442000	-10.398000	26.147092	0.000251	20.757305
1618.447482	-3.012600	3.441600	-10.367000	26.156332	0.000251	20.755210
1619.456839	-3.003300	3.441700	-10.334000	26.218543	0.000251	20.772206
1620.458422	-3.008100	3.440000	-10.347000	26.174269	0.000251	20.765648
1621.446971	-2.999700	3.441100	-10.322000	26.182759	0.000249	20.774654
1622.449326	-3.008000	3.440100	-10.347000	26.185347	0.000248	20.746908
1623.449662	-3.001700	3.440100	-10.326000	26.185572	0.000248	20.752824
1624.455596	-2.998500	3.439100	-10.312000	26.187358	0.000248	20.754618
1625.458292	-2.993500	3.438800	-10.293000	26.195108	0.000248	20.740120
1626.457180	-3.020100	3.437600	-10.380000	26.193667	0.000250	20.754795
1627.450400	-3.020600	3.436700	-10.380000	26.232390	0.000247	20.751507
1628.456573	-3.008800	3.437000	-10.340000	26.230999	0.000248	20.744893
1629.453977	-2.981300	3.438000	-10.249000	26.212326	0.000248	20.744146
1630.460842	-2.970800	3.437500	-10.211000	26.195765	0.000249	20.757377
1631.466561	-3.012100	3.437400	-10.353000	26.099872	0.000245	20.759171
1632.453370	-2.983700	3.437000	-10.254000	26.058696	0.000246	20.771853
1633.457911	-2.979500	3.437100	-10.240000	26.069898	0.000246	20.753236
1634.458777	-2.983200	3.436600	-10.252000	26.091214	0.000244	20.768016
1635.454420	-2.999000	3.435900	-10.304000	26.125810	0.000245	20.766268
1636.460908	-2.994700	3.433800	-10.282000	26.188394	0.000243	20.740960
1637.459191	-2.997200	3.434800	-10.294000	26.197587	0.000243	20.744509
1638.452023	-2.987000	3.435500	-10.261000	26.183509	0.000244	20.738896
1639.463972	-3.010700	3.433600	-10.337000	26.195031	0.000244	20.773235
1640.460487	-3.013800	3.433500	-10.346000	26.236729	0.000244	20.761083
1641.455351	-3.009300	3.434000	-10.333000	26.214157	0.000242	20.768747
1642.464057	-2.998900	3.432800	-10.294000	26.156048	0.000242	20.770099
1643.456634	-2.978000	3.433500	-10.224000	26.165359	0.000242	20.728244
1644.459158	-3.017100	3.432000	-10.352000	26.147107	0.000242	20.747363
1645.463487	-3.006900	3.432900	-10.321000	26.141571	0.000240	20.765035
1646.463654	-2.995700	3.431800	-10.280000	26.136679	0.000240	20.773870
1647.456830	-3.011800	3.431900	-10.335000	26.167055	0.000241	20.774047
1648.464932	-2.990700	3.430000	-10.258000	26.158861	0.000240	20.769132
1649.467909	-2.985500	3.430600	-10.241000	26.123945	0.000239	20.768661
1650.465453	-3.002700	3.430200	-10.299000	26.143295	0.000236	20.761551
1651.463541	-3.015500	3.430300	-10.343000	26.106241	0.000237	20.754665
1652.463556	-3.003600	3.430700	-10.303000	26.139326	0.000237	20.777952
1653.456391	-3.003300	3.429800	-10.300000	26.117122	0.000236	20.762280
1654.462281	-3.021700	3.429100	-10.360000	26.127285	0.000235	20.750205
1655.466719	-2.984500	3.429600	-10.235000	26.140448	0.000236	20.764855
1656.458830	-2.995500	3.430000	-10.274000	26.181085	0.000238	20.735512
1657.466604	-2.999300	3.428000	-10.281000	26.197202	0.000238	20.757873
1658.467593	-3.016600	3.427900	-10.339000	26.213942	0.000238	20.767583
1659.460317	-2.995300	3.427400	-10.265000	26.222540	0.000236	20.760576
1660.465100	-2.994100	3.427700	-10.262000	26.180101	0.000235	20.763448
1661.465555	-2.998300	3.426600	-10.273000	26.162670	0.000234	20.772960
1662.460392	-2.990400	3.427500	-10.249000	26.198859	0.000238	20.769021
1663.463289	-3.005300	3.426200	-10.296000	26.158652	0.000235	20.761335
1664.465096	-3.016300	3.425900	-10.332000	26.166054	0.000235	20.756445
1665.459657	-3.014500	3.427200	-10.330000	26.158954	0.000234	20.752156
1666.462572	-3.011200	3.425700	-10.314000	26.149791	0.000234	20.764760
1667.471542	-2.983400	3.426000	-10.220000	26.126873	0.000235	20.771603
1668.465819	-3.005300	3.424800	-10.292000	26.110976	0.000233	20.782657
1669.473951	-2.997700	3.423900	-10.263000	26.149030	0.000235	20.752140
1670.467248	-2.990200	3.424800	-10.240000	26.133658	0.000233	20.776050
1671.463482	-3.017100	3.422700	-10.326000	26.147241	0.000233	20.745601
1672.463180	-3.007100	3.423600	-10.294000	26.188944	0.000233	20.779447
1673.474896	-3.014700	3.422700	-10.318000	26.204969	0.000232	20.770894
1674.462859	-3.009800	3.423000	-10.301000	26.222498	0.000235	20.766223
1675.473564	-3.003800	3.422300	-10.278000	26.202835	0.000232	20.751679
1676.470620	-3.005700	3.421900	-10.284000	26.150211	0.000233	20.759966
1677.468053	-3.016300	3.421100	-10.318000	26.178875	0.000233	20.773596
1678.468501	-2.995200	3.422900	-10.251000	26.206419	0.000230	20.757177
1679.469965	-3.009200	3.420700	-10.293000	26.229589	0.000230	20.764814
1680.471999	-2.986300	3.420600	-10.214000	26.246081	0.000230	20.766215
1681.466390	-3.004100	3.420800	-10.275000	26.259398	0.000230	20.775803
1682.471254	-2.996300	3.419600	-10.245000	26.197513	0.000229	20.754392
1683.465724	-2.983900	3.420200	-10.205000	26.194959	0.000231	20.766051
1684.479056	-3.017400	3.419200	-10.316000	26.206410	0.000229	20.773290
1685.474074	-3.015800	3.419000	-10.310000	26.205541	0.000228	20.769572
1686.473470	-3.000900	3.418700	-10.258000	26.153217	0.000228	20.759193
1687.472069	-3.007400	3.419000	-10.281000	26.207188	0.000226	20.776443
1688.468851	-3.002100	3.418000	-10.261000	26.247196	0.000228	20.775869
1689.470910	-2.982300	3.419300	-10.196000	26.263787	0.000227	20.768360
1690.473524	-2.990600	3.418200	-10.221000	26.242188	0.000227	20.788381
1691.470843	-3.007100	3.417300	-10.275000	26.268737	0.000228	20.760058
1692.476822	-3.006600	3.417600	-10.274000	26.288335	0.000227	20.762684
1693.471691	-3.006300	3.417100	-10.271000	26.286821	0.000228	20.774439
1694.466691	-2.977900	3.417000	-10.175000	26.248082	0.000229	20.777234
1695.482219	-2.998200	3.416500	-10.243000	26.242229	0.000230	20.805966
1696.478562	-3.013400	3.416600	-10.295000	26.257652	0.000227	20.767410
1697.471776	-3.005600	3.415200	-10.264000	26.251395	0.000227	20.771554
1698.479347	-3.021700	3.414500	-10.316000	26.241733	0.000227	20.768483
1699.472669	-3.004600	3.414500	-10.258000	26.216035	0.000228	20.776324
1700.473316	-2.987900	3.414100	-10.200000	26.183674	0.000226	20.763245
1701.479076	-3.009600	3.413600	-10.273000	26.163088	0.000229	20.772431
1702.476512	-3.014100	3.413600	-10.288000	26.209407	0.000227	20.787682
1703.475056	-3.004500	3.412400	-10.252000	26.203594	0.000228	20.770460
1704.482464	-2.993200	3.413700	-10.217000	26.193290	0.000228	20.787134
1705.473329	-3.005800	3.412800	-10.257000	26.218693	0.000228	20.779469
1706.476529	-2.996400	3.412800	-10.224000	26.210795	0.000226	20.784809
1707.479203	-2.989700	3.412700	-10.202000	26.164405	0.000226	20.796514
1708.480211	-2.987700	3.412300	-10.194000	26.153034	0.000227	20.778450
1709.485920	-2.996900	3.410400	-10.220000	26.209675	0.000226	20.773252
1710.483418	-3.002600	3.412100	-10.245000	26.222292	0.000222	20.780241
1711.484351	-3.016100	3.410400	-10.285000	26.181361	0.000223	20.792215
1712.479414	-3.012700	3.409800	-10.272000	26.195992	0.000225	20.771830
1713.484172	-3.029800	3.408000	-10.325000	26.181734	0.000225	20.796384
1714.476780	-3.025000	3.409200	-10.312000	26.181660	0.000223	20.792042
1715.480209	-2.978800	3.409500	-10.155000	26.196108	0.000223	20.780008
1716.485940	-3.005900	3.409000	-10.246000	26.212993	0.000225	20.791759
1717.481853	-2.975400	3.408700	-10.141000	26.194144	0.000224	20.781827
1718.481338	-2.983200	3.408800	-10.168000	26.217085	0.000222	20.791130
1719.492190	-3.019600	3.407800	-10.288000	26.233973	0.000222	20.787712
1720.480707	-2.994400	3.408500	-10.206000	26.288677	0.000221	20.789580
1721.485850	-2.982600	3.408300	-10.165000	26.318721	0.000223	20.809343
1722.487185	-3.012900	3.408200	-10.268000	26.349888	0.000222	20.821224
1723.479840	-2.992500	3.406600	-10.194000	26.313602	0.000223	20.807517
1724.484470	-2.976300	3.407300	-10.139000	26.311416	0.000224	20.792044
1725.486958	-3.037700	3.406500	-10.346000	26.256210	0.000220	20.791566
1726.483993	-2.984800	3.406000	-10.166000	26.221389	0.000221	20.800671
1727.486779	-3.038100	3.405300	-10.345000	26.185155	0.000219	20.794606
1728.488797	-2.973400	3.406400	-10.127000	26.188057	0.000220	20.804160
1729.487089	-2.989200	3.405400	-10.178000	26.215422	0.000220	20.807950
1730.491707	-2.961800	3.404500	-10.083000	26.226841	0.000220	20.807098
1731.489033	-2.989500	3.404700	-10.177000	26.198330	0.000220	20.816379
1732.488674	-2.995800	3.405600	-10.201000	26.195126	0.000219	20.798461
1733.496099	-2.997300	3.403400	-10.199000	26.222363	0.000218	20.796908
1734.486427	-3.011700	3.403800	-10.250000	26.225613	0.000217	20.817718
1735.486810	-3.039200	3.402800	-10.340000	26.237730	0.000217	20.805712
1736.492705	-3.028100	3.402000	-10.300000	26.288237	0.000218	20.827544
1737.495638	-3.006900	3.403200	-10.231000	26.321686	0.000216	20.805684
1738.488331	-3.005600	3.402100	-10.224000	26.301469	0.000215	20.802436
1739.491821	-2.999200	3.402100	-10.203000	26.276833	0.000216	20.817506
1740.493019	-2.975300	3.402600	-10.123000	26.256365	0.000213	20.806421
1741.487821	-2.996600	3.400900	-10.191000	26.247700	0.000215	20.820946
1742.496808	-3.012100	3.400300	-10.241000	26.207044	0.000212	20.821343
1743.496441	-3.009700	3.400000	-10.233000	26.180296	0.000213	20.825284
1744.490030	-3.009900	3.400500	-10.235000	26.209992	0.000213	20.807236
1745.495001	-3.012000	3.400700	-10.241000	26.263634	0.000212	20.821786
1746.494328	-2.994400	3.399200	-10.178000	26.294323	0.000210	20.813273
1747.497508	-2.959200	3.400300	-10.061000	26.308351	0.000212	20.818361
1748.497507	-3.011300	3.398800	-10.234000	26.309544	0.000210	20.839000
1749.492854	-2.998900	3.398000	-10.189000	26.226726	0.000208	20.829266
1750.487846	-2.996900	3.398300	-10.183000	26.219447	0.000207	20.814840
1751.491903	-3.003200	3.397200	-10.201000	26.234768	0.000210	20.821227
1752.494133	-2.995200	3.398400	-10.179000	26.263251	0.000209	20.828987
1753.492178	-3.004100	3.397100	-10.204000	26.274874	0.000207	20.825495
1754.493766	-3.025000	3.396400	-10.273000	26.300426	0.000206	20.835526
1755.498037	-3.011000	3.396300	-10.224000	26.279539	0.000206	20.826864
1756.492647	-3.012900	3.396300	-10.232000	26.249364	0.000208	20.826886
1757.490361	-2.975100	3.397500	-10.107000	26.276733	0.000208	20.830682
1758.495682	-2.995200	3.396100	-10.171000	26.320880	0.000206	20.833797
1759.492211	-3.026600	3.394700	-10.274000	26.343877	0.000209	20.850271
1760.495180	-2.994600	3.395000	-10.165000	26.363640	0.000210	20.851166
1761.502426	-2.977800	3.394600	-10.107000	26.378937	0.000207	20.843307
1762.494906	-2.976300	3.396100	-10.107000	26.377670	0.000207	20.837292
1763.495997	-2.997700	3.394800	-10.175000	26.363890	0.000208	20.842409
1764.493241	-2.993600	3.394600	-10.161000	26.352394	0.000205	20.854088
1765.493997	-2.994200	3.394400	-10.162000	26.340723	0.000202	20.846152
1766.498135	-3.030300	3.393600	-10.283000	26.322745	0.000204	20.851792
1767.508039	-2.989800	3.392700	-10.143000	26.338790	0.000204	20.857959
1768.501479	-3.005900	3.393000	-10.198000	26.351673	0.000204	20.840562
1769.497676	-2.993700	3.391600	-10.152000	26.385000	0.000204	20.847503
1770.498646	-2.997300	3.392700	-10.168000	26.370424	0.000204	20.827639
1771.492617	-2.986000	3.392400	-10.128000	26.344056	0.000204	20.854718
1772.505250	-3.011200	3.391300	-10.211000	26.321034	0.000203	20.833478
1773.496859	-2.997300	3.392800	-10.168000	26.291067	0.000202	20.836552
1774.501864	-2.986400	3.392200	-10.129000	26.323498	0.000202	20.867721
1775.495910	-2.982400	3.391200	-10.112000	26.375025	0.000202	20.849332
1776.499251	-3.000400	3.389500	-10.169000	26.394642	0.000204	20.857194
1777.500165	-3.002300	3.389600	-10.175000	26.408471	0.000203	20.842644
1778.494028	-2.993900	3.389900	-10.149000	26.420561	0.000204	20.836778
1779.499483	-2.994900	3.389200	-10.149000	26.387738	0.000203	20.845988
1780.502605	-3.000900	3.388300	-10.167000	26.376338	0.000203	20.851126
1781.500451	-3.013100	3.388500	-10.208000	26.389175	0.000202	20.858811
1782.504843	-3.011400	3.387300	-10.200000	26.411918	0.000200	20.850850
1783.494145	-2.992200	3.389000	-10.140000	26.444670	0.000202	20.848681
1784.502985	-3.021900	3.387400	-10.235000	26.408098	0.000201	20.850804
1785.497936	-3.005700	3.387300	-10.181000	26.372367	0.000201	20.846186
1786.498521	-3.012500	3.386400	-10.200000	26.398459	0.000200	20.853918
1787.501057	-3.027000	3.386000	-10.249000	26.363249	0.000200	20.855988
1788.503652	-3.024700	3.385000	-10.238000	26.383211	0.000198	20.870361
1789.507457	-2.979200	3.386100	-10.087000	26.447222	0.000198	20.863574
1790.507666	-3.004800	3.385900	-10.173000	26.425420	0.000198	20.883385
1791.503906	-3.019100	3.384000	-10.215000	26.393291	0.000199	20.851095
1792.500801	-2.997700	3.384300	-10.143000	26.397090	0.000199	20.867714
1793.499310	-3.014100	3.384500	-10.200000	26.363390	0.000200	20.864665
1794.504878	-3.019900	3.383600	-10.218000	26.373794	0.000197	20.874646
1795.499374	-3.002800	3.383500	-10.159000	26.410096	0.000199	20.851863
1796.500684	-3.000300	3.384100	-10.153000	26.414415	0.000201	20.851938
1797.506481	-2.989900	3.382400	-10.112000	26.431793	0.000197	20.856601
1798.506845	-3.016600	3.383200	-10.205000	26.372150	0.000195	20.875839
1799.505763	-2.998000	3.381900	-10.138000	26.390099	0.000195	20.851206
1800.508348	-2.995500	3.382100	-10.130000	26.427988	0.000196	20.866527
1801.498415	-2.993200	3.381800	-10.122000	26.471410	0.000195	20.886462
1802.511346	-3.002100	3.380300	-10.147000	26.436029	0.000196	20.861807
1803.506680	-3.003800	3.380600	-10.154000	26.399772	0.000195	20.857134
1804.501906	-3.018400	3.381400	-10.205000	26.428645	0.000196	20.868609
1805.510331	-3.009600	3.379900	-10.171000	26.454094	0.000194	20.878541
1806.507067	-3.010600	3.380800	-10.177000	26.503971	0.000195	20.877940
1807.514021	-2.984600	3.380100	-10.087000	26.497315	0.000192	20.871723
1808.511139	-3.026200	3.378600	-10.224000	26.467069	0.000194	20.892529
1809.505431	-2.977000	3.379400	-10.060000	26.422031	0.000192	20.878556
1810.502112	-2.991200	3.380400	-10.110000	26.393176	0.000191	20.868048
1811.505697	-2.992800	3.379900	-10.115000	26.393071	0.000191	20.873158
1812.502261	-2.995800	3.378900	-10.122000	26.415617	0.000191	20.882067
1813.507889	-2.990100	3.378600	-10.102000	26.399648	0.000190	20.875501
1814.507470	-2.992800	3.377200	-10.106000	26.398085	0.000192	20.893369
1815.508768	-2.990300	3.377100	-10.098000	26.426588	0.000190	20.894515
1816.503040	-2.992200	3.377500	-10.105000	26.474881	0.000190	20.888054
1817.506874	-2.976700	3.376600	-10.049000	26.465795	0.000189	20.882715
1818.517772	-2.984800	3.376500	-10.077000	26.441015	0.000188	20.894317
1819.529612	-3.010400	3.376000	-10.162000	26.464873	0.000189	20.884633
1820.514368	-3.011600	3.376200	-10.166000	26.469914	0.000190	20.892544
1821.515107	-3.014100	3.374800	-10.171000	26.440691	0.000188	20.902051
1822.508434	-2.984600	3.377200	-10.078000	26.455882	0.000190	20.885079
1823.509808	-3.003800	3.375200	-10.138000	26.461870	0.000189	20.898209
1824.509526	-3.019600	3.375000	-10.190000	26.439843	0.000189	20.904992
1825.513924	-3.000200	3.374100	-10.123000	26.469862	0.000187	20.906241
1826.513242	-3.013800	3.374600	-10.170000	26.483712	0.000188	20.901670
1827.509061	-3.013000	3.373500	-10.163000	26.504569	0.000186	20.896557
1828.513889	-2.998800	3.372800	-10.113000	26.534287	0.000184	20.906988
1829.506473	-3.014200	3.373300	-10.167000	26.545929	0.000184	20.905413
1830.507276	-2.987200	3.373500	-10.076000	26.550917	0.000186	20.914220
1831.510945	-2.984100	3.372100	-10.061000	26.563952	0.000184	20.910728
1832.511025	-2.988400	3.372000	-10.075000	26.519784	0.000185	20.913746
1833.509077	-2.996600	3.370900	-10.101000	26.500071	0.000183	20.910052
1834.514977	-3.026200	3.370200	-10.198000	26.493640	0.000184	20.920656
1835.508008	-2.987500	3.371800	-10.072000	26.536168	0.000184	20.904137
1836.514431	-2.980400	3.371400	-10.047000	26.514044	0.000183	20.913191
1837.515701	-2.988400	3.372600	-10.078000	26.504141	0.000182	20.905135
1838.511602	-3.001700	3.370400	-10.115000	26.431219	0.000183	20.925245
1839.510989	-3.009900	3.368900	-10.139000	26.443312	0.000182	20.919383
1840.515161	-3.004200	3.370200	-10.124000	26.425882	0.000181	20.917511
1841.513460	-3.018000	3.369300	-10.168000	26.456098	0.000181	20.918010
1842.510876	-2.995000	3.367800	-10.086000	26.470173	0.000180	20.915088
1843.514401	-3.025400	3.368100	-10.188000	26.485148	0.000182	20.908329
1844.511188	-3.012500	3.367600	-10.145000	26.547686	0.000182	20.910024
1845.514485	-3.004500	3.368200	-10.119000	26.541483	0.000179	20.923702
1846.513506	-3.005500	3.368100	-10.122000	26.557024	0.000178	20.906135
1847.515685	-3.015500	3.366800	-10.151000	26.564744	0.000180	20.919584
1848.513082	-3.016300	3.366500	-10.153000	26.582175	0.000180	20.917192
1849.514546	-3.000000	3.366300	-10.098000	26.578204	0.000178	20.895659
1850.517652	-3.019500	3.366600	-10.164000	26.535502	0.000179	20.917217
1851.516885	-2.987600	3.365900	-10.055000	26.545235	0.000178	20.915147
1852.510870	-2.992500	3.365900	-10.071000	26.506805	0.000177	20.916346
1853.510873	-2.982900	3.366600	-10.041000	26.515323	0.000178	20.912107
1854.510247	-2.979500	3.366100	-10.029000	26.498616	0.000177	20.897685
1855.510249	-2.989600	3.363800	-10.056000	26.474040	0.000175	20.892423
1856.510808	-3.018200	3.364200	-10.153000	26.429622	0.000176	20.918899
1857.517249	-3.016600	3.362900	-10.144000	26.425250	0.000174	20.925884
1858.516711	-3.016400	3.363700	-10.145000	26.446583	0.000175	20.891379
1859.519288	-2.996800	3.364200	-10.081000	26.482509	0.000174	20.908522
1860.523347	-2.972600	3.364800	-10.002000	26.517589	0.000176	20.925289
1861.517545	-3.019700	3.363000	-10.154000	26.504884	0.000175	20.902563
1862.517469	-3.006600	3.363200	-10.111000	26.493189	0.000172	20.904084
1863.521644	-3.015000	3.362300	-10.137000	26.497537	0.000173	20.879532
1864.515607	-3.001300	3.361800	-10.089000	26.524030	0.000172	20.899049
1865.517566	-3.029500	3.361300	-10.182000	26.564646	0.000172	20.893409
1866.519618	-3.026300	3.360000	-10.167000	26.600374	0.000172	20.886651
1867.519338	-2.996900	3.360800	-10.070000	26.639846	0.000173	20.892191
1868.518979	-2.993100	3.360900	-10.058000	26.631205	0.000172	20.898677
1869.523349	-2.976200	3.361100	-10.003000	26.648064	0.000170	20.869161
1870.516583	-3.003500	3.360100	-10.092000	26.638434	0.000171	20.894091
1871.516637	-3.000300	3.360300	-10.081000	26.563012	0.000172	20.879914
1872.515458	-2.992200	3.360400	-10.054000	26.528131	0.000170	20.907911
1873.523483	-2.968800	3.359900	-9.973100	26.555563	0.000170	20.902770
1874.517362	-3.001500	3.359100	-10.080000	26.561100	0.000168	20.892690
1875.517170	-3.011200	3.357600	-10.109000	26.586026	0.000168	20.878392
1876.518903	-2.970300	3.358100	-9.974000	26.612042	0.000170	20.882260
1877.519010	-2.993800	3.359100	-10.056000	26.599976	0.000170	20.898578
1878.525703	-2.990700	3.357900	-10.042000	26.631060	0.000171	20.870084
1879.521415	-2.980400	3.357700	-10.007000	26.602088	0.000171	20.876046
1880.520051	-3.001900	3.356700	-10.075000	26.644615	0.000167	20.868538
1881.522336	-2.989000	3.356900	-10.032000	26.652386	0.000168	20.880143
1882.522385	-2.987400	3.356100	-10.025000	26.692800	0.000169	20.871460
1883.525196	-2.993900	3.357100	-10.050000	26.707991	0.000165	20.855913
1884.519927	-3.015300	3.354700	-10.114000	26.667732	0.000166	20.864277
1885.529993	-2.994800	3.356300	-10.051000	26.637842	0.000165	20.865523
1886.523786	-2.988300	3.354700	-10.023000	26.577844	0.000165	20.854996
1887.520941	-2.979200	3.354600	-9.993000	26.556396	0.000165	20.863307
1888.528609	-3.002200	3.354200	-10.069000	26.616374	0.000164	20.887088
1889.523513	-3.003600	3.352400	-10.069000	26.579509	0.000164	20.850506
1890.521924	-2.984000	3.354300	-10.009000	26.573972	0.000166	20.867698
1891.525684	-3.002300	3.353700	-10.068000	26.568885	0.000163	20.867327
1892.522056	-2.996500	3.353700	-10.048000	26.542569	0.000164	20.873589
1893.522253	-3.036300	3.350800	-10.174000	26.521715	0.000163	20.864956
1894.521398	-3.002600	3.351700	-10.062000	26.550418	0.000163	20.862514
1895.522202	-3.005300	3.351800	-10.073000	26.609724	0.000160	20.855275
1896.525292	-2.997100	3.351800	-10.045000	26.596193	0.000162	20.865380
1897.524193	-3.000300	3.351100	-10.053000	26.627278	0.000163	20.850636
1898.526627	-2.975000	3.351700	-9.970200	26.675639	0.000158	20.846149
1899.529062	-3.007500	3.350300	-10.075000	26.681672	0.000160	20.859325
1900.526804	-2.981800	3.350400	-9.990000	26.685075	0.000160	20.845204
1901.536817	-3.008300	3.349000	-10.074000	26.702874	0.000160	20.842235
1902.526052	-2.996700	3.349500	-10.037000	26.710695	0.000158	20.865743
1903.529220	-3.008100	3.348500	-10.072000	26.651049	0.000159	20.830912
1904.530414	-3.007200	3.348200	-10.067000	26.649014	0.000157	20.861582
1905.532346	-2.986000	3.349900	-10.002000	26.592939	0.000159	20.859264
1906.527233	-3.030600	3.348400	-10.147000	26.586982	0.000156	20.837156
1907.535252	-2.983600	3.347400	-9.985800	26.672801	0.000159	20.840925
1908.531930	-2.985000	3.347600	-9.991600	26.638398	0.000158	20.871297
1909.529023	-2.966500	3.347500	-9.929500	26.661364	0.000158	20.839385
1910.533948	-2.998600	3.347900	-10.039000	26.660322	0.000158	20.850665
1911.531558	-2.978200	3.346800	-9.966200	26.698926	0.000157	20.826887
1912.531031	-2.997300	3.346400	-10.029000	26.751403	0.000156	20.834126
1913.526889	-2.978800	3.346700	-9.967600	26.811594	0.000157	20.844858
1914.535105	-2.991600	3.345100	-10.007000	26.762552	0.000155	20.839171
1915.531488	-2.993800	3.345900	-10.016000	26.718596	0.000157	20.848558
1916.531882	-2.983500	3.345600	-9.980200	26.665375	0.000157	20.868072
1917.531460	-2.992500	3.345300	-10.010000	26.680644	0.000157	20.835533
1918.537339	-2.983500	3.345500	-9.980200	26.655055	0.000154	20.840628
1919.533150	-3.018600	3.344600	-10.095000	26.679929	0.000155	20.839082
1920.531130	-3.018200	3.343500	-10.090000	26.730415	0.000157	20.848112
1921.532543	-2.986800	3.343700	-9.985700	26.770751	0.000154	20.852630
1922.532103	-3.008000	3.344500	-10.058000	26.812403	0.000155	20.833343
1923.533584	-3.012200	3.343400	-10.070000	26.796692	0.000153	20.832720
1924.533038	-3.001300	3.342900	-10.032000	26.755765	0.000152	20.832348
1925.532886	-3.017700	3.341800	-10.084000	26.734441	0.000152	20.833194
1926.539331	-2.987300	3.341900	-9.982600	26.760108	0.000154	20.807792
1927.532969	-3.000800	3.341300	-10.025000	26.751595	0.000151	20.835267
1928.538282	-2.993900	3.342500	-10.006000	26.726775	0.000151	20.827384
1929.531631	-3.013100	3.340000	-10.063000	26.700364	0.000150	20.829280
1930.535318	-2.986000	3.341300	-9.975800	26.680727	0.000151	20.826609
1931.534393	-2.985800	3.339400	-9.969300	26.677451	0.000150	20.819521
1932.528368	-3.002400	3.338800	-10.023000	26.655339	0.000150	20.828586
1933.534513	-2.996400	3.340600	-10.009000	26.633911	0.000151	20.820321
1934.545666	-2.997500	3.339600	-10.009000	26.668166	0.000149	20.840058
1935.530200	-2.985900	3.340100	-9.971900	26.691029	0.000149	20.837440
1936.538785	-2.991400	3.339000	-9.987600	26.737569	0.000149	20.829227
1937.536994	-3.016300	3.338500	-10.069000	26.784983	0.000148	20.830430
1938.535532	-3.004700	3.338600	-10.030000	26.814542	0.000149	20.821269
1939.533967	-3.005900	3.337800	-10.032000	26.820796	0.000150	20.832298
1940.537979	-3.007600	3.336800	-10.034000	26.835467	0.000148	20.812437
1941.532099	-2.992800	3.338800	-9.991800	26.846437	0.000147	20.817303
1942.534539	-2.982900	3.337700	-9.955200	26.803572	0.000146	20.840111
1943.539692	-2.999600	3.335100	-10.003000	26.784064	0.000146	20.818601
1944.536709	-2.992300	3.336000	-9.981800	26.785877	0.000144	20.823268
1945.540553	-3.019200	3.335500	-10.070000	26.806753	0.000147	20.825766
1946.542079	-3.027200	3.335200	-10.096000	26.788090	0.000144	20.821700
1947.537010	-2.999400	3.336100	-10.005000	26.758179	0.000143	20.821973
1948.540313	-3.007200	3.334100	-10.025000	26.780643	0.000144	20.802360
1949.540616	-3.012900	3.334700	-10.047000	26.826486	0.000143	20.814312
1950.539304	-3.019600	3.333600	-10.065000	26.861508	0.000144	20.815862
1951.540980	-3.011000	3.332500	-10.033000	26.892684	0.000142	20.823975
1952.536736	-2.979200	3.334300	-9.931900	26.848480	0.000141	20.811297
1953.536597	-3.017900	3.333600	-10.060000	26.800080	0.000141	20.819531
1954.538393	-2.995300	3.332800	-9.981500	26.801699	0.000140	20.824003
1955.542165	-3.006500	3.333300	-10.021000	26.790483	0.000140	20.800873
1956.541932	-3.008600	3.332700	-10.025000	26.817236	0.000140	20.799797
1957.543452	-2.989200	3.332100	-9.959900	26.781744	0.000139	20.800147
1958.547733	-2.996800	3.332300	-9.984400	26.769067	0.000138	20.794988
1959.540305	-3.001500	3.330900	-9.996800	26.766635	0.000138	20.805345
1960.543069	-2.991900	3.331600	-9.966800	26.757850	0.000139	20.820694
1961.542538	-2.987800	3.331800	-9.953900	26.722060	0.000137	20.792298
1962.546513	-2.991600	3.331400	-9.965600	26.705408	0.000138	20.825343
1963.544587	-3.018900	3.329900	-10.051000	26.699576	0.000138	20.800040
1964.544693	-3.019900	3.329900	-10.055000	26.722313	0.000137	20.797768
1965.547649	-3.015100	3.329100	-10.036000	26.746865	0.000137	20.813443
1966.546802	-3.016100	3.329300	-10.040000	26.720405	0.000136	20.795850
1967.545698	-3.015100	3.330200	-10.040000	26.715347	0.000137	20.825852
1968.544837	-2.995500	3.329000	-9.971100	26.762086	0.000135	20.802668
1969.545922	-2.975500	3.329700	-9.906700	26.829851	0.000135	20.809635
1970.544979	-3.013700	3.328500	-10.030000	26.855393	0.000135	20.788850
1971.543113	-3.009800	3.327400	-10.014000	26.880459	0.000134	20.800304
1972.545894	-2.992600	3.328400	-9.959500	26.849118	0.000135	20.811938
1973.542835	-3.002000	3.326000	-9.984100	26.833679	0.000133	20.813010
1974.546262	-2.986000	3.326700	-9.933100	26.801664	0.000134	20.795994
1975.544823	-3.024700	3.325900	-10.059000	26.864412	0.000134	20.815462
1976.542113	-3.017600	3.324700	-10.032000	26.909237	0.000133	20.779455
1977.545659	-3.005700	3.325600	-9.995000	26.930234	0.000131	20.797724
1978.542348	-3.000600	3.324500	-9.974300	26.918126	0.000133	20.805936
1979.544020	-2.998100	3.324700	-9.967500	26.931455	0.000132	20.794684
1980.544374	-2.998100	3.324400	-9.966000	26.829874	0.000129	20.793537
1981.544176	-2.977300	3.324600	-9.897100	26.833653	0.000128	20.787854
1982.546732	-2.990100	3.323900	-9.937600	26.794311	0.000130	20.785756
1983.547925	-2.995400	3.324000	-9.954800	26.791732	0.000130	20.768463
1984.548406	-2.989900	3.324000	-9.938200	26.843215	0.000128	20.765225
1985.545017	-2.994200	3.323100	-9.949300	26.869949	0.000128	20.791159
1986.546785	-2.989100	3.323100	-9.932000	26.839227	0.000129	20.783975
1987.557440	-3.007600	3.321900	-9.990300	26.835458	0.000129	20.793936
1988.552779	-3.011200	3.321100	-9.999300	26.791009	0.000126	20.806143
1989.548220	-3.033400	3.320100	-10.070000	26.778353	0.000126	20.799109
1990.550398	-3.020700	3.321300	-10.032000	26.774035	0.000124	20.798086
1991.548453	-2.999700	3.322100	-9.964400	26.754354	0.000127	20.785411
1992.551726	-3.024600	3.320100	-10.041000	26.729809	0.000126	20.775433
1993.547274	-3.011100	3.320700	-9.997600	26.730805	0.000124	20.792081
1994.551178	-3.018800	3.320000	-10.021000	26.750468	0.000123	20.772021
1995.548927	-3.016000	3.318600	-10.008000	26.773580	0.000123	20.790043
1996.552877	-3.015000	3.318600	-10.005000	26.729421	0.000125	20.766982
1997.557937	-3.002100	3.318200	-9.959500	26.757004	0.000123	20.770057
1998.552142	-2.989400	3.318800	-9.920100	26.775273	0.000124	20.785580
1999.555262	-2.976700	3.319600	-9.880600	26.866168	0.000124	20.777399
2000.552229	-3.007400	3.316900	-9.973700	26.879748	0.000122	20.783468
2001.554295	-3.002600	3.317600	-9.960400	26.892533	0.000122	20.798694
2002.553677	-3.014700	3.317400	-10.000000	26.905018	0.000121	20.770471
2003.557714	-2.997900	3.317200	-9.943800	26.935348	0.000119	20.775838
2004.550622	-3.028300	3.314600	-10.037000	26.961257	0.000121	20.761115
2005.549629	-2.990000	3.317600	-9.918700	26.935481	0.000121	20.774550
2006.557564	-3.015000	3.315300	-9.994700	26.921363	0.000119	20.784536
2007.554688	-3.000500	3.315600	-9.947700	26.950352	0.000119	20.794245
2008.552363	-3.025500	3.315200	-10.029000	26.958473	0.000120	20.769221
2009.554006	-3.005200	3.316500	-9.965400	26.949514	0.000118	20.753573
2010.551154	-3.011000	3.314200	-9.977800	26.957034	0.000119	20.766825
2011.551285	-3.005200	3.314500	-9.959300	26.916760	0.000117	20.772321
2012.555717	-3.001000	3.313200	-9.940300	26.921676	0.000117	20.748340
2013.553698	-3.004000	3.313400	-9.952500	26.993847	0.000119	20.776818
2014.553877	-3.005400	3.312000	-9.953100	27.012189	0.000118	20.754960
2015.555650	-2.997000	3.311700	-9.924800	27.022291	0.000115	20.752791
2016.555645	-2.992400	3.312400	-9.911200	27.045098	0.000115	20.759132
2017.557388	-3.009500	3.311400	-9.964600	27.047058	0.000115	20.763474
2018.558236	-2.993400	3.311800	-9.912700	27.052941	0.000116	20.785038
2019.554450	-2.983000	3.310600	-9.874900	27.095725	0.000114	20.774486
2020.553492	-3.021100	3.310800	-10.001000	27.010039	0.000115	20.763704
2021.555052	-2.988900	3.311200	-9.896100	27.014012	0.000114	20.765802
2022.558457	-3.003300	3.309800	-9.939900	27.001183	0.000115	20.748159
2023.556176	-3.008500	3.309200	-9.954400	26.965746	0.000115	20.769422
2024.557688	-2.998300	3.308200	-9.917900	26.942370	0.000115	20.753502
2025.556093	-3.005100	3.309700	-9.944900	26.957853	0.000114	20.752476
2026.556547	-2.991500	3.309900	-9.899800	26.951305	0.000113	20.760116
2027.553970	-2.982100	3.309800	-9.869200	26.898686	0.000114	20.751775
2028.560452	-2.996700	3.308100	-9.911700	26.916704	0.000114	20.771315
2029.554726	-3.014500	3.306600	-9.966000	26.984480	0.000113	20.746061
2030.558022	-2.998800	3.308100	-9.919000	27.012594	0.000115	20.753470
2031.556028	-2.992500	3.308200	-9.899100	27.095127	0.000115	20.758711
2032.559000	-2.985800	3.307200	-9.873900	27.065347	0.000113	20.763375
2033.559612	-2.995100	3.306500	-9.902100	27.005096	0.000111	20.762052
2034.557573	-2.990300	3.307100	-9.888400	26.978315	0.000109	20.755035
2035.558252	-2.981900	3.306600	-9.859000	26.922355	0.000111	20.740962
2036.558557	-3.008400	3.305200	-9.941600	26.920314	0.000112	20.750764
2037.558444	-2.983700	3.305100	-9.860400	26.951935	0.000112	20.746998
2038.559165	-3.002000	3.304100	-9.918400	26.961953	0.000109	20.748064
2039.559154	-3.004300	3.305000	-9.927800	26.945773	0.000110	20.763089
2040.557837	-3.003400	3.304300	-9.923100	26.948201	0.000112	20.729967
2041.560057	-2.992900	3.305100	-9.890400	26.975300	0.000109	20.770495
2042.560614	-3.005200	3.304500	-9.930000	27.043962	0.000108	20.769844
2043.557499	-2.986000	3.303000	-9.862400	27.072448	0.000109	20.770042
2044.555311	-2.997400	3.302500	-9.897400	27.036591	0.000109	20.746783
2045.563991	-3.011900	3.302500	-9.945900	27.066934	0.000106	20.731305
2046.561555	-2.992800	3.302300	-9.882200	27.072392	0.000106	20.751019
2047.561071	-2.982300	3.301400	-9.845500	27.027102	0.000110	20.759526
2048.563762	-2.999200	3.301100	-9.899500	27.092334	0.000107	20.742151
2049.558491	-2.981700	3.300500	-9.839900	27.109855	0.000107	20.757402
2050.562136	-2.998700	3.301400	-9.898800	27.112307	0.000105	20.749911
2051.559959	-3.004800	3.300100	-9.914800	27.096179	0.000107	20.746019
2052.563040	-3.009200	3.299900	-9.928600	27.097365	0.000104	20.738676
2053.560477	-3.008700	3.300100	-9.929000	27.018429	0.000106	20.753648
2054.562682	-2.992900	3.299000	-9.872700	27.039494	0.000106	20.742590
2055.562881	-2.999800	3.300300	-9.899500	27.083137	0.000105	20.749498
2056.562474	-3.006600	3.299700	-9.920000	27.045567	0.000103	20.752966
2057.566889	-3.015200	3.297700	-9.942300	27.033404	0.000105	20.737888
2058.561726	-3.026900	3.297100	-9.978500	27.113480	0.000104	20.746823
2059.562354	-3.008100	3.298200	-9.921100	27.089780	0.000101	20.749540
2060.561135	-2.996200	3.297000	-9.877400	27.079084	0.000103	20.746370
2061.563342	-3.004000	3.296600	-9.901400	27.133692	0.000104	20.763359
2062.563667	-2.998800	3.296600	-9.884100	27.190239	0.000101	20.742945
2063.568118	-3.000900	3.297300	-9.894000	27.186813	0.000103	20.752775
2064.564755	-2.997600	3.296400	-9.879800	27.201029	0.000101	20.745263
2065.564198	-2.995400	3.294800	-9.868200	27.212909	9.922178E-5	20.739668
2066.566614	-2.986800	3.294300	-9.838700	27.190999	0.000101	20.729010
2067.566175	-3.001700	3.294700	-9.888800	27.129165	0.000101	20.754063
2068.561327	-2.989800	3.294200	-9.847900	27.137053	9.925478E-5	20.754885
2069.564278	-2.973800	3.296200	-9.799500	27.144592	9.922178E-5	20.736388
2070.575890	-2.979800	3.295200	-9.817700	27.123849	9.899076E-5	20.718369
2071.563521	-3.011400	3.293500	-9.917200	27.066155	9.625156E-5	20.743324
2072.570446	-3.000900	3.292300	-9.878200	27.096129	9.895776E-5	20.758296
2073.563100	-2.995200	3.293000	-9.861700	27.194951	9.760466E-5	20.733933
2074.569287	-3.013900	3.291600	-9.920000	27.206216	9.932078E-5	20.759489
2075.560775	-3.021400	3.292200	-9.946200	27.273671	9.542650E-5	20.752897
2076.564391	-2.989400	3.291700	-9.839100	27.249180	9.780267E-5	20.764772
2077.565434	-2.989300	3.292200	-9.840000	27.253296	9.644957E-5	20.750420
2078.560455	-3.000300	3.291100	-9.872400	27.183775	9.776967E-5	20.741658
2079.564744	-3.015800	3.291300	-9.924900	27.188338	9.522848E-5	20.755257
2080.566586	-3.008100	3.290400	-9.896700	27.145339	9.364437E-5	20.739036
2081.565320	-3.009700	3.289500	-9.900000	27.165161	9.489846E-5	20.765611
2082.564496	-2.998500	3.289600	-9.862900	27.163719	9.268730E-5	20.756100
2083.566823	-2.985600	3.289100	-9.818900	27.148928	9.450243E-5	20.740275
2084.569436	-2.974600	3.291100	-9.788700	27.134958	9.341335E-5	20.749458
2085.566536	-3.025400	3.288300	-9.947700	27.101685	9.357836E-5	20.746815
2086.571031	-3.005100	3.288500	-9.881600	27.103346	9.060815E-5	20.752278
2087.569118	-3.012900	3.287600	-9.904200	27.075080	9.281931E-5	20.745187
2088.587815	-3.014400	3.287900	-9.910200	27.063022	9.054214E-5	20.745389
2089.569885	-2.997000	3.287400	-9.850500	27.161253	9.044313E-5	20.757887
2090.573005	-2.996000	3.286500	-9.845400	27.208617	9.173023E-5	20.741040
2091.580260	-2.991900	3.286300	-9.831700	27.198865	9.179623E-5	20.755888
2092.571866	-2.988200	3.287600	-9.823000	27.214101	8.981609E-5	20.741341
2093.574337	-2.992100	3.286700	-9.834100	27.198147	8.892502E-5	20.758486
2094.569590	-2.974700	3.287600	-9.777400	27.155666	8.991510E-5	20.756536
2095.573780	-3.014100	3.285300	-9.901400	27.135644	8.833098E-5	20.752045
2096.570388	-3.001100	3.284400	-9.855700	27.140306	8.928805E-5	20.769063
2097.570361	-2.969900	3.284500	-9.753400	27.189982	8.793495E-5	20.754540
2098.575912	-2.971500	3.283500	-9.755900	27.183428	8.823197E-5	20.741310
2099.573052	-2.991200	3.283700	-9.821300	27.190277	8.611982E-5	20.767166
2100.571468	-3.025400	3.283200	-9.931500	27.224166	8.786895E-5	20.746724
2101.575471	-3.010400	3.283300	-9.883300	27.249671	8.470071E-5	20.760998
2102.574124	-3.005600	3.282700	-9.865800	27.294677	8.648284E-5	20.760276
2103.568348	-2.983900	3.283600	-9.796600	27.283315	8.555878E-5	20.768288
2104.586818	-2.976200	3.282000	-9.766700	27.242227	8.443669E-5	20.760149
2105.575372	-2.972400	3.281700	-9.754000	27.302694	8.229154E-5	20.754116
2106.575301	-2.985700	3.281100	-9.796400	27.312395	8.295159E-5	20.759133
2107.572606	-3.005500	3.280100	-9.857800	27.356330	8.341362E-5	20.755913
2108.577998	-3.006400	3.280400	-9.861500	27.384265	8.215953E-5	20.755566
2109.573736	-3.015300	3.280100	-9.889900	27.392154	8.133447E-5	20.772512
2110.575058	-2.996000	3.279000	-9.822800	27.361493	8.107045E-5	20.776755
2111.574199	-3.023700	3.278900	-9.913600	27.336269	8.090544E-5	20.745215
2112.572097	-2.994400	3.279700	-9.819900	27.360332	8.182950E-5	20.744766
2113.576064	-2.981000	3.279500	-9.775500	27.363979	7.925532E-5	20.758867
2114.586637	-2.964400	3.278700	-9.718200	27.376508	7.833125E-5	20.760566
2115.571661	-2.993600	3.278200	-9.812200	27.389811	7.961834E-5	20.770629
2116.571305	-2.989300	3.277200	-9.795000	27.446495	7.829825E-5	20.759376
2117.576689	-2.984400	3.278800	-9.783800	27.442331	7.981636E-5	20.750445
2118.579470	-3.000500	3.275800	-9.828000	27.364587	7.701115E-5	20.775600
2119.575437	-2.973300	3.277400	-9.743800	27.396912	7.674713E-5	20.783937
2120.578224	-2.999700	3.276100	-9.826800	27.408051	7.770420E-5	20.772384
2121.575449	-2.993300	3.275000	-9.802100	27.360253	7.763820E-5	20.772663
2122.575966	-3.015000	3.274700	-9.871700	27.379131	7.552604E-5	20.745660
2123.577817	-2.983400	3.273900	-9.766100	27.351452	7.585607E-5	20.752429
2124.578601	-3.001300	3.274100	-9.825300	27.385786	7.621909E-5	20.751407
2125.578450	-2.990200	3.272900	-9.785100	27.359166	7.476699E-5	20.757819
2126.577430	-2.980300	3.273600	-9.755600	27.376187	7.562505E-5	20.767355
2127.578918	-2.983300	3.272200	-9.760700	27.389141	7.549304E-5	20.760946
2128.578377	-2.997200	3.271500	-9.804700	27.458502	7.496500E-5	20.759127
2129.579828	-3.006600	3.271200	-9.834000	27.478820	7.516302E-5	20.741162
2130.575450	-2.980500	3.272400	-9.752900	27.485048	7.239081E-5	20.769240
2131.580837	-2.983500	3.271300	-9.759100	27.418623	7.357890E-5	20.770691
2132.579496	-2.988600	3.271800	-9.777300	27.360502	7.285285E-5	20.787138
2133.583582	-2.977100	3.271200	-9.737700	27.344603	7.196178E-5	20.759764
2134.585168	-3.010200	3.269900	-9.841700	27.306725	7.371091E-5	20.781879
2135.579036	-2.983400	3.270900	-9.757600	27.365943	7.272084E-5	20.750411
2136.585894	-2.974800	3.270000	-9.726000	27.409284	7.222580E-5	20.776943
2137.584698	-2.990100	3.270600	-9.778600	27.462693	7.093871E-5	20.767612
2138.580663	-2.998200	3.267900	-9.797600	27.435755	7.024566E-5	20.768012
2139.576718	-3.000100	3.268600	-9.805200	27.376945	7.126873E-5	20.765273
2140.580659	-3.000500	3.269900	-9.810700	27.316465	6.942060E-5	20.771762
2141.579309	-3.034400	3.266500	-9.910900	27.326043	7.173077E-5	20.774759
2142.580856	-2.974100	3.267700	-9.717200	27.298511	7.047667E-5	20.763185
2143.581676	-2.992400	3.265300	-9.770400	27.256435	7.387592E-5	20.766380
2144.586030	-2.995900	3.265600	-9.782400	27.235050	7.087270E-5	20.749611
2145.582932	-2.989100	3.265800	-9.761100	27.276733	7.054268E-5	20.751709
2146.583558	-2.969400	3.267800	-9.702700	27.265423	7.321587E-5	20.766412
2147.584050	-3.029100	3.264400	-9.886700	27.354338	7.166476E-5	20.752961
2148.578694	-3.007900	3.262700	-9.812300	27.391721	6.988263E-5	20.753584
2149.583261	-3.021600	3.264200	-9.862400	27.361757	7.146675E-5	20.763269
2150.587874	-3.010000	3.263800	-9.823700	27.381208	7.001464E-5	20.770983
2151.581719	-3.036900	3.262800	-9.906700	27.391851	6.948660E-5	20.780268
2152.579626	-3.030400	3.263200	-9.888300	27.443844	6.951960E-5	20.766192
2153.584144	-3.020500	3.262200	-9.853000	27.486907	7.090571E-5	20.773481
2154.580421	-3.024600	3.260600	-9.861100	27.471081	6.925558E-5	20.779844
2155.583349	-3.013600	3.261800	-9.829400	27.445114	6.951960E-5	20.772685
2156.582423	-2.999800	3.261500	-9.782500	27.449450	7.027866E-5	20.771358
2157.582909	-3.004400	3.261800	-9.799000	27.405643	7.186278E-5	20.768538
2158.585896	-3.007500	3.260400	-9.803900	27.420155	6.938759E-5	20.768913
2159.583965	-3.008300	3.259800	-9.806100	27.435339	6.876055E-5	20.778973
2160.585729	-2.981800	3.260300	-9.720400	27.498890	7.107072E-5	20.755665
2161.585053	-3.055400	3.257500	-9.951000	27.553332	6.783648E-5	20.767293
2162.585788	-3.016700	3.258000	-9.827900	27.602338	6.760546E-5	20.785781
2163.581292	-3.000600	3.258400	-9.775500	27.571138	6.711043E-5	20.794691
2164.587355	-2.984500	3.258100	-9.723000	27.534133	6.546031E-5	20.779745
2165.584143	-2.993900	3.258100	-9.752500	27.462745	6.582333E-5	20.776199
2166.587801	-3.013700	3.255600	-9.810700	27.520885	6.628537E-5	20.800555
2167.587430	-2.999600	3.257500	-9.770900	27.537629	6.456924E-5	20.793219
2168.588596	-3.008800	3.257700	-9.800700	27.529298	6.668140E-5	20.791001
2169.587023	-3.018400	3.255600	-9.825900	27.546534	6.328215E-5	20.801230
2170.588924	-3.005200	3.254800	-9.779800	27.578931	6.473425E-5	20.784989
2171.590897	-3.017000	3.255500	-9.820700	27.611696	6.305113E-5	20.768644
2172.594845	-3.032400	3.255500	-9.870900	27.678805	6.351316E-5	20.788757
2173.591178	-3.002200	3.254300	-9.768900	27.686791	6.298513E-5	20.779723
2174.588124	-3.000900	3.254600	-9.766200	27.681738	6.443723E-5	20.782225
2175.592904	-2.992200	3.254700	-9.737300	27.707801	6.258910E-5	20.794702
2176.586802	-2.982100	3.255000	-9.705200	27.684463	6.047694E-5	20.779277
2177.589682	-2.995300	3.252200	-9.740700	27.656194	6.196205E-5	20.789238
2178.588820	-3.037100	3.251500	-9.873400	27.601483	6.130200E-5	20.790137
2179.590716	-3.011000	3.250900	-9.787100	27.606470	6.140101E-5	20.786146
2180.591764	-3.004100	3.253200	-9.772400	27.556219	5.909084E-5	20.799121
2181.588984	-3.012500	3.251800	-9.794500	27.579089	6.080697E-5	20.772820
2182.591372	-3.024500	3.249900	-9.828700	27.623684	5.981689E-5	20.798725
2183.589553	-2.994400	3.250500	-9.732100	27.574327	6.070796E-5	20.791262
2184.589815	-2.974700	3.250700	-9.668600	27.534699	5.727571E-5	20.796435
2185.590950	-3.017600	3.249100	-9.803600	27.565848	5.628563E-5	20.802645
2186.590223	-2.992500	3.249200	-9.722300	27.545137	5.720970E-5	20.790816
2187.594026	-3.015600	3.249300	-9.797300	27.497515	5.562559E-5	20.782257
2188.593700	-2.999200	3.250300	-9.747900	27.529663	5.612062E-5	20.795162
2189.591589	-2.991400	3.247400	-9.713500	27.534896	5.410747E-5	20.805168
2190.600101	-2.987100	3.249500	-9.705500	27.553451	5.605462E-5	20.793017
2191.594123	-2.982700	3.247200	-9.684500	27.555660	5.654965E-5	20.807093
2192.592137	-2.994900	3.245700	-9.719300	27.559504	5.456951E-5	20.797210
2193.596950	-2.997500	3.245400	-9.727500	27.568035	5.694568E-5	20.795363
2194.596025	-2.994300	3.247300	-9.721700	27.543534	5.470152E-5	20.804850
2195.595178	-3.002400	3.243800	-9.738400	27.561093	5.631864E-5	20.811138
2196.594986	-2.997800	3.245300	-9.728300	27.605088	5.542757E-5	20.810359
2197.595730	-3.010600	3.244700	-9.768200	27.670886	5.598861E-5	20.810660
2198.596958	-2.995700	3.244000	-9.717600	27.706004	5.671467E-5	20.811385
2199.596880	-2.985300	3.246100	-9.690000	27.698788	5.552658E-5	20.792271
2200.601377	-2.976100	3.243500	-9.652400	27.674160	5.575760E-5	20.808264
2201.594674	-2.996800	3.243500	-9.719300	27.705680	5.641764E-5	20.789723
2202.596992	-3.017900	3.241100	-9.780300	27.710167	5.344743E-5	20.795186
2203.601645	-3.018300	3.240700	-9.779900	27.727154	5.569159E-5	20.791418
2204.600641	-2.991200	3.242100	-9.697300	27.690476	5.381045E-5	20.813777
2205.600110	-3.006200	3.241600	-9.744300	27.707959	5.483353E-5	20.807663
2206.597463	-3.011400	3.239900	-9.755400	27.737591	5.367844E-5	20.811403
2207.604808	-3.000900	3.238800	-9.718600	27.707164	5.496554E-5	20.819191
2208.601236	-3.013200	3.240200	-9.762100	27.656345	5.447050E-5	20.811201
2209.600979	-2.986200	3.239100	-9.671700	27.628544	5.414048E-5	20.814520
2210.601617	-2.993600	3.239000	-9.695200	27.595058	5.245735E-5	20.824449
2211.603390	-2.976500	3.239800	-9.642500	27.639382	5.268837E-5	20.817839
2212.602180	-2.992500	3.239100	-9.691400	27.569583	5.239135E-5	20.810197
2213.606146	-2.995400	3.238500	-9.699900	27.591781	5.265537E-5	20.809298
2214.601992	-3.006300	3.238100	-9.733200	27.599493	5.126927E-5	20.810894
2215.599893	-3.013300	3.236300	-9.751100	27.633618	5.159929E-5	20.815359
2216.604407	-2.993500	3.235900	-9.686100	27.709081	5.146728E-5	20.821594
2217.600530	-3.004700	3.236700	-9.724000	27.780425	5.258936E-5	20.820844
2218.603538	-3.000100	3.236200	-9.708200	27.810550	5.117026E-5	20.828876
2219.599452	-2.987400	3.237500	-9.671400	27.798125	5.202832E-5	20.830596
2220.603622	-3.020500	3.235400	-9.771800	27.778807	5.189631E-5	20.842449
2221.606024	-2.989700	3.233900	-9.667500	27.791230	5.252336E-5	20.812752
2222.609191	-3.000800	3.234500	-9.704900	27.735629	5.060922E-5	20.833136
2223.608480	-2.981700	3.234400	-9.643200	27.823904	5.176430E-5	20.820030
2224.605021	-2.989700	3.232600	-9.663200	27.811897	5.110425E-5	20.833551
2225.607955	-2.981600	3.234800	-9.644100	27.797390	5.074123E-5	20.824641
2226.616454	-2.988100	3.233500	-9.661200	27.714884	5.077423E-5	20.840709
2227.606485	-3.008000	3.231900	-9.721100	27.722395	4.938813E-5	20.811284
2228.603935	-2.992600	3.231900	-9.670700	27.690723	4.991617E-5	20.836785
2229.607095	-3.013900	3.231300	-9.737500	27.710137	5.047721E-5	20.825975
2230.606943	-2.967200	3.233000	-9.592100	27.736671	5.018019E-5	20.826124
2231.608703	-2.977700	3.231000	-9.619300	27.752241	4.985016E-5	20.847007
2232.607254	-2.998900	3.229100	-9.682400	27.785616	4.991617E-5	20.829387
2233.611082	-3.006600	3.228700	-9.706800	27.794687	5.027919E-5	20.831878
2234.608781	-3.008100	3.229300	-9.713300	27.819261	5.051021E-5	20.833375
2235.609693	-2.989900	3.228500	-9.652100	27.842364	5.018019E-5	20.837186
2236.612436	-3.020200	3.228500	-9.749500	27.843127	4.938813E-5	20.825152
2237.604127	-3.007200	3.227000	-9.703100	27.876028	4.958614E-5	20.841195
2238.612226	-3.001000	3.227600	-9.684800	27.880638	4.915711E-5	20.825446
2239.606738	-2.998200	3.229000	-9.681000	27.797691	4.618689E-5	20.847228
2240.610130	-3.014000	3.226500	-9.723400	27.818369	4.928912E-5	20.852865
2241.610166	-3.023200	3.225300	-9.749700	27.819631	4.790302E-5	20.845601
2242.613240	-3.006400	3.224800	-9.694200	27.756047	4.806803E-5	20.860320
2243.609940	-2.985500	3.227300	-9.634900	27.783817	4.826605E-5	20.834215
2244.611319	-3.006100	3.223200	-9.687800	27.785301	4.862907E-5	20.860837
2245.615873	-3.007900	3.223200	-9.694600	27.822571	4.737498E-5	20.856146
2246.616474	-3.001000	3.225300	-9.678400	27.863630	4.621990E-5	20.860484
2247.611762	-3.013900	3.223500	-9.714800	27.900548	4.546084E-5	20.839795
2248.609042	-2.993800	3.223700	-9.649400	27.911479	4.763900E-5	20.855537
2249.615895	-2.979600	3.223200	-9.602200	27.956207	4.506481E-5	20.855513
2250.612079	-2.997800	3.222500	-9.659600	27.981716	4.357970E-5	20.859851
2251.611998	-3.006000	3.221100	-9.681400	27.981864	4.417375E-5	20.877542
2252.612806	-2.994600	3.221800	-9.646700	27.967507	4.219360E-5	20.880161
2253.615288	-2.983500	3.220500	-9.607800	27.889355	4.090651E-5	20.866461
2254.608475	-3.015200	3.220100	-9.708900	27.889155	4.324968E-5	20.877638
2255.609192	-3.015100	3.219900	-9.708200	27.887563	4.546084E-5	20.842372
2256.615515	-3.028200	3.217400	-9.742500	27.851737	4.199559E-5	20.861316
2257.610994	-2.987700	3.218700	-9.615800	27.796912	4.159956E-5	20.861143
2258.614042	-3.010000	3.218700	-9.687700	27.791930	4.070849E-5	20.874146
2259.608714	-3.018800	3.216600	-9.708800	27.814816	3.998244E-5	20.883426
2260.613840	-3.007300	3.216900	-9.672900	27.848713	4.136854E-5	20.871075
2261.612365	-3.007100	3.216000	-9.670300	27.917491	4.291965E-5	20.865856
2262.612870	-2.999600	3.216700	-9.648200	27.862745	4.321668E-5	20.879980
2263.611052	-2.982600	3.215700	-9.589900	27.871794	4.242462E-5	20.884821
2264.613492	-2.987300	3.216000	-9.605200	27.863887	4.120353E-5	20.882078
2265.609852	-3.006900	3.214600	-9.665000	27.856050	4.060948E-5	20.877037
2266.616092	-2.976800	3.216500	-9.574300	27.898099	4.239162E-5	20.896122
2267.615591	-2.985000	3.214400	-9.594100	27.926217	3.985043E-5	20.888861
2268.615932	-2.978100	3.215000	-9.573800	27.924878	4.041147E-5	20.878979
2269.616433	-2.997200	3.213000	-9.629200	27.994027	4.103852E-5	20.885044
2270.616233	-2.987600	3.211400	-9.593600	28.012694	4.113752E-5	20.866850
2271.618450	-2.983900	3.212100	-9.583900	28.046237	4.153355E-5	20.879277
2272.617995	-3.000300	3.212600	-9.638000	28.044870	4.179757E-5	20.893546
2273.620563	-2.974400	3.211800	-9.551900	28.067504	3.872835E-5	20.870339
2274.615388	-3.004400	3.210300	-9.643800	28.078260	3.856333E-5	20.908191
2275.618604	-2.996400	3.210600	-9.619400	28.109790	4.140154E-5	20.879716
2276.616667	-3.015700	3.209600	-9.678800	28.108128	3.895936E-5	20.869983
2277.616187	-3.006000	3.209900	-9.648200	28.085593	3.952041E-5	20.890444
2278.616269	-3.023200	3.208500	-9.698600	28.070246	3.833232E-5	20.893013
2279.617581	-3.017000	3.208300	-9.679400	28.007795	3.664919E-5	20.890366
2280.618909	-3.006800	3.208500	-9.645400	27.974898	3.740825E-5	20.877643
2281.618485	-3.020300	3.207300	-9.685800	27.965596	3.829932E-5	20.885823
2282.621656	-3.003000	3.206300	-9.627000	28.016517	3.681421E-5	20.885396
2283.620110	-3.009800	3.206400	-9.650000	28.019192	3.701222E-5	20.884770
2284.626420	-3.010500	3.205900	-9.650900	28.050678	3.450404E-5	20.886118
2285.618865	-3.000300	3.206600	-9.620200	27.987234	3.727624E-5	20.890059
2286.619293	-2.989500	3.206200	-9.584800	28.009965	3.598915E-5	20.905826
2287.622001	-3.021600	3.204300	-9.681300	28.042516	3.671520E-5	20.907297
2288.624541	-3.017500	3.203300	-9.665100	27.961322	3.549411E-5	20.895745
2289.623165	-3.013000	3.203700	-9.651300	27.893236	3.536210E-5	20.902132
2290.620664	-3.001200	3.203800	-9.614300	27.858047	3.206186E-5	20.915078
2291.624174	-3.009200	3.202300	-9.635200	27.859214	3.348096E-5	20.897762
2292.622662	-3.008000	3.201900	-9.630500	27.880984	3.242488E-5	20.904499
2293.624081	-3.009100	3.201500	-9.633200	27.964536	3.245789E-5	20.899454
2294.624468	-3.011400	3.200900	-9.638400	27.967837	3.212786E-5	20.891397
2295.625589	-3.020700	3.200200	-9.666100	28.006960	3.044474E-5	20.906594
2296.624698	-3.013200	3.199300	-9.638900	28.069134	3.060975E-5	20.909435
2297.624017	-3.010300	3.199000	-9.628700	28.121740	3.186384E-5	20.893167
2298.638791	-3.002800	3.199200	-9.605700	28.123550	3.087377E-5	20.908264
2299.625738	-2.995400	3.197800	-9.577400	28.144622	3.100578E-5	20.903399
2300.624450	-3.003800	3.197900	-9.605200	28.067847	3.298593E-5	20.908140
2301.625263	-2.999500	3.197000	-9.588900	28.053245	3.100578E-5	20.898184
2302.627289	-3.010000	3.195700	-9.617900	28.052626	3.242488E-5	20.903724
2303.629957	-2.975900	3.198400	-9.517000	28.076297	3.047774E-5	20.908586
2304.626956	-2.996700	3.197400	-9.580700	28.150671	3.140181E-5	20.926556
2305.626576	-2.988500	3.197000	-9.553400	28.178634	3.074176E-5	20.909665
2306.631390	-2.989100	3.196300	-9.553000	28.237185	3.219387E-5	20.902231
2307.627219	-3.009300	3.193300	-9.609000	28.238545	2.767254E-5	20.919246
2308.633033	-3.010500	3.193200	-9.611300	28.141802	2.747452E-5	20.904828
2309.628833	-3.003500	3.193200	-9.590300	28.072117	2.823358E-5	20.892526
2310.630926	-3.027100	3.191600	-9.660400	28.120706	2.740852E-5	20.915831
2311.632459	-2.970500	3.192200	-9.481700	28.182307	2.773854E-5	20.899138
2312.633365	-2.988300	3.190600	-9.533800	28.254293	2.928965E-5	20.925143
2313.636691	-2.990300	3.190600	-9.540100	28.300395	2.806856E-5	20.903285
2314.644167	-3.014700	3.190600	-9.618300	28.270358	2.734251E-5	20.927567
2315.633965	-2.978100	3.190100	-9.499400	28.150733	2.810157E-5	20.916662
2316.634565	-2.985300	3.189900	-9.521900	28.047039	2.836559E-5	20.905213
2317.634940	-2.980400	3.189500	-9.503900	27.994085	2.763953E-5	20.898851
2318.634734	-3.016200	3.188700	-9.617000	28.012010	2.655045E-5	20.886075
2319.636180	-2.985400	3.188300	-9.517500	28.026018	2.783755E-5	20.916768
2320.634818	-3.020200	3.187600	-9.625700	28.051356	2.721050E-5	20.920462
2321.631226	-3.004800	3.185200	-9.569900	28.067771	2.737551E-5	20.900478
2322.637913	-2.957700	3.187500	-9.426800	28.125903	2.770554E-5	20.896883
2323.638133	-3.008500	3.188600	-9.591900	28.152134	2.707849E-5	20.894367
2324.635576	-3.008100	3.184800	-9.579500	28.153550	2.744152E-5	20.909542
2325.638219	-3.004700	3.185000	-9.568600	28.200574	2.727651E-5	20.904727
2326.637846	-3.003900	3.183200	-9.561300	28.227296	2.925665E-5	20.879001
2327.635633	-2.994500	3.183600	-9.532900	28.150429	2.592341E-5	20.874160
2328.637774	-3.022000	3.180900	-9.611400	28.108088	2.668246E-5	20.885589
2329.638061	-3.010400	3.181100	-9.575500	28.088678	2.635244E-5	20.878378
2330.635213	-3.008900	3.180900	-9.569500	28.023106	2.701249E-5	20.882546
2331.638758	-3.016700	3.180300	-9.592600	28.035902	2.542837E-5	20.884520
2332.640946	-3.001500	3.180000	-9.543900	28.098819	2.668246E-5	20.896171
2333.639895	-2.989800	3.178700	-9.502900	28.209108	2.572539E-5	20.889611
2334.640798	-2.985700	3.179300	-9.491100	28.132412	2.589040E-5	20.870721
2335.642125	-2.987800	3.177500	-9.492800	28.095171	2.523036E-5	20.892025
2336.636572	-3.005400	3.177000	-9.547500	28.106500	2.582440E-5	20.868818
2337.639988	-3.002400	3.176900	-9.536900	28.152113	2.806856E-5	20.881071
2338.637978	-2.980500	3.177900	-9.471200	28.188329	2.605542E-5	20.868220
2339.640810	-2.993400	3.176000	-9.506400	28.198564	2.651745E-5	20.870937
2340.648660	-3.009900	3.174500	-9.554100	28.176003	2.585740E-5	20.879518
2341.637846	-2.988900	3.173500	-9.484700	28.159297	2.615442E-5	20.862226
2342.642111	-3.005600	3.173700	-9.538000	28.097070	2.470232E-5	20.860274
2343.640930	-2.990700	3.173900	-9.491000	28.165688	2.509835E-5	20.863444
2344.643020	-2.996300	3.173400	-9.507300	28.230232	2.387726E-5	20.873896
2345.641028	-3.009200	3.171500	-9.543100	28.194516	2.727651E-5	20.875396
2346.642852	-3.012300	3.169800	-9.547400	28.187473	2.532936E-5	20.876840
2347.640699	-3.013700	3.170000	-9.552300	28.268723	2.341522E-5	20.877088
2348.643407	-3.002300	3.169300	-9.514200	28.182615	2.325021E-5	20.861045
2349.644352	-2.977600	3.170300	-9.438900	28.146494	2.367924E-5	20.856449
2350.643535	-3.012800	3.167600	-9.541400	28.156828	2.457031E-5	20.886765
2351.645274	-3.017000	3.167600	-9.555900	28.214810	2.549438E-5	20.877336
2352.641160	-2.993200	3.167500	-9.479900	28.249039	2.430629E-5	20.871020
2353.643532	-2.982700	3.167800	-9.447800	28.192847	2.318421E-5	20.871346
2354.647681	-2.985600	3.166400	-9.453000	28.212997	2.315120E-5	20.868872
2355.642589	-3.002900	3.164400	-9.501100	28.223632	2.536237E-5	20.861088
2356.644944	-3.015300	3.163300	-9.537300	28.269954	2.341522E-5	20.872637
2357.647788	-2.988500	3.164400	-9.455800	28.191698	2.298619E-5	20.862603
2358.642042	-2.978000	3.163700	-9.420700	28.230665	2.374525E-5	20.855367
2359.642230	-3.005700	3.162100	-9.502900	28.300435	2.308520E-5	20.857809
2360.642954	-3.006400	3.161000	-9.502800	28.356547	2.087404E-5	20.874478
2361.649466	-2.998600	3.160600	-9.476700	28.360090	2.470232E-5	20.863347
2362.648391	-3.031700	3.159600	-9.578100	28.385715	2.354723E-5	20.860226
2363.648302	-3.000500	3.159300	-9.478800	28.405516	2.278818E-5	20.874949
2364.651378	-2.993000	3.160100	-9.457100	28.408560	2.206212E-5	20.850040
2365.645631	-2.973500	3.159100	-9.392600	28.426822	2.295319E-5	20.836662
2366.651919	-3.009900	3.157600	-9.503700	28.376909	2.275517E-5	20.864161
2367.655200	-3.053600	3.155400	-9.633400	28.365007	2.209513E-5	20.868772
2368.651580	-3.003300	3.156900	-9.480400	28.301558	2.196312E-5	20.861784
2369.648520	-3.007600	3.154600	-9.487300	28.233518	2.417428E-5	20.843067
2370.654501	-2.987100	3.153400	-9.419000	28.216086	2.097304E-5	20.836422
2371.651919	-2.993800	3.154700	-9.443000	28.224440	1.955394E-5	20.851471
2372.649384	-2.986400	3.152700	-9.414600	28.239110	1.994997E-5	20.858654
2373.657306	-3.008500	3.151800	-9.480400	28.199325	1.859687E-5	20.857479
2374.652801	-2.997900	3.152600	-9.449600	28.224480	1.998297E-5	20.847718
2375.650973	-3.004600	3.149800	-9.462900	28.239276	2.140207E-5	20.840330
2376.651136	-3.010200	3.149300	-9.478500	28.248670	2.034600E-5	20.855477
2377.656009	-3.011500	3.149600	-9.483000	28.236570	1.579166E-5	20.861786
2378.651838	-2.995100	3.150000	-9.433300	28.272679	1.968595E-5	20.868269
2379.651766	-2.979500	3.148500	-9.379000	28.296524	1.625370E-5	20.837277
2380.657050	-2.998200	3.147700	-9.436500	28.339377	1.777181E-5	20.834432
2381.656206	-2.992100	3.146300	-9.413000	28.396429	1.519762E-5	20.852050
2382.654551	-2.982700	3.145400	-9.380700	28.395260	1.678173E-5	20.837596
2383.652844	-3.016300	3.145700	-9.487400	28.380364	1.869588E-5	20.853890
2384.659618	-3.016000	3.145000	-9.484000	28.344129	1.648471E-5	20.840165
2385.656662	-2.982800	3.143800	-9.376700	28.389585	1.622069E-5	20.866019
2386.655642	-3.019200	3.142700	-9.487200	28.349257	1.430655E-5	20.838690
2387.656191	-3.010200	3.142200	-9.457400	28.380241	1.496660E-5	20.836223
2388.655752	-2.998000	3.140600	-9.414900	28.360836	1.420755E-5	20.847977
2389.657531	-2.986300	3.141000	-9.379100	28.398110	1.523062E-5	20.826716
2390.656573	-3.015600	3.139100	-9.465000	28.316518	1.602268E-5	20.857881
2391.657284	-3.014200	3.139700	-9.462500	28.318925	1.433956E-5	20.851296
2392.656958	-2.996100	3.138500	-9.401500	28.372134	1.460357E-5	20.853190
2393.658206	-3.020100	3.138200	-9.475900	28.394339	1.427355E-5	20.846626
2394.656677	-3.013400	3.136100	-9.449300	28.437909	1.483459E-5	20.859679
2395.660902	-3.015500	3.135000	-9.453200	28.516765	1.400953E-5	20.842362
2396.662117	-2.993700	3.135100	-9.384700	28.510946	1.334948E-5	20.838873
2397.660733	-2.990600	3.135100	-9.374900	28.537955	1.414154E-5	20.836676
2398.657422	-3.015100	3.132700	-9.444400	28.570441	1.424055E-5	20.839995
2399.662725	-3.009300	3.131400	-9.421200	28.522664	1.463658E-5	20.850199
2400.658100	-3.012000	3.130800	-9.429200	28.467927	1.341549E-5	20.841070
2401.665053	-2.989000	3.130500	-9.356400	28.412292	1.460357E-5	20.832461
2402.660674	-3.001200	3.129100	-9.390400	28.430209	1.255742E-5	20.835331
2403.660681	-3.001000	3.128200	-9.387500	28.380198	1.404253E-5	20.842344
2404.659535	-2.979800	3.127200	-9.317300	28.388775	1.344849E-5	20.850032
2405.660858	-3.005000	3.126700	-9.394900	28.387686	1.476859E-5	20.841823
2406.662389	-3.012800	3.126600	-9.418500	28.370066	1.301946E-5	20.820289
2407.662273	-2.998700	3.125800	-9.372800	28.307186	1.123733E-5	20.841374
2408.661905	-3.020400	3.125500	-9.439000	28.327710	1.094031E-5	20.833115
2409.664070	-3.009600	3.123200	-9.399600	28.400575	1.334948E-5	20.835836
2410.661159	-3.002500	3.122800	-9.375500	28.407020	1.516462E-5	20.830472
2411.664345	-2.997000	3.122300	-9.356400	28.419856	1.249142E-5	20.832018
2412.668178	-3.004900	3.120500	-9.375400	28.410491	1.163336E-5	20.833968
2413.665543	-2.976700	3.121100	-9.289100	28.497649	1.222740E-5	20.853931
2414.666609	-3.028700	3.118900	-9.444100	28.540371	1.067629E-5	20.832471
2415.669090	-2.994300	3.120200	-9.341800	28.533604	1.047827E-5	20.849363
2416.670363	-2.987200	3.117500	-9.312100	28.476507	9.983235E-6	20.825529
2417.668603	-3.001400	3.115100	-9.349200	28.468288	1.143534E-5	20.843804
2418.666568	-2.972200	3.115200	-9.258200	28.511057	1.021425E-5	20.835666
2419.668907	-2.973600	3.115600	-9.264000	28.603290	1.001624E-5	20.837516
2420.665992	-2.997400	3.113200	-9.330600	28.568795	9.488198E-6	20.822691
2421.674220	-3.012600	3.111600	-9.373500	28.506798	8.663138E-6	20.837541
2422.674117	-2.994900	3.111500	-9.317800	28.519957	1.028026E-5	20.843680
2423.670209	-2.999700	3.110200	-9.328500	28.470076	1.021425E-5	20.841337
2424.670173	-2.993100	3.109900	-9.307400	28.432312	8.894155E-6	20.824172
2425.675669	-3.004500	3.110000	-9.342700	28.460040	1.018125E-5	20.815585
2426.670329	-3.002700	3.108000	-9.331400	28.475831	7.574058E-6	20.818210
2427.668372	-3.013800	3.105800	-9.359100	28.497243	7.772072E-6	20.818436
2428.672022	-3.012600	3.105000	-9.353500	28.457495	7.442048E-6	20.840997
2429.671910	-3.012800	3.104300	-9.351900	28.452661	8.366116E-6	20.816214
2430.667264	-3.011500	3.103400	-9.345100	28.479530	9.653210E-6	20.825254
2431.667364	-2.974100	3.104500	-9.231900	28.599961	7.937084E-6	20.800499
2432.672954	-3.002000	3.103400	-9.314900	28.581775	7.112024E-6	20.813478
2433.672821	-3.011400	3.101300	-9.338600	28.586139	5.791926E-6	20.829726
2434.675553	-2.993300	3.100700	-9.280300	28.570750	8.333113E-6	20.833194
2435.672210	-3.019100	3.099400	-9.356700	28.540699	5.758924E-6	20.814783
2436.672006	-3.001000	3.098300	-9.297400	28.519044	7.706067E-6	20.817631
2437.672773	-2.969700	3.097800	-9.198100	28.498998	5.857931E-6	20.825893
2438.673317	-2.992600	3.097400	-9.268100	28.445596	4.570836E-6	20.810997
2439.669672	-2.979500	3.094200	-9.218000	28.454517	5.263888E-6	20.808601
2440.672594	-3.009500	3.092900	-9.307000	28.454675	6.947011E-6	20.799277
2441.674612	-3.003300	3.093000	-9.288400	28.455244	7.376043E-6	20.804591
2442.670411	-2.989700	3.092900	-9.246000	28.461618	5.098875E-6	20.801527
2443.672908	-3.006800	3.090900	-9.292400	28.575586	5.725922E-6	20.816728
2444.674709	-2.986700	3.090400	-9.228900	28.620683	6.022943E-6	20.801930
2445.674770	-3.023400	3.088600	-9.337500	28.665410	3.184734E-6	20.805726
2446.674551	-3.010700	3.087500	-9.294100	28.664271	2.854710E-6	20.815485
2447.676132	-3.009500	3.086700	-9.289100	28.628819	4.306817E-6	20.803012
2448.674469	-3.021200	3.085600	-9.321600	28.551388	3.019722E-6	20.786668
2449.677674	-2.995500	3.085500	-9.241800	28.572974	4.669844E-6	20.795131
2450.672522	-3.034700	3.084300	-9.358900	28.615152	2.029649E-6	20.820540
2451.674838	-3.005100	3.080900	-9.257800	28.611860	2.425679E-6	20.798733
2452.675126	-2.979200	3.081800	-9.179700	28.625094	2.128657E-6	20.787880
2453.671772	-3.024900	3.079100	-9.312900	28.603765	3.514759E-6	20.804804
2454.674970	-3.027900	3.078400	-9.320300	28.626390	5.230885E-6	20.800091
2455.675371	-3.009200	3.077700	-9.260900	28.653895	3.712773E-6	20.812621
2456.678262	-3.002800	3.077800	-9.241500	28.617030	1.270594E-6	20.802518
2457.676729	-3.000900	3.076200	-9.230200	28.581798	2.392676E-6	20.788845
2458.677394	-2.979100	3.075500	-9.160200	28.607052	4.240812E-6	20.810486
2459.676395	-2.985100	3.074600	-9.177000	28.635573	2.623693E-6	20.791796
2460.675738	-3.007700	3.071700	-9.237400	28.700766	4.900861E-6	20.777327
2461.676208	-2.991900	3.072100	-9.189500	28.759340	1.963645E-6	20.781325
2462.672620	-3.031900	3.069600	-9.305900	28.862426	4.108802E-6	20.800295
2463.671375	-3.031900	3.067800	-9.299400	28.807584	3.547761E-6	20.799576
2464.674793	-2.990000	3.068600	-9.174400	28.719437	5.065873E-6	20.793288
2465.686160	-3.007300	3.066300	-9.220300	28.661612	3.745776E-6	20.793366
2466.681415	-3.003300	3.064900	-9.203900	28.674526	2.953717E-6	20.783614
2467.677902	-2.979300	3.065100	-9.130600	28.659015	4.042798E-6	20.782216
2468.677841	-3.023100	3.062800	-9.258400	28.604784	2.260666E-6	20.791607
2469.682048	-3.006500	3.062800	-9.207100	28.582137	3.085727E-6	20.794876
2470.677725	-3.025100	3.060400	-9.256800	28.636776	3.877785E-6	20.780680
2471.682229	-2.997400	3.059400	-9.169200	28.711802	3.250739E-6	20.797452
2472.680781	-3.013200	3.058500	-9.214500	28.824605	2.788705E-6	20.790170
2473.676409	-2.991500	3.057800	-9.146400	28.771862	3.217737E-6	20.803896
2474.680189	-2.993200	3.056700	-9.147600	28.756409	1.666623E-6	20.782166
2475.685418	-2.991900	3.054700	-9.138300	28.783714	9.075668E-7	20.785488
2476.678867	-2.979900	3.054900	-9.101900	28.862073	1.963645E-6	20.774809
2477.681767	-2.987300	3.053100	-9.119700	28.923407	-8.250608E-8	20.798191
2478.684516	-3.018100	3.050800	-9.205600	28.943525	1.798632E-6	20.767251
2479.679583	-3.008600	3.050800	-9.178100	28.916304	1.930642E-6	20.777760
2480.677186	-3.019800	3.048900	-9.206800	28.911802	-1.435606E-6	20.779862
2481.679858	-3.017900	3.047800	-9.197000	28.845315	2.805207E-7	20.777841
2482.681932	-3.027200	3.047000	-9.222800	28.825570	8.085595E-7	20.755106
2483.681088	-3.001600	3.044900	-9.138900	28.830379	2.392676E-6	20.768959
2484.685040	-3.019000	3.042400	-9.184500	28.829417	1.815134E-7	20.790275
2485.681736	-2.990400	3.043500	-9.100600	28.845448	1.237591E-6	20.765173
2486.680039	-3.002400	3.042100	-9.133000	28.890583	1.435606E-6	20.779822
2487.681329	-2.988900	3.040500	-9.087100	28.799696	3.135231E-7	20.772190
2488.681036	-2.994300	3.038100	-9.096100	28.788624	1.204589E-6	20.764355
2489.681445	-3.011300	3.037300	-9.145500	28.772672	1.864637E-6	20.772469
2490.681467	-2.973000	3.037600	-9.029900	28.765741	2.359674E-6	20.771652
2491.680583	-3.018200	3.035900	-9.162500	28.807557	4.785352E-7	20.784850
2492.685667	-3.009300	3.034000	-9.128900	28.811699	2.425679E-6	20.771004
2493.683837	-3.026400	3.031200	-9.172400	28.834590	-3.135231E-7	20.769408
2494.681481	-2.995900	3.032800	-9.083900	28.772437	1.039577E-6	20.769861
2495.681500	-3.025400	3.029300	-9.164100	28.688576	-2.359674E-6	20.772635
2496.687062	-3.001000	3.029200	-9.089900	28.675420	-1.039577E-6	20.779773
2497.685493	-2.989200	3.027400	-9.048700	28.701515	-4.950365E-8	20.770494
2498.683823	-3.008400	3.026900	-9.105100	28.696934	-3.795279E-7	20.756397
2499.684348	-2.992200	3.024700	-9.050200	28.737916	-5.775425E-7	20.768753
2500.684958	-2.990500	3.024300	-9.043100	28.781696	1.831635E-6	20.758799
2501.684725	-3.003900	3.022000	-9.076600	28.761705	7.095522E-7	20.778966
2502.687524	-2.995300	3.020500	-9.046800	28.775826	1.435606E-6	20.760473
2503.684666	-3.009700	3.019000	-9.085400	28.817747	6.435474E-7	20.751018
2504.685892	-3.020600	3.018600	-9.117600	28.823501	1.815134E-7	20.752073
2505.688819	-3.001600	3.017300	-9.055100	28.819563	-1.815134E-7	20.759960
2506.684126	-3.031500	3.014600	-9.138000	28.793826	1.204589E-6	20.766751
2507.690157	-2.985900	3.014000	-8.998100	28.789913	-3.465255E-7	20.749532
2508.689921	-2.985300	3.013400	-8.993400	28.730184	-9.075668E-7	20.771397
2509.688862	-2.999200	3.012000	-9.032000	28.740343	3.135231E-7	20.774518
2510.690886	-2.999200	3.010000	-9.026400	28.791655	1.336598E-6	20.726630
2511.686098	-2.967700	3.009700	-8.931400	28.825348	-1.039577E-6	20.745399
2512.686461	-2.998300	3.007500	-9.016400	28.920129	6.435474E-7	20.729928
2513.691596	-2.996100	3.005800	-9.004900	28.914829	4.125304E-7	20.733598
2514.690757	-3.009100	3.005600	-9.043300	28.854067	-8.415620E-7	20.753941
2515.687443	-2.994600	3.003500	-8.993600	28.896824	-8.085595E-7	20.732055
2516.699141	-3.007400	3.002300	-9.028000	28.939232	-1.237591E-6	20.734949
2517.694151	-2.992400	3.001100	-8.979300	28.935200	-1.485109E-7	20.741319
2518.692294	-3.003400	2.998400	-9.004900	28.938371	-1.732628E-6	20.737876
2519.693353	-3.002900	2.998500	-9.003300	28.978951	-5.445401E-7	20.752681
2520.697948	-3.021900	2.995100	-9.049100	29.003448	-1.765630E-6	20.734213
2521.696394	-2.997000	2.995700	-8.977600	29.026830	-3.795279E-7	20.735013
2522.694232	-2.988200	2.993700	-8.945400	28.975464	-4.785352E-7	20.743952
2523.696750	-3.001600	2.991500	-8.978600	28.987299	5.115377E-7	20.741652
2524.693004	-2.998800	2.990600	-8.967200	28.933605	-3.465255E-7	20.732600
2525.694564	-3.002400	2.989300	-8.973900	28.869080	-2.062652E-6	20.731606
2526.691160	-3.001700	2.989000	-8.971000	28.863407	-2.062652E-6	20.757186
2527.694647	-3.006300	2.986600	-8.976700	28.818844	-1.237591E-6	20.736949
2528.696424	-2.994400	2.984200	-8.934900	28.770189	-6.765498E-7	20.750527
2529.696658	-2.971100	2.984500	-8.865900	28.821148	-9.075668E-7	20.744486
2530.694893	-3.015400	2.981200	-8.988400	28.870524	1.699625E-6	20.743018
2531.694265	-2.998000	2.981000	-8.936500	28.847735	1.105581E-6	20.737604
2532.694537	-3.019600	2.978700	-8.993600	28.897850	8.745644E-7	20.729769
2533.697797	-3.003400	2.976700	-8.938700	28.932310	3.135231E-7	20.728924
2534.697636	-2.976200	2.976800	-8.857900	28.876572	8.745644E-7	20.745318
2535.696268	-3.020400	2.973700	-8.980900	28.935429	4.785352E-7	20.746291
2536.697538	-2.966900	2.973900	-8.822000	28.980736	2.722700E-6	20.743574
2537.694614	-3.000000	2.971300	-8.913000	29.011968	1.303596E-6	20.734738
2538.697157	-2.991800	2.971000	-8.887200	29.005482	-4.950365E-8	20.732469
2539.701522	-2.979200	2.970000	-8.846900	28.984824	-2.475182E-7	20.718768
2540.697298	-2.983200	2.968100	-8.853700	28.899020	1.204589E-6	20.723835
2541.694055	-2.959700	2.966500	-8.778400	28.882867	2.491683E-6	20.737434
2542.703503	-3.021400	2.963300	-8.952400	28.945491	6.435474E-7	20.750739
2543.696629	-3.025400	2.962000	-8.960800	28.945414	1.567615E-6	20.731220
2544.700857	-2.979800	2.961200	-8.822500	28.984128	1.435606E-6	20.733241
2545.716362	-3.000100	2.959100	-8.877100	28.945013	9.405693E-7	20.748361
2546.697014	-2.994700	2.958200	-8.857600	28.836860	-3.795279E-7	20.731390
2547.702652	-3.004500	2.957100	-8.883800	28.849220	1.171586E-6	20.701166
2548.705011	-2.999300	2.955400	-8.862500	28.896663	2.458681E-6	20.725728
2549.704729	-2.998200	2.951900	-8.849900	28.948652	9.075668E-7	20.749182
2550.703584	-3.006600	2.951700	-8.873500	28.930220	5.775425E-7	20.741517
2551.704989	-2.983100	2.949200	-8.796000	28.963365	-1.303596E-6	20.731761
2552.701190	-2.991500	2.947800	-8.818300	29.001829	2.986720E-6	20.746808
2553.706478	-2.993700	2.946900	-8.821800	29.036871	1.864637E-6	20.734698
2554.706276	-3.013300	2.945600	-8.874400	29.084695	2.161659E-6	20.741160
2555.703773	-3.006900	2.943700	-8.850500	29.105846	1.369601E-6	20.743980
2556.704912	-3.021000	2.941200	-8.884000	29.126302	2.590691E-6	20.746574
2557.701825	-2.983400	2.941400	-8.774200	29.130758	2.524686E-6	20.741581
2558.712523	-3.006700	2.939300	-8.837000	29.161860	1.798632E-6	20.750636
2559.705781	-3.003600	2.937200	-8.821300	29.156754	3.795279E-7	20.756397
2560.706226	-3.005200	2.935600	-8.820900	29.104596	1.336598E-6	20.737030
2561.709330	-2.992200	2.933500	-8.776300	29.068832	-4.950365E-8	20.744143
2562.707057	-2.962900	2.933600	-8.691000	28.984145	-5.115377E-7	20.731835
2563.706577	-2.984100	2.931300	-8.746500	28.992638	9.075668E-7	20.731382
2564.715393	-2.988300	2.929700	-8.753600	28.997593	5.775425E-7	20.725469
2565.708040	-2.983600	2.929200	-8.738000	29.018813	1.501611E-6	20.727408
2566.705656	-2.995700	2.925600	-8.763500	29.087245	-1.072579E-6	20.727132
2567.708613	-3.014100	2.925300	-8.816100	29.086595	2.458681E-6	20.735013
2568.712688	-3.014400	2.921900	-8.807300	29.059891	1.237591E-6	20.748884
2569.709009	-3.003500	2.919600	-8.768100	29.055803	1.369601E-6	20.732437
2570.708556	-3.013800	2.918100	-8.793800	29.074553	3.795279E-7	20.746114
2571.715051	-2.988000	2.917100	-8.715800	29.080270	6.765498E-7	20.733856
2572.706543	-3.012100	2.915200	-8.780100	29.077394	8.745644E-7	20.739967
2573.712904	-2.986700	2.914400	-8.703200	29.017675	6.435474E-7	20.741910
2574.713566	-2.984100	2.912300	-8.689100	29.009372	1.435606E-6	20.758676
2575.709735	-2.973100	2.910900	-8.654000	29.005685	1.468608E-6	20.746425
2576.712004	-3.001900	2.907800	-8.728100	28.999458	-8.085595E-7	20.758170
2577.708250	-3.003700	2.907100	-8.730900	28.998443	-4.950365E-8	20.740551
2578.711122	-2.994000	2.905700	-8.698900	28.968123	2.425679E-6	20.738453
2579.709241	-3.006800	2.902800	-8.726800	28.952592	1.303596E-6	20.732288
2580.713208	-3.012500	2.900500	-8.736900	28.991250	-2.145158E-7	20.745158
2581.706857	-3.004200	2.898900	-8.707700	29.043410	3.547761E-6	20.740339
2582.709548	-3.010400	2.896500	-8.719000	29.069984	2.805207E-7	20.751942
2583.709228	-2.989000	2.895100	-8.653000	29.154657	4.339819E-6	20.734843
2584.715925	-3.007000	2.894800	-8.703700	29.203934	1.765630E-6	20.738506
2585.723629	-2.983200	2.891600	-8.625600	29.217161	1.336598E-6	20.744723
2586.713372	-2.987000	2.890500	-8.633300	29.200587	1.963645E-6	20.755523
2587.714918	-3.003000	2.890100	-8.678200	29.196869	2.458681E-6	20.752724
2588.707617	-2.977500	2.887000	-8.595400	29.224924	2.359674E-6	20.765350
2589.712114	-2.999200	2.884900	-8.651100	29.241835	4.108802E-6	20.751096
2590.707608	-2.987100	2.882900	-8.610700	29.306685	6.105450E-7	20.762399
2591.710981	-3.006900	2.880800	-8.661200	29.237965	2.623693E-6	20.755258
2592.707271	-2.990800	2.880500	-8.614300	29.215774	2.145158E-7	20.775095
2593.711867	-3.036700	2.875600	-8.730600	29.191971	7.095522E-7	20.753952
2594.712450	-2.954200	2.876700	-8.497600	29.279882	-2.145158E-7	20.743446
2595.710638	-2.968700	2.874200	-8.531700	29.254272	1.039577E-6	20.751302
2596.712661	-2.993200	2.871800	-8.594300	29.266701	4.125304E-7	20.744388
2597.714201	-2.999400	2.870400	-8.608100	29.224777	4.125304E-7	20.774211
2598.712156	-2.972300	2.868500	-8.524200	29.212516	4.455328E-7	20.776079
2599.709897	-2.970100	2.866700	-8.512200	29.293740	-2.805207E-7	20.759310
2600.712978	-2.986100	2.863600	-8.549700	29.310277	-6.765498E-7	20.758907
2601.710337	-2.980800	2.862300	-8.531200	29.264714	-1.072579E-6	20.767516
2602.708359	-3.031300	2.858600	-8.664300	29.247232	-3.349747E-6	20.781193
2603.710149	-2.991800	2.858600	-8.551700	29.263376	2.805207E-7	20.750046
2604.712688	-2.985800	2.856200	-8.527200	29.337786	-2.656696E-6	20.770984
2605.712301	-3.006600	2.853100	-8.577100	29.414640	-3.217737E-6	20.760252
2606.711029	-3.032500	2.850400	-8.642700	29.407609	-2.458681E-6	20.779243
2607.713997	-3.026100	2.849500	-8.621300	29.465270	-2.590691E-6	20.764816
2608.711115	-3.003000	2.847400	-8.549900	29.459650	-2.491683E-6	20.754409
2609.718820	-2.991800	2.845800	-8.512600	29.417014	-2.062652E-6	20.762644
2610.714043	-2.985100	2.844100	-8.489500	29.442244	-3.250739E-6	20.762944
2611.717663	-3.015600	2.840400	-8.564800	29.496292	-2.557688E-6	20.790396
2612.714125	-2.998200	2.839600	-8.512700	29.525922	-2.953718E-6	20.771901
2613.717279	-2.976000	2.837200	-8.443000	29.441497	-8.415620E-7	20.765510
2614.718514	-2.983500	2.835000	-8.457700	29.462718	-2.821708E-6	20.771027
2615.716623	-3.000000	2.832600	-8.496900	29.459348	-2.920715E-6	20.765011
2616.717719	-2.976100	2.830800	-8.424000	29.410052	-2.920715E-6	20.769852
2617.718739	-2.989200	2.828000	-8.452400	29.433552	-3.811781E-6	20.770305
2618.718604	-3.004500	2.826200	-8.489900	29.357682	-7.755571E-7	20.783925
2619.716133	-3.022700	2.822600	-8.531100	29.425945	-2.095654E-6	20.771646
2620.722548	-3.009300	2.821200	-8.488900	29.461795	-4.735849E-6	20.752778
2621.718299	-3.017300	2.818900	-8.504900	29.497893	-9.735717E-7	20.785372
2622.721220	-3.027300	2.816100	-8.523900	29.508659	5.115377E-7	20.786741
2623.718576	-2.996600	2.812100	-8.425600	29.507195	-1.963645E-6	20.790956
2624.719974	-2.974200	2.811500	-8.361200	29.516996	4.455328E-7	20.788982
2625.726051	-2.987600	2.809300	-8.392200	29.490061	-4.950365E-8	20.774633
2626.719509	-2.996000	2.806800	-8.407700	29.506989	-1.039577E-6	20.796437
2627.720181	-2.989200	2.804000	-8.380800	29.535485	1.171586E-6	20.784385
2628.721840	-2.998700	2.801900	-8.400800	29.536847	-9.075668E-7	20.779120
2629.722504	-2.986900	2.799400	-8.360700	29.510499	1.369601E-6	20.790493
2630.719236	-3.030100	2.796200	-8.471600	29.509355	-1.650122E-8	20.787917
2631.718208	-2.990500	2.794100	-8.354700	29.468922	-1.633620E-6	20.789361
2632.721519	-2.997500	2.789300	-8.359800	29.444117	-2.656696E-6	20.795178
2633.723082	-2.992500	2.787100	-8.339700	29.450847	-8.085595E-7	20.798168
2634.722593	-2.996300	2.784400	-8.342100	29.463917	1.567615E-6	20.786686
2635.725457	-3.013800	2.780000	-8.377600	29.455941	1.237591E-6	20.796191
2636.731562	-3.010600	2.779100	-8.365700	29.423058	-5.445401E-7	20.797185
2637.723995	-2.997800	2.775900	-8.320300	29.440063	-4.950365E-8	20.807213
2638.727108	-3.002400	2.771500	-8.320400	29.471254	-3.135231E-7	20.805462
2639.728028	-3.033400	2.767900	-8.395300	29.482519	-9.405693E-7	20.780307
2640.729926	-2.998000	2.766900	-8.293400	29.433618	2.359674E-6	20.802614
2641.723894	-2.965000	2.762600	-8.189600	29.431709	6.435474E-7	20.778404
2642.730901	-3.019600	2.759300	-8.331100	29.457901	-5.775425E-7	20.776829
2643.726337	-3.012800	2.756200	-8.302900	29.435788	-5.775425E-7	20.806698
2644.726249	-2.974700	2.755000	-8.194500	29.509487	-1.155085E-7	20.806068
2645.725918	-2.998000	2.750500	-8.245700	29.552881	2.326671E-6	20.815198
2646.727711	-3.002000	2.747300	-8.246500	29.673709	1.237591E-6	20.799501
2647.725047	-2.980400	2.744300	-8.178200	29.678753	2.359674E-6	20.791310
2648.725015	-3.029600	2.740600	-8.301700	29.724941	2.689698E-6	20.802315
2649.725887	-2.998400	2.738400	-8.210100	29.769095	1.402603E-6	20.774287
2650.732173	-3.015300	2.733700	-8.241800	29.750010	1.402603E-6	20.800089
2651.728004	-3.032700	2.730000	-8.278700	29.796241	1.996647E-6	20.805925
2652.726368	-2.995500	2.728900	-8.173300	29.854797	1.138584E-6	20.819923
2653.727991	-2.989900	2.725300	-8.147300	29.873059	7.095522E-7	20.805621
2654.730597	-3.003900	2.720500	-8.171300	29.825267	1.468608E-6	20.824286
2655.731053	-2.955800	2.718600	-8.034500	29.872634	1.650122E-8	20.818469
2656.729027	-2.982700	2.713300	-8.092000	29.927526	-1.501611E-6	20.799853
2657.727685	-3.014600	2.708600	-8.164100	29.900128	2.491683E-6	20.797829
2658.732507	-2.990500	2.706200	-8.092200	29.772247	-2.805207E-7	20.811130
2659.727960	-2.978700	2.701000	-8.044000	29.760017	1.171586E-6	20.789790
2660.728391	-3.006900	2.698300	-8.111800	29.779074	-7.755571E-7	20.829392
2661.732434	-2.969300	2.694200	-7.998900	29.843621	6.105450E-7	20.807231
2662.729516	-3.005100	2.688500	-8.078100	29.872130	2.029649E-6	20.817012
2663.725049	-3.002800	2.684400	-8.059100	29.780011	-1.006574E-6	20.805208
2664.727478	-3.034600	2.679400	-8.129200	29.712266	5.445401E-7	20.809450
2665.740374	-3.002600	2.677100	-8.037200	29.632239	5.115377E-7	20.804634
2666.727330	-3.012500	2.673100	-8.051700	29.594289	1.138584E-6	20.836551
2667.730960	-3.008500	2.668400	-8.026900	29.583145	-5.115377E-7	20.820101
2668.732993	-2.966800	2.664200	-7.903500	29.557623	7.755571E-7	20.814288
2669.730770	-3.015400	2.659000	-8.017100	29.557872	-1.006574E-6	20.815961
2670.731468	-3.000600	2.654700	-7.965400	29.599632	-1.303596E-6	20.804005
2671.731616	-3.003500	2.650100	-7.957900	29.683104	-5.115377E-7	20.813240
2672.730761	-2.977200	2.646700	-7.878600	29.700558	-1.138584E-6	20.837948
2673.728974	-2.994800	2.641500	-7.909600	29.769216	1.155085E-7	20.822773
2674.736097	-3.003900	2.634500	-7.912800	29.783078	-2.029649E-6	20.810671
2675.727530	-3.019400	2.629900	-7.939800	29.785285	-1.633620E-6	20.819060
2676.737079	-3.000400	2.625500	-7.876600	29.850696	7.425547E-7	20.806305
2677.735213	-3.025200	2.619000	-7.922400	29.885145	-7.755571E-7	20.823498
2678.734216	-3.008800	2.614300	-7.864700	29.907768	-2.656696E-6	20.822602
2679.731746	-3.006300	2.609900	-7.844900	29.886559	-2.656696E-6	20.828717
2680.735439	-3.005800	2.603300	-7.824400	29.899553	8.085595E-7	20.847035
2681.734177	-2.982600	2.599100	-7.751000	29.922418	-9.735717E-7	20.836901
2682.731381	-2.975700	2.592800	-7.715000	30.001338	-1.996647E-6	20.847735
2683.736907	-2.977800	2.588500	-7.707400	29.988496	-2.491683E-6	20.834310
2684.736812	-3.007700	2.580700	-7.760900	30.003741	-2.062652E-6	20.847314
2685.736566	-3.010900	2.576500	-7.756800	29.947966	-6.435474E-7	20.854128
2686.733583	-2.953400	2.571500	-7.593800	29.929828	-1.468608E-6	20.835839
2687.734485	-3.016500	2.564600	-7.734000	29.993893	-7.755571E-7	20.831692
2688.734641	-3.030700	2.557500	-7.749700	29.977566	-1.600618E-6	20.834193
2689.736844	-3.044700	2.549400	-7.761300	30.013843	4.125304E-7	20.833793
2690.733350	-2.976900	2.545900	-7.577900	30.014488	-2.524686E-6	20.845349
2691.736170	-3.007800	2.538900	-7.635200	29.963906	2.491683E-6	20.832746
2692.736190	-3.033600	2.531600	-7.678500	29.894741	2.095654E-6	20.853562
2693.739241	-3.024500	2.526000	-7.638700	29.863731	-2.227664E-6	20.818974
2694.743316	-2.995700	2.520800	-7.551000	29.836980	8.085595E-7	20.835622
2695.739100	-2.971600	2.515000	-7.473000	29.831709	-1.650122E-8	20.830782
2696.739795	-2.993300	2.509000	-7.509200	29.838742	1.633620E-6	20.841665
2697.742998	-3.003100	2.501400	-7.510900	29.917391	1.138584E-6	20.839893
2698.736893	-2.996500	2.495100	-7.475500	29.873981	-2.145158E-7	20.848749
