LabVIEW Measurement	
Writer_Version	2
Reader_Version	2
Separator	Tab
Decimal_Separator	.
Multi_Headings	No
X_Columns	One
Time_Pref	Absolute
Operator	admin
Description	Clolumns are: time, Current, Voltage, Power, Battery Temp, and Chamber Temp
Date	2024/08/16
Time	13:07:17.8513970375061035156
***End_of_Header***	
	
Channels	6						
Samples	1	1	1	1	1	1	
Date	2024/08/30	2024/08/30	2024/08/30	2024/08/30	2024/08/30	2024/08/30	
Time	10:07:20.5084352493286132813	10:07:20.5147376060485839844	10:07:20.519695281982421875	10:07:20.4924216270446777344	10:07:20.4924216270446777344	10:07:20.4924216270446777344	
X_Dimension	Time	Time	Time	Time	Time	Time	
X0	0.0000000000000000E+0	0.0000000000000000E+0	0.0000000000000000E+0	0.0000000000000000E+0	0.0000000000000000E+0	0.0000000000000000E+0	
Delta_X	1.000000	1.000000	1.000000	1.000000	1.000000	1.000000	
***End_of_Header***							
X_Value	Untitled	Untitled 1	Untitled 2	Untitled 3	Untitled 4	Untitled 5	Comment
0.000000	0.022793	4.087600	0.093167	20.777334	0.000456	20.716165
0.999966	-3.012800	3.926900	-11.830000	20.774993	0.000456	20.720463
2.002675	-2.999100	3.921900	-11.762000	20.789514	0.000454	20.724553
3.001041	-3.000500	3.916900	-11.752000	20.781681	0.000455	20.714822
4.002010	-2.992200	3.913900	-11.710000	20.799871	0.000453	20.724005
5.000726	-2.989300	3.912100	-11.693000	20.825253	0.000454	20.747491
6.004966	-2.993100	3.908400	-11.697000	20.809982	0.000452	20.737435
7.000820	-3.000200	3.907500	-11.723000	20.824053	0.000453	20.738704
8.001069	-2.998500	3.905100	-11.709000	20.821934	0.000450	20.728524
9.003673	-3.010700	3.901700	-11.746000	20.819988	0.000450	20.734639
10.006233	-3.013300	3.901600	-11.755000	20.819287	0.000451	20.720661
11.001289	-3.008300	3.900600	-11.733000	20.828320	0.000451	20.710727
12.006785	-2.997500	3.899100	-11.686000	20.857544	0.000449	20.736635
13.006878	-3.000900	3.897300	-11.694000	20.843369	0.000448	20.735736
14.002761	-3.016700	3.895900	-11.751000	20.834711	0.000446	20.737035
15.005579	-3.008000	3.895300	-11.716000	20.870173	0.000448	20.737410
16.007030	-3.003500	3.893000	-11.692000	20.855499	0.000449	20.736487
17.005720	-3.012400	3.893600	-11.728000	20.859988	0.000445	20.739554
18.006706	-3.008000	3.891600	-11.706000	20.873017	0.000445	20.743101
19.006393	-2.996500	3.891300	-11.660000	20.887740	0.000447	20.735538
20.005156	-3.002000	3.891200	-11.681000	20.890658	0.000448	20.732767
21.004285	-2.989000	3.890900	-11.629000	20.912591	0.000444	20.741426
22.003895	-3.012600	3.889100	-11.715000	20.914992	0.000443	20.743827
23.007133	-3.019500	3.889200	-11.743000	20.921155	0.000445	20.741930
24.003756	-3.020000	3.887500	-11.740000	20.944134	0.000445	20.732194
25.003288	-3.005900	3.887800	-11.685000	20.918834	0.000444	20.735815
26.008981	-3.005500	3.886500	-11.680000	20.965744	0.000445	20.721565
27.005382	-3.008900	3.886500	-11.694000	20.976925	0.000443	20.757405
28.005628	-3.009400	3.886300	-11.695000	20.961853	0.000442	20.738063
29.015356	-3.000500	3.884300	-11.654000	20.986930	0.000443	20.751765
30.006910	-2.993900	3.885400	-11.632000	21.011680	0.000443	20.752337
31.011151	-2.979600	3.884600	-11.573000	20.997563	0.000443	20.742010
32.008930	-3.011500	3.884500	-11.697000	20.996787	0.000441	20.755933
33.007697	-3.002200	3.883000	-11.657000	21.018520	0.000445	20.744005
34.008827	-3.006700	3.883200	-11.674000	21.019444	0.000442	20.761051
35.015746	-3.012600	3.882300	-11.696000	21.027201	0.000442	20.746050
36.012925	-3.004500	3.882800	-11.666000	21.044138	0.000441	20.762043
37.010558	-2.986500	3.882900	-11.595000	21.043289	0.000440	20.763090
38.010909	-2.985400	3.882500	-11.590000	21.040420	0.000442	20.759272
39.013232	-3.007200	3.880200	-11.666000	21.064621	0.000442	20.757874
40.009534	-3.008800	3.880300	-11.674000	21.064251	0.000442	20.740908
41.009100	-3.015600	3.878500	-11.694000	21.084235	0.000440	20.756630
42.014441	-2.997000	3.879700	-11.625000	21.073905	0.000441	20.766686
43.010490	-3.026500	3.879300	-11.739000	21.088348	0.000439	20.746993
44.016355	-2.997900	3.879000	-11.629000	21.083465	0.000439	20.744005
45.014078	-3.004500	3.879000	-11.654000	21.105498	0.000441	20.766519
46.010933	-3.012900	3.878000	-11.683000	21.113975	0.000438	20.771205
47.010968	-3.007900	3.876200	-11.657000	21.128399	0.000440	20.735846
48.016873	-2.981300	3.878500	-11.562000	21.128547	0.000439	20.758280
49.023491	-2.972900	3.880000	-11.534000	21.144368	0.000438	20.748974
50.011334	-2.988700	3.877000	-11.586000	21.163106	0.000438	20.760607
51.013789	-2.989700	3.876000	-11.586000	21.149305	0.000441	20.759129
52.010146	-2.998200	3.876300	-11.621000	21.169416	0.000439	20.751271
53.012341	-3.007800	3.876000	-11.658000	21.179745	0.000440	20.771088
54.015861	-2.990500	3.877500	-11.595000	21.194113	0.000437	20.780719
55.012125	-3.003600	3.876900	-11.644000	21.206289	0.000439	20.754492
56.015305	-3.004900	3.874800	-11.642000	21.202724	0.000439	20.770367
57.016005	-2.993200	3.875000	-11.597000	21.217615	0.000438	20.758710
58.017574	-2.962200	3.877300	-11.483000	21.219086	0.000438	20.768243
59.014008	-2.969700	3.876600	-11.511000	21.207538	0.000436	20.782769
60.016054	-2.981500	3.875200	-11.552000	21.224429	0.000437	20.784019
61.017121	-2.993200	3.874900	-11.598000	21.256739	0.000438	20.785995
62.023308	-2.973900	3.875100	-11.523000	21.249470	0.000440	20.780620
63.014105	-2.992500	3.874300	-11.593000	21.257810	0.000440	20.774264
64.013071	-2.985600	3.875300	-11.569000	21.259632	0.000441	20.770871
65.012131	-2.979300	3.874200	-11.541000	21.271117	0.000436	20.776671
66.014156	-3.013500	3.873600	-11.671000	21.288845	0.000439	20.788243
67.015824	-2.998600	3.873900	-11.615000	21.316167	0.000438	20.788550
68.015604	-3.004800	3.873400	-11.638000	21.299395	0.000438	20.765606
69.015439	-2.990200	3.873800	-11.582000	21.326544	0.000438	20.770956
70.015247	-2.996200	3.873300	-11.604000	21.351509	0.000438	20.787399
71.024419	-2.981400	3.873700	-11.548000	21.345249	0.000438	20.774972
72.014942	-3.001900	3.873300	-11.626000	21.328341	0.000437	20.800256
73.013566	-2.987700	3.872900	-11.570000	21.367954	0.000440	20.795791
74.017891	-3.011400	3.871300	-11.657000	21.378331	0.000436	20.775353
75.015555	-2.993500	3.872700	-11.592000	21.381678	0.000439	20.779651
76.019089	-2.994800	3.872600	-11.598000	21.397964	0.000438	20.779349
77.018116	-3.005200	3.872000	-11.635000	21.386467	0.000438	20.777329
78.017200	-3.005600	3.872400	-11.638000	21.397594	0.000439	20.772815
79.020211	-2.997500	3.871800	-11.605000	21.397619	0.000439	20.785642
80.017511	-3.006400	3.870000	-11.634000	21.400942	0.000441	20.780906
81.018397	-2.999200	3.870300	-11.608000	21.423843	0.000440	20.780111
82.018161	-3.043400	3.870700	-11.780000	21.432096	0.000437	20.776515
83.017932	-3.006600	3.869100	-11.632000	21.443869	0.000438	20.792563
84.020245	-2.994800	3.870400	-11.591000	21.441604	0.000440	20.789822
85.020051	-3.005300	3.870800	-11.633000	21.465624	0.000438	20.799157
86.018186	-3.006600	3.868400	-11.629000	21.455051	0.000439	20.787629
87.018763	-3.011100	3.868200	-11.647000	21.484007	0.000441	20.798110
88.016893	-3.007500	3.870400	-11.639000	21.480517	0.000440	20.792722
89.018212	-2.997400	3.870400	-11.600000	21.501786	0.000440	20.784132
90.022793	-2.979100	3.870100	-11.528000	21.492739	0.000441	20.776976
91.019071	-3.008800	3.868400	-11.638000	21.506684	0.000440	20.809896
92.017675	-3.014800	3.867700	-11.659000	21.530821	0.000440	20.807495
93.020782	-2.983600	3.869800	-11.545000	21.522401	0.000442	20.800018
94.020587	-3.001900	3.868400	-11.612000	21.545214	0.000443	20.812414
95.019391	-2.998000	3.868000	-11.596000	21.554894	0.000441	20.787013
96.021059	-2.987700	3.869300	-11.559000	21.558863	0.000440	20.799993
97.021334	-2.987800	3.869200	-11.559000	21.567847	0.000441	20.800923
98.022615	-3.007900	3.866300	-11.629000	21.573779	0.000440	20.803540
99.023544	-3.001000	3.867900	-11.606000	21.577238	0.000443	20.816484
100.022542	-3.010000	3.868200	-11.643000	21.575595	0.000441	20.804883
101.023792	-3.010400	3.866600	-11.638000	21.578862	0.000440	20.812894
102.023855	-2.985400	3.868100	-11.547000	21.599489	0.000442	20.829267
103.023511	-2.997800	3.867000	-11.591000	21.619464	0.000442	20.820332
104.023830	-2.992100	3.866600	-11.568000	21.631813	0.000442	20.790017
105.023931	-2.989500	3.867600	-11.561000	21.626171	0.000444	20.791483
106.022490	-2.987000	3.867200	-11.551000	21.631961	0.000443	20.790639
107.023068	-3.008500	3.867600	-11.634000	21.654304	0.000444	20.805886
108.022920	-2.986100	3.867500	-11.548000	21.647043	0.000444	20.787715
109.023256	-2.994700	3.866300	-11.577000	21.662481	0.000444	20.772818
110.021461	-2.998600	3.867700	-11.597000	21.674148	0.000446	20.813417
111.025699	-3.006600	3.867000	-11.626000	21.664180	0.000444	20.799174
112.024566	-3.004300	3.865700	-11.613000	21.692700	0.000445	20.820604
113.024114	-3.014300	3.863800	-11.646000	21.690682	0.000443	20.804359
114.029045	-3.012500	3.865500	-11.645000	21.681304	0.000443	20.800191
115.026288	-2.979000	3.866400	-11.517000	21.687666	0.000445	20.797074
116.026806	-2.977000	3.865600	-11.507000	21.704723	0.000443	20.776686
117.032913	-3.014300	3.864700	-11.648000	21.710857	0.000446	20.815067
118.032059	-3.014900	3.863200	-11.646000	21.727532	0.000444	20.789556
119.026856	-2.990300	3.865400	-11.558000	21.737807	0.000445	20.778503
120.032667	-3.026400	3.864200	-11.693000	21.741006	0.000446	20.789291
121.031931	-2.987300	3.864600	-11.543000	21.759034	0.000449	20.802592
122.028363	-3.028000	3.863200	-11.696000	21.773222	0.000447	20.800196
123.028738	-3.001100	3.864700	-11.598000	21.795888	0.000450	20.774044
124.028801	-2.998400	3.863200	-11.582000	21.767937	0.000445	20.784001
125.029020	-2.984700	3.864700	-11.534000	21.797758	0.000448	20.776864
126.029066	-3.006800	3.863100	-11.615000	21.802342	0.000446	20.791883
127.029294	-2.982700	3.863800	-11.523000	21.791224	0.000447	20.781230
128.030562	-2.988800	3.864000	-11.547000	21.809245	0.000447	20.812069
129.030536	-2.985000	3.862400	-11.528000	21.835632	0.000448	20.769253
130.029394	-3.007300	3.863100	-11.617000	21.829123	0.000449	20.765108
131.029971	-2.991400	3.863900	-11.558000	21.840665	0.000449	20.777609
132.032111	-3.019500	3.862400	-11.662000	21.837552	0.000449	20.769751
133.031064	-2.994600	3.862100	-11.564000	21.842713	0.000450	20.774918
134.032867	-2.995100	3.861900	-11.565000	21.847574	0.000449	20.780731
135.030979	-2.986300	3.863600	-11.537000	21.869568	0.000450	20.786624
136.033343	-2.988200	3.862300	-11.541000	21.873456	0.000450	20.787671
137.035771	-2.986300	3.862600	-11.533000	21.887476	0.000453	20.757607
138.032717	-2.985700	3.861800	-11.530000	21.862394	0.000450	20.775176
139.032095	-2.975600	3.861800	-11.490000	21.858604	0.000452	20.755735
140.037089	-2.993300	3.862700	-11.561000	21.884387	0.000451	20.774430
141.032753	-3.012100	3.860800	-11.628000	21.885660	0.000452	20.767170
142.033580	-2.997800	3.860800	-11.572000	21.882665	0.000451	20.758956
143.036546	-3.009000	3.860200	-11.614000	21.914808	0.000454	20.771216
144.034563	-3.004400	3.860700	-11.598000	21.921114	0.000453	20.768044
145.035742	-3.006500	3.860000	-11.604000	21.914740	0.000453	20.752655
146.036726	-3.022200	3.858800	-11.661000	21.944951	0.000452	20.747809
147.042947	-2.977500	3.860100	-11.492000	21.965750	0.000456	20.760568
148.039378	-3.001100	3.859600	-11.582000	21.952886	0.000454	20.785624
149.036855	-3.016800	3.859600	-11.643000	21.949916	0.000454	20.746614
150.040513	-3.000100	3.858500	-11.575000	21.971710	0.000454	20.769379
151.038058	-2.994300	3.859300	-11.555000	21.967521	0.000454	20.761393
152.043515	-3.007800	3.858200	-11.604000	21.977997	0.000454	20.752913
153.056775	-2.992100	3.859600	-11.548000	21.990791	0.000454	20.757660
154.040445	-2.997400	3.858600	-11.565000	21.988171	0.000454	20.738441
155.042706	-3.010800	3.858200	-11.614000	21.970793	0.000455	20.757081
156.040924	-3.001700	3.858300	-11.581000	21.996672	0.000454	20.757383
157.041803	-2.994400	3.858000	-11.552000	22.023104	0.000457	20.743065
158.042851	-3.005800	3.859100	-11.597000	22.018540	0.000454	20.757937
159.044866	-3.020700	3.856300	-11.647000	22.026967	0.000456	20.743613
160.043023	-3.010200	3.856700	-11.609000	22.043348	0.000457	20.746735
161.045644	-3.017500	3.856100	-11.635000	22.042253	0.000456	20.743268
162.042645	-3.006400	3.856900	-11.595000	22.061943	0.000460	20.749703
163.042615	-3.006500	3.857000	-11.595000	22.057059	0.000458	20.747659
164.041709	-3.001600	3.857200	-11.577000	22.072190	0.000457	20.757592
165.044364	-3.028200	3.856500	-11.676000	22.074983	0.000459	20.733834
166.045313	-3.026200	3.857100	-11.671000	22.085033	0.000458	20.732041
167.044340	-3.024100	3.855700	-11.659000	22.093712	0.000459	20.740730
168.044986	-3.006800	3.856000	-11.593000	22.111008	0.000460	20.745718
169.044907	-3.004300	3.855600	-11.583000	22.102237	0.000460	20.738833
170.044336	-3.003600	3.855600	-11.580000	22.085999	0.000461	20.741544
171.044921	-3.011400	3.855400	-11.609000	22.119207	0.000460	20.748237
172.047540	-3.006000	3.854000	-11.584000	22.128408	0.000461	20.720464
173.044049	-2.996300	3.854800	-11.549000	22.136109	0.000462	20.740502
174.044889	-3.001400	3.853800	-11.566000	22.147254	0.000461	20.754506
175.047373	-3.006800	3.854800	-11.590000	22.136982	0.000464	20.736635
176.048982	-3.010800	3.855300	-11.605000	22.141620	0.000462	20.739381
177.045639	-2.991200	3.855100	-11.530000	22.167145	0.000463	20.746445
178.044944	-2.998200	3.855500	-11.559000	22.165048	0.000463	20.741500
179.054202	-2.984000	3.855300	-11.504000	22.179926	0.000463	20.733636
180.044970	-2.988900	3.855300	-11.522000	22.176740	0.000461	20.729023
181.045001	-2.985300	3.853700	-11.504000	22.188407	0.000466	20.731222
182.050123	-3.025300	3.852500	-11.654000	22.220155	0.000464	20.726499
183.046731	-3.008700	3.852700	-11.591000	22.213353	0.000466	20.740552
184.046994	-2.990200	3.852400	-11.519000	22.223150	0.000465	20.718591
185.049737	-2.981400	3.853700	-11.488000	22.198445	0.000465	20.750756
186.048503	-3.001900	3.852100	-11.562000	22.206022	0.000465	20.743643
187.049113	-3.019400	3.853600	-11.634000	22.249565	0.000464	20.723703
188.049191	-2.979000	3.854300	-11.481000	22.241367	0.000465	20.720710
189.046775	-3.023800	3.851700	-11.646000	22.252406	0.000467	20.723229
190.048641	-2.995100	3.852700	-11.538000	22.271970	0.000465	20.730015
191.047245	-3.011400	3.851100	-11.597000	22.251207	0.000468	20.738625
192.046332	-2.982300	3.853200	-11.491000	22.258188	0.000467	20.723802
193.046758	-2.980800	3.850600	-11.478000	22.268403	0.000467	20.715064
194.046798	-2.979100	3.851000	-11.472000	22.276582	0.000468	20.723254
195.045637	-2.984700	3.851700	-11.495000	22.306064	0.000468	20.721006
196.046443	-2.995800	3.851200	-11.535000	22.298532	0.000469	20.724369
197.045881	-2.996100	3.851100	-11.538000	22.293156	0.000470	20.732737
198.047552	-2.975400	3.851100	-11.458000	22.315904	0.000469	20.731808
199.048235	-3.012800	3.850200	-11.599000	22.307282	0.000469	20.720803
200.048507	-3.000700	3.850700	-11.554000	22.324034	0.000467	20.721930
201.048969	-2.986800	3.851100	-11.502000	22.352174	0.000469	20.732090
202.048862	-2.999800	3.849000	-11.544000	22.358102	0.000469	20.731389
203.049488	-2.965400	3.850200	-11.415000	22.337520	0.000471	20.708880
204.050640	-3.014800	3.850100	-11.605000	22.377940	0.000469	20.700517
205.049958	-2.986300	3.848500	-11.492000	22.387336	0.000472	20.731265
206.051970	-2.985700	3.849000	-11.491000	22.368722	0.000472	20.695079
207.051283	-3.005200	3.848400	-11.564000	22.389531	0.000471	20.721135
208.048663	-3.002500	3.847400	-11.551000	22.385492	0.000471	20.728944
209.049445	-3.026400	3.846800	-11.641000	22.385442	0.000474	20.707082
210.050978	-3.019700	3.847500	-11.618000	22.426267	0.000474	20.718567
211.049736	-2.992600	3.849000	-11.517000	22.398626	0.000475	20.711276
212.051047	-3.002300	3.846900	-11.548000	22.405950	0.000474	20.731888
213.051486	-2.991800	3.847700	-11.510000	22.429009	0.000474	20.717994
214.052261	-2.980800	3.847600	-11.468000	22.432865	0.000474	20.722804
215.054126	-3.009000	3.845900	-11.572000	22.441221	0.000473	20.715524
216.055925	-2.982200	3.847300	-11.472000	22.452628	0.000475	20.696126
217.056911	-3.000100	3.847200	-11.541000	22.421808	0.000477	20.710308
218.053302	-2.991900	3.847000	-11.509000	22.475655	0.000475	20.732466
219.058783	-2.998200	3.847600	-11.535000	22.444511	0.000476	20.705068
220.055941	-2.962300	3.848100	-11.397000	22.460332	0.000475	20.718542
221.055823	-2.998500	3.845700	-11.531000	22.467784	0.000477	20.707513
222.058169	-3.026000	3.844600	-11.633000	22.466690	0.000477	20.701200
223.058872	-2.973700	3.846400	-11.438000	22.458296	0.000478	20.713184
224.055460	-2.980600	3.845900	-11.462000	22.459716	0.000479	20.715081
225.061792	-3.021500	3.845300	-11.618000	22.482910	0.000480	20.703220
226.057591	-3.010900	3.844600	-11.575000	22.499038	0.000478	20.695663
227.060700	-2.996400	3.845600	-11.521000	22.482338	0.000479	20.690318
228.058141	-3.002600	3.845500	-11.545000	22.498140	0.000480	20.703300
229.057863	-2.988200	3.844300	-11.487000	22.480801	0.000479	20.715333
230.059652	-3.001500	3.844300	-11.537000	22.508034	0.000482	20.707044
231.063389	-3.002900	3.844100	-11.543000	22.533446	0.000480	20.700726
232.058138	-2.996600	3.844800	-11.521000	22.544734	0.000481	20.709662
233.063282	-3.001100	3.844400	-11.537000	22.556324	0.000483	20.690447
234.061768	-3.030000	3.842900	-11.643000	22.549972	0.000483	20.703527
235.066535	-3.008600	3.843100	-11.562000	22.561956	0.000480	20.715056
236.060909	-2.998600	3.843400	-11.523000	22.571947	0.000482	20.690447
237.060329	-3.005200	3.842900	-11.548000	22.600549	0.000481	20.682109
238.060399	-2.990600	3.843800	-11.495000	22.571775	0.000484	20.698336
239.061405	-2.991400	3.842900	-11.493000	22.587195	0.000482	20.709039
240.063103	-2.994200	3.843600	-11.507000	22.605012	0.000483	20.685631
241.062252	-3.001900	3.842600	-11.535000	22.599952	0.000483	20.703324
242.062064	-3.016500	3.840500	-11.584000	22.608670	0.000485	20.709212
243.064397	-2.988800	3.841400	-11.480000	22.623874	0.000483	20.701680
244.062398	-2.991100	3.840600	-11.486000	22.627784	0.000483	20.687103
245.061619	-2.988000	3.841500	-11.477000	22.644058	0.000486	20.691549
246.062928	-2.994100	3.842000	-11.502000	22.625669	0.000486	20.697314
247.063969	-2.997400	3.840800	-11.511000	22.650857	0.000484	20.708319
248.064116	-3.001700	3.840100	-11.525000	22.638506	0.000485	20.693575
249.066093	-3.018300	3.840700	-11.591000	22.645429	0.000486	20.682490
250.066431	-2.984800	3.841500	-11.465000	22.691844	0.000486	20.678721
251.064306	-2.998900	3.840600	-11.517000	22.679739	0.000486	20.715911
252.064654	-2.987200	3.839100	-11.467000	22.668354	0.000487	20.691229
253.065187	-2.998100	3.840000	-11.512000	22.666441	0.000487	20.701168
254.065397	-2.985100	3.839600	-11.461000	22.691973	0.000486	20.694025
255.067565	-2.987600	3.840000	-11.472000	22.692028	0.000486	20.682225
256.066116	-2.987600	3.838800	-11.469000	22.713502	0.000488	20.710375
257.065997	-2.993500	3.839000	-11.491000	22.687713	0.000487	20.688334
258.066337	-3.009200	3.837700	-11.547000	22.711042	0.000488	20.700324
259.066363	-2.990700	3.839400	-11.482000	22.711786	0.000489	20.693482
260.076591	-3.025100	3.838600	-11.612000	22.700978	0.000489	20.682655
261.064782	-3.015600	3.839100	-11.576000	22.710243	0.000489	20.669649
262.066568	-3.001000	3.836400	-11.512000	22.724302	0.000490	20.681836
263.068947	-2.992100	3.838000	-11.483000	22.728605	0.000490	20.688992
264.065699	-2.985500	3.839300	-11.461000	22.770911	0.000492	20.685377
265.069794	-2.993900	3.837700	-11.489000	22.761745	0.000490	20.673824
266.070950	-3.025600	3.836600	-11.607000	22.764364	0.000489	20.696837
267.068421	-3.029800	3.836800	-11.624000	22.784889	0.000492	20.663342
268.069387	-2.980200	3.837500	-11.436000	22.770972	0.000491	20.680222
269.072510	-2.997000	3.836300	-11.497000	22.781932	0.000492	20.676502
270.067478	-3.007000	3.834900	-11.531000	22.792892	0.000492	20.669463
271.071864	-2.996300	3.836200	-11.493000	22.807172	0.000493	20.677130
272.071890	-2.989100	3.836700	-11.467000	22.807196	0.000495	20.663403
273.068333	-3.012900	3.835100	-11.554000	22.832878	0.000494	20.666371
274.070174	-3.007000	3.833800	-11.528000	22.846708	0.000494	20.672640
275.070787	-3.017800	3.833900	-11.569000	22.852708	0.000494	20.674857
276.069499	-3.012200	3.833900	-11.548000	22.825710	0.000496	20.673890
277.072597	-2.997800	3.835200	-11.496000	22.832312	0.000496	20.679556
278.074168	-3.011900	3.833500	-11.544000	22.854336	0.000494	20.681231
279.072134	-2.997600	3.834000	-11.492000	22.863101	0.000496	20.670571
280.073555	-3.015200	3.834000	-11.559000	22.854188	0.000497	20.662589
281.073282	-3.012000	3.832600	-11.543000	22.854090	0.000498	20.662964
282.071461	-3.006500	3.833500	-11.525000	22.868461	0.000496	20.686373
283.075154	-3.001000	3.833000	-11.502000	22.870907	0.000497	20.684556
284.072811	-2.993000	3.832900	-11.471000	22.882364	0.000497	20.663790
285.073083	-3.001400	3.832800	-11.503000	22.894503	0.000498	20.684962
286.072737	-3.002100	3.831900	-11.503000	22.921972	0.000497	20.680239
287.074928	-3.005100	3.831400	-11.512000	22.936619	0.000498	20.685904
288.075954	-2.987400	3.831200	-11.444000	22.938346	0.000499	20.674357
289.076031	-3.012500	3.831700	-11.542000	22.928002	0.000498	20.688177
290.075851	-3.004300	3.832100	-11.513000	22.928543	0.000498	20.661690
291.080681	-3.002000	3.830900	-11.499000	22.916072	0.000500	20.658678
292.077018	-2.990800	3.830600	-11.455000	22.932857	0.000501	20.679765
293.074476	-2.995900	3.831400	-11.476000	22.947425	0.000499	20.667331
294.078646	-2.994200	3.831100	-11.470000	22.938635	0.000501	20.664214
295.077187	-3.008700	3.830200	-11.523000	22.949944	0.000499	20.651836
296.077869	-3.031500	3.828900	-11.606000	22.946257	0.000502	20.685129
297.081339	-3.006400	3.829400	-11.511000	22.984363	0.000502	20.669727
298.079289	-3.014100	3.830700	-11.545000	22.985137	0.000500	20.654854
299.078275	-3.000200	3.829600	-11.488000	22.969066	0.000503	20.679057
300.084795	-3.016400	3.829500	-11.550000	22.976914	0.000500	20.672695
301.076646	-2.996300	3.829500	-11.474000	22.951924	0.000502	20.670417
302.076341	-2.996800	3.829800	-11.475000	22.973921	0.000500	20.659264
303.077466	-2.991100	3.829900	-11.455000	22.973147	0.000504	20.649004
304.078843	-2.989600	3.829500	-11.447000	22.971125	0.000504	20.656462
305.077363	-2.972700	3.828900	-11.381000	22.989262	0.000504	20.672264
306.084867	-2.980800	3.828600	-11.411000	23.011548	0.000505	20.649072
307.079831	-2.995200	3.827500	-11.463000	23.017177	0.000504	20.680320
308.077460	-2.986100	3.825800	-11.423000	23.017177	0.000504	20.676052
309.083293	-3.008100	3.827500	-11.513000	23.016526	0.000506	20.667813
310.085243	-2.977900	3.827200	-11.396000	23.022057	0.000504	20.663871
311.080133	-2.983300	3.826600	-11.414000	23.041539	0.000505	20.663002
312.082605	-2.994300	3.826100	-11.456000	23.061315	0.000504	20.648677
313.082802	-3.002300	3.826500	-11.487000	23.066140	0.000506	20.669161
314.081965	-2.997400	3.826500	-11.468000	23.078862	0.000503	20.658199
315.082726	-3.011000	3.825400	-11.517000	23.081228	0.000506	20.666261
316.084757	-2.999200	3.827000	-11.477000	23.090944	0.000504	20.660349
317.087160	-2.991700	3.826300	-11.446000	23.071217	0.000508	20.653858
318.083829	-2.983900	3.826100	-11.416000	23.092333	0.000508	20.656525
319.083382	-3.000300	3.824600	-11.474000	23.101477	0.000507	20.669482
320.084782	-2.996500	3.825400	-11.462000	23.102295	0.000509	20.657498
321.094268	-3.013100	3.823900	-11.521000	23.092511	0.000507	20.648641
322.083817	-3.010500	3.824200	-11.511000	23.146700	0.000507	20.663588
323.083971	-3.023500	3.824200	-11.562000	23.137483	0.000509	20.647712
324.082719	-2.982500	3.824700	-11.406000	23.125303	0.000505	20.668226
325.082550	-2.991200	3.825300	-11.440000	23.119748	0.000510	20.683524
326.082538	-2.986100	3.823400	-11.416000	23.122040	0.000507	20.656420
327.084117	-2.999500	3.822800	-11.465000	23.108865	0.000507	20.661711
328.083160	-3.007500	3.822200	-11.494000	23.131055	0.000508	20.656919
329.086923	-3.001800	3.823400	-11.476000	23.136635	0.000510	20.657295
330.084843	-3.015800	3.823000	-11.528000	23.170039	0.000510	20.657103
331.086325	-3.005200	3.820900	-11.481000	23.161959	0.000511	20.672716
332.087406	-3.011000	3.822500	-11.509000	23.165425	0.000511	20.659592
333.085333	-3.002500	3.821700	-11.474000	23.183503	0.000510	20.660165
334.086515	-2.977400	3.822000	-11.378000	23.177377	0.000512	20.665406
335.085925	-2.982900	3.823200	-11.403000	23.188303	0.000510	20.655017
336.085301	-3.000200	3.821300	-11.464000	23.190478	0.000511	20.661938
337.085112	-2.984800	3.820900	-11.404000	23.168977	0.000513	20.666946
338.086794	-2.982900	3.822400	-11.401000	23.192611	0.000510	20.659334
339.087787	-3.006700	3.819800	-11.484000	23.195327	0.000512	20.649726
340.085971	-2.987600	3.821500	-11.417000	23.174305	0.000514	20.663275
341.090144	-2.983300	3.819800	-11.395000	23.170495	0.000514	20.673209
342.088136	-2.993000	3.820300	-11.433000	23.204415	0.000512	20.660258
343.089846	-2.988700	3.820200	-11.416000	23.239999	0.000514	20.678376
344.088310	-2.995700	3.820600	-11.444000	23.234795	0.000513	20.651346
345.089942	-3.000500	3.819500	-11.459000	23.262980	0.000514	20.669163
346.088378	-2.982400	3.819600	-11.391000	23.245376	0.000515	20.679023
347.089232	-2.984000	3.819500	-11.396000	23.241886	0.000513	20.683112
348.092588	-3.015400	3.818400	-11.513000	23.260215	0.000515	20.672082
349.090707	-2.998700	3.818300	-11.449000	23.257899	0.000516	20.687780
350.090359	-2.995000	3.818500	-11.435000	23.262501	0.000515	20.678167
351.092969	-3.003300	3.817100	-11.463000	23.290311	0.000516	20.665734
352.088826	-2.997600	3.816800	-11.441000	23.291780	0.000516	20.655350
353.092157	-2.973900	3.817400	-11.351000	23.253752	0.000516	20.659440
354.091659	-2.968000	3.817700	-11.329000	23.253525	0.000517	20.681500
355.091639	-2.989800	3.817000	-11.411000	23.291295	0.000516	20.686637
356.095194	-2.978700	3.817800	-11.371000	23.299861	0.000514	20.669140
357.093834	-2.980600	3.816500	-11.375000	23.291148	0.000516	20.677005
358.092099	-2.996800	3.814500	-11.430000	23.288008	0.000514	20.664374
359.093587	-2.966800	3.817200	-11.324000	23.294405	0.000514	20.689279
360.094962	-2.978300	3.815600	-11.363000	23.303437	0.000518	20.678416
361.091867	-2.985700	3.816300	-11.393000	23.324733	0.000518	20.698812
362.095418	-2.971400	3.814700	-11.334000	23.323904	0.000518	20.679013
363.091902	-2.979000	3.814300	-11.362000	23.336278	0.000518	20.695210
364.095310	-3.010000	3.814600	-11.481000	23.371981	0.000520	20.691639
365.092271	-3.013600	3.814200	-11.493000	23.376589	0.000518	20.673970
366.092632	-2.984300	3.815200	-11.385000	23.357064	0.000518	20.676686
367.092192	-3.023000	3.814100	-11.529000	23.387587	0.000519	20.681201
368.093410	-3.013500	3.813000	-11.489000	23.374814	0.000520	20.668871
369.093807	-3.001200	3.812700	-11.442000	23.406485	0.000518	20.681176
370.097164	-2.989800	3.812900	-11.398000	23.407653	0.000520	20.682820
371.098025	-2.989700	3.813300	-11.400000	23.381609	0.000519	20.669044
372.094051	-3.029100	3.811000	-11.543000	23.370398	0.000518	20.692422
373.100231	-2.999900	3.811600	-11.434000	23.393529	0.000521	20.671508
374.095979	-2.999300	3.812800	-11.435000	23.380855	0.000521	20.680142
375.095877	-3.001700	3.811700	-11.441000	23.387330	0.000523	20.671459
376.097648	-2.988100	3.812400	-11.391000	23.420562	0.000521	20.689122
377.100030	-3.032700	3.809300	-11.552000	23.394899	0.000522	20.691849
378.094679	-3.011400	3.811200	-11.475000	23.407242	0.000523	20.688099
379.098177	-2.970400	3.812100	-11.322000	23.423130	0.000522	20.680315
380.097414	-2.982000	3.810600	-11.362000	23.448595	0.000524	20.693987
381.095364	-3.009600	3.808900	-11.462000	23.458898	0.000522	20.693409
382.095893	-3.017900	3.809900	-11.497000	23.478391	0.000523	20.695404
383.097765	-3.004900	3.809600	-11.445000	23.473439	0.000523	20.682379
384.094461	-3.017900	3.808500	-11.492000	23.467659	0.000524	20.698871
385.095229	-3.001100	3.809300	-11.431000	23.464427	0.000526	20.687096
386.100205	-3.002300	3.808100	-11.432000	23.481155	0.000523	20.701494
387.094466	-2.963600	3.809700	-11.289000	23.477820	0.000524	20.698625
388.095161	-3.007700	3.807700	-11.451000	23.499076	0.000523	20.712820
389.098594	-3.016800	3.808100	-11.487000	23.480953	0.000523	20.692756
390.095017	-3.013500	3.807400	-11.472000	23.474325	0.000524	20.713141
391.096108	-2.998400	3.807100	-11.414000	23.485560	0.000525	20.680778
392.097805	-2.987700	3.808500	-11.377000	23.523219	0.000524	20.689130
393.096710	-2.987700	3.808200	-11.376000	23.498332	0.000524	20.723929
394.096242	-2.967500	3.808400	-11.301000	23.497282	0.000524	20.712445
395.099724	-2.991600	3.806200	-11.386000	23.479455	0.000524	20.685089
396.097826	-3.000400	3.805000	-11.415000	23.485880	0.000525	20.677779
397.101539	-2.971000	3.807400	-11.310000	23.499469	0.000527	20.689979
398.099946	-3.020600	3.805000	-11.492000	23.495065	0.000524	20.707851
399.102934	-3.010300	3.805600	-11.455000	23.489487	0.000526	20.707949
400.097438	-3.008200	3.805300	-11.446000	23.528329	0.000523	20.699943
401.099303	-2.985200	3.806600	-11.362000	23.519588	0.000526	20.713941
402.098443	-3.004400	3.805700	-11.433000	23.544283	0.000526	20.708349
403.098023	-3.006000	3.804500	-11.434000	23.523574	0.000526	20.710825
404.099174	-3.006500	3.804100	-11.436000	23.544431	0.000527	20.715610
405.101369	-3.009000	3.804100	-11.445000	23.543066	0.000526	20.708078
406.099853	-2.995800	3.804600	-11.397000	23.562681	0.000526	20.708774
407.099746	-3.015400	3.801700	-11.463000	23.588523	0.000529	20.711447
408.102635	-2.986000	3.803900	-11.357000	23.607393	0.000525	20.701914
409.100290	-2.983000	3.801500	-11.339000	23.613069	0.000526	20.719459
410.099864	-2.994100	3.802600	-11.384000	23.603284	0.000527	20.709175
411.103080	-3.006000	3.802800	-11.430000	23.600126	0.000530	20.712173
412.098933	-2.983500	3.801600	-11.341000	23.606097	0.000528	20.711047
413.102970	-3.001900	3.801700	-11.411000	23.613990	0.000526	20.713270
414.108521	-2.999300	3.802000	-11.402000	23.648345	0.000528	20.712149
415.099386	-2.979700	3.803400	-11.332000	23.631994	0.000526	20.711877
416.101178	-2.990000	3.800500	-11.363000	23.651134	0.000529	20.725851
417.105331	-3.027300	3.800900	-11.505000	23.662859	0.000528	20.703939
418.101398	-2.998700	3.800400	-11.395000	23.700266	0.000528	20.717260
419.102870	-3.010900	3.798800	-11.437000	23.692926	0.000527	20.701366
420.104142	-3.004800	3.799700	-11.416000	23.667687	0.000528	20.708306
421.102238	-3.011300	3.798700	-11.437000	23.649020	0.000528	20.705239
422.101936	-3.004900	3.800300	-11.419000	23.669904	0.000528	20.724754
423.103629	-3.008600	3.798800	-11.428000	23.644887	0.000528	20.708207
424.104328	-3.002500	3.798400	-11.404000	23.675801	0.000530	20.717389
425.106460	-2.996200	3.798000	-11.379000	23.655470	0.000528	20.718818
426.109653	-3.007900	3.799400	-11.426000	23.695597	0.000531	20.714002
427.105070	-3.007700	3.798100	-11.422000	23.693907	0.000529	20.728904
428.106488	-2.990100	3.797200	-11.354000	23.691420	0.000530	20.718349
429.105476	-3.018000	3.797100	-11.458000	23.686739	0.000528	20.727408
430.105669	-2.996800	3.797300	-11.379000	23.719022	0.000530	20.728954
431.109613	-3.032100	3.795800	-11.508000	23.713795	0.000528	20.698581
432.106853	-3.005800	3.797300	-11.413000	23.753920	0.000532	20.723639
433.106580	-2.999800	3.796700	-11.389000	23.766689	0.000531	20.728381
434.105451	-3.002000	3.797000	-11.398000	23.772014	0.000530	20.717598
435.106726	-3.006700	3.797100	-11.416000	23.805792	0.000533	20.714481
436.111631	-3.015800	3.795800	-11.446000	23.766448	0.000530	20.740468
437.109148	-3.010100	3.795100	-11.423000	23.798004	0.000530	20.716630
438.110048	-2.984500	3.794800	-11.325000	23.781374	0.000533	20.726035
439.110736	-2.969800	3.795400	-11.270000	23.800768	0.000531	20.726040
440.107670	-3.015200	3.795100	-11.443000	23.809305	0.000531	20.738393
441.110075	-2.982400	3.794900	-11.318000	23.830787	0.000531	20.713465
442.113601	-3.023000	3.793800	-11.468000	23.806867	0.000532	20.728836
443.110736	-3.008900	3.793300	-11.413000	23.794596	0.000531	20.733602
444.110936	-3.007700	3.792900	-11.407000	23.783369	0.000533	20.739416
445.110502	-3.016600	3.792000	-11.438000	23.801916	0.000533	20.719605
446.112458	-3.003400	3.793200	-11.392000	23.803390	0.000533	20.722979
447.120051	-2.981900	3.792900	-11.309000	23.812049	0.000535	20.729765
448.114407	-3.017500	3.792000	-11.441000	23.814715	0.000532	20.729593
449.111976	-2.971100	3.793200	-11.269000	23.860682	0.000535	20.731588
450.111242	-3.011700	3.791600	-11.418000	23.867929	0.000532	20.738380
451.112425	-3.009000	3.792500	-11.410000	23.854215	0.000533	20.734113
452.111785	-2.995200	3.792800	-11.360000	23.857881	0.000533	20.758178
453.110280	-3.003700	3.791900	-11.389000	23.856954	0.000534	20.749662
454.111025	-3.008200	3.791600	-11.404000	23.853724	0.000534	20.735042
455.112713	-3.019500	3.790800	-11.446000	23.886499	0.000534	20.759373
456.110281	-2.998100	3.791700	-11.367000	23.852827	0.000533	20.749316
457.112934	-3.022600	3.789800	-11.453000	23.839015	0.000535	20.753960
458.110102	-3.015600	3.790000	-11.428000	23.838794	0.000534	20.748048
459.111862	-2.993200	3.790500	-11.345000	23.823262	0.000536	20.756657
460.112893	-2.991000	3.790400	-11.336000	23.802707	0.000533	20.748848
461.112951	-3.018600	3.788800	-11.436000	23.814830	0.000534	20.756736
462.116469	-2.998800	3.788800	-11.361000	23.851365	0.000533	20.767765
463.111827	-3.006700	3.787900	-11.389000	23.860951	0.000536	20.756040
464.112258	-2.993500	3.788400	-11.340000	23.868142	0.000537	20.739543
465.115333	-3.007600	3.787900	-11.391000	23.867792	0.000536	20.752469
466.112357	-2.989800	3.787200	-11.323000	23.865483	0.000533	20.743989
467.112166	-3.012100	3.787500	-11.408000	23.859010	0.000536	20.761207
468.112434	-3.007600	3.787600	-11.391000	23.862744	0.000534	20.771115
469.110956	-2.981300	3.786600	-11.288000	23.865280	0.000534	20.742363
470.114393	-2.989800	3.787400	-11.322000	23.870758	0.000535	20.757814
471.115696	-3.007400	3.787000	-11.388000	23.883053	0.000535	20.771090
472.112019	-3.008800	3.785600	-11.389000	23.921304	0.000536	20.750652
473.110657	-2.994500	3.786400	-11.337000	23.944946	0.000534	20.762980
474.114013	-2.986100	3.785800	-11.304000	23.943435	0.000534	20.771422
475.119861	-3.024500	3.785300	-11.447000	23.957289	0.000535	20.759710
476.110529	-2.995800	3.785900	-11.341000	23.915084	0.000537	20.771915
477.113225	-2.996400	3.784900	-11.340000	23.905479	0.000536	20.753749
478.114784	-3.008500	3.783800	-11.383000	23.903391	0.000537	20.760664
479.114647	-3.002900	3.785500	-11.367000	23.898884	0.000538	20.759464
480.113582	-2.995700	3.784300	-11.334000	23.911129	0.000536	20.750879
481.115400	-3.000300	3.783600	-11.351000	23.942066	0.000538	20.762462
482.114214	-2.994300	3.784100	-11.330000	23.950528	0.000536	20.752455
483.112987	-2.998400	3.783900	-11.344000	23.968913	0.000537	20.763780
484.114547	-2.996100	3.782600	-11.333000	23.975508	0.000536	20.757117
485.113839	-3.003600	3.782600	-11.360000	23.969380	0.000537	20.779422
486.117203	-3.022600	3.781400	-11.429000	23.979192	0.000536	20.782624
487.121137	-2.989400	3.782800	-11.307000	23.976104	0.000535	20.786639
488.116241	-2.989000	3.782000	-11.303000	23.993218	0.000538	20.745954
489.116758	-3.019700	3.780700	-11.416000	23.993175	0.000536	20.762032
490.116899	-2.993800	3.782100	-11.322000	24.012185	0.000536	20.771140
491.117294	-3.004100	3.781400	-11.359000	24.033978	0.000536	20.785882
492.118686	-2.995500	3.781300	-11.326000	24.041646	0.000537	20.781245
493.119877	-3.008600	3.780700	-11.374000	24.047118	0.000537	20.787206
494.119651	-3.002200	3.780500	-11.349000	24.045828	0.000537	20.769791
495.117239	-3.030700	3.779700	-11.455000	24.080759	0.000536	20.784909
496.118641	-3.009600	3.780600	-11.377000	24.032209	0.000537	20.764668
497.118798	-3.010400	3.779800	-11.378000	24.068491	0.000537	20.769287
498.120121	-3.016600	3.778700	-11.398000	24.089269	0.000537	20.776848
499.124441	-3.007100	3.777800	-11.359000	24.068964	0.000539	20.801529
500.122408	-2.969100	3.781000	-11.226000	24.087157	0.000536	20.777101
501.126360	-2.993900	3.778800	-11.312000	24.112158	0.000536	20.760924
502.121758	-2.963100	3.780400	-11.201000	24.101536	0.000536	20.770660
503.123825	-2.999400	3.779400	-11.335000	24.118526	0.000536	20.776319
504.122465	-2.991400	3.778800	-11.303000	24.111164	0.000535	20.776996
505.123971	-3.001600	3.777600	-11.338000	24.105190	0.000536	20.795187
506.123991	-3.023100	3.776300	-11.414000	24.083995	0.000537	20.793370
507.122506	-3.013800	3.776800	-11.382000	24.069959	0.000535	20.796837
508.123574	-3.011200	3.776200	-11.370000	24.052993	0.000537	20.782193
509.124209	-3.002700	3.776500	-11.339000	24.085990	0.000536	20.804854
510.123209	-3.016300	3.775700	-11.387000	24.094002	0.000536	20.793450
511.124794	-3.006500	3.776000	-11.353000	24.107639	0.000538	20.796695
512.127782	-2.989300	3.776900	-11.290000	24.111623	0.000536	20.798320
513.125628	-3.018700	3.774400	-11.393000	24.149045	0.000540	20.811196
514.127592	-2.998000	3.775200	-11.318000	24.162907	0.000538	20.786694
515.127968	-2.999100	3.774700	-11.320000	24.182492	0.000538	20.782155
516.130163	-2.997300	3.773100	-11.308000	24.165050	0.000539	20.796903
517.128439	-3.014300	3.774400	-11.375000	24.145274	0.000537	20.790345
518.129247	-3.001100	3.774900	-11.328000	24.146446	0.000536	20.799107
519.128124	-2.986800	3.774600	-11.272000	24.170078	0.000536	20.806214
520.129181	-2.987800	3.772700	-11.271000	24.179464	0.000535	20.788602
521.129650	-3.000100	3.772800	-11.318000	24.167296	0.000537	20.775923
522.128502	-3.004400	3.773300	-11.336000	24.132988	0.000538	20.806472
523.129978	-3.007600	3.772500	-11.345000	24.161236	0.000536	20.825794
524.130795	-3.019500	3.772900	-11.391000	24.182982	0.000537	20.799716
525.128787	-2.995700	3.771500	-11.297000	24.198508	0.000539	20.796797
526.132289	-2.987200	3.774000	-11.273000	24.187567	0.000536	20.809531
527.128605	-2.990500	3.771300	-11.278000	24.201817	0.000537	20.812918
528.128429	-3.000600	3.770400	-11.312000	24.189256	0.000538	20.803164
529.127491	-2.998800	3.770700	-11.307000	24.193934	0.000538	20.787468
530.129305	-2.973100	3.772000	-11.214000	24.219368	0.000537	20.808237
531.128543	-3.004300	3.770900	-11.329000	24.219767	0.000538	20.800103
532.129280	-3.002300	3.771000	-11.320000	24.241807	0.000540	20.809882
533.131690	-2.978300	3.770500	-11.229000	24.238602	0.000537	20.802874
534.130233	-2.987100	3.769600	-11.260000	24.249603	0.000538	20.819598
535.131058	-3.005800	3.768300	-11.326000	24.242635	0.000540	20.808816
536.131830	-2.987000	3.769700	-11.259000	24.227213	0.000538	20.808520
537.129507	-3.008000	3.768200	-11.334000	24.230074	0.000537	20.820872
538.130543	-3.009700	3.768000	-11.339000	24.222492	0.000536	20.822276
539.130751	-2.999100	3.768000	-11.299000	24.266478	0.000538	20.816137
540.130601	-2.994700	3.768700	-11.285000	24.273353	0.000539	20.824929
541.132494	-2.992900	3.768400	-11.277000	24.285539	0.000540	20.821980
542.131596	-2.988900	3.767000	-11.259000	24.276342	0.000537	20.844523
543.132487	-2.992900	3.767400	-11.275000	24.279768	0.000537	20.799122
544.133318	-3.001900	3.767700	-11.309000	24.265618	0.000537	20.814325
545.133682	-2.986800	3.766700	-11.250000	24.247477	0.000538	20.819363
546.134781	-3.011300	3.766300	-11.341000	24.240368	0.000538	20.829775
547.134670	-2.977600	3.767400	-11.216000	24.262585	0.000538	20.835465
548.135806	-2.995200	3.766000	-11.279000	24.235720	0.000536	20.810415
549.137286	-3.015800	3.764700	-11.353000	24.242510	0.000537	20.812484
550.136606	-3.005800	3.764700	-11.315000	24.222110	0.000540	20.829005
551.136255	-3.001600	3.765900	-11.303000	24.224952	0.000538	20.817631
552.137997	-2.981300	3.765400	-11.224000	24.207284	0.000537	20.820298
553.137658	-3.014500	3.763800	-11.345000	24.245174	0.000537	20.841708
554.137513	-3.003600	3.765300	-11.309000	24.257722	0.000537	20.813043
555.139404	-2.990300	3.764500	-11.256000	24.266077	0.000537	20.813838
556.136397	-2.995000	3.764200	-11.273000	24.244063	0.000537	20.823998
557.139449	-2.987000	3.763900	-11.242000	24.238765	0.000539	20.803037
558.139034	-2.999600	3.763800	-11.289000	24.271854	0.000537	20.801615
559.140064	-2.998900	3.763400	-11.285000	24.272848	0.000537	20.780801
560.138519	-2.999000	3.763100	-11.284000	24.278324	0.000539	20.786294
561.139586	-3.003500	3.761800	-11.297000	24.310718	0.000538	20.822581
562.139949	-3.012300	3.762300	-11.333000	24.292032	0.000539	20.816165
563.140362	-2.990400	3.762800	-11.251000	24.300294	0.000538	20.789840
564.140986	-2.990800	3.762700	-11.253000	24.299417	0.000537	20.797021
565.139386	-2.997800	3.761500	-11.275000	24.317833	0.000538	20.805063
566.139393	-2.988100	3.761600	-11.239000	24.321884	0.000538	20.810549
567.139512	-3.004300	3.761100	-11.299000	24.352657	0.000538	20.799219
568.140942	-3.005200	3.760100	-11.299000	24.345873	0.000536	20.802846
569.140392	-2.985300	3.761600	-11.229000	24.367959	0.000536	20.807458
570.141829	-2.990900	3.760200	-11.245000	24.371446	0.000537	20.811904
571.142849	-2.985400	3.760900	-11.227000	24.366443	0.000536	20.812101
572.143040	-3.007500	3.759500	-11.306000	24.360599	0.000535	20.790117
573.144806	-2.999300	3.760700	-11.279000	24.379254	0.000538	20.794607
574.144209	-3.007400	3.759200	-11.304000	24.377240	0.000538	20.800173
575.144222	-3.003200	3.759500	-11.289000	24.351072	0.000537	20.805216
576.143981	-3.003800	3.758300	-11.288000	24.357389	0.000536	20.775043
577.144783	-2.995700	3.758300	-11.258000	24.332497	0.000538	20.790375
578.144819	-3.000500	3.757700	-11.274000	24.344835	0.000536	20.785683
579.146878	-2.996900	3.758200	-11.262000	24.336401	0.000536	20.795240
580.149378	-2.987800	3.759100	-11.230000	24.323319	0.000538	20.787333
581.146612	-3.004300	3.758600	-11.291000	24.337819	0.000538	20.800456
582.147766	-2.995800	3.757300	-11.254000	24.343245	0.000536	20.801158
583.149150	-3.015100	3.756300	-11.325000	24.346707	0.000539	20.781871
584.148250	-2.987500	3.757300	-11.224000	24.341355	0.000537	20.791675
585.150174	-2.992100	3.757300	-11.242000	24.352182	0.000537	20.785467
586.151080	-2.983800	3.757500	-11.211000	24.343251	0.000539	20.774136
587.149521	-2.994800	3.755900	-11.247000	24.308249	0.000537	20.773163
588.149438	-2.988100	3.756100	-11.223000	24.344423	0.000538	20.790960
589.151701	-3.007300	3.754700	-11.291000	24.369198	0.000539	20.793053
590.150117	-2.977400	3.755900	-11.181000	24.344374	0.000537	20.779531
591.150279	-2.986900	3.754900	-11.214000	24.352931	0.000537	20.773890
592.152262	-2.989800	3.754500	-11.224000	24.363305	0.000537	20.802315
593.151836	-2.995100	3.755700	-11.247000	24.335399	0.000535	20.795183
594.151546	-3.000500	3.754400	-11.264000	24.373034	0.000535	20.773668
595.154992	-3.008600	3.753600	-11.292000	24.399778	0.000536	20.772997
596.152801	-2.989400	3.754000	-11.221000	24.415381	0.000536	20.772528
597.153016	-2.998000	3.752900	-11.250000	24.407567	0.000537	20.777492
598.152828	-2.995600	3.753500	-11.243000	24.433114	0.000537	20.781784
599.154096	-3.004500	3.752500	-11.273000	24.427270	0.000536	20.780189
600.173570	-2.984100	3.752400	-11.197000	24.443910	0.000537	20.774597
601.154925	-2.994600	3.751700	-11.233000	24.471666	0.000535	20.777313
602.155641	-2.982800	3.753600	-11.195000	24.474305	0.000533	20.782332
603.155262	-2.986100	3.751600	-11.202000	24.466872	0.000536	20.776771
604.158096	-3.020200	3.750500	-11.326000	24.437392	0.000535	20.767109
605.153738	-2.975900	3.751600	-11.164000	24.445752	0.000534	20.762694
606.154794	-2.999100	3.750900	-11.248000	24.413460	0.000533	20.771549
607.155567	-2.976200	3.751300	-11.164000	24.421052	0.000535	20.770157
608.156270	-3.006600	3.750500	-11.276000	24.402792	0.000535	20.760372
609.155626	-2.977100	3.751700	-11.168000	24.441424	0.000534	20.776845
610.156537	-2.991500	3.751100	-11.221000	24.414209	0.000535	20.767085
611.156646	-3.001800	3.749700	-11.254000	24.442738	0.000534	20.768680
612.156348	-2.989600	3.750200	-11.211000	24.469333	0.000535	20.768335
613.156399	-2.989400	3.748600	-11.205000	24.450945	0.000535	20.763637
614.156363	-2.996700	3.749000	-11.233000	24.452295	0.000535	20.768310
615.161738	-2.986100	3.749600	-11.196000	24.459034	0.000533	20.759424
616.156538	-2.985400	3.749800	-11.194000	24.454480	0.000533	20.765761
617.157264	-3.011000	3.747700	-11.283000	24.424459	0.000534	20.760298
618.159001	-3.007300	3.747300	-11.267000	24.428492	0.000533	20.751067
619.157941	-2.995000	3.747300	-11.222000	24.452964	0.000536	20.777042
620.157773	-2.990400	3.748100	-11.208000	24.485077	0.000534	20.749042
621.156482	-2.996600	3.748200	-11.230000	24.448489	0.000534	20.747422
622.155580	-3.031400	3.746900	-11.358000	24.439215	0.000533	20.767041
623.157834	-3.010900	3.747200	-11.281000	24.468142	0.000534	20.771881
624.156662	-3.002500	3.746700	-11.248000	24.483769	0.000532	20.770489
625.157567	-2.998500	3.746200	-11.232000	24.538185	0.000534	20.763919
626.157837	-2.997800	3.746500	-11.229000	24.546598	0.000535	20.752446
627.156214	-3.006900	3.746400	-11.263000	24.543941	0.000531	20.775385
628.158422	-3.001000	3.746300	-11.241000	24.541375	0.000533	20.760483
629.161122	-3.008200	3.744500	-11.263000	24.560205	0.000533	20.758986
630.158856	-3.004700	3.746000	-11.255000	24.607442	0.000533	20.742371
631.158403	-3.040600	3.743200	-11.380000	24.611222	0.000535	20.737629
632.161665	-2.999200	3.743800	-11.228000	24.605183	0.000535	20.763813
633.157799	-3.020300	3.743700	-11.306000	24.602544	0.000534	20.777287
634.157673	-3.010600	3.743000	-11.268000	24.581328	0.000534	20.766431
635.161469	-2.981000	3.743400	-11.157000	24.558700	0.000533	20.747045
636.161017	-2.983000	3.744900	-11.170000	24.537986	0.000530	20.752815
637.161041	-3.004100	3.742700	-11.242000	24.507839	0.000534	20.750542
638.161078	-3.001700	3.742400	-11.232000	24.485037	0.000530	20.754692
639.160058	-2.982300	3.742900	-11.162000	24.515578	0.000531	20.730805
640.162169	-2.982600	3.742400	-11.161000	24.507078	0.000531	20.745036
641.163246	-3.012300	3.741600	-11.270000	24.481508	0.000532	20.747832
642.160009	-2.993900	3.742300	-11.203000	24.473922	0.000532	20.752075
643.161507	-3.011800	3.741100	-11.266000	24.477487	0.000532	20.728624
644.164241	-3.006400	3.741700	-11.248000	24.509771	0.000532	20.753904
645.162555	-3.011900	3.740600	-11.266000	24.496465	0.000531	20.756675
646.166223	-3.012600	3.740700	-11.268000	24.509053	0.000532	20.754605
647.169026	-3.000300	3.739200	-11.218000	24.474400	0.000533	20.734536
648.164299	-3.018700	3.740600	-11.291000	24.506518	0.000531	20.735940
649.162763	-2.986400	3.741100	-11.172000	24.549026	0.000531	20.739235
650.168220	-2.994100	3.739000	-11.194000	24.526397	0.000531	20.747825
651.164173	-3.021900	3.739200	-11.298000	24.510182	0.000529	20.746254
652.163647	-2.987800	3.738600	-11.169000	24.503732	0.000530	20.745473
653.165581	-2.991500	3.738800	-11.184000	24.492475	0.000532	20.737972
654.164368	-2.988000	3.738500	-11.169000	24.515902	0.000530	20.736346
655.162866	-3.009800	3.738500	-11.251000	24.531307	0.000528	20.745638
656.172128	-2.973400	3.739900	-11.120000	24.533492	0.000530	20.757788
657.164831	-2.991000	3.738500	-11.181000	24.584210	0.000529	20.729491
658.164185	-2.980000	3.737900	-11.138000	24.576176	0.000529	20.738027
659.175810	-2.992300	3.738100	-11.185000	24.593188	0.000530	20.742294
660.164432	-3.009000	3.737200	-11.245000	24.627562	0.000525	20.739800
661.164874	-2.994300	3.736800	-11.188000	24.639522	0.000527	20.743741
662.165510	-2.998000	3.736100	-11.200000	24.597920	0.000527	20.734239
663.161853	-2.993300	3.736200	-11.183000	24.647641	0.000527	20.730076
664.162834	-2.970300	3.736500	-11.097000	24.621848	0.000530	20.745447
665.168444	-3.026900	3.734900	-11.304000	24.607445	0.000528	20.740477
666.164019	-3.003900	3.734700	-11.218000	24.595778	0.000529	20.733987
667.165630	-2.999600	3.735400	-11.204000	24.603394	0.000527	20.734516
668.168395	-2.991700	3.735500	-11.174000	24.601780	0.000527	20.721516
669.165441	-3.005500	3.734800	-11.224000	24.631354	0.000526	20.722267
670.165267	-3.012200	3.734300	-11.247000	24.649807	0.000527	20.748372
671.167348	-3.013400	3.735000	-11.254000	24.648610	0.000526	20.718246
672.165424	-3.003000	3.734800	-11.214000	24.687713	0.000526	20.729509
673.165386	-3.014300	3.734800	-11.257000	24.667842	0.000527	20.735174
674.168780	-2.980500	3.734900	-11.131000	24.636760	0.000529	20.733856
675.169843	-3.003400	3.732800	-11.210000	24.639398	0.000528	20.727021
676.166207	-2.990800	3.734300	-11.167000	24.633286	0.000528	20.714722
677.171078	-3.023200	3.733100	-11.284000	24.646885	0.000524	20.735008
678.168132	-3.008700	3.732200	-11.228000	24.685239	0.000527	20.736984
679.167462	-2.991600	3.734100	-11.170000	24.687258	0.000527	20.724310
680.168875	-3.024500	3.732900	-11.288000	24.658704	0.000526	20.725530
681.167454	-3.001800	3.733300	-11.206000	24.689473	0.000525	20.714679
682.166662	-3.007600	3.733200	-11.228000	24.701439	0.000523	20.723842
683.169525	-2.998100	3.730900	-11.185000	24.666208	0.000526	20.728319
684.168397	-3.006100	3.731800	-11.217000	24.669614	0.000526	20.732685
685.172603	-3.020800	3.729800	-11.266000	24.644546	0.000526	20.729815
686.179400	-2.992300	3.731600	-11.165000	24.654272	0.000523	20.716341
687.169045	-2.998400	3.731600	-11.188000	24.640299	0.000524	20.735037
688.172543	-3.006800	3.730600	-11.217000	24.627693	0.000524	20.715275
689.172048	-2.991300	3.729100	-11.155000	24.646104	0.000523	20.716204
690.171462	-2.977700	3.730200	-11.107000	24.645380	0.000524	20.741084
691.172600	-3.001700	3.730900	-11.197000	24.665797	0.000526	20.710360
692.171975	-3.005400	3.728100	-11.204000	24.632075	0.000523	20.736268
693.170408	-3.026900	3.728700	-11.284000	24.658193	0.000524	20.710317
694.176288	-2.998200	3.729500	-11.181000	24.713139	0.000522	20.723729
695.174670	-2.997500	3.727800	-11.173000	24.682696	0.000524	20.716888
696.171922	-2.986000	3.728400	-11.132000	24.699117	0.000523	20.704441
697.173808	-2.992700	3.729000	-11.159000	24.695834	0.000521	20.722959
698.177979	-3.005900	3.728500	-11.206000	24.690863	0.000524	20.705642
699.172977	-2.993900	3.728100	-11.161000	24.685420	0.000520	20.707767
700.175149	-2.998500	3.728100	-11.178000	24.712206	0.000525	20.719473
701.177705	-2.997900	3.727800	-11.175000	24.732032	0.000522	20.707600
702.172958	-2.987500	3.727000	-11.133000	24.705376	0.000525	20.696496
703.176518	-3.013600	3.727000	-11.230000	24.689562	0.000522	20.710500
704.178665	-3.005300	3.726600	-11.199000	24.670716	0.000521	20.696804
705.176353	-3.006000	3.726100	-11.199000	24.674723	0.000522	20.719318
706.179389	-2.996700	3.725400	-11.163000	24.702497	0.000520	20.700721
707.179800	-2.979900	3.726300	-11.103000	24.669004	0.000522	20.691292
708.179719	-2.992900	3.726600	-11.152000	24.667316	0.000521	20.712359
709.180790	-3.008000	3.726100	-11.207000	24.697391	0.000522	20.697493
710.181948	-3.000200	3.725100	-11.175000	24.683639	0.000519	20.707876
711.177584	-3.002700	3.724400	-11.183000	24.681380	0.000521	20.697548
712.181933	-3.002500	3.725000	-11.183000	24.688425	0.000519	20.712679
713.181958	-3.007400	3.723700	-11.198000	24.742806	0.000522	20.689961
714.181830	-3.026700	3.723000	-11.267000	24.702152	0.000521	20.700849
715.182798	-3.002700	3.724000	-11.182000	24.734141	0.000519	20.712087
716.181750	-2.972600	3.723600	-11.068000	24.732748	0.000518	20.678918
717.180675	-2.998300	3.724300	-11.166000	24.664909	0.000520	20.706151
718.183462	-2.987000	3.724300	-11.124000	24.701618	0.000518	20.691777
719.184720	-3.009900	3.723100	-11.205000	24.669916	0.000521	20.688888
720.181640	-2.993600	3.723000	-11.145000	24.674144	0.000519	20.708306
721.187321	-2.978700	3.723400	-11.090000	24.668130	0.000518	20.692786
722.183989	-2.973200	3.722800	-11.068000	24.685791	0.000520	20.702923
723.183880	-3.012900	3.720900	-11.210000	24.704673	0.000518	20.679669
724.184693	-2.998200	3.720900	-11.155000	24.724365	0.000519	20.688999
725.186794	-2.998000	3.720900	-11.155000	24.764704	0.000518	20.687280
726.187928	-2.988400	3.722000	-11.121000	24.744019	0.000515	20.681695
727.187078	-3.001500	3.721900	-11.169000	24.726788	0.000517	20.697121
728.184951	-3.002600	3.720900	-11.171000	24.741037	0.000517	20.670640
729.185092	-2.990000	3.720200	-11.123000	24.762004	0.000517	20.714445
730.186766	-2.983200	3.720800	-11.099000	24.764968	0.000517	20.694183
731.185413	-3.012100	3.718000	-11.198000	24.814154	0.000516	20.674791
732.185280	-3.009600	3.720500	-11.196000	24.791402	0.000516	20.682304
733.189000	-3.022400	3.718700	-11.238000	24.784615	0.000517	20.675018
734.185565	-2.989500	3.720800	-11.123000	24.789769	0.000515	20.675923
735.186551	-3.008700	3.720000	-11.192000	24.755996	0.000516	20.682809
736.188576	-2.978800	3.719000	-11.077000	24.723419	0.000516	20.681411
737.187355	-2.999000	3.718700	-11.150000	24.720388	0.000516	20.674101
738.188334	-2.992400	3.718900	-11.127000	24.742724	0.000514	20.702682
739.188856	-2.994900	3.719100	-11.137000	24.701266	0.000515	20.680518
740.191342	-2.980200	3.719100	-11.083000	24.715288	0.000514	20.690322
741.190207	-2.992300	3.717100	-11.121000	24.746730	0.000515	20.668767
742.191748	-2.971500	3.718700	-11.049000	24.793408	0.000514	20.666772
743.192340	-2.981700	3.718700	-11.087000	24.768765	0.000515	20.683769
744.194994	-3.000200	3.717900	-11.154000	24.734495	0.000515	20.691578
745.193635	-2.995200	3.716700	-11.131000	24.666828	0.000511	20.672986
746.194062	-3.002700	3.717600	-11.161000	24.657427	0.000513	20.674457
747.197375	-2.993800	3.716300	-11.124000	24.718908	0.000514	20.665029
748.194841	-3.018000	3.716700	-11.217000	24.737464	0.000512	20.682703
749.193853	-2.984200	3.716600	-11.090000	24.773122	0.000513	20.678657
750.198895	-2.998000	3.717000	-11.142000	24.747362	0.000515	20.673669
751.194754	-3.011300	3.715200	-11.186000	24.731052	0.000511	20.683855
752.194125	-3.000100	3.715200	-11.145000	24.722621	0.000512	20.675393
753.198712	-3.003500	3.714900	-11.157000	24.728763	0.000513	20.668280
754.194417	-2.994400	3.714900	-11.123000	24.690791	0.000513	20.658623
755.193772	-2.980300	3.714700	-11.070000	24.715705	0.000511	20.674617
756.198147	-2.982100	3.713800	-11.074000	24.739422	0.000512	20.669968
757.196909	-2.996000	3.713900	-11.126000	24.735077	0.000514	20.649958
758.195102	-2.989100	3.714700	-11.102000	24.769397	0.000511	20.673971
759.199739	-2.981200	3.715300	-11.075000	24.758505	0.000512	20.664936
760.196437	-2.989300	3.714200	-11.102000	24.774373	0.000509	20.679439
761.195538	-2.991500	3.714000	-11.110000	24.784068	0.000514	20.678737
762.200404	-2.995800	3.712900	-11.122000	24.778601	0.000510	20.678940
763.197958	-3.012200	3.712700	-11.183000	24.757389	0.000509	20.674248
764.198126	-2.983400	3.712000	-11.074000	24.775637	0.000511	20.688295
765.200910	-2.987700	3.712700	-11.092000	24.751167	0.000509	20.650932
766.198341	-2.987800	3.713500	-11.094000	24.746178	0.000510	20.681016
767.204290	-2.992200	3.710900	-11.103000	24.784817	0.000511	20.671427
768.200973	-3.001300	3.711500	-11.138000	24.784393	0.000509	20.690919
769.196312	-3.002100	3.710800	-11.139000	24.769820	0.000509	20.681509
770.200280	-3.000600	3.710400	-11.132000	24.746852	0.000509	20.675528
771.201789	-2.995800	3.710900	-11.117000	24.726628	0.000507	20.673724
772.200958	-2.974300	3.711700	-11.038000	24.723130	0.000507	20.680646
773.205328	-3.006900	3.709000	-11.151000	24.735409	0.000506	20.669733
774.203436	-3.005400	3.710700	-11.151000	24.769753	0.000508	20.664369
775.202928	-3.015200	3.709300	-11.183000	24.786664	0.000506	20.671384
776.206176	-3.004900	3.708800	-11.144000	24.826719	0.000507	20.668908
777.208854	-3.000800	3.710700	-11.134000	24.807679	0.000508	20.680147
778.205421	-2.994500	3.710100	-11.109000	24.790100	0.000508	20.674358
779.205236	-3.001200	3.709300	-11.132000	24.827099	0.000506	20.661228
780.205817	-2.995900	3.708800	-11.110000	24.833817	0.000507	20.662755
781.202337	-3.014400	3.707500	-11.175000	24.858630	0.000506	20.661579
782.203918	-2.993500	3.708800	-11.102000	24.835535	0.000505	20.682974
783.207431	-3.019700	3.708000	-11.196000	24.827780	0.000506	20.666179
784.204621	-3.007800	3.707100	-11.149000	24.838597	0.000504	20.684150
785.204355	-2.998900	3.707300	-11.117000	24.839793	0.000506	20.658321
786.207086	-2.996800	3.708400	-11.113000	24.881067	0.000505	20.654700
787.203927	-3.009300	3.705500	-11.149000	24.876024	0.000504	20.658647
788.206240	-2.998400	3.707600	-11.116000	24.854868	0.000504	20.671081
789.209656	-3.017200	3.705800	-11.179000	24.893651	0.000504	20.670650
790.206069	-2.997700	3.706000	-11.108000	24.853433	0.000501	20.671537
791.206501	-2.980000	3.706000	-11.043000	24.856813	0.000503	20.666869
792.209955	-3.010700	3.705000	-11.154000	24.848064	0.000505	20.682745
793.205578	-2.997800	3.705300	-11.107000	24.879570	0.000502	20.679278
794.207740	-3.023700	3.705700	-11.203000	24.885043	0.000502	20.664381
795.212746	-3.005900	3.704400	-11.134000	24.888681	0.000503	20.655703
796.208376	-3.014500	3.704000	-11.165000	24.898326	0.000503	20.679887
797.209469	-2.999900	3.706000	-11.117000	24.898012	0.000505	20.671709
798.211159	-3.015500	3.704700	-11.170000	24.888785	0.000502	20.669560
799.208688	-3.021700	3.704200	-11.192000	24.856242	0.000502	20.669215
800.211329	-3.011200	3.703400	-11.151000	24.877900	0.000501	20.657212
801.212091	-3.009500	3.704800	-11.149000	24.893724	0.000500	20.682578
802.209353	-3.005700	3.703100	-11.128000	24.863163	0.000501	20.672294
803.209776	-3.017500	3.702800	-11.173000	24.850984	0.000499	20.677614
804.212397	-3.002100	3.702500	-11.114000	24.824305	0.000500	20.664115
805.210137	-2.985100	3.703800	-11.055000	24.807346	0.000501	20.660771
806.216685	-2.981800	3.702800	-11.040000	24.821029	0.000500	20.683588
807.214506	-2.991000	3.702200	-11.072000	24.823323	0.000502	20.682097
808.212033	-3.005400	3.701900	-11.125000	24.853186	0.000500	20.671289
809.217843	-2.994700	3.702700	-11.088000	24.828600	0.000500	20.682177
810.216581	-2.971400	3.702100	-10.999000	24.826416	0.000498	20.665759
811.213181	-3.005800	3.701400	-11.125000	24.825299	0.000500	20.690245
812.217927	-3.011900	3.700600	-11.145000	24.855542	0.000501	20.662273
813.217062	-3.018700	3.700100	-11.169000	24.884931	0.000498	20.696040
814.212608	-2.986200	3.700600	-11.050000	24.886532	0.000499	20.661608
815.213761	-2.997200	3.701300	-11.093000	24.881157	0.000498	20.675181
816.222181	-3.036900	3.699900	-11.235000	24.858260	0.000499	20.686814
817.213367	-2.988000	3.700500	-11.056000	24.844436	0.000498	20.693330
818.213931	-3.017400	3.699300	-11.161000	24.793889	0.000497	20.657771
819.218766	-2.994100	3.699300	-11.075000	24.804737	0.000496	20.680040
820.214099	-2.990600	3.698800	-11.061000	24.846068	0.000498	20.676474
821.215694	-2.999100	3.698800	-11.092000	24.876752	0.000497	20.688304
822.221330	-3.007900	3.699300	-11.126000	24.876506	0.000499	20.662451
823.213369	-2.976600	3.699600	-11.011000	24.912515	0.000498	20.673937
824.215143	-3.012200	3.698200	-11.138000	24.897103	0.000498	20.675538
825.222798	-3.023500	3.698200	-11.180000	24.892679	0.000495	20.669201
826.217392	-3.023800	3.698000	-11.181000	24.909515	0.000495	20.660493
827.217419	-2.994700	3.696700	-11.070000	24.881599	0.000496	20.691747
828.221137	-3.002300	3.697300	-11.100000	24.864591	0.000495	20.696489
829.218395	-2.986300	3.697600	-11.041000	24.855345	0.000496	20.666343
830.220894	-2.987700	3.696800	-11.043000	24.875886	0.000494	20.670364
831.222625	-3.025400	3.694900	-11.177000	24.881660	0.000497	20.677582
832.220355	-2.982000	3.696600	-11.021000	24.910214	0.000495	20.665462
833.224183	-3.012600	3.696400	-11.135000	24.887237	0.000495	20.684129
834.227633	-3.002900	3.695400	-11.096000	24.907606	0.000495	20.672329
835.224017	-3.014000	3.695000	-11.136000	24.911165	0.000493	20.679220
836.228395	-3.013900	3.694600	-11.135000	24.903655	0.000494	20.693495
837.227776	-3.006300	3.694100	-11.104000	24.885433	0.000493	20.691328
838.224521	-2.995600	3.694100	-11.065000	24.867364	0.000493	20.698324
839.226211	-2.993600	3.696000	-11.063000	24.882163	0.000493	20.696106
840.227641	-3.002200	3.694200	-11.089000	24.935356	0.000493	20.678844
841.225329	-3.002900	3.695000	-11.095000	24.949178	0.000492	20.685132
842.225882	-2.986500	3.693300	-11.029000	24.955424	0.000492	20.673856
843.228317	-2.984800	3.695600	-11.029000	24.954233	0.000492	20.677877
844.227227	-2.997200	3.694300	-11.072000	24.949540	0.000493	20.698773
845.226623	-3.003000	3.694700	-11.093000	24.942209	0.000493	20.681930
846.229162	-3.008600	3.693100	-11.110000	24.962749	0.000491	20.686425
847.227417	-3.004100	3.693300	-11.094000	24.975755	0.000491	20.678142
848.229421	-2.997200	3.693200	-11.068000	24.972601	0.000491	20.699161
849.230920	-2.982500	3.693200	-11.013000	24.971356	0.000488	20.679417
850.227534	-3.025500	3.691400	-11.168000	24.935386	0.000490	20.692153
851.228117	-3.002500	3.691500	-11.083000	24.957761	0.000489	20.689954
852.233614	-2.977900	3.692100	-10.994000	24.979902	0.000489	20.706015
853.228622	-2.989400	3.692300	-11.037000	24.962246	0.000488	20.670746
854.232081	-3.002000	3.691200	-11.080000	24.883034	0.000486	20.687971
855.235551	-2.991100	3.690900	-11.039000	24.887163	0.000490	20.690219
856.230661	-2.997400	3.691700	-11.065000	24.904968	0.000487	20.710936
857.232642	-3.020200	3.689500	-11.142000	24.871425	0.000488	20.719471
858.233358	-3.027000	3.690100	-11.168000	24.892421	0.000488	20.706403
859.231953	-3.011900	3.690700	-11.115000	24.896280	0.000487	20.700319
860.232788	-3.004300	3.690400	-11.086000	24.919355	0.000487	20.701667
861.233863	-2.989200	3.689300	-11.027000	24.936988	0.000486	20.667679
862.232257	-3.011600	3.689500	-11.110000	24.912520	0.000488	20.694807
863.234301	-3.016500	3.688900	-11.127000	24.933656	0.000485	20.704642
864.235186	-2.984600	3.688100	-11.007000	24.987491	0.000488	20.720746
865.233396	-2.999800	3.688600	-11.064000	24.971313	0.000486	20.697394
866.234391	-3.002700	3.688600	-11.075000	24.959479	0.000485	20.703059
867.237270	-2.973700	3.689300	-10.970000	24.985393	0.000482	20.698250
868.233949	-3.002100	3.687600	-11.069000	24.968362	0.000485	20.686370
869.234469	-2.985500	3.687700	-11.009000	24.977847	0.000483	20.701581
870.236128	-2.964700	3.687700	-10.933000	24.952160	0.000484	20.701877
871.232264	-2.984600	3.688000	-11.007000	24.969393	0.000484	20.694044
872.233191	-2.954800	3.689000	-10.899000	24.939988	0.000486	20.704359
873.235278	-2.981700	3.687700	-10.994000	24.919852	0.000484	20.700270
874.232565	-2.976700	3.687900	-10.976000	24.928460	0.000484	20.706065
875.235844	-3.005700	3.686400	-11.080000	24.945565	0.000484	20.692886
876.241336	-2.992900	3.685900	-11.031000	24.966878	0.000482	20.713806
877.233464	-3.013300	3.686400	-11.107000	24.935957	0.000483	20.707900
878.234807	-3.011400	3.685400	-11.097000	24.892599	0.000482	20.707056
879.236198	-2.995300	3.685300	-11.038000	24.841724	0.000481	20.705782
880.232913	-2.995000	3.685800	-11.038000	24.828925	0.000483	20.686771
881.235255	-3.020100	3.684800	-11.128000	24.866720	0.000482	20.708584
882.239582	-3.005400	3.685800	-11.076000	24.887464	0.000480	20.701428
883.236659	-3.010800	3.683800	-11.090000	24.889777	0.000482	20.720820
884.239315	-3.004500	3.683600	-11.067000	24.917920	0.000481	20.707340
885.238971	-2.992100	3.683700	-11.021000	24.963749	0.000483	20.693595
886.239518	-2.989400	3.683700	-11.011000	24.983295	0.000480	20.711792
887.243063	-2.997600	3.684100	-11.043000	24.937031	0.000480	20.692381
888.245206	-3.004100	3.682900	-11.063000	24.975369	0.000479	20.719958
889.239776	-2.999600	3.682300	-11.044000	24.987154	0.000480	20.718985
890.244634	-2.982100	3.682900	-10.981000	24.976369	0.000482	20.722385
891.245003	-2.978300	3.684100	-10.971000	24.996737	0.000481	20.718647
892.242402	-2.989800	3.681100	-11.004000	25.048728	0.000479	20.723894
893.245427	-3.023800	3.681100	-11.131000	25.082836	0.000480	20.712138
894.246578	-3.009900	3.681200	-11.079000	25.063647	0.000478	20.722748
895.243884	-2.991800	3.682200	-11.015000	25.026264	0.000479	20.709404
896.246140	-2.986900	3.682900	-11.000000	25.004541	0.000476	20.725532
897.245157	-2.992600	3.681200	-11.015000	25.006179	0.000478	20.730970
898.243251	-3.000000	3.680900	-11.042000	25.014590	0.000478	20.709065
899.245903	-3.010300	3.680300	-11.078000	25.015528	0.000478	20.694359
900.245550	-2.993600	3.678900	-11.012000	25.028012	0.000477	20.731549
901.244009	-3.016300	3.679200	-11.096000	24.980781	0.000477	20.719226
902.243726	-2.982200	3.679700	-10.972000	24.973922	0.000477	20.711393
903.247179	-3.028200	3.679900	-11.142000	25.007510	0.000476	20.725194
904.244369	-3.007500	3.679400	-11.065000	25.023602	0.000476	20.735182
905.246143	-3.024400	3.677700	-11.122000	25.086180	0.000475	20.731617
906.248045	-2.987500	3.679500	-10.991000	25.063237	0.000476	20.735614
907.248724	-2.996000	3.679300	-11.021000	25.056029	0.000475	20.708936
908.245491	-2.997900	3.678400	-11.027000	25.058465	0.000474	20.722761
909.247751	-3.018200	3.678900	-11.101000	25.050766	0.000474	20.723568
910.244776	-2.992600	3.677600	-11.005000	25.059023	0.000474	20.729486
911.244550	-2.993000	3.677400	-11.005000	25.068525	0.000473	20.727171
912.251533	-3.037300	3.676800	-11.166000	25.101516	0.000473	20.727097
913.245185	-3.010100	3.677500	-11.068000	25.133469	0.000472	20.728354
914.248405	-3.030500	3.676200	-11.140000	25.136996	0.000474	20.729049
915.245642	-2.991600	3.676900	-10.999000	25.088505	0.000473	20.737745
916.248244	-3.018300	3.675400	-11.093000	25.064667	0.000471	20.731833
917.247241	-3.012800	3.675900	-11.073000	25.054128	0.000473	20.729789
918.248170	-3.022700	3.676000	-11.110000	25.088837	0.000472	20.728594
919.246438	-2.994800	3.676100	-11.008000	25.102657	0.000474	20.740098
920.247520	-3.004700	3.674500	-11.039000	25.078654	0.000470	20.725959
921.249047	-3.014200	3.674900	-11.076000	25.046314	0.000470	20.748498
922.245528	-3.003500	3.675000	-11.037000	25.061748	0.000473	20.738386
923.248988	-2.984400	3.676200	-10.970000	25.070036	0.000471	20.754767
924.254331	-3.013900	3.674300	-11.073000	25.046344	0.000470	20.725768
925.250537	-3.005300	3.673700	-11.039000	25.068797	0.000469	20.749730
926.252298	-2.975800	3.675000	-10.935000	25.101272	0.000468	20.745345
927.253454	-2.984700	3.674100	-10.964000	25.097720	0.000469	20.727554
928.251498	-3.003600	3.673700	-11.033000	25.057773	0.000468	20.750992
929.252381	-3.000700	3.672700	-11.019000	25.048805	0.000470	20.734403
930.253748	-3.004500	3.673400	-11.036000	25.022181	0.000469	20.745611
931.250342	-2.959600	3.673100	-10.870000	25.053381	0.000466	20.734255
932.253585	-3.004300	3.674100	-11.037000	25.036334	0.000467	20.747015
933.254409	-2.991900	3.672700	-10.988000	25.075343	0.000467	20.741128
934.252317	-3.008600	3.672000	-11.047000	25.085115	0.000467	20.746196
935.256423	-3.006100	3.671900	-11.037000	25.094022	0.000467	20.743283
936.256753	-2.989200	3.671100	-10.973000	25.124258	0.000467	20.730961
937.252458	-2.982800	3.671800	-10.951000	25.145071	0.000467	20.741424
938.253963	-2.988800	3.671000	-10.971000	25.140593	0.000465	20.745464
939.254727	-2.983200	3.671500	-10.951000	25.084374	0.000467	20.759203
940.252674	-2.991400	3.671100	-10.981000	25.103267	0.000463	20.741658
941.255847	-3.010400	3.669000	-11.044000	25.101685	0.000464	20.747183
942.254246	-3.005400	3.669700	-11.027000	25.076706	0.000465	20.760989
943.252678	-3.010000	3.669800	-11.045000	25.049758	0.000465	20.747214
944.254215	-2.983800	3.669700	-10.949000	25.018735	0.000462	20.756851
945.261909	-3.000700	3.669800	-11.011000	25.000981	0.000464	20.758945
946.254626	-2.998300	3.669900	-11.002000	25.021601	0.000462	20.738389
947.254787	-3.007900	3.668700	-11.034000	25.016257	0.000464	20.760528
948.256526	-2.999600	3.669700	-11.007000	25.049452	0.000463	20.753071
949.253893	-3.001100	3.668900	-11.010000	25.055875	0.000464	20.743397
950.256598	-2.981300	3.668700	-10.937000	25.086976	0.000462	20.749013
951.257721	-3.006600	3.668700	-11.029000	25.079026	0.000464	20.754783
952.256734	-3.017100	3.666200	-11.060000	25.078137	0.000462	20.758158
953.260294	-3.003800	3.668700	-11.019000	25.092755	0.000461	20.754340
954.261677	-3.025600	3.665500	-11.089000	25.113250	0.000461	20.744568
955.257201	-3.008100	3.666200	-11.028000	25.083548	0.000460	20.764538
956.259646	-2.984100	3.667100	-10.942000	25.088947	0.000460	20.751939
957.260534	-3.027400	3.666800	-11.101000	25.084426	0.000462	20.778222
958.257199	-2.989200	3.666700	-10.959000	25.121243	0.000460	20.756385
959.259604	-2.991900	3.666500	-10.968000	25.151902	0.000462	20.753498
960.260779	-2.981500	3.665800	-10.928000	25.126354	0.000460	20.753455
961.257318	-2.986400	3.666200	-10.947000	25.157594	0.000460	20.773437
962.258905	-3.004700	3.664300	-11.009000	25.173413	0.000460	20.752808
963.257973	-2.987900	3.664500	-10.948000	25.141456	0.000459	20.786161
964.258944	-2.988700	3.665000	-10.952000	25.116773	0.000458	20.747630
965.257569	-3.010500	3.663400	-11.028000	25.145714	0.000457	20.756295
966.259576	-2.977800	3.665400	-10.913000	25.177407	0.000458	20.772940
967.258959	-3.004100	3.663400	-11.004000	25.163815	0.000457	20.745543
968.262828	-2.994400	3.664000	-10.970000	25.123122	0.000461	20.761591
969.259636	-2.995500	3.663000	-10.971000	25.102046	0.000456	20.763192
970.258811	-2.989100	3.664100	-10.951000	25.076975	0.000456	20.767898
971.260318	-2.978400	3.664000	-10.912000	25.092311	0.000458	20.774283
972.260593	-2.981800	3.663800	-10.923000	25.098636	0.000458	20.785848
973.259179	-3.003200	3.661800	-10.996000	25.087919	0.000456	20.784574
974.259368	-2.985100	3.661900	-10.930000	25.079927	0.000455	20.757110
975.257997	-2.999500	3.660800	-10.979000	25.101826	0.000457	20.765817
976.257524	-2.996700	3.660900	-10.969000	25.113414	0.000455	20.774605
977.262168	-2.991900	3.661300	-10.954000	25.123413	0.000455	20.779901
978.260345	-2.996300	3.660000	-10.964000	25.124928	0.000453	20.764826
979.259560	-2.993000	3.661300	-10.958000	25.148200	0.000453	20.772542
980.260294	-3.010100	3.659800	-11.016000	25.138834	0.000455	20.795382
981.265677	-3.000100	3.659600	-10.979000	25.129492	0.000453	20.776521
982.261077	-3.020100	3.660300	-11.054000	25.136258	0.000455	20.772882
983.263892	-2.996500	3.659700	-10.965000	25.144785	0.000452	20.775751
984.259172	-2.981100	3.660300	-10.911000	25.139442	0.000454	20.770388
985.259145	-3.004200	3.657500	-10.987000	25.160874	0.000452	20.790481
986.261536	-2.992100	3.659000	-10.947000	25.112949	0.000451	20.781251
987.263405	-3.002900	3.658200	-10.984000	25.106183	0.000450	20.759285
988.259830	-3.014300	3.657400	-11.024000	25.135645	0.000451	20.773215
989.260851	-3.018400	3.658000	-11.040000	25.184520	0.000451	20.779133
990.263455	-2.993100	3.658300	-10.949000	25.163151	0.000450	20.775223
991.261129	-3.018100	3.657100	-11.036000	25.101872	0.000450	20.778665
992.263414	-3.004300	3.656700	-10.984000	25.097161	0.000451	20.794799
993.265748	-2.978400	3.656400	-10.889000	25.114711	0.000449	20.786813
994.259494	-2.990900	3.656800	-10.936000	25.155907	0.000449	20.814892
995.264354	-3.011100	3.656400	-11.009000	25.172781	0.000451	20.786788
996.264961	-2.981200	3.656400	-10.900000	25.152927	0.000450	20.793408
997.261142	-2.990000	3.655800	-10.929000	25.111166	0.000449	20.784202
998.266653	-2.989400	3.654900	-10.925000	25.138567	0.000449	20.807442
999.266427	-2.986400	3.656100	-10.918000	25.156074	0.000449	20.786137
1000.262290	-2.986600	3.655300	-10.916000	25.191214	0.000449	20.798181
1001.268248	-3.004800	3.653500	-10.978000	25.171961	0.000447	20.809198
1002.266111	-3.005000	3.654300	-10.980000	25.170845	0.000447	20.807129
1003.262383	-3.005600	3.654200	-10.982000	25.172146	0.000446	20.805590
1004.266069	-3.009600	3.653200	-10.994000	25.171257	0.000446	20.790473
1005.265974	-2.983200	3.654700	-10.902000	25.207421	0.000447	20.799752
1006.264255	-3.020900	3.651800	-11.031000	25.206133	0.000446	20.806520
1007.266328	-2.994900	3.654300	-10.943000	25.220731	0.000446	20.796046
1008.266862	-2.993200	3.652300	-10.931000	25.246878	0.000446	20.818978
1009.263127	-2.992000	3.653700	-10.930000	25.199730	0.000446	20.784919
1010.269195	-2.991400	3.651600	-10.922000	25.201748	0.000446	20.789316
1011.273171	-2.999600	3.652600	-10.956000	25.196941	0.000445	20.789705
1012.263364	-2.998400	3.651900	-10.949000	25.154077	0.000443	20.791244
1013.269319	-3.007900	3.651100	-10.981000	25.149459	0.000443	20.802255
1014.269251	-2.989700	3.651400	-10.916000	25.135792	0.000445	20.792329
1015.264969	-3.005900	3.651300	-10.975000	25.118120	0.000443	20.815839
1016.267500	-3.004000	3.649800	-10.963000	25.125555	0.000445	20.803388
1017.267583	-2.988300	3.651000	-10.910000	25.165267	0.000444	20.788253
1018.263708	-2.986400	3.650300	-10.900000	25.171407	0.000443	20.788727
1019.266933	-3.008900	3.649700	-10.981000	25.191667	0.000443	20.785833
1020.267385	-3.013300	3.648800	-10.994000	25.196298	0.000442	20.805656
1021.263618	-3.005600	3.649400	-10.968000	25.202512	0.000441	20.796247
1022.274393	-3.014100	3.648300	-10.995000	25.246042	0.000444	20.794430
1023.267097	-2.996500	3.650100	-10.936000	25.244649	0.000443	20.785446
1024.264188	-2.993100	3.648100	-10.917000	25.285718	0.000442	20.774048
1025.267370	-2.997400	3.648400	-10.935000	25.287663	0.000440	20.793545
1026.268912	-3.015800	3.647500	-10.999000	25.303849	0.000439	20.785614
1027.267082	-2.997100	3.648400	-10.934000	25.291147	0.000439	20.761955
1028.269392	-2.983300	3.647800	-10.882000	25.300151	0.000440	20.790910
1029.273129	-3.019700	3.646900	-11.012000	25.287572	0.000438	20.788237
1030.266637	-3.020100	3.646700	-11.012000	25.293962	0.000439	20.758617
1031.269176	-2.983600	3.647300	-10.881000	25.312460	0.000439	20.784777
1032.272433	-2.989600	3.645800	-10.899000	25.312362	0.000437	20.776144
1033.267234	-2.998400	3.646200	-10.932000	25.250098	0.000437	20.774795
1034.270139	-2.991900	3.645200	-10.905000	25.262831	0.000436	20.764345
1035.271464	-2.962500	3.647100	-10.803000	25.265941	0.000436	20.779796
1036.267292	-2.983200	3.646000	-10.876000	25.244836	0.000436	20.792746
1037.269140	-2.985500	3.646100	-10.884000	25.267536	0.000437	20.779975
1038.268791	-2.983200	3.646000	-10.876000	25.299729	0.000434	20.779581
1039.266408	-2.994400	3.645300	-10.914000	25.311413	0.000437	20.770923
1040.269229	-3.005100	3.643400	-10.947000	25.283753	0.000436	20.749789
1041.270746	-2.980100	3.645600	-10.863000	25.280380	0.000434	20.771059
1042.266169	-2.999600	3.642200	-10.924000	25.307820	0.000436	20.773005
1043.268971	-2.982500	3.644000	-10.868000	25.306060	0.000435	20.756065
1044.270882	-2.982700	3.644700	-10.870000	25.291340	0.000432	20.774003
1045.268240	-2.995000	3.642400	-10.908000	25.261227	0.000432	20.765580
1046.268728	-2.989600	3.643000	-10.890000	25.296248	0.000435	20.770395
1047.269884	-2.996700	3.642300	-10.913000	25.282338	0.000434	20.741730
1048.269450	-2.995900	3.642500	-10.912000	25.223452	0.000434	20.766535
1049.268018	-3.000400	3.641400	-10.924000	25.227800	0.000431	20.763314
1050.269927	-2.983200	3.641700	-10.863000	25.270532	0.000431	20.770180
1051.271350	-2.995400	3.641100	-10.905000	25.266117	0.000432	20.756264
1052.270416	-3.006400	3.638800	-10.939000	25.213516	0.000432	20.764620
1053.274142	-2.989800	3.639300	-10.879000	25.229776	0.000433	20.776678
1054.269150	-2.995000	3.640200	-10.901000	25.261352	0.000431	20.736780
1055.271269	-3.004200	3.639400	-10.933000	25.244276	0.000430	20.760415
1056.273508	-3.000600	3.638500	-10.916000	25.257199	0.000431	20.753475
1057.269848	-3.017000	3.639000	-10.978000	25.281942	0.000428	20.758876
1058.271843	-3.004700	3.637500	-10.928000	25.274858	0.000430	20.771679
1059.272781	-2.991900	3.638000	-10.883000	25.239910	0.000431	20.747496
1060.280643	-3.002100	3.638300	-10.922000	25.255925	0.000427	20.747928
1061.274013	-2.987600	3.638800	-10.871000	25.295024	0.000429	20.764899
1062.277070	-2.982100	3.637600	-10.846000	25.298257	0.000428	20.741591
1063.271608	-3.001600	3.636800	-10.916000	25.251951	0.000427	20.755792
1064.272846	-2.985900	3.638300	-10.862000	25.206342	0.000427	20.742719
1065.274161	-3.010300	3.636100	-10.944000	25.233214	0.000430	20.751679
1066.271383	-2.996400	3.637400	-10.898000	25.284316	0.000425	20.747509
1067.271954	-2.976600	3.636600	-10.824000	25.274388	0.000426	20.728531
1068.279211	-3.008800	3.634300	-10.934000	25.242648	0.000424	20.731278
1069.276009	-2.986700	3.635800	-10.858000	25.251768	0.000426	20.735219
1070.274194	-2.987300	3.635000	-10.857000	25.253835	0.000424	20.739191
1071.274196	-3.026000	3.634000	-10.995000	25.228633	0.000426	20.742812
1072.273605	-3.002900	3.633700	-10.910000	25.246058	0.000425	20.747979
1073.275784	-3.028300	3.634000	-11.004000	25.246727	0.000426	20.755289
1074.275248	-3.008500	3.634400	-10.933000	25.247580	0.000424	20.728169
1075.274958	-2.991900	3.634200	-10.871000	25.266226	0.000423	20.750683
1076.274821	-2.990500	3.634700	-10.868000	25.298762	0.000425	20.758221
1077.278151	-2.989800	3.633700	-10.862000	25.340105	0.000424	20.750419
1078.274817	-2.984400	3.632800	-10.841000	25.322878	0.000422	20.729802
1079.276124	-2.985400	3.633800	-10.848000	25.349452	0.000424	20.740837
1080.278074	-2.986700	3.631800	-10.846000	25.318659	0.000425	20.733626
1081.273551	-3.009500	3.631900	-10.929000	25.280732	0.000423	20.744385
1082.280960	-3.017100	3.632000	-10.957000	25.254733	0.000424	20.741989
1083.277221	-3.003700	3.630500	-10.903000	25.213799	0.000423	20.748308
1084.275515	-2.988700	3.630500	-10.850000	25.249968	0.000421	20.726773
1085.276693	-2.992200	3.631200	-10.864000	25.274484	0.000420	20.743801
1086.278081	-3.000600	3.630900	-10.893000	25.299439	0.000420	20.725709
1087.275465	-2.984800	3.630500	-10.836000	25.293055	0.000421	20.725937
1088.278142	-3.006600	3.629600	-10.912000	25.323132	0.000420	20.728160
1089.280111	-2.986500	3.630300	-10.841000	25.328302	0.000419	20.725290
1090.278065	-3.014700	3.629000	-10.940000	25.327063	0.000419	20.719779
1091.277074	-3.017900	3.628700	-10.950000	25.323758	0.000418	20.734953
1092.280240	-3.017500	3.629000	-10.949000	25.305291	0.000418	20.725420
1093.278182	-3.012800	3.629700	-10.934000	25.313847	0.000417	20.731640
1094.277208	-2.997900	3.627800	-10.875000	25.342629	0.000418	20.716916
1095.282648	-3.019700	3.627600	-10.953000	25.305403	0.000417	20.733119
1096.278155	-3.010900	3.628700	-10.925000	25.352718	0.000416	20.729891
1097.280432	-3.007100	3.627400	-10.907000	25.351234	0.000416	20.720341
1098.279912	-3.007600	3.626700	-10.907000	25.354154	0.000417	20.718531
1099.276550	-3.002500	3.626900	-10.889000	25.338945	0.000418	20.728865
1100.277256	-3.014700	3.626000	-10.930000	25.368216	0.000415	20.713210
1101.278387	-2.992100	3.626500	-10.850000	25.351395	0.000414	20.733305
1102.276264	-3.017400	3.625300	-10.938000	25.361441	0.000415	20.730589
1103.277199	-2.996600	3.626300	-10.866000	25.327237	0.000415	20.733705
1104.282802	-3.010200	3.625300	-10.912000	25.318272	0.000414	20.715219
1105.279850	-2.966300	3.624900	-10.751000	25.328913	0.000415	20.718791
1106.279413	-2.999800	3.624100	-10.871000	25.301792	0.000414	20.757944
1107.280910	-2.990900	3.624000	-10.838000	25.275549	0.000413	20.714997
1108.279071	-2.997600	3.624100	-10.863000	25.214381	0.000412	20.742728
1109.279474	-2.994300	3.623600	-10.849000	25.260786	0.000412	20.727203
1110.281968	-2.969400	3.625300	-10.764000	25.265865	0.000411	20.713335
1111.279106	-3.006400	3.622300	-10.889000	25.292354	0.000412	20.706265
1112.280691	-2.987300	3.622300	-10.820000	25.268325	0.000409	20.721021
1113.281241	-3.015200	3.621300	-10.918000	25.294998	0.000411	20.691375
1114.281975	-3.008400	3.623000	-10.898000	25.324711	0.000412	20.728798
1115.282029	-3.011200	3.621100	-10.903000	25.317292	0.000410	20.727038
1116.284682	-3.009000	3.621700	-10.897000	25.324522	0.000410	20.720547
1117.280242	-2.993200	3.622900	-10.842000	25.316200	0.000411	20.728787
1118.282531	-3.015200	3.621100	-10.917000	25.322934	0.000409	20.707571
1119.286657	-2.995100	3.621300	-10.845000	25.370930	0.000411	20.708348
1120.283325	-3.007300	3.620600	-10.887000	25.375407	0.000408	20.721379
1121.284866	-3.007700	3.620500	-10.889000	25.409332	0.000407	20.702812
1122.286094	-3.017400	3.619800	-10.922000	25.388342	0.000407	20.714452
1123.286906	-3.003400	3.619200	-10.869000	25.362093	0.000408	20.708010
1124.285296	-2.983900	3.619100	-10.798000	25.320488	0.000407	20.707961
1125.286837	-3.008800	3.618200	-10.886000	25.286119	0.000406	20.709488
1126.283699	-3.003900	3.618700	-10.870000	25.262230	0.000407	20.713953
1127.285074	-2.981600	3.618600	-10.788000	25.257986	0.000406	20.708744
1128.287766	-2.998000	3.617600	-10.844000	25.234453	0.000404	20.728266
1129.286821	-2.976200	3.617000	-10.764000	25.226645	0.000404	20.708097
1130.290837	-2.984200	3.618800	-10.799000	25.191671	0.000403	20.701908
1131.289017	-3.016600	3.616300	-10.908000	25.203135	0.000403	20.692554
1132.287787	-3.007400	3.616600	-10.876000	25.255362	0.000403	20.698522
1133.290367	-3.002800	3.616800	-10.859000	25.267365	0.000401	20.703461
1134.292514	-3.021200	3.614000	-10.918000	25.265434	0.000403	20.716221
1135.289586	-3.006900	3.615900	-10.871000	25.255240	0.000401	20.709779
1136.290002	-2.981300	3.616100	-10.780000	25.282410	0.000402	20.724258
1137.289948	-3.019400	3.615100	-10.913000	25.282858	0.000402	20.693885
1138.291979	-2.986500	3.613700	-10.791000	25.324993	0.000401	20.703474
1139.292972	-2.998700	3.614200	-10.837000	25.375220	0.000403	20.707440
1140.291898	-2.988600	3.613900	-10.799000	25.368046	0.000400	20.721100
1141.292171	-2.997900	3.613500	-10.832000	25.374436	0.000400	20.707127
1142.298178	-3.010800	3.612900	-10.876000	25.311507	0.000401	20.715065
1143.298321	-2.983100	3.613000	-10.777000	25.299596	0.000397	20.694570
1144.298502	-3.001500	3.614100	-10.846000	25.234382	0.000398	20.697847
1145.295307	-3.001700	3.611300	-10.840000	25.250513	0.000399	20.694127
1146.297875	-3.002000	3.611400	-10.841000	25.274948	0.000400	20.714394
1147.296283	-2.973600	3.612800	-10.742000	25.303455	0.000397	20.673311
1148.297694	-3.016500	3.611500	-10.893000	25.297071	0.000400	20.697724
1149.300291	-2.997600	3.611100	-10.824000	25.301597	0.000398	20.703217
1150.299572	-2.993700	3.611700	-10.811000	25.289602	0.000398	20.694492
1151.299889	-2.977600	3.610900	-10.751000	25.295636	0.000396	20.701025
1152.306717	-2.998900	3.610100	-10.826000	25.332551	0.000397	20.734773
1153.308428	-2.986600	3.611000	-10.784000	25.361032	0.000397	20.714057
1154.303228	-3.020900	3.609300	-10.903000	25.357083	0.000394	20.702030
1155.308029	-3.020100	3.609900	-10.901000	25.372267	0.000396	20.683136
1156.304712	-3.004200	3.609900	-10.844000	25.377842	0.000394	20.700115
1157.316555	-2.996600	3.609400	-10.815000	25.413608	0.000397	20.701889
1158.308097	-2.987700	3.609200	-10.782000	25.401281	0.000395	20.682872
1159.306469	-2.991600	3.608000	-10.793000	25.376929	0.000393	20.697301
1160.306841	-2.998400	3.608000	-10.817000	25.368307	0.000393	20.713775
1161.308083	-3.021800	3.608200	-10.902000	25.358114	0.000391	20.685046
1162.304237	-2.988300	3.607800	-10.780000	25.333013	0.000394	20.696827
1163.306314	-3.004600	3.606100	-10.833000	25.391330	0.000395	20.683311
1164.308973	-3.005500	3.606700	-10.839000	25.403030	0.000393	20.672299
1165.305606	-2.995100	3.607900	-10.805000	25.358471	0.000391	20.687301
1166.306310	-3.016200	3.606300	-10.877000	25.339851	0.000391	20.697530
1167.305888	-3.015400	3.606900	-10.876000	25.339221	0.000393	20.685516
1168.309045	-2.987500	3.605400	-10.770000	25.328531	0.000393	20.683792
1169.308177	-2.990500	3.606500	-10.784000	25.297307	0.000390	20.674726
1170.308208	-2.970100	3.606700	-10.712000	25.283937	0.000389	20.709194
1171.311173	-2.975700	3.607000	-10.733000	25.310138	0.000389	20.690455
1172.309969	-2.986400	3.604700	-10.765000	25.324354	0.000389	20.707101
1173.310508	-3.004600	3.604500	-10.829000	25.318670	0.000391	20.671518
1174.314462	-3.014500	3.603700	-10.862000	25.295260	0.000388	20.691164
1175.312441	-3.007700	3.603100	-10.836000	25.299437	0.000386	20.679236
1176.312963	-3.028700	3.602200	-10.908000	25.359093	0.000386	20.693616
1177.314229	-3.011800	3.603400	-10.851000	25.361202	0.000386	20.696682
1178.312022	-3.022700	3.603000	-10.890000	25.382459	0.000388	20.674402
1179.311790	-2.998200	3.603100	-10.802000	25.363668	0.000388	20.683984
1180.317059	-2.978800	3.603500	-10.733000	25.384053	0.000388	20.702084
1181.311714	-3.009200	3.602100	-10.839000	25.417034	0.000386	20.679249
1182.311671	-3.014200	3.601300	-10.854000	25.396208	0.000385	20.681097
1183.314542	-3.016900	3.600600	-10.861000	25.399189	0.000383	20.707325
1184.312214	-3.004400	3.601100	-10.817000	25.397779	0.000384	20.660386
1185.314808	-3.006300	3.600800	-10.825000	25.375382	0.000385	20.677254
1186.317736	-3.003400	3.599800	-10.811000	25.362142	0.000383	20.685298
1187.314325	-2.994200	3.600800	-10.780000	25.313828	0.000385	20.685150
1188.318081	-3.008200	3.599600	-10.827000	25.308724	0.000383	20.674335
1189.318489	-2.991500	3.598600	-10.765000	25.294515	0.000383	20.698477
1190.316729	-3.004400	3.598900	-10.812000	25.279833	0.000384	20.676621
1191.316341	-2.996800	3.598700	-10.784000	25.317620	0.000384	20.683741
1192.318797	-3.000900	3.597900	-10.796000	25.304212	0.000382	20.668855
1193.317027	-2.994600	3.597800	-10.774000	25.286682	0.000381	20.682551
1194.319926	-3.005600	3.596600	-10.809000	25.322489	0.000385	20.677724
1195.321975	-2.985000	3.598100	-10.739000	25.353663	0.000382	20.672515
1196.319071	-2.998100	3.596300	-10.782000	25.358176	0.000383	20.687479
1197.320678	-2.972700	3.597100	-10.692000	25.340483	0.000381	20.674454
1198.322255	-3.012900	3.597100	-10.836000	25.371380	0.000382	20.680822
1199.320069	-3.000700	3.595300	-10.787000	25.380156	0.000382	20.670667
1200.318774	-2.997900	3.596500	-10.781000	25.383014	0.000380	20.657414
1201.324788	-3.022200	3.595600	-10.865000	25.337110	0.000381	20.675810
1202.318708	-2.988800	3.595100	-10.744000	25.326193	0.000379	20.684289
1203.319921	-2.991100	3.594600	-10.750000	25.339146	0.000380	20.678803
1204.321182	-3.013900	3.593300	-10.828000	25.377029	0.000377	20.691711
1205.321010	-3.003400	3.593800	-10.792000	25.296767	0.000377	20.665648
1206.322733	-2.999000	3.594000	-10.777000	25.275823	0.000376	20.655998
1207.319814	-3.003100	3.593800	-10.792000	25.251658	0.000377	20.659711
1208.319466	-3.024900	3.591700	-10.864000	25.241446	0.000377	20.660365
1209.321390	-3.005600	3.592700	-10.797000	25.264286	0.000377	20.669547
1210.329390	-2.998100	3.593500	-10.773000	25.327526	0.000379	20.667608
1211.320219	-2.998700	3.592500	-10.772000	25.355233	0.000380	20.676937
1212.321677	-3.003500	3.592500	-10.789000	25.328114	0.000375	20.656817
1213.323669	-2.996000	3.591100	-10.758000	25.330335	0.000375	20.655254
1214.321961	-2.983100	3.592600	-10.717000	25.368830	0.000376	20.659293
1215.323385	-3.017900	3.590800	-10.836000	25.412973	0.000376	20.642924
1216.323797	-2.999700	3.591200	-10.771000	25.455519	0.000374	20.645819
1217.323663	-3.007200	3.590800	-10.798000	25.462479	0.000374	20.687900
1218.321114	-2.992000	3.591900	-10.746000	25.441874	0.000375	20.664836
1219.323606	-3.000200	3.590300	-10.771000	25.410041	0.000376	20.665114
1220.323331	-3.022900	3.589800	-10.851000	25.428188	0.000371	20.678595
1221.321789	-3.017900	3.589700	-10.832000	25.444690	0.000372	20.662447
1222.322400	-3.009400	3.588200	-10.798000	25.426446	0.000370	20.670207
1223.322162	-2.998700	3.588400	-10.760000	25.434424	0.000372	20.649767
1224.324778	-3.026900	3.589000	-10.863000	25.399513	0.000372	20.659282
1225.324212	-3.003200	3.588700	-10.777000	25.368022	0.000369	20.665595
1226.324131	-3.015400	3.587100	-10.816000	25.399170	0.000370	20.673638
1227.324533	-3.018600	3.587600	-10.828000	25.356940	0.000371	20.645931
1228.325546	-3.026200	3.585800	-10.851000	25.336285	0.000370	20.666919
1229.327291	-3.013700	3.587900	-10.812000	25.329876	0.000370	20.663329
1230.325571	-3.021700	3.585900	-10.835000	25.323958	0.000370	20.651695
1231.326198	-3.016100	3.586800	-10.818000	25.368403	0.000367	20.664081
1232.325643	-3.012900	3.585900	-10.804000	25.398943	0.000369	20.661081
1233.325683	-2.997100	3.585900	-10.747000	25.431734	0.000369	20.659869
1234.324883	-3.000900	3.585400	-10.758000	25.419156	0.000368	20.672370
1235.327173	-2.992100	3.585100	-10.726000	25.432549	0.000369	20.655471
1236.326886	-3.039700	3.582900	-10.890000	25.398582	0.000368	20.658822
1237.329571	-3.016300	3.583400	-10.808000	25.385931	0.000368	20.683579
1238.325295	-2.989800	3.584300	-10.715000	25.322180	0.000368	20.672672
1239.328716	-2.988000	3.584700	-10.710000	25.359437	0.000366	20.663139
1240.327834	-3.014700	3.583000	-10.800000	25.395203	0.000367	20.653058
1241.328731	-3.022000	3.581700	-10.823000	25.370029	0.000365	20.655755
1242.328720	-3.011800	3.581800	-10.787000	25.374003	0.000366	20.665436
1243.327278	-2.983200	3.583700	-10.690000	25.395032	0.000366	20.653834
1244.327527	-3.007800	3.582400	-10.774000	25.379970	0.000364	20.644873
1245.328710	-3.036700	3.580600	-10.872000	25.417250	0.000364	20.663817
1246.330257	-3.004500	3.583300	-10.766000	25.455130	0.000362	20.669138
1247.327809	-3.003400	3.581900	-10.758000	25.497741	0.000363	20.679213
1248.331980	-2.975700	3.582900	-10.661000	25.524317	0.000364	20.669391
1249.331321	-3.013500	3.580800	-10.790000	25.497478	0.000364	20.656662
1250.332803	-2.985900	3.580800	-10.691000	25.474937	0.000360	20.662001
1251.332150	-2.980000	3.580800	-10.670000	25.434483	0.000362	20.651723
1252.334574	-2.978300	3.581400	-10.665000	25.395542	0.000361	20.652450
1253.331352	-2.996800	3.580100	-10.727000	25.410107	0.000362	20.654273
1254.330465	-3.005000	3.578700	-10.753000	25.427456	0.000363	20.662211
1255.329436	-3.013000	3.579000	-10.783000	25.439530	0.000360	20.674811
1256.332673	-3.012400	3.578400	-10.778000	25.429988	0.000363	20.653848
1257.331504	-2.991800	3.578600	-10.706000	25.397186	0.000361	20.653626
1258.331152	-2.979700	3.577400	-10.659000	25.352871	0.000359	20.685946
1259.333594	-2.999500	3.576900	-10.728000	25.387424	0.000358	20.658997
1260.332852	-3.001100	3.577100	-10.735000	25.390079	0.000358	20.666880
1261.332267	-3.010900	3.576100	-10.767000	25.391121	0.000358	20.666978
1262.333298	-2.984300	3.577900	-10.677000	25.412923	0.000358	20.659471
1263.332232	-2.980100	3.575800	-10.655000	25.382474	0.000359	20.684376
1264.331937	-3.011200	3.575300	-10.766000	25.342906	0.000355	20.667403
1265.334219	-2.997200	3.576200	-10.718000	25.353571	0.000358	20.667206
1266.334312	-2.980500	3.576100	-10.658000	25.408967	0.000356	20.653602
1267.332325	-2.977800	3.576200	-10.647000	25.457732	0.000355	20.664639
1268.334713	-2.994600	3.575900	-10.707000	25.501937	0.000356	20.681531
1269.333189	-2.999800	3.574100	-10.720000	25.511877	0.000356	20.665907
1270.332993	-2.971500	3.575100	-10.623000	25.509229	0.000356	20.668938
1271.336046	-2.980300	3.574500	-10.652000	25.486534	0.000355	20.672226
1272.335117	-2.985600	3.572900	-10.666000	25.494984	0.000355	20.687351
1273.334590	-2.986000	3.573000	-10.668000	25.492053	0.000353	20.666862
1274.336763	-3.001000	3.572600	-10.720000	25.449876	0.000354	20.682356
1275.336608	-2.992700	3.572800	-10.692000	25.402664	0.000351	20.663395
1276.333757	-2.973200	3.571800	-10.619000	25.362071	0.000355	20.667206
1277.337430	-2.979000	3.572600	-10.641000	25.385339	0.000353	20.672552
1278.334152	-2.991600	3.571700	-10.684000	25.413150	0.000354	20.672977
1279.334154	-3.008000	3.571400	-10.742000	25.442769	0.000353	20.681383
1280.339380	-3.013300	3.570900	-10.759000	25.407680	0.000353	20.676019
1281.336816	-2.982100	3.571200	-10.649000	25.469788	0.000352	20.675324
1282.336925	-3.000100	3.569600	-10.709000	25.463356	0.000352	20.678822
1283.340849	-3.009900	3.570100	-10.745000	25.460995	0.000350	20.669813
1284.337109	-2.998200	3.569500	-10.701000	25.447074	0.000351	20.687130
1285.336374	-2.985500	3.571300	-10.660000	25.410813	0.000351	20.700980
1286.341482	-3.012200	3.569600	-10.752000	25.436067	0.000349	20.674653
1287.340555	-2.974300	3.570600	-10.619000	25.418614	0.000349	20.675145
1288.339678	-2.992800	3.568500	-10.679000	25.404497	0.000350	20.680884
1289.342116	-3.000100	3.569100	-10.706000	25.400320	0.000349	20.690916
1290.340047	-3.001600	3.568600	-10.710000	25.428505	0.000351	20.696933
1291.340467	-2.980600	3.568100	-10.635000	25.435938	0.000349	20.691120
1292.342707	-3.012000	3.567800	-10.744000	25.409299	0.000348	20.700881
1293.340780	-2.994600	3.567200	-10.681000	25.356981	0.000346	20.688176
1294.342347	-2.989100	3.566200	-10.659000	25.328298	0.000346	20.686877
1295.344751	-2.989500	3.566800	-10.662000	25.374583	0.000348	20.663174
1296.339099	-2.988500	3.566300	-10.657000	25.444591	0.000347	20.678945
1297.341477	-2.976600	3.566000	-10.614000	25.451023	0.000347	20.697260
1298.344272	-2.972400	3.566000	-10.599000	25.462478	0.000345	20.698331
1299.340474	-3.001900	3.565600	-10.703000	25.488129	0.000347	20.679992
1300.343692	-3.004200	3.564800	-10.709000	25.508677	0.000345	20.703474
1301.345239	-3.005200	3.563600	-10.708000	25.489570	0.000344	20.677172
1302.342668	-2.993900	3.565200	-10.673000	25.466262	0.000343	20.704029
1303.342366	-2.984100	3.565300	-10.638000	25.443776	0.000343	20.687137
1304.345015	-2.992400	3.564900	-10.665000	25.431849	0.000343	20.706930
1305.341502	-3.002100	3.562400	-10.694000	25.463607	0.000343	20.695672
1306.343770	-2.994500	3.563200	-10.669000	25.519274	0.000344	20.686613
1307.345421	-2.978300	3.562600	-10.610000	25.508114	0.000342	20.702434
1308.340969	-2.974200	3.563500	-10.598000	25.479630	0.000341	20.708918
1309.341810	-2.993500	3.561600	-10.661000	25.460033	0.000342	20.713895
1310.343386	-2.977400	3.561800	-10.605000	25.500143	0.000342	20.685893
1311.342439	-3.003700	3.560900	-10.695000	25.484131	0.000341	20.701584
1312.344247	-3.001300	3.561600	-10.688000	25.471953	0.000341	20.691250
1313.346640	-2.992900	3.560100	-10.654000	25.456549	0.000341	20.689532
1314.343759	-3.008000	3.560700	-10.710000	25.497009	0.000340	20.706930
1315.343592	-2.993900	3.560500	-10.659000	25.471040	0.000340	20.714517
1316.346665	-2.990300	3.560500	-10.646000	25.501080	0.000340	20.691102
1317.343442	-2.991400	3.559100	-10.646000	25.485677	0.000338	20.701240
1318.342973	-3.003700	3.559000	-10.690000	25.455703	0.000338	20.701485
1319.345612	-3.014700	3.558900	-10.729000	25.465545	0.000338	20.685763
1320.345045	-3.012400	3.557100	-10.714000	25.456507	0.000337	20.702767
1321.344831	-3.032800	3.557900	-10.790000	25.446640	0.000340	20.704239
1322.347077	-2.998900	3.557800	-10.669000	25.472463	0.000337	20.704092
1323.344977	-2.977800	3.557600	-10.593000	25.521432	0.000337	20.713439
1324.345715	-3.012300	3.556900	-10.713000	25.555856	0.000337	20.706758
1325.346435	-2.981700	3.556900	-10.605000	25.497904	0.000336	20.701190
1326.347502	-2.996100	3.556300	-10.653000	25.481214	0.000336	20.718570
1327.347240	-2.987200	3.557600	-10.626000	25.473887	0.000335	20.703150
1328.348968	-2.991000	3.557200	-10.639000	25.478276	0.000338	20.708981
1329.345658	-3.034100	3.554600	-10.784000	25.505620	0.000338	20.704197
1330.348846	-3.009800	3.555800	-10.702000	25.507005	0.000334	20.713175
1331.349688	-2.988800	3.557100	-10.630000	25.528626	0.000334	20.705015
1332.348797	-3.008300	3.554500	-10.692000	25.503406	0.000334	20.690593
1333.348711	-3.014100	3.554300	-10.713000	25.511034	0.000336	20.713902
1334.350153	-3.022100	3.553600	-10.739000	25.515591	0.000335	20.709943
1335.349155	-3.011900	3.553300	-10.702000	25.521201	0.000333	20.726010
1336.351507	-2.998100	3.553900	-10.654000	25.535610	0.000332	20.738110
1337.354660	-2.992800	3.552700	-10.632000	25.521176	0.000334	20.713182
1338.352665	-3.016300	3.552600	-10.715000	25.481190	0.000329	20.698630
1339.348952	-2.988700	3.552400	-10.616000	25.505074	0.000332	20.714081
1340.352142	-3.014600	3.551500	-10.705000	25.518270	0.000332	20.711211
1341.349989	-3.006500	3.550900	-10.675000	25.535690	0.000332	20.707369
1342.351977	-3.030100	3.551300	-10.759000	25.589531	0.000331	20.726354
1343.352906	-3.021400	3.550300	-10.726000	25.598582	0.000332	20.733547
1344.351088	-2.987000	3.551600	-10.608000	25.578347	0.000330	20.717018
1345.352801	-3.011600	3.549800	-10.690000	25.603653	0.000330	20.738640
1346.351015	-2.990900	3.550200	-10.618000	25.591077	0.000328	20.717000
1347.354624	-2.991800	3.550800	-10.623000	25.630661	0.000331	20.717400
1348.352695	-2.993700	3.550300	-10.628000	25.632549	0.000331	20.706494
1349.352386	-2.998200	3.549400	-10.641000	25.613088	0.000329	20.695482
1350.352712	-2.996500	3.550200	-10.637000	25.589139	0.000329	20.720744
1351.352650	-3.013300	3.548700	-10.692000	25.565110	0.000329	20.722216
1352.352807	-3.013900	3.548400	-10.694000	25.559402	0.000328	20.718380
1353.353859	-3.016400	3.546900	-10.697000	25.534494	0.000327	20.727032
1354.354925	-3.014000	3.547500	-10.692000	25.472697	0.000326	20.730881
1355.357761	-3.013400	3.546600	-10.687000	25.476076	0.000328	20.721946
1356.354525	-3.012400	3.546300	-10.683000	25.455049	0.000329	20.722167
1357.354720	-3.010400	3.546400	-10.675000	25.458753	0.000326	20.724464
1358.356006	-2.995300	3.546300	-10.621000	25.457973	0.000326	20.726526
1359.353914	-2.999400	3.546200	-10.636000	25.416623	0.000327	20.705391
1360.356512	-3.001000	3.545400	-10.639000	25.450222	0.000326	20.749564
1361.355028	-3.011300	3.545800	-10.676000	25.479025	0.000325	20.723010
1362.355936	-3.000900	3.545300	-10.638000	25.485408	0.000324	20.721833
1363.355700	-3.010800	3.544100	-10.670000	25.495250	0.000325	20.723656
1364.356185	-3.006900	3.543300	-10.654000	25.490301	0.000326	20.716315
1365.359032	-3.032700	3.544700	-10.749000	25.484684	0.000322	20.740548
1366.357113	-2.997900	3.543200	-10.621000	25.474810	0.000326	20.742012
1367.356536	-3.010300	3.544200	-10.668000	25.468053	0.000325	20.750400
1368.356627	-3.007400	3.542100	-10.652000	25.514423	0.000323	20.731057
1369.357424	-3.014800	3.541000	-10.674000	25.485474	0.000322	20.750825
1370.357884	-2.990800	3.542600	-10.594000	25.497824	0.000324	20.721026
1371.358147	-3.010300	3.540900	-10.658000	25.495082	0.000323	20.730126
1372.360154	-2.992800	3.541600	-10.598000	25.477986	0.000322	20.729080
1373.358691	-2.979000	3.542800	-10.552000	25.466703	0.000321	20.742880
1374.359433	-2.995800	3.541400	-10.608000	25.448753	0.000320	20.739080
1375.358859	-2.995800	3.540500	-10.606000	25.424280	0.000319	20.758127
1376.358268	-2.992600	3.542300	-10.600000	25.431405	0.000320	20.730193
1377.358582	-2.975900	3.541000	-10.537000	25.470246	0.000320	20.745490
1378.360054	-3.003200	3.538500	-10.626000	25.443682	0.000318	20.751531
1379.359331	-3.003200	3.539500	-10.628000	25.492641	0.000319	20.737158
1380.361738	-2.988300	3.538400	-10.573000	25.514304	0.000320	20.759863
1381.359534	-3.001000	3.538900	-10.619000	25.492690	0.000319	20.733414
1382.361867	-2.981600	3.540100	-10.554000	25.506529	0.000319	20.734036
1383.361927	-3.007100	3.537800	-10.637000	25.529689	0.000319	20.757295
1384.363931	-3.000300	3.539000	-10.617000	25.485828	0.000317	20.750232
1385.361881	-2.985300	3.537600	-10.560000	25.480805	0.000317	20.755146
1386.363158	-3.015100	3.536500	-10.662000	25.441744	0.000318	20.756698
1387.364083	-3.009700	3.537000	-10.644000	25.477004	0.000317	20.758440
1388.362032	-2.995100	3.536800	-10.592000	25.503690	0.000317	20.730236
1389.363375	-3.004100	3.537100	-10.625000	25.544319	0.000317	20.752072
1390.360275	-2.987700	3.536700	-10.566000	25.544627	0.000314	20.762813
1391.363826	-3.015700	3.534700	-10.659000	25.557123	0.000316	20.735058
1392.364310	-2.989800	3.536400	-10.572000	25.549502	0.000315	20.746846
1393.364940	-3.003300	3.534400	-10.614000	25.527280	0.000316	20.749659
1394.363857	-3.008400	3.533400	-10.629000	25.538790	0.000315	20.749838
1395.362609	-3.009000	3.534800	-10.636000	25.531945	0.000314	20.746284
1396.365812	-2.970200	3.535300	-10.499000	25.531130	0.000316	20.769174
1397.373573	-2.989900	3.534300	-10.567000	25.579117	0.000316	20.779907
1398.364990	-3.010200	3.533600	-10.636000	25.544057	0.000311	20.773620
1399.365498	-2.990800	3.532800	-10.565000	25.534411	0.000314	20.762985
1400.365686	-2.975900	3.532800	-10.513000	25.503948	0.000313	20.757997
1401.367152	-2.991300	3.532500	-10.566000	25.504917	0.000312	20.762764
1402.368038	-2.984200	3.531900	-10.540000	25.432650	0.000311	20.749462
1403.368379	-3.003700	3.531300	-10.606000	25.457627	0.000312	20.768380
1404.369360	-2.982500	3.532600	-10.535000	25.479672	0.000313	20.767284
1405.368777	-3.007800	3.529100	-10.614000	25.523282	0.000313	20.756550
1406.367345	-3.001900	3.531800	-10.602000	25.543714	0.000310	20.761896
1407.370267	-2.976500	3.530200	-10.506000	25.553254	0.000312	20.776219
1408.369943	-2.993100	3.530000	-10.565000	25.511810	0.000310	20.780592
1409.369842	-3.012600	3.528000	-10.628000	25.549079	0.000310	20.773922
1410.368936	-2.992600	3.531200	-10.566000	25.524258	0.000308	20.778394
1411.372030	-2.995800	3.528200	-10.569000	25.532659	0.000309	20.766915
1412.373579	-2.995200	3.528900	-10.569000	25.529280	0.000310	20.766841
1413.371761	-2.986800	3.529300	-10.541000	25.481837	0.000310	20.777993
1414.372832	-2.995800	3.527600	-10.567000	25.489262	0.000309	20.754629
1415.372127	-2.999400	3.528600	-10.583000	25.488202	0.000310	20.767790
1416.372102	-2.999400	3.526000	-10.574000	25.498615	0.000309	20.784410
1417.371401	-2.981000	3.527500	-10.514000	25.582778	0.000307	20.788326
1418.371387	-3.006500	3.526700	-10.602000	25.616348	0.000309	20.774625
1419.372800	-3.019300	3.524900	-10.642000	25.596249	0.000308	20.763923
1420.372841	-2.971800	3.525600	-10.476000	25.579571	0.000307	20.775622
1421.373286	-3.007900	3.525900	-10.605000	25.584489	0.000307	20.785302
1422.372966	-2.993600	3.524600	-10.551000	25.589437	0.000307	20.783634
1423.373381	-2.989300	3.524900	-10.536000	25.608524	0.000307	20.796640
1424.373790	-2.991500	3.524100	-10.541000	25.606206	0.000304	20.789570
1425.374205	-2.992600	3.524200	-10.545000	25.583055	0.000306	20.789078
1426.373142	-3.003600	3.524600	-10.586000	25.612417	0.000306	20.768306
1427.374825	-2.999800	3.523100	-10.567000	25.627556	0.000305	20.790623
1428.373824	-3.008700	3.522800	-10.598000	25.598586	0.000305	20.778597
1429.377059	-2.984200	3.523400	-10.514000	25.607752	0.000303	20.794915
1430.377507	-2.998300	3.521300	-10.557000	25.657120	0.000302	20.809884
1431.378805	-3.022100	3.522200	-10.643000	25.648101	0.000303	20.777593
1432.378670	-2.993500	3.523100	-10.545000	25.626188	0.000302	20.800156
1433.386195	-3.014500	3.522500	-10.618000	25.578652	0.000302	20.791294
1434.377419	-2.997400	3.520500	-10.552000	25.562526	0.000303	20.777470
1435.376592	-3.019600	3.520900	-10.630000	25.602460	0.000301	20.784385
1436.376579	-2.995000	3.521900	-10.548000	25.591252	0.000302	20.781189
1437.376030	-2.970400	3.520900	-10.457000	25.601191	0.000300	20.789275
1438.379681	-2.992400	3.520800	-10.534000	25.581257	0.000301	20.788695
1439.378162	-3.010000	3.518600	-10.590000	25.569349	0.000301	20.811823
1440.377347	-3.001700	3.518500	-10.561000	25.551611	0.000301	20.807285
1441.377171	-3.010300	3.517500	-10.588000	25.551642	0.000301	20.783609
1442.380275	-3.012400	3.517200	-10.594000	25.599890	0.000299	20.791287
1443.380921	-2.973000	3.518900	-10.461000	25.577358	0.000300	20.796159
1444.375840	-3.005500	3.517600	-10.571000	25.542346	0.000300	20.817896
1445.378360	-2.997000	3.517900	-10.542000	25.553076	0.000301	20.818714
1446.379569	-3.012200	3.516700	-10.592000	25.605052	0.000299	20.802635
1447.378822	-3.025600	3.516400	-10.639000	25.609602	0.000299	20.813843
1448.380210	-3.026700	3.516200	-10.641000	25.636739	0.000299	20.821657
1449.381215	-3.005300	3.515400	-10.563000	25.636806	0.000300	20.800388
1450.380320	-3.022800	3.515000	-10.625000	25.659963	0.000298	20.813214
1451.379370	-3.004800	3.515600	-10.563000	25.684830	0.000297	20.823965
1452.384073	-2.953900	3.517200	-10.389000	25.697852	0.000297	20.803380
1453.384253	-3.005300	3.514300	-10.560000	25.685008	0.000299	20.830308
1454.382781	-3.017100	3.514900	-10.604000	25.668282	0.000298	20.803078
1455.383354	-3.011600	3.514500	-10.583000	25.681794	0.000295	20.837986
1456.383699	-3.016000	3.513000	-10.593000	25.639061	0.000297	20.804076
1457.383659	-2.998000	3.513900	-10.534000	25.676234	0.000295	20.808220
1458.384380	-2.999400	3.511900	-10.532000	25.705625	0.000298	20.833472
1459.382725	-2.974100	3.513100	-10.447000	25.693670	0.000297	20.802024
1460.390156	-3.013600	3.510400	-10.578000	25.638607	0.000294	20.811680
1461.383632	-3.001200	3.512500	-10.541000	25.584828	0.000294	20.809825
1462.383534	-2.996600	3.512500	-10.525000	25.552087	0.000293	20.803970
1463.386319	-2.986700	3.512700	-10.491000	25.533170	0.000293	20.830017
1464.385341	-2.998800	3.510400	-10.526000	25.576526	0.000292	20.822824
1465.384978	-2.996200	3.510700	-10.518000	25.578212	0.000291	20.813612
1466.386088	-2.990700	3.509900	-10.497000	25.582964	0.000293	20.811746
1467.387842	-3.000000	3.510700	-10.531000	25.622094	0.000294	20.786560
1468.386657	-3.010800	3.509300	-10.565000	25.572092	0.000292	20.812207
1469.388220	-3.029700	3.507500	-10.624000	25.569658	0.000291	20.796960
1470.391175	-2.998800	3.509100	-10.523000	25.593914	0.000292	20.791924
1471.386582	-2.999800	3.508200	-10.523000	25.587924	0.000290	20.802977
1472.390027	-2.999700	3.508200	-10.522000	25.563478	0.000291	20.786012
1473.391129	-3.002000	3.508600	-10.532000	25.579474	0.000289	20.806345
1474.388047	-2.998200	3.508000	-10.517000	25.644129	0.000293	20.811536
1475.393638	-2.994500	3.507000	-10.501000	25.665538	0.000289	20.795580
1476.398767	-3.005000	3.507400	-10.539000	25.702863	0.000288	20.780913
1477.395077	-2.999000	3.506400	-10.514000	25.722445	0.000288	20.795840
1478.396684	-3.014600	3.505900	-10.567000	25.718809	0.000290	20.782704
1479.395070	-3.005100	3.505500	-10.534000	25.716725	0.000290	20.802896
1480.391647	-2.994800	3.506300	-10.499000	25.710140	0.000288	20.765936
1481.396362	-2.993600	3.505000	-10.492000	25.678928	0.000289	20.792907
1482.396327	-3.006300	3.504700	-10.535000	25.687726	0.000288	20.805063
1483.394549	-3.008500	3.505100	-10.543000	25.658554	0.000287	20.788092
1484.394114	-2.993600	3.504300	-10.490000	25.623626	0.000290	20.780986
1485.396923	-3.003000	3.505600	-10.526000	25.615464	0.000284	20.783695
1486.394739	-3.005100	3.503800	-10.528000	25.560030	0.000286	20.779705
1487.396836	-2.999900	3.503100	-10.509000	25.584353	0.000284	20.791330
1488.397433	-2.975100	3.504300	-10.425000	25.578020	0.000284	20.780228
1489.395547	-3.002100	3.502400	-10.514000	25.608064	0.000287	20.771521
1490.398536	-2.988400	3.502900	-10.467000	25.605249	0.000285	20.782444
1491.400698	-3.006800	3.502300	-10.530000	25.634649	0.000286	20.765504
1492.397645	-2.969400	3.502300	-10.398000	25.652638	0.000285	20.789736
1493.400621	-3.004300	3.500400	-10.516000	25.641430	0.000284	20.796023
1494.403702	-2.986700	3.500400	-10.454000	25.646347	0.000284	20.777727
1495.398818	-2.995900	3.501700	-10.490000	25.658394	0.000283	20.786508
1496.402134	-2.998500	3.499900	-10.493000	25.682201	0.000285	20.747830
1497.402894	-3.001200	3.500000	-10.503000	25.713798	0.000284	20.758705
1498.399778	-3.005000	3.498500	-10.511000	25.660177	0.000285	20.771230
1499.400866	-2.986200	3.500100	-10.451000	25.614887	0.000282	20.762252
1500.403979	-3.007400	3.498600	-10.520000	25.655537	0.000283	20.804027
1501.400921	-2.991200	3.498700	-10.464000	25.692499	0.000280	20.776193
1502.403248	-2.992800	3.499000	-10.470000	25.682561	0.000282	20.751511
1503.404310	-3.017500	3.497800	-10.552000	25.637664	0.000282	20.774696
1504.403139	-2.973100	3.499000	-10.401000	25.615167	0.000281	20.750205
1505.402438	-3.010400	3.496400	-10.525000	25.614303	0.000279	20.773520
1506.416471	-2.977900	3.498200	-10.417000	25.609981	0.000281	20.760644
1507.401678	-3.016600	3.495900	-10.545000	25.582787	0.000277	20.770791
1508.406599	-2.993000	3.497200	-10.466000	25.618349	0.000279	20.759091
1509.407125	-2.992200	3.496200	-10.461000	25.651292	0.000280	20.750451
1510.402282	-3.032000	3.495600	-10.597000	25.650697	0.000279	20.762656
1511.404984	-2.992500	3.496900	-10.463000	25.654768	0.000277	20.755839
1512.405253	-3.006200	3.494400	-10.504000	25.695919	0.000277	20.745962
1513.404757	-3.018900	3.494900	-10.550000	25.684289	0.000279	20.752773
1514.407428	-3.007000	3.494300	-10.506000	25.620924	0.000276	20.737968
1515.409207	-3.002200	3.493700	-10.488000	25.618734	0.000277	20.755210
1516.405459	-2.985200	3.495600	-10.434000	25.643039	0.000278	20.757335
1517.410161	-2.989600	3.493300	-10.442000	25.680474	0.000278	20.753209
1518.409766	-3.005800	3.493700	-10.500000	25.678610	0.000277	20.746595
1519.406838	-3.005600	3.492200	-10.495000	25.663773	0.000275	20.756823
1520.409455	-3.003800	3.491800	-10.488000	25.601186	0.000276	20.756552
1521.409674	-2.996400	3.492100	-10.463000	25.594699	0.000275	20.759046
1522.407425	-3.012600	3.491400	-10.517000	25.669781	0.000275	20.747684
1523.410327	-3.033500	3.490600	-10.588000	25.664766	0.000279	20.749760
1524.410447	-3.004100	3.489400	-10.481000	25.663301	0.000277	20.768677
1525.407358	-2.979400	3.491400	-10.401000	25.618256	0.000273	20.754729
1526.411597	-2.983100	3.490100	-10.410000	25.586047	0.000276	20.753676
1527.416349	-2.993100	3.489500	-10.444000	25.535952	0.000276	20.748411
1528.408040	-2.990000	3.490200	-10.434000	25.529593	0.000274	20.745344
1529.412291	-3.012500	3.489200	-10.510000	25.542335	0.000275	20.741544
1530.414290	-2.997600	3.489200	-10.458000	25.533137	0.000276	20.749377
1531.409914	-2.980000	3.489700	-10.398000	25.594765	0.000273	20.741569
1532.414082	-2.977000	3.489700	-10.387000	25.601375	0.000272	20.741095
1533.411126	-3.020700	3.487500	-10.534000	25.615507	0.000274	20.757185
1534.411848	-2.981800	3.487600	-10.398000	25.628653	0.000274	20.742412
1535.413218	-3.025600	3.487600	-10.552000	25.667812	0.000272	20.737171
1536.414783	-2.996800	3.486300	-10.447000	25.610307	0.000273	20.757652
1537.410978	-3.022400	3.487100	-10.539000	25.635360	0.000271	20.744881
1538.417748	-3.003000	3.486800	-10.470000	25.605366	0.000270	20.738464
1539.414255	-2.987900	3.486500	-10.417000	25.647058	0.000271	20.746198
1540.413105	-2.983500	3.486700	-10.402000	25.676125	0.000270	20.736037
1541.416228	-3.000600	3.485900	-10.459000	25.686989	0.000268	20.721818
1542.416209	-2.993600	3.484900	-10.431000	25.699403	0.000271	20.746142
1543.412238	-2.997300	3.484800	-10.444000	25.704320	0.000269	20.739701
1544.416340	-3.001400	3.484000	-10.455000	25.641631	0.000269	20.740273
1545.416399	-2.999300	3.485200	-10.451000	25.603072	0.000267	20.720038
1546.412038	-2.979700	3.484800	-10.383000	25.661410	0.000269	20.727421
1547.415282	-3.007500	3.482100	-10.472000	25.672243	0.000267	20.731190
1548.416910	-2.989700	3.484100	-10.416000	25.691077	0.000268	20.739676
1549.414723	-3.025400	3.482000	-10.534000	25.654979	0.000268	20.737084
1550.420803	-3.002600	3.482200	-10.455000	25.675425	0.000267	20.720635
1551.416976	-3.007600	3.483300	-10.476000	25.687080	0.000267	20.731394
1552.414880	-3.027400	3.480700	-10.537000	25.679877	0.000267	20.724158
1553.417896	-2.987900	3.481200	-10.400000	25.700624	0.000267	20.755429
1554.418377	-2.987400	3.481200	-10.399000	25.665431	0.000265	20.731461
1555.416394	-3.007300	3.481800	-10.470000	25.604604	0.000264	20.726318
1556.419386	-3.009900	3.481300	-10.477000	25.545196	0.000267	20.724977
1557.417639	-2.997500	3.480200	-10.430000	25.571034	0.000266	20.746185
1558.417115	-2.998000	3.479700	-10.431000	25.574591	0.000265	20.738851
1559.420319	-2.993200	3.479400	-10.413000	25.596529	0.000265	20.703034
1560.418191	-2.991100	3.479400	-10.406000	25.633850	0.000264	20.719655
1561.425186	-2.998300	3.480300	-10.434000	25.652881	0.000265	20.739244
1562.420199	-2.999400	3.478400	-10.432000	25.602194	0.000263	20.721527
1563.416743	-2.996900	3.477900	-10.421000	25.659172	0.000263	20.722328
1564.415686	-2.990200	3.477800	-10.399000	25.675272	0.000262	20.714790
1565.430235	-3.018800	3.476500	-10.494000	25.670128	0.000262	20.711046
1566.420338	-2.997500	3.477500	-10.422000	25.630325	0.000264	20.724650
1567.420482	-2.994600	3.476900	-10.411000	25.604156	0.000261	20.732033
1568.421995	-2.995100	3.477000	-10.412000	25.601372	0.000259	20.723547
1569.421042	-3.002500	3.475800	-10.435000	25.588405	0.000261	20.725222
1570.421286	-2.993300	3.475700	-10.403000	25.603415	0.000260	20.717063
1571.421222	-2.992800	3.475500	-10.400000	25.647369	0.000260	20.733709
1572.423982	-2.992000	3.474800	-10.396000	25.710622	0.000260	20.733228
1573.420290	-2.987000	3.475200	-10.379000	25.722993	0.000260	20.733326
1574.422489	-3.002800	3.474200	-10.431000	25.749135	0.000260	20.714538
1575.425442	-2.990900	3.474600	-10.391000	25.772510	0.000259	20.712413
1576.424391	-3.010300	3.474500	-10.458000	25.791293	0.000257	20.716108
1577.424690	-2.984600	3.474300	-10.369000	25.806545	0.000257	20.731903
1578.425006	-2.982200	3.474000	-10.359000	25.766667	0.000258	20.713656
1579.423010	-3.008100	3.472700	-10.446000	25.757177	0.000257	20.722617
1580.423087	-2.994100	3.473500	-10.399000	25.757282	0.000257	20.702332
1581.424137	-2.995500	3.473400	-10.403000	25.718867	0.000258	20.726336
1582.424346	-2.992100	3.472000	-10.388000	25.697323	0.000257	20.721767
1583.426429	-2.998300	3.472500	-10.411000	25.693130	0.000257	20.727987
1584.433102	-2.996100	3.470400	-10.397000	25.705600	0.000256	20.715855
1585.424073	-3.009400	3.470500	-10.443000	25.741746	0.000257	20.718022
1586.430180	-2.984500	3.471500	-10.360000	25.765870	0.000257	20.726607
1587.431140	-3.006600	3.470500	-10.434000	25.735089	0.000257	20.726508
1588.431704	-2.990500	3.470000	-10.376000	25.746142	0.000255	20.715799
1589.433221	-2.995400	3.469600	-10.392000	25.776286	0.000254	20.723793
1590.429914	-3.014700	3.469600	-10.459000	25.760922	0.000255	20.708834
1591.428634	-3.006100	3.468200	-10.425000	25.739655	0.000256	20.696954
1592.432002	-3.017000	3.468900	-10.464000	25.750691	0.000254	20.712307
1593.432225	-3.004800	3.467900	-10.420000	25.701173	0.000253	20.713779
1594.432261	-3.011100	3.467700	-10.441000	25.695061	0.000253	20.708588
1595.433234	-2.977100	3.467300	-10.321000	25.696030	0.000251	20.708612
1596.434889	-2.976900	3.467600	-10.322000	25.705300	0.000252	20.695637
1597.432000	-2.983600	3.466900	-10.343000	25.672628	0.000253	20.719248
1598.434701	-3.001000	3.466000	-10.400000	25.671096	0.000251	20.716761
1599.439611	-2.995400	3.467300	-10.385000	25.698169	0.000250	20.706494
1600.433889	-3.015200	3.466700	-10.451000	25.677104	0.000252	20.715683
1601.435998	-3.022200	3.465300	-10.473000	25.711069	0.000249	20.702855
1602.437619	-3.024700	3.464700	-10.478000	25.720535	0.000250	20.703828
1603.434956	-3.010900	3.465900	-10.435000	25.750226	0.000251	20.710892
1604.438729	-3.017300	3.465000	-10.454000	25.764160	0.000249	20.710189
1605.436649	-3.013900	3.465300	-10.443000	25.755719	0.000249	20.714513
1606.435366	-3.017000	3.463800	-10.449000	25.673058	0.000248	20.704032
1607.437745	-3.006300	3.464100	-10.413000	25.650968	0.000248	20.692749
1608.436616	-3.002900	3.463600	-10.400000	25.642072	0.000248	20.696617
1609.437928	-2.995000	3.464200	-10.375000	25.647859	0.000250	20.680617
1610.440361	-2.967400	3.463400	-10.276000	25.626590	0.000248	20.677273
1611.438713	-3.012900	3.462000	-10.430000	25.691469	0.000248	20.693599
1612.441571	-3.011200	3.462600	-10.426000	25.687815	0.000247	20.716009
1613.441082	-3.013700	3.462600	-10.433000	25.712167	0.000247	20.694948
1614.442155	-2.987800	3.462800	-10.345000	25.725857	0.000249	20.698742
1615.438888	-2.973500	3.461900	-10.293000	25.708978	0.000246	20.689848
1616.439638	-2.994900	3.462000	-10.367000	25.649055	0.000245	20.705528
1617.441712	-3.004200	3.460200	-10.394000	25.633242	0.000246	20.719044
1618.441271	-2.994500	3.459800	-10.360000	25.639092	0.000245	20.698366
1619.439834	-2.990100	3.459500	-10.343000	25.645254	0.000246	20.686536
1620.443251	-2.993700	3.460000	-10.358000	25.619907	0.000245	20.691425
1621.442900	-3.017100	3.458200	-10.432000	25.587086	0.000244	20.707302
1622.443031	-2.976800	3.459600	-10.297000	25.570586	0.000245	20.681246
1623.442138	-2.984400	3.458600	-10.320000	25.605719	0.000244	20.691875
1624.443416	-3.009400	3.459100	-10.409000	25.653598	0.000242	20.672629
1625.445122	-2.987400	3.459300	-10.333000	25.645572	0.000244	20.677846
1626.443741	-3.011200	3.458000	-10.411000	25.662966	0.000244	20.673978
1627.443846	-2.981800	3.457200	-10.307000	25.693872	0.000242	20.688900
1628.444283	-2.993700	3.456100	-10.346000	25.727284	0.000242	20.706814
1629.444809	-2.998100	3.458000	-10.366000	25.705282	0.000243	20.676177
1630.443242	-2.989600	3.456100	-10.331000	25.710426	0.000243	20.684189
1631.446301	-2.990400	3.456900	-10.336000	25.688550	0.000242	20.665534
1632.447443	-2.965300	3.457700	-10.252000	25.687011	0.000243	20.694337
1633.445125	-2.992300	3.455600	-10.339000	25.692977	0.000241	20.700330
1634.443902	-2.992200	3.456000	-10.339000	25.718402	0.000243	20.698840
1635.446070	-2.970600	3.455200	-10.262000	25.701897	0.000242	20.676571
1636.446365	-2.973300	3.455200	-10.273000	25.740232	0.000243	20.687101
1637.447144	-3.004700	3.455200	-10.381000	25.709947	0.000242	20.694141
1638.454550	-2.984300	3.454300	-10.307000	25.686270	0.000238	20.680789
1639.445097	-2.983600	3.454400	-10.306000	25.654909	0.000241	20.682482
1640.446547	-2.976600	3.454100	-10.281000	25.677520	0.000239	20.679114
1641.449403	-2.986800	3.453000	-10.313000	25.729920	0.000240	20.688124
1642.446528	-2.994800	3.453300	-10.341000	25.723507	0.000238	20.695433
1643.448897	-3.008200	3.451800	-10.383000	25.674265	0.000240	20.688647
1644.452069	-2.993400	3.452300	-10.334000	25.715286	0.000239	20.674372
1645.447345	-3.005200	3.452600	-10.374000	25.743862	0.000239	20.668934
1646.451802	-3.007600	3.451600	-10.380000	25.778615	0.000236	20.673971
1647.452409	-2.969400	3.452200	-10.249000	25.742659	0.000239	20.691910
1648.447451	-3.010900	3.450600	-10.389000	25.724826	0.000238	20.690119
1649.452813	-2.997500	3.450300	-10.341000	25.719731	0.000238	20.670775
1650.451712	-3.034900	3.449800	-10.468000	25.663407	0.000235	20.673473
1651.451650	-2.967700	3.450700	-10.239000	25.632347	0.000235	20.692065
1652.457302	-2.981500	3.451400	-10.290000	25.676503	0.000237	20.674298
1653.453495	-3.003500	3.449100	-10.358000	25.707905	0.000237	20.666957
1654.451064	-2.991600	3.449600	-10.319000	25.698065	0.000235	20.676040
1655.453187	-2.993500	3.450200	-10.327000	25.695907	0.000236	20.690944
1656.454226	-3.010600	3.447300	-10.377000	25.650538	0.000235	20.685205
1657.460232	-3.006500	3.448500	-10.367000	25.648975	0.000234	20.678892
1658.457014	-3.012300	3.446600	-10.381000	25.670715	0.000234	20.661371
1659.455866	-3.005900	3.447000	-10.361000	25.737994	0.000233	20.672524
1660.453434	-3.012200	3.445700	-10.377000	25.765845	0.000233	20.661143
1661.456508	-3.015500	3.447200	-10.394000	25.766930	0.000233	20.646583
1662.455927	-3.020000	3.445100	-10.402000	25.773790	0.000233	20.688566
1663.453979	-3.012700	3.444600	-10.377000	25.818363	0.000232	20.673596
1664.458377	-3.004800	3.445600	-10.352000	25.851128	0.000232	20.687070
1665.456805	-3.006900	3.445300	-10.359000	25.869389	0.000233	20.661790
1666.454137	-2.987800	3.444100	-10.289000	25.839230	0.000230	20.649035
1667.456593	-3.026300	3.443500	-10.419000	25.811105	0.000232	20.681952
1668.458778	-2.998600	3.443700	-10.326000	25.770933	0.000231	20.670048
1669.455988	-3.015100	3.443400	-10.382000	25.761859	0.000232	20.668994
1670.472579	-3.009400	3.443500	-10.362000	25.746215	0.000230	20.688844
1671.461957	-3.000700	3.443100	-10.331000	25.661910	0.000229	20.656795
1672.459606	-3.009800	3.444100	-10.365000	25.634547	0.000229	20.679100
1673.459653	-3.019800	3.442700	-10.395000	25.626570	0.000230	20.680098
1674.461821	-3.008500	3.442100	-10.354000	25.637134	0.000229	20.670793
1675.459517	-3.009600	3.443000	-10.360000	25.671768	0.000228	20.683294
1676.462114	-2.987900	3.441900	-10.283000	25.718277	0.000229	20.681643
1677.460842	-3.025400	3.442000	-10.413000	25.767192	0.000230	20.647321
1678.459162	-3.027700	3.440500	-10.416000	25.760566	0.000231	20.686663
1679.459541	-3.000600	3.440200	-10.321000	25.784486	0.000230	20.658056
1680.461380	-3.033800	3.438600	-10.432000	25.786430	0.000228	20.669019
1681.459976	-3.019500	3.440300	-10.387000	25.770521	0.000228	20.657305
1682.461999	-2.988700	3.442300	-10.287000	25.735068	0.000229	20.668162
1683.464566	-2.999400	3.439600	-10.316000	25.738023	0.000226	20.663543
1684.466189	-3.024000	3.439200	-10.399000	25.751989	0.000228	20.667140
1685.467919	-3.003900	3.438700	-10.329000	25.737901	0.000228	20.664843
1686.463077	-3.002200	3.439900	-10.326000	25.753374	0.000225	20.669480
1687.462779	-2.996800	3.438800	-10.305000	25.737054	0.000226	20.665415
1688.462565	-2.992500	3.439100	-10.291000	25.722739	0.000225	20.671426
1689.465887	-3.017200	3.436700	-10.368000	25.743135	0.000225	20.669153
1690.461974	-3.026900	3.436800	-10.402000	25.776479	0.000227	20.668506
1691.466130	-3.031600	3.437000	-10.418000	25.768105	0.000226	20.683804
1692.466489	-2.995200	3.437400	-10.294000	25.779507	0.000226	20.669652
1693.463709	-2.975500	3.437400	-10.227000	25.723805	0.000225	20.651632
1694.472181	-2.983100	3.436900	-10.251000	25.742933	0.000225	20.664207
1695.468386	-2.994200	3.435300	-10.285000	25.740002	0.000226	20.664109
1696.465703	-3.022400	3.436000	-10.384000	25.751062	0.000223	20.659096
1697.470941	-3.019900	3.435400	-10.373000	25.729390	0.000223	20.664355
1698.470823	-3.006000	3.434200	-10.322000	25.702923	0.000222	20.676653
1699.468518	-2.994600	3.435300	-10.285000	25.743699	0.000225	20.673038
1700.471470	-2.981900	3.435100	-10.243000	25.740045	0.000223	20.676481
1701.471826	-3.003700	3.432800	-10.310000	25.753979	0.000223	20.677201
1702.467356	-3.011500	3.432600	-10.337000	25.750724	0.000223	20.676302
1703.473298	-2.993600	3.433300	-10.277000	25.786225	0.000223	20.650793
1704.469288	-2.987800	3.434400	-10.260000	25.787064	0.000222	20.672975
1705.468222	-3.002300	3.432400	-10.304000	25.766001	0.000221	20.674103
1706.470998	-2.993300	3.433700	-10.277000	25.708704	0.000222	20.665862
1707.473281	-3.032700	3.431200	-10.405000	25.707134	0.000222	20.688944
1708.471203	-3.005900	3.431600	-10.315000	25.702812	0.000220	20.667057
1709.474330	-2.984800	3.431800	-10.242000	25.710438	0.000219	20.684202
1710.471694	-3.014800	3.429700	-10.339000	25.674830	0.000220	20.686369
1711.469314	-2.997800	3.430700	-10.284000	25.665479	0.000221	20.685038
1712.476885	-2.984500	3.429900	-10.236000	25.703221	0.000219	20.693549
1713.471899	-2.981600	3.429300	-10.224000	25.690842	0.000219	20.680641
1714.470328	-3.011900	3.429600	-10.329000	25.725003	0.000221	20.660896
1715.472857	-3.019400	3.428200	-10.350000	25.731458	0.000219	20.688720
1716.473047	-3.027000	3.429000	-10.379000	25.683570	0.000219	20.666696
1717.471299	-2.997400	3.428200	-10.274000	25.681762	0.000218	20.681477
1718.472110	-2.995900	3.430200	-10.275000	25.713667	0.000220	20.674167
1719.475955	-2.990700	3.429100	-10.255000	25.736441	0.000216	20.671912
1720.470039	-2.999400	3.428000	-10.282000	25.787342	0.000217	20.667090
1721.473769	-2.999700	3.427800	-10.282000	25.828954	0.000216	20.672380
1722.474216	-2.991200	3.426700	-10.248000	25.809098	0.000216	20.674245
1723.475618	-2.999100	3.427800	-10.280000	25.795378	0.000216	20.683698
1724.479121	-2.970600	3.427100	-10.179000	25.745642	0.000216	20.681155
1725.473175	-2.974000	3.427100	-10.192000	25.738487	0.000217	20.678710
1726.472794	-3.013500	3.424700	-10.320000	25.751496	0.000213	20.688932
1727.475221	-3.014000	3.426800	-10.326000	25.794200	0.000214	20.670185
1728.474864	-2.992600	3.425600	-10.250000	25.786482	0.000214	20.671443
1729.473057	-2.993300	3.424800	-10.250000	25.826101	0.000215	20.669989
1730.476483	-3.010900	3.426000	-10.314000	25.861324	0.000214	20.693994
1731.476055	-3.016500	3.425000	-10.331000	25.896074	0.000213	20.682434
1732.476741	-2.999100	3.424700	-10.270000	25.866215	0.000214	20.699382
1733.477226	-2.999800	3.423200	-10.268000	25.865174	0.000214	20.683635
1734.476767	-2.973200	3.424700	-10.181000	25.853048	0.000214	20.667186
1735.475325	-2.991300	3.423100	-10.238000	25.845545	0.000212	20.675297
1736.476932	-2.995800	3.422900	-10.254000	25.804130	0.000212	20.669729
1737.477596	-2.997600	3.422800	-10.260000	25.819633	0.000214	20.677717
1738.476872	-3.005100	3.422600	-10.285000	25.777371	0.000213	20.682680
1739.481318	-2.982000	3.421900	-10.203000	25.785438	0.000212	20.680352
1740.481988	-2.999600	3.421300	-10.262000	25.755203	0.000211	20.693605
1741.480517	-2.988900	3.421700	-10.226000	25.716218	0.000214	20.704234
1742.483833	-3.006300	3.420600	-10.282000	25.760598	0.000211	20.678160
1743.484843	-2.993600	3.420700	-10.239000	25.762731	0.000210	20.683622
1744.480758	-2.989000	3.420400	-10.222000	25.792494	0.000210	20.685543
1745.483448	-2.997600	3.420400	-10.252000	25.805711	0.000210	20.691708
1746.485054	-2.995500	3.420300	-10.244000	25.840291	0.000210	20.681398
1747.482142	-3.033100	3.417800	-10.365000	25.802057	0.000210	20.677605
1748.485575	-3.008500	3.420200	-10.289000	25.762228	0.000210	20.699239
1749.485563	-2.991900	3.417800	-10.225000	25.775739	0.000208	20.693844
1750.483026	-2.982800	3.418900	-10.197000	25.764190	0.000209	20.683190
1751.483747	-2.983400	3.418500	-10.198000	25.811687	0.000208	20.696763
1752.485287	-3.031600	3.417700	-10.361000	25.841221	0.000207	20.685653
1753.482697	-3.033500	3.416400	-10.363000	25.812275	0.000209	20.705889
1754.487542	-3.012800	3.417600	-10.295000	25.821844	0.000208	20.706019
1755.491093	-2.977200	3.417500	-10.174000	25.765966	0.000207	20.689243
1756.482539	-2.980700	3.416900	-10.184000	25.738441	0.000209	20.693363
1757.486965	-2.987300	3.416700	-10.206000	25.742039	0.000206	20.720213
1758.487234	-3.000700	3.416700	-10.252000	25.756194	0.000205	20.694126
1759.485786	-3.001800	3.415800	-10.253000	25.802834	0.000207	20.686447
1760.494344	-2.994900	3.415200	-10.227000	25.788894	0.000205	20.699946
1761.489952	-2.989300	3.417000	-10.212000	25.768988	0.000206	20.723100
1762.486497	-2.989500	3.415400	-10.209000	25.769159	0.000205	20.719005
1763.488848	-2.996200	3.414100	-10.229000	25.717380	0.000204	20.713937
1764.491334	-3.003200	3.415100	-10.255000	25.681104	0.000204	20.682714
1765.485569	-3.011400	3.414500	-10.282000	25.758774	0.000205	20.703357
1766.492860	-3.007000	3.413500	-10.263000	25.758191	0.000203	20.689493
1767.488025	-3.006100	3.412700	-10.258000	25.777877	0.000202	20.716856
1768.486966	-2.997100	3.412900	-10.228000	25.817618	0.000203	20.705567
1769.489007	-2.995600	3.411900	-10.220000	25.829118	0.000204	20.708584
1770.489413	-3.005000	3.412300	-10.252000	25.810531	0.000203	20.716941
1771.487326	-2.989000	3.413300	-10.202000	25.837038	0.000205	20.693305
1772.492097	-2.991900	3.411500	-10.206000	25.853240	0.000202	20.729972
1773.488720	-3.002200	3.411200	-10.240000	25.889405	0.000200	20.708929
1774.487654	-3.003100	3.410400	-10.241000	25.865438	0.000200	20.724208
1775.491064	-2.973700	3.411700	-10.144000	25.881357	0.000200	20.709378
1776.492343	-3.008100	3.410200	-10.257000	25.882791	0.000201	20.721251
1777.487945	-3.033100	3.409300	-10.339000	25.846649	0.000202	20.709600
1778.490430	-3.022100	3.408200	-10.299000	25.815238	0.000201	20.716453
1779.490945	-2.994800	3.410200	-10.212000	25.843566	0.000200	20.716934
1780.488230	-3.003400	3.409300	-10.239000	25.819444	0.000201	20.723523
1781.491150	-3.005400	3.408100	-10.242000	25.796787	0.000199	20.705030
1782.490306	-2.986700	3.407700	-10.177000	25.812186	0.000200	20.714809
1783.490282	-3.023600	3.408400	-10.305000	25.876103	0.000199	20.695090
1784.496234	-2.992700	3.408100	-10.199000	25.843210	0.000199	20.728431
1785.492310	-3.016000	3.407700	-10.276000	25.811861	0.000198	20.708792
1786.490263	-3.004200	3.408100	-10.238000	25.847206	0.000198	20.715375
1787.492504	-3.014500	3.405400	-10.265000	25.889840	0.000197	20.720745
1788.491069	-3.020900	3.407100	-10.291000	25.942971	0.000196	20.716748
1789.491178	-2.984500	3.407500	-10.169000	25.923564	0.000196	20.723331
1790.494995	-2.991700	3.406000	-10.189000	25.898378	0.000196	20.719839
1791.495665	-2.998000	3.406600	-10.212000	25.854881	0.000196	20.726878
1792.494534	-2.990800	3.406100	-10.186000	25.856622	0.000196	20.709186
1793.502995	-3.005600	3.404300	-10.231000	25.842853	0.000196	20.737556
1794.495550	-2.988700	3.406000	-10.178000	25.831672	0.000196	20.725849
1795.494841	-3.019100	3.403300	-10.274000	25.834284	0.000196	20.734163
1796.495707	-3.016900	3.403900	-10.268000	25.786456	0.000192	20.718835
1797.496832	-3.010100	3.404600	-10.248000	25.751794	0.000195	20.711519
1798.497798	-3.005000	3.403600	-10.227000	25.786302	0.000195	20.716784
1799.494609	-3.005800	3.403400	-10.229000	25.803344	0.000193	20.745284
1800.495502	-3.018800	3.402600	-10.271000	25.789446	0.000193	20.724210
1801.497578	-3.020200	3.402100	-10.274000	25.780362	0.000194	20.739267
1802.499679	-2.995600	3.401700	-10.189000	25.755392	0.000193	20.739791
1803.499741	-3.001900	3.402200	-10.212000	25.790170	0.000191	20.720669
1804.501769	-3.002100	3.400900	-10.209000	25.819012	0.000191	20.727357
1805.504184	-2.998400	3.401600	-10.199000	25.822715	0.000190	20.732973
1806.502563	-2.980100	3.401900	-10.137000	25.802516	0.000192	20.739236
1807.500123	-3.000800	3.401600	-10.207000	25.834288	0.000191	20.739858
1808.503143	-2.996100	3.399700	-10.185000	25.833369	0.000191	20.752685
1809.499191	-2.992300	3.399600	-10.172000	25.827135	0.000189	20.736939
1810.497415	-3.012400	3.399800	-10.240000	25.814757	0.000193	20.724031
1811.501509	-3.005100	3.397700	-10.209000	25.866329	0.000192	20.749286
1812.503350	-2.999500	3.398100	-10.192000	25.905130	0.000191	20.725675
1813.501147	-3.002300	3.399200	-10.204000	25.916238	0.000191	20.743947
1814.504443	-3.007300	3.398200	-10.218000	25.904683	0.000191	20.742770
1815.502131	-2.990400	3.397700	-10.159000	25.941245	0.000192	20.739198
1816.500618	-2.999800	3.396800	-10.189000	25.975233	0.000190	20.744895
1817.502526	-3.003500	3.396000	-10.198000	26.039613	0.000189	20.720435
1818.501896	-3.002200	3.397700	-10.200000	25.968319	0.000188	20.738896
1819.499634	-2.987700	3.397700	-10.150000	25.910500	0.000189	20.730122
1820.503332	-3.032600	3.395800	-10.297000	25.925345	0.000187	20.755468
1821.500669	-2.981600	3.396000	-10.125000	25.945046	0.000188	20.750129
1822.502493	-3.008600	3.395400	-10.213000	25.978009	0.000188	20.739149
1823.503250	-3.014500	3.395700	-10.236000	25.983225	0.000187	20.726371
1824.500629	-2.983300	3.396500	-10.131000	26.007203	0.000188	20.735288
1825.500421	-3.018600	3.394000	-10.244000	25.963655	0.000186	20.747013
1826.502269	-2.990800	3.395200	-10.154000	26.040120	0.000188	20.747499
1827.502289	-2.985200	3.395300	-10.135000	26.052330	0.000185	20.722307
1828.501194	-3.020700	3.394000	-10.252000	26.087392	0.000183	20.730035
1829.501495	-3.012600	3.393400	-10.222000	26.102370	0.000186	20.759785
1830.503358	-3.020600	3.392900	-10.248000	26.057913	0.000183	20.749254
1831.502556	-3.013200	3.392700	-10.222000	26.015237	0.000184	20.760431
1832.506085	-2.995900	3.393500	-10.166000	25.934460	0.000184	20.741864
1833.506073	-3.000300	3.392500	-10.178000	25.944169	0.000184	20.762999
1834.506755	-2.980600	3.392700	-10.111000	25.982226	0.000184	20.763775
1835.504707	-2.987200	3.392600	-10.133000	25.928870	0.000186	20.754741
1836.506192	-3.004200	3.391000	-10.186000	25.917536	0.000182	20.789822
1837.504226	-2.975100	3.392500	-10.093000	25.923206	0.000184	20.744783
1838.504160	-2.983100	3.391400	-10.116000	25.964610	0.000185	20.754611
1839.509784	-2.979300	3.390500	-10.100000	25.955293	0.000181	20.755208
1840.504927	-2.984200	3.389900	-10.116000	25.937848	0.000184	20.762339
1841.504670	-2.981100	3.390000	-10.104000	25.923616	0.000184	20.752782
1842.505707	-3.000400	3.389300	-10.168000	25.945522	0.000183	20.761988
1843.505122	-2.971900	3.389800	-10.073000	25.948728	0.000181	20.767579
1844.504642	-2.986100	3.389100	-10.119000	25.998926	0.000182	20.766329
1845.516325	-2.981000	3.389600	-10.103000	26.006495	0.000180	20.779624
1846.508218	-2.981200	3.388800	-10.102000	26.031263	0.000183	20.753298
1847.506146	-3.002200	3.387200	-10.168000	25.968072	0.000180	20.777530
1848.507682	-2.994900	3.388400	-10.146000	25.972662	0.000180	20.747054
1849.505647	-3.011700	3.387700	-10.202000	25.950750	0.000180	20.757282
1850.506754	-3.006800	3.387900	-10.186000	25.915370	0.000180	20.755877
1851.507161	-3.014300	3.387300	-10.209000	25.939097	0.000180	20.759800
1852.505577	-2.982600	3.385700	-10.097000	25.991796	0.000180	20.762485
1853.510705	-3.005700	3.386600	-10.178000	25.990632	0.000182	20.779333
1854.506213	-3.011100	3.385500	-10.192000	25.975971	0.000180	20.802535
1855.505539	-3.005600	3.385800	-10.175000	25.942119	0.000179	20.768526
1856.505819	-2.998000	3.386000	-10.150000	25.937435	0.000178	20.778045
1857.507152	-2.987400	3.386000	-10.115000	25.873521	0.000177	20.758881
1858.506263	-2.994700	3.384800	-10.135000	25.894803	0.000177	20.776468
1859.507229	-2.984600	3.384600	-10.101000	25.925181	0.000176	20.769054
1860.509633	-2.993400	3.384300	-10.130000	25.932524	0.000177	20.785439
1861.510573	-2.983500	3.384500	-10.097000	25.911953	0.000175	20.784214
1862.508610	-3.002200	3.382800	-10.155000	25.927521	0.000174	20.778043
1863.508403	-2.992300	3.384000	-10.125000	25.907576	0.000177	20.766066
1864.507234	-3.005300	3.383200	-10.166000	25.908961	0.000175	20.783579
1865.509139	-3.024500	3.382800	-10.229000	25.968097	0.000175	20.767124
1866.507282	-3.014400	3.382400	-10.195000	25.948796	0.000177	20.786614
1867.512145	-3.024100	3.381200	-10.224000	25.938529	0.000174	20.768238
1868.510404	-2.986300	3.382300	-10.100000	25.924369	0.000173	20.789101
1869.510873	-2.993000	3.382200	-10.122000	25.918436	0.000173	20.776502
1870.515427	-3.012800	3.380300	-10.183000	25.910927	0.000174	20.795511
1871.510482	-3.001600	3.380500	-10.146000	25.963561	0.000175	20.791964
1872.511449	-2.999700	3.381000	-10.141000	25.989616	0.000173	20.798701
1873.512959	-2.999500	3.380000	-10.137000	26.022376	0.000173	20.774716
1874.512686	-3.001600	3.381000	-10.146000	26.003418	0.000172	20.777480
1875.511055	-3.021200	3.379900	-10.210000	26.036251	0.000171	20.762578
1876.512343	-2.986300	3.379900	-10.091000	26.011557	0.000173	20.797511
1877.512262	-3.003700	3.380500	-10.152000	25.961384	0.000172	20.771285
1878.515085	-2.992900	3.379000	-10.112000	25.980703	0.000170	20.789272
1879.515477	-2.992800	3.379300	-10.112000	26.025886	0.000170	20.789149
1880.512618	-2.984000	3.378100	-10.079000	26.082535	0.000171	20.797227
1881.514859	-3.010900	3.377000	-10.167000	26.106828	0.000168	20.784653
1882.515008	-3.007700	3.376600	-10.155000	26.049795	0.000172	20.808428
1883.513125	-2.981300	3.377500	-10.068000	26.003895	0.000170	20.791710
1884.512626	-2.990500	3.377100	-10.098000	26.017232	0.000168	20.811273
1885.517089	-2.991700	3.377300	-10.103000	26.019193	0.000169	20.813244
1886.513281	-2.983200	3.376000	-10.070000	26.003980	0.000170	20.794640
1887.516357	-3.013200	3.374400	-10.167000	25.977257	0.000168	20.809044
1888.516325	-2.995000	3.374600	-10.107000	25.979114	0.000168	20.798107
1889.514948	-2.992400	3.375100	-10.097000	25.969951	0.000168	20.804074
1890.515685	-2.992800	3.375900	-10.102000	25.936925	0.000170	20.806456
1891.514505	-2.985200	3.376400	-10.078000	25.914749	0.000166	20.815946
1892.515677	-2.996800	3.374800	-10.112000	25.928583	0.000167	20.790963
1893.514807	-2.992400	3.375000	-10.099000	25.967406	0.000165	20.809578
1894.517035	-3.021700	3.373200	-10.193000	25.938610	0.000166	20.802934
1895.514090	-3.030500	3.371800	-10.217000	25.987344	0.000168	20.809221
1896.515191	-3.001300	3.372900	-10.122000	26.038037	0.000168	20.804676
1897.516349	-3.002200	3.372400	-10.124000	26.097774	0.000166	20.820126
1898.514475	-3.007500	3.372900	-10.143000	26.120192	0.000168	20.817995
1899.518797	-2.999300	3.371400	-10.111000	26.123317	0.000166	20.798850
1900.514287	-2.999400	3.370800	-10.109000	26.156300	0.000165	20.805913
1901.515480	-2.981800	3.371800	-10.053000	26.177589	0.000165	20.821616
1902.515581	-3.001400	3.371300	-10.118000	26.147959	0.000167	20.807964
1903.516246	-3.037300	3.369600	-10.234000	26.142934	0.000166	20.807656
1904.515536	-2.978700	3.370200	-10.038000	26.118843	0.000163	20.825649
1905.515480	-2.985500	3.371400	-10.064000	26.086803	0.000163	20.828069
1906.517060	-3.005600	3.369200	-10.125000	26.111716	0.000163	20.840298
1907.518125	-3.022300	3.369100	-10.181000	26.163218	0.000163	20.817132
1908.516100	-2.983200	3.369600	-10.052000	26.169628	0.000164	20.841591
1909.517536	-3.003600	3.369100	-10.118000	26.169474	0.000163	20.830531
1910.518134	-3.000300	3.366900	-10.101000	26.170492	0.000161	20.814484
1911.517953	-2.984900	3.369100	-10.055000	26.186284	0.000161	20.817076
1912.519862	-2.991500	3.367500	-10.073000	26.159387	0.000161	20.841732
1913.520931	-2.997600	3.368100	-10.095000	26.190684	0.000160	20.827662
1914.518080	-2.982800	3.367800	-10.045000	26.137803	0.000160	20.814355
1915.517287	-3.012000	3.365400	-10.135000	26.173617	0.000162	20.814305
1916.517429	-2.994200	3.366500	-10.079000	26.191596	0.000160	20.818148
1917.522460	-3.021600	3.365700	-10.169000	26.230257	0.000160	20.819065
1918.519042	-2.994300	3.366700	-10.080000	26.211390	0.000159	20.826184
1919.517675	-3.009500	3.366100	-10.129000	26.230086	0.000158	20.826005
1920.518324	-3.010700	3.366000	-10.133000	26.238683	0.000158	20.822791
1921.518482	-3.015400	3.364200	-10.143000	26.246104	0.000157	20.802273
1922.521989	-3.013000	3.364200	-10.135000	26.210862	0.000159	20.790567
1923.519884	-3.005700	3.366000	-10.115000	26.191419	0.000156	20.812753
1924.517438	-3.018900	3.363900	-10.155000	26.203656	0.000159	20.816041
1925.521142	-3.008900	3.363700	-10.120000	26.187815	0.000156	20.797279
1926.520815	-3.015400	3.363200	-10.140000	26.171000	0.000159	20.797925
1927.521755	-2.997300	3.363600	-10.081000	26.173880	0.000156	20.815044
1928.519625	-2.998800	3.363700	-10.086000	26.198784	0.000158	20.802611
1929.521543	-2.981700	3.363600	-10.028000	26.180430	0.000158	20.800289
1930.523894	-2.994000	3.362200	-10.066000	26.187858	0.000156	20.797321
1931.524925	-3.017500	3.363200	-10.148000	26.150654	0.000158	20.790283
1932.523424	-3.002300	3.361800	-10.092000	26.140370	0.000155	20.796071
1933.523731	-2.995900	3.361800	-10.071000	26.084258	0.000155	20.789476
1934.527309	-3.015500	3.361100	-10.134000	26.159760	0.000157	20.799433
1935.524103	-2.995700	3.361300	-10.069000	26.169994	0.000154	20.796915
1936.525765	-2.999800	3.360500	-10.079000	26.154048	0.000157	20.786582
1937.528635	-3.007600	3.360300	-10.106000	26.157670	0.000155	20.788324
1938.523717	-2.975900	3.360000	-9.998000	26.143489	0.000154	20.781661
1939.525095	-2.992100	3.360400	-10.054000	26.154416	0.000152	20.802124
1940.530673	-3.031900	3.357300	-10.178000	26.154262	0.000153	20.793435
1941.529869	-3.002600	3.359500	-10.086000	26.134695	0.000154	20.787998
1942.526678	-2.996200	3.358600	-10.063000	26.096594	0.000154	20.781482
1943.530032	-3.000700	3.358700	-10.077000	26.116953	0.000154	20.787714
1944.525921	-3.000200	3.359200	-10.076000	26.142036	0.000154	20.804857
1945.529459	-2.972000	3.358300	-9.979500	26.134646	0.000154	20.784629
1946.529386	-3.002600	3.358200	-10.082000	26.091949	0.000153	20.776815
1947.527155	-3.036200	3.357400	-10.193000	26.102030	0.000152	20.795479
1948.526518	-3.007300	3.356100	-10.091000	26.153913	0.000151	20.778859
1949.530686	-2.987400	3.356600	-10.026000	26.221297	0.000152	20.782560
1950.528483	-2.999600	3.356600	-10.067000	26.250471	0.000151	20.784377
1951.528339	-2.969100	3.356600	-9.964500	26.233129	0.000151	20.769794
1952.531214	-2.998200	3.355500	-10.060000	26.240728	0.000153	20.761783
1953.530188	-2.986800	3.355400	-10.021000	26.222553	0.000151	20.770071
1954.528031	-2.990200	3.355000	-10.031000	26.236303	0.000149	20.762552
1955.533143	-2.975800	3.354300	-9.980800	26.265508	0.000149	20.779099
1956.528812	-2.993200	3.355000	-10.041000	26.216786	0.000152	20.752422
1957.530310	-3.009500	3.353300	-10.091000	26.223196	0.000148	20.773089
1958.534342	-3.017500	3.353000	-10.116000	26.191809	0.000149	20.784697
1959.529432	-2.971700	3.353800	-9.964900	26.206602	0.000148	20.759258
1960.531572	-3.012400	3.352300	-10.098000	26.261261	0.000147	20.768667
1961.536199	-2.992400	3.352000	-10.029000	26.306182	0.000145	20.756437
1962.531897	-3.008200	3.352600	-10.085000	26.286090	0.000146	20.755212
1963.531497	-2.991100	3.352900	-10.028000	26.236775	0.000145	20.766345
1964.537139	-3.004300	3.352700	-10.071000	26.224599	0.000145	20.777343
1965.533072	-3.000000	3.350600	-10.051000	26.188689	0.000145	20.759276
1966.531743	-2.973600	3.352200	-9.967000	26.212754	0.000147	20.786777
1967.536304	-3.002500	3.351600	-10.063000	26.245231	0.000146	20.765834
1968.533373	-3.000400	3.350600	-10.052000	26.264331	0.000146	20.775545
1969.533023	-2.998200	3.351300	-10.047000	26.272701	0.000142	20.758826
1970.536149	-2.995500	3.350200	-10.035000	26.256499	0.000145	20.767201
1971.533721	-3.010300	3.349700	-10.083000	26.272450	0.000143	20.778014
1972.534750	-3.031200	3.349600	-10.152000	26.285378	0.000144	20.763980
1973.538612	-3.005900	3.348700	-10.065000	26.234354	0.000142	20.772447
1974.536134	-2.988300	3.349300	-10.008000	26.206631	0.000143	20.746959
1975.534986	-3.017000	3.348900	-10.103000	26.200602	0.000141	20.760341
1976.536945	-3.008700	3.347400	-10.071000	26.212839	0.000143	20.763155
1977.534792	-2.997500	3.347900	-10.034000	26.268319	0.000141	20.761061
1978.538894	-2.979600	3.348100	-9.975600	26.305390	0.000141	20.758961
1979.543501	-2.991400	3.346600	-10.010000	26.311028	0.000142	20.770316
1980.536852	-2.986600	3.347900	-9.998300	26.317167	0.000141	20.755624
1981.539333	-2.997500	3.346300	-10.030000	26.318944	0.000141	20.770686
1982.538144	-3.003200	3.345600	-10.046000	26.271763	0.000140	20.768789
1983.536832	-2.993100	3.344600	-10.010000	26.288779	0.000141	20.762182
1984.538812	-2.987000	3.346900	-9.996400	26.221951	0.000139	20.741016
1985.539630	-2.999600	3.345400	-10.034000	26.237270	0.000139	20.767791
1986.542996	-2.986000	3.345200	-9.987900	26.279385	0.000139	20.778346
1987.539114	-2.993600	3.345600	-10.015000	26.261156	0.000139	20.747697
1988.540074	-2.979300	3.345600	-9.966800	26.284876	0.000138	20.764423
1989.537886	-3.019200	3.343600	-10.093000	26.308809	0.000137	20.757181
1990.539365	-2.995700	3.344100	-10.017000	26.318594	0.000138	20.767489
1991.541317	-3.003900	3.343100	-10.042000	26.350652	0.000138	20.755136
1992.541018	-3.006400	3.344500	-10.054000	26.334237	0.000140	20.756657
1993.541314	-2.989700	3.343300	-9.995200	26.320709	0.000136	20.746854
1994.542575	-2.996000	3.342300	-10.012000	26.341020	0.000137	20.749249
1995.539679	-2.976400	3.343800	-9.952200	26.317032	0.000135	20.749323
1996.544397	-2.992900	3.342300	-10.003000	26.266174	0.000136	20.747999
1997.542783	-3.003000	3.340600	-10.031000	26.219561	0.000136	20.744304
1998.542142	-2.987900	3.341800	-9.984400	26.215387	0.000137	20.745327
1999.547163	-3.015600	3.340200	-10.072000	26.285966	0.000134	20.757458
2000.544248	-2.994200	3.340400	-10.001000	26.261701	0.000134	20.743030
2001.544978	-3.009600	3.339800	-10.050000	26.316683	0.000134	20.740911
2002.549931	-2.996800	3.339800	-10.008000	26.335058	0.000135	20.743258
2003.547977	-2.998100	3.338900	-10.009000	26.316113	0.000135	20.742235
2004.545561	-3.012100	3.339400	-10.057000	26.317161	0.000134	20.741866
2005.545060	-2.990300	3.339900	-9.986300	26.293687	0.000133	20.739138
2006.545689	-2.986300	3.339200	-9.971100	26.324501	0.000133	20.741656
2007.546201	-3.002400	3.338700	-10.023000	26.329967	0.000134	20.741933
2008.545345	-2.978700	3.338200	-9.942700	26.371802	0.000132	20.747469
2009.545809	-2.989800	3.337800	-9.978400	26.385508	0.000130	20.717621
2010.545251	-2.995600	3.337500	-9.997200	26.374675	0.000130	20.763160
2011.545632	-2.987300	3.338500	-9.971700	26.383443	0.000131	20.747315
2012.549407	-3.010300	3.336500	-10.043000	26.329108	0.000130	20.743916
2013.548479	-2.991200	3.337500	-9.982300	26.302669	0.000130	20.743898
2014.548394	-3.017500	3.335300	-10.063000	26.287529	0.000129	20.750019
2015.548126	-3.008500	3.334900	-10.031000	26.300163	0.000131	20.746121
2016.547779	-3.003600	3.336200	-10.020000	26.337307	0.000129	20.719911
2017.548573	-3.010900	3.334900	-10.040000	26.348961	0.000129	20.740160
2018.550948	-3.030000	3.333700	-10.100000	26.376710	0.000130	20.741021
2019.546606	-3.002500	3.334600	-10.012000	26.391726	0.000128	20.727190
2020.551479	-3.016500	3.333300	-10.054000	26.471263	0.000131	20.733638
2021.553783	-3.013900	3.333600	-10.046000	26.456712	0.000129	20.724702
2022.549351	-3.016500	3.334100	-10.056000	26.391561	0.000128	20.725602
2023.548510	-3.016800	3.333400	-10.055000	26.378020	0.000126	20.721475
2024.549985	-2.994400	3.334800	-9.985000	26.392174	0.000129	20.738546
2025.549137	-3.007800	3.332800	-10.023000	26.422740	0.000130	20.727067
2026.549942	-2.998900	3.331800	-9.991400	26.466637	0.000126	20.726617
2027.555705	-2.972900	3.331900	-9.904700	26.486523	0.000125	20.736175
2028.550388	-3.001700	3.331700	-9.999900	26.484832	0.000126	20.724991
2029.552812	-3.011300	3.331400	-10.031000	26.518128	0.000127	20.721001
2030.557244	-2.998600	3.332900	-9.993900	26.471722	0.000126	20.734573
2031.553254	-3.023100	3.329700	-10.065000	26.393338	0.000124	20.737819
2032.556549	-3.005500	3.332000	-10.013000	26.350228	0.000124	20.722941
2033.559528	-3.015700	3.331200	-10.045000	26.319390	0.000123	20.717552
2034.554156	-3.004300	3.329400	-10.002000	26.374240	0.000123	20.722417
2035.554203	-3.005000	3.328900	-10.002000	26.427071	0.000124	20.732843
2036.556951	-2.986000	3.329100	-9.940400	26.471568	0.000126	20.730626
2037.555372	-3.021100	3.328500	-10.055000	26.496839	0.000126	20.729000
2038.555944	-2.993300	3.328300	-9.962100	26.497985	0.000125	20.728729
2039.558891	-2.992600	3.329000	-9.961700	26.464247	0.000123	20.726586
2040.556462	-2.987300	3.328100	-9.941000	26.467886	0.000124	20.711751
2041.558122	-2.986400	3.327600	-9.936500	26.419995	0.000124	20.731420
2042.558769	-2.994500	3.327400	-9.962300	26.476573	0.000122	20.724276
2043.560361	-3.000400	3.326000	-9.978100	26.460908	0.000123	20.730816
2044.561880	-3.000900	3.325200	-9.978100	26.489831	0.000122	20.698719
2045.565073	-3.003000	3.325900	-9.986000	26.493702	0.000122	20.725847
2046.562122	-2.997000	3.325200	-9.965100	26.542938	0.000122	20.695203
2047.563390	-2.996700	3.324700	-9.962300	26.531862	0.000119	20.721056
2048.563670	-3.023700	3.325300	-10.054000	26.499614	0.000121	20.708554
2049.564384	-2.994200	3.324800	-9.954500	26.483674	0.000119	20.713395
2050.564019	-2.995700	3.324700	-9.958800	26.484354	0.000122	20.714079
2051.564672	-3.010500	3.324600	-10.008000	26.486382	0.000120	20.718013
2052.568831	-3.017400	3.322600	-10.025000	26.446927	0.000120	20.707754
2053.565103	-3.011200	3.323100	-10.006000	26.471856	0.000120	20.728544
2054.567818	-2.992600	3.324000	-9.945300	26.512865	0.000119	20.728987
2055.564917	-3.006700	3.323400	-9.991700	26.447503	0.000118	20.724929
2056.567164	-2.977700	3.322800	-9.893800	26.466128	0.000118	20.715674
2057.566122	-3.010100	3.321800	-9.998400	26.494236	0.000116	20.697457
2058.567886	-2.983100	3.322800	-9.911400	26.526184	0.000122	20.712028
2059.566745	-2.989900	3.322300	-9.932400	26.511990	0.000117	20.699182
2060.567118	-2.963300	3.323500	-9.847500	26.545083	0.000118	20.707317
2061.566848	-2.960000	3.322100	-9.832100	26.575749	0.000116	20.715385
2062.565969	-2.957900	3.321700	-9.823900	26.524254	0.000116	20.704872
2063.567034	-3.007700	3.319300	-9.982500	26.483956	0.000116	20.697556
2064.567204	-2.989500	3.320200	-9.925100	26.492999	0.000117	20.718975
2065.569225	-2.981200	3.320100	-9.896800	26.495014	0.000116	20.719578
2066.569345	-2.990900	3.319900	-9.928400	26.540795	0.000116	20.699213
2067.571100	-3.002800	3.319300	-9.966900	26.565078	0.000112	20.696596
2068.568441	-2.996600	3.319200	-9.945400	26.564110	0.000115	20.693252
2069.568604	-2.996800	3.318400	-9.944200	26.600136	0.000113	20.697224
2070.572948	-2.989600	3.319000	-9.921600	26.643425	0.000114	20.715138
2071.572909	-3.005200	3.317700	-9.969800	26.659493	0.000114	20.715169
2072.574598	-2.982000	3.317000	-9.890700	26.585367	0.000113	20.690912
2073.574496	-2.996400	3.316800	-9.937700	26.615953	0.000114	20.699374
2074.572502	-2.993200	3.316600	-9.925500	26.622385	0.000112	20.697779
2075.575115	-3.006500	3.315900	-9.967600	26.552607	0.000110	20.689274
2076.579810	-2.996900	3.316200	-9.936900	26.522614	0.000109	20.699903
2077.574199	-2.999800	3.314800	-9.942300	26.504566	0.000111	20.682709
2078.577382	-3.014000	3.314500	-9.989200	26.499150	0.000109	20.693388
2079.576938	-3.026800	3.313700	-10.029000	26.546481	0.000109	20.701136
2080.574748	-2.992000	3.314900	-9.916900	26.548288	0.000110	20.693468
2081.577153	-3.009000	3.313800	-9.970300	26.518595	0.000112	20.699183
2082.578653	-3.012900	3.312500	-9.979400	26.500327	0.000109	20.683664
2083.577972	-3.011000	3.313300	-9.975400	26.464377	0.000110	20.692101
2084.596781	-2.997700	3.313600	-9.930900	26.475234	0.000112	20.689262
2085.578405	-2.999800	3.314300	-9.940000	26.551830	0.000110	20.688493
2086.576204	-2.993600	3.312800	-9.916400	26.608450	0.000109	20.698469
2087.578832	-3.015500	3.311900	-9.986200	26.660235	0.000111	20.701690
2088.577487	-3.026400	3.310100	-10.016000	26.668357	0.000109	20.692785
2089.579870	-3.004000	3.309300	-9.940400	26.623568	0.000108	20.689958
2090.580017	-2.998600	3.311300	-9.928400	26.626177	0.000109	20.677882
2091.580363	-2.999900	3.310900	-9.931200	26.640058	0.000107	20.698001
2092.578322	-2.970600	3.311600	-9.836300	26.650441	0.000108	20.703698
2093.579637	-2.993900	3.310600	-9.910400	26.606741	0.000106	20.700071
2094.579063	-2.997400	3.310400	-9.921500	26.616401	0.000108	20.705989
2095.578877	-3.000000	3.308500	-9.924100	26.620322	0.000104	20.692859
2096.579694	-3.000700	3.309500	-9.929900	26.591305	0.000105	20.680284
2097.579762	-2.989600	3.308500	-9.890000	26.626331	0.000107	20.692736
2098.580005	-2.991100	3.308400	-9.894900	26.670544	0.000105	20.684552
2099.579697	-2.983700	3.308600	-9.871000	26.662023	0.000105	20.685943
2100.582837	-2.996400	3.307200	-9.908400	26.629926	0.000107	20.669796
2101.580312	-2.987500	3.308700	-9.883700	26.676375	0.000106	20.681405
2102.584091	-3.011500	3.307400	-9.959400	26.663647	0.000105	20.676195
2103.579652	-3.015300	3.306700	-9.969600	26.707803	0.000104	20.690242
2104.579203	-2.993300	3.306000	-9.894600	26.722944	0.000104	20.667055
2105.579351	-3.011000	3.305200	-9.951100	26.798101	0.000104	20.667702
2106.580404	-2.998100	3.306000	-9.910300	26.791450	0.000107	20.678085
2107.594602	-2.987100	3.304300	-9.870000	26.814515	0.000105	20.670455
2108.580245	-3.005200	3.305900	-9.933200	26.808954	0.000102	20.675296
2109.580501	-2.992500	3.304600	-9.887700	26.808078	0.000105	20.677734
2110.581128	-3.015300	3.304100	-9.961600	26.784345	0.000103	20.672838
2111.582212	-3.002800	3.305100	-9.923300	26.720506	0.000103	20.668872
2112.583239	-3.005700	3.304000	-9.930300	26.721027	0.000101	20.685044
2113.582565	-2.994400	3.304100	-9.892100	26.722938	0.000103	20.661833
2114.583735	-2.992400	3.302400	-9.881800	26.704153	0.000100	20.669974
2115.591039	-2.980700	3.302300	-9.842300	26.740161	9.961780E-5	20.689108
2116.584278	-3.028200	3.301000	-9.994800	26.742697	0.000101	20.670793
2117.585267	-2.994900	3.301400	-9.886900	26.777020	0.000101	20.672111
2118.584667	-3.002000	3.301100	-9.909100	26.823218	9.978282E-5	20.679680
2119.585141	-2.998000	3.300600	-9.893800	26.821331	9.846272E-5	20.694380
2120.584169	-2.972300	3.300500	-9.808100	26.805885	9.968381E-5	20.659880
2121.582371	-2.991300	3.299600	-9.869200	26.808121	0.000102	20.669715
2122.583906	-3.004800	3.300700	-9.917600	26.820982	9.905676E-5	20.669371
2123.584889	-2.992800	3.300400	-9.876500	26.843269	9.895776E-5	20.663329
2124.598869	-2.971900	3.300000	-9.806300	26.860790	9.829771E-5	20.677155
2125.585735	-3.006200	3.298100	-9.913900	26.891018	9.981582E-5	20.677678
2126.584331	-3.006900	3.299100	-9.919800	26.826812	9.866073E-5	20.660533
2127.587483	-2.986000	3.299800	-9.852700	26.803160	9.734064E-5	20.668521
2128.584939	-2.991800	3.297400	-9.864800	26.841376	9.800069E-5	20.675652
2129.587435	-2.986200	3.298500	-9.849200	26.879921	9.836371E-5	20.679797
2130.587456	-3.006400	3.297400	-9.911800	26.874134	9.740664E-5	20.659276
2131.585385	-2.995600	3.297200	-9.876000	26.796576	9.644957E-5	20.675178
2132.586494	-3.011600	3.295100	-9.922500	26.772965	9.757165E-5	20.673724
2133.588581	-2.991300	3.297300	-9.861900	26.726178	9.509647E-5	20.676471
2134.585604	-2.999500	3.297600	-9.890800	26.730146	9.404040E-5	20.662442
2135.584045	-3.004100	3.295800	-9.898700	26.824931	9.417241E-5	20.670022
2136.590481	-2.993000	3.296400	-9.865900	26.807954	9.641657E-5	20.684248
2137.586170	-3.018600	3.295100	-9.946100	26.836047	9.720863E-5	20.675035
2138.587612	-2.985000	3.296600	-9.839200	26.812762	9.437042E-5	20.671537
2139.594601	-3.005500	3.293500	-9.898100	26.811409	9.328134E-5	20.669228
2140.587759	-2.970300	3.295100	-9.786000	26.799539	9.371037E-5	20.658715
2141.589732	-3.025700	3.293100	-9.963300	26.721253	9.291831E-5	20.679106
2142.592510	-2.983400	3.293300	-9.824100	26.776100	9.305032E-5	20.682567
2143.593513	-2.969500	3.294500	-9.781800	26.752820	9.305032E-5	20.665323
2144.588331	-2.997600	3.293000	-9.870200	26.730948	9.080616E-5	20.677474
2145.591600	-2.998300	3.292000	-9.868500	26.720174	9.245628E-5	20.668538
2146.588577	-2.955800	3.292300	-9.731100	26.733006	9.206025E-5	20.669110
2147.589216	-2.995100	3.291600	-9.857800	26.724045	9.288531E-5	20.682388
2148.593078	-2.984300	3.291100	-9.820700	26.757554	9.202725E-5	20.674351
2149.589642	-2.990700	3.291600	-9.843300	26.832292	9.014611E-5	20.690702
2150.588878	-2.997400	3.290700	-9.863100	26.935898	8.994810E-5	20.679659
2151.592495	-2.996400	3.290100	-9.857700	26.938409	9.004711E-5	20.680762
2152.589601	-2.979000	3.290000	-9.799400	26.891231	9.047614E-5	20.675047
2153.590920	-3.002200	3.289400	-9.873900	26.850928	8.902403E-5	20.682887
2154.596612	-3.009600	3.289000	-9.897700	26.868419	9.011311E-5	20.671549
2155.593809	-3.012900	3.289700	-9.910900	26.896240	9.192824E-5	20.680559
2156.593392	-3.005300	3.288800	-9.882300	26.889890	9.067415E-5	20.679389
2157.595445	-3.029800	3.286200	-9.955300	26.860507	9.067415E-5	20.685880
2158.593245	-2.996600	3.287900	-9.851600	26.852190	9.004711E-5	20.677042
2159.595078	-2.990500	3.287100	-9.829000	26.829677	9.044313E-5	20.685227
2160.597452	-3.001700	3.285000	-9.859600	26.872938	9.074016E-5	20.696959
2161.598110	-2.962800	3.286200	-9.734900	26.838337	8.826497E-5	20.662637
2162.596833	-2.982600	3.286000	-9.800200	26.843352	8.806696E-5	20.671001
2163.596231	-3.004900	3.284900	-9.869300	26.844057	8.691188E-5	20.670287
2164.597472	-3.006000	3.284400	-9.871500	26.911459	8.882602E-5	20.676420
2165.598271	-2.994200	3.283700	-9.831700	26.928238	8.747292E-5	20.696140
2166.597777	-2.994200	3.284700	-9.833800	26.909670	8.826497E-5	20.676519
2167.600209	-3.008000	3.284600	-9.878800	26.867402	8.743991E-5	20.672423
2168.599738	-3.025100	3.282800	-9.928900	26.880686	8.704389E-5	20.697636
2169.602149	-3.033700	3.282800	-9.958100	26.905953	8.641684E-5	20.673255
2170.600947	-3.001000	3.281600	-9.847100	26.956383	8.605381E-5	20.690302
2171.601945	-3.003900	3.282200	-9.858000	26.936009	8.417268E-5	20.677874
2172.602566	-3.008100	3.282600	-9.872900	26.870091	8.618582E-5	20.695044
2173.612215	-2.999700	3.281500	-9.842400	26.864530	8.470071E-5	20.710316
2174.602176	-3.002500	3.281200	-9.851000	26.889474	8.446970E-5	20.688454
2175.601858	-2.994400	3.281000	-9.823600	26.934772	8.235754E-5	20.671888
2176.603833	-2.989800	3.281900	-9.811300	26.952764	8.493173E-5	20.685240
2177.604692	-2.987100	3.280700	-9.799000	26.939537	8.153248E-5	20.684741
2178.604168	-3.010200	3.279500	-9.870200	26.911367	8.248955E-5	20.694348
2179.605885	-2.997400	3.280100	-9.831100	26.901097	8.390866E-5	20.702514
2180.604155	-2.997700	3.279000	-9.828600	26.904349	8.252256E-5	20.682549
2181.604684	-3.013300	3.277200	-9.874600	26.854787	8.189551E-5	20.682499
2182.604259	-3.001400	3.279000	-9.840900	26.869479	8.189551E-5	20.694428
2183.605233	-2.994400	3.277400	-9.813800	26.900203	8.047641E-5	20.693554
2184.608122	-3.016900	3.276800	-9.884600	26.910130	8.060842E-5	20.685043
2185.607483	-2.996500	3.276700	-9.818100	26.883699	8.206052E-5	20.686915
2186.606212	-3.003900	3.277500	-9.843700	26.893926	8.021239E-5	20.678232
2187.611946	-3.011600	3.276800	-9.867100	26.893755	8.153248E-5	20.686595
2188.610038	-2.994300	3.277800	-9.813300	26.903615	8.100444E-5	20.684181
2189.606534	-3.006100	3.276900	-9.850200	26.957038	8.017938E-5	20.684797
2190.609964	-3.005400	3.275100	-9.841100	26.965550	7.879328E-5	20.690986
2191.607649	-3.018300	3.275300	-9.885000	26.972745	8.021239E-5	20.681151
2192.607547	-3.025000	3.273400	-9.900200	26.919585	7.753919E-5	20.684593
2193.608086	-2.977500	3.275600	-9.752100	26.948024	7.793522E-5	20.685689
2194.609929	-2.997400	3.273600	-9.811100	27.003191	7.876028E-5	20.693276
2195.611636	-2.999900	3.273400	-9.819000	26.961471	7.803423E-5	20.691626
2196.611969	-3.012600	3.273300	-9.860400	26.980185	7.767120E-5	20.703333
2197.613594	-3.017400	3.271400	-9.870800	27.022718	7.998137E-5	20.692525
2198.613585	-3.026600	3.271700	-9.901200	27.030537	7.942033E-5	20.693751
2199.619722	-2.990600	3.272000	-9.783800	27.043512	7.790222E-5	20.694945
2200.614367	-3.005500	3.269700	-9.825900	27.063210	7.846326E-5	20.697685
2201.618989	-3.019100	3.269300	-9.869500	27.079956	7.846326E-5	20.691293
2202.614369	-2.988400	3.270900	-9.774000	27.057944	7.922231E-5	20.707563
2203.616933	-3.009900	3.269800	-9.840700	27.050970	7.704415E-5	20.706713
2204.616259	-2.990400	3.268500	-9.773200	26.998310	7.720917E-5	20.703542
2205.618555	-2.999300	3.269500	-9.805300	27.021609	7.473399E-5	20.686193
2206.617976	-3.003200	3.270000	-9.818500	27.008530	7.463498E-5	20.692007
2207.616829	-2.998200	3.268900	-9.799700	26.998848	7.658212E-5	20.705506
2208.617317	-3.009400	3.268300	-9.834600	26.998726	7.747319E-5	20.716289
2209.617400	-2.980600	3.268000	-9.739500	27.046316	7.387592E-5	20.704403
2210.615958	-3.002000	3.268100	-9.809700	27.042470	7.437096E-5	20.728513
2211.616777	-3.013400	3.267300	-9.845000	27.046438	7.565805E-5	20.700259
2212.628592	-3.009600	3.265700	-9.827200	27.068248	7.513001E-5	20.707020
2213.618034	-3.008400	3.266300	-9.824900	27.070948	7.529503E-5	20.722065
2214.617686	-3.005300	3.267000	-9.817600	27.084076	7.694515E-5	20.710136
2215.619814	-3.008400	3.264800	-9.819900	27.097350	7.641711E-5	20.705943
2216.618216	-2.984400	3.265500	-9.744200	27.135133	7.357890E-5	20.701742
2217.620236	-2.995400	3.265200	-9.779700	27.125533	7.443696E-5	20.721012
2218.619056	-3.015700	3.264100	-9.842800	27.142774	7.456897E-5	20.717963
2219.619099	-3.007500	3.263900	-9.815300	27.144838	7.380992E-5	20.703442
2220.621860	-3.006200	3.264300	-9.812200	27.138880	7.288585E-5	20.714995
2221.619385	-3.004600	3.264000	-9.806500	27.121137	7.252282E-5	20.714219
2222.617987	-2.969800	3.264500	-9.694700	27.085655	7.364491E-5	20.711251
2223.619139	-3.010500	3.262400	-9.820500	27.066943	7.285285E-5	20.729417
2224.620330	-3.002200	3.260600	-9.788900	27.077389	7.258883E-5	20.735656
2225.618051	-2.994300	3.260500	-9.761700	27.097484	7.196178E-5	20.713190
2226.617469	-3.028400	3.258900	-9.867400	27.163835	7.456897E-5	20.711645
2227.623508	-3.021700	3.261700	-9.854300	27.206588	7.107072E-5	20.720981
2228.622645	-2.993400	3.259700	-9.756500	27.208718	7.285285E-5	20.700362
2229.619021	-2.990200	3.259400	-9.745500	27.202118	7.156575E-5	20.701785
2230.622312	-2.999300	3.260400	-9.778100	27.133731	7.054268E-5	20.721670
2231.620862	-2.997100	3.259500	-9.768100	27.112026	6.955261E-5	20.712642
2232.619783	-2.977100	3.258100	-9.699000	27.089494	7.097171E-5	20.732182
2233.625247	-3.009000	3.258100	-9.802700	27.096915	7.093871E-5	20.715463
2234.622077	-3.005200	3.257500	-9.788700	27.108303	7.116972E-5	20.714588
2235.621859	-2.996700	3.256800	-9.759200	27.188221	6.885956E-5	20.710567
2236.627285	-2.995800	3.256600	-9.755800	27.223136	7.156575E-5	20.708701
2237.624242	-3.001700	3.255200	-9.770700	27.249932	7.074069E-5	20.716214
2238.623788	-3.008500	3.256500	-9.796100	27.211926	7.090571E-5	20.723980
2239.626041	-3.006400	3.255200	-9.785200	27.160633	6.935459E-5	20.758687
2240.623757	-3.010300	3.255500	-9.799400	27.141280	6.998164E-5	20.730212
2241.625098	-2.990600	3.255600	-9.735100	27.197980	7.037767E-5	20.730341
2242.626795	-3.010700	3.254700	-9.797400	27.253874	7.034466E-5	20.724448
2243.624626	-3.004100	3.254200	-9.774800	27.273868	6.829851E-5	20.726067
2244.628642	-3.007700	3.253800	-9.786100	27.284269	7.050968E-5	20.751230
2245.627925	-2.983600	3.253800	-9.707100	27.247997	6.826551E-5	20.749832
2246.627598	-3.012500	3.253100	-9.799000	27.262010	6.674740E-5	20.726467
2247.628093	-3.005500	3.252700	-9.775000	27.269455	6.793549E-5	20.734430
2248.630450	-2.987300	3.251800	-9.713300	27.284716	6.674740E-5	20.730341
2249.630738	-2.985800	3.252000	-9.708400	27.285255	6.569132E-5	20.736099
2250.630547	-2.988700	3.250100	-9.712900	27.199272	6.598835E-5	20.734960
2251.638563	-2.993200	3.250300	-9.727600	27.185919	6.519629E-5	20.733383
2252.630740	-2.988400	3.252800	-9.719700	27.207426	6.631837E-5	20.724195
2253.632451	-2.986300	3.251200	-9.709200	27.248885	6.562532E-5	20.743138
2254.632950	-2.980600	3.249500	-9.684600	27.290666	6.803450E-5	20.749604
2255.632969	-3.010900	3.249100	-9.781900	27.300706	6.585634E-5	20.729830
2256.633232	-2.997500	3.248600	-9.736800	27.341078	6.440423E-5	20.762856
2257.634269	-2.993700	3.248500	-9.724500	27.368018	6.509728E-5	20.730686
2258.633977	-2.997000	3.247600	-9.732300	27.299151	6.658239E-5	20.737275
2259.634728	-3.004800	3.247100	-9.756100	27.286895	6.516328E-5	20.741543
2260.635214	-3.020600	3.246400	-9.804800	27.233102	6.443723E-5	20.746703
2261.639468	-2.994500	3.246500	-9.721000	27.230782	6.344716E-5	20.734886
2262.635686	-2.988200	3.247500	-9.703400	27.214179	6.364517E-5	20.739049
2263.637521	-2.999100	3.244500	-9.729500	27.178450	6.390919E-5	20.726819
2264.640294	-2.968900	3.246600	-9.637700	27.119820	6.447023E-5	20.734233
2265.637857	-2.969700	3.245500	-9.637200	27.182325	6.324914E-5	20.760590
2266.645012	-3.002200	3.244400	-9.738600	27.206392	6.245709E-5	20.731690
2267.643239	-3.020000	3.245400	-9.800100	27.184302	6.225907E-5	20.767794
2268.640333	-3.014500	3.242800	-9.774400	27.242359	6.242408E-5	20.778774
2269.643138	-3.024800	3.243100	-9.809300	27.273508	6.291912E-5	20.745146
2270.644117	-3.019700	3.243000	-9.791800	27.358273	6.305113E-5	20.752652
2271.641873	-2.979100	3.243000	-9.660700	27.393727	6.338115E-5	20.755602
2272.644587	-2.988000	3.242400	-9.687500	27.436310	6.179704E-5	20.733482
2273.645687	-2.998700	3.241500	-9.719700	27.432118	6.196205E-5	20.764352
2274.643888	-2.994200	3.242000	-9.706600	27.425250	6.298513E-5	20.756495
2275.650232	-2.979400	3.242800	-9.660500	27.391713	6.173103E-5	20.749308
2276.646106	-2.975200	3.241700	-9.644100	27.396867	6.202806E-5	20.762554
2277.646818	-2.991900	3.239700	-9.691500	27.415952	6.001491E-5	20.749986
2278.649042	-3.002900	3.239900	-9.727700	27.398011	6.067496E-5	20.750903
2279.652732	-3.006700	3.238600	-9.736600	27.342541	6.212706E-5	20.761957
2280.645607	-3.011000	3.239600	-9.753300	27.309570	6.093898E-5	20.754869
2281.648121	-3.028400	3.236900	-9.800600	27.296201	6.077396E-5	20.743790
2282.646820	-3.002800	3.237700	-9.721000	27.278998	6.027893E-5	20.755410
2283.645406	-2.984600	3.238900	-9.666000	27.311749	6.080697E-5	20.770338
2284.644186	-2.985000	3.235800	-9.657900	27.339241	5.882682E-5	20.753797
2285.649501	-3.015400	3.236400	-9.758400	27.353755	5.938786E-5	20.783670
2286.646034	-3.010800	3.235200	-9.740000	27.337778	5.915684E-5	20.759062
2287.645922	-2.998900	3.235100	-9.701200	27.334681	5.872781E-5	20.756895
2288.645275	-2.992000	3.234400	-9.675800	27.372333	6.189605E-5	20.756839
2289.646070	-2.980700	3.234600	-9.640800	27.319040	6.014692E-5	20.757757
2290.645918	-3.002500	3.234300	-9.710200	27.328149	6.103798E-5	20.773558
2291.646706	-3.011900	3.232500	-9.734700	27.385108	5.803476E-5	20.775381
2292.647228	-3.010400	3.233000	-9.731800	27.411624	5.648365E-5	20.764598
2293.646831	-2.995200	3.234000	-9.685400	27.383914	5.767174E-5	20.773232
2294.647397	-2.990400	3.231600	-9.663000	27.350945	5.879382E-5	20.755712
2295.649082	-3.010900	3.230400	-9.725400	27.372951	5.628563E-5	20.753194
2296.648198	-3.017700	3.230400	-9.747600	27.310311	5.694568E-5	20.783589
2297.649758	-3.008000	3.230800	-9.716600	27.315894	5.717670E-5	20.753169
2298.651068	-2.989300	3.231600	-9.659100	27.377487	5.648365E-5	20.760127
2299.651916	-3.005900	3.230300	-9.708700	27.427325	5.648365E-5	20.760479
2300.651525	-3.016700	3.228300	-9.737700	27.451533	5.466852E-5	20.779143
2301.651976	-2.983000	3.230100	-9.635000	27.393237	5.572459E-5	20.771230
2302.650918	-3.012900	3.229200	-9.728700	27.373049	5.387646E-5	20.782216
2303.650937	-3.036400	3.227800	-9.800200	27.356675	5.565859E-5	20.763373
2304.649376	-3.012500	3.227300	-9.720700	27.401898	5.552658E-5	20.783263
2305.660212	-3.019500	3.229000	-9.749100	27.457911	5.503154E-5	20.792198
2306.651176	-2.986900	3.226500	-9.636800	27.516472	5.447050E-5	20.759130
2307.653312	-3.001400	3.226200	-9.682400	27.475471	5.536157E-5	20.790899
2308.655842	-2.996700	3.226600	-9.668100	27.430177	5.354643E-5	20.769512
2309.653131	-2.998900	3.227100	-9.677400	27.364865	5.394246E-5	20.787260
2310.652103	-3.029400	3.224500	-9.767500	27.373814	5.262237E-5	20.792469
2311.652387	-3.020800	3.224700	-9.740500	27.328020	5.513055E-5	20.777222
2312.654601	-3.000000	3.223700	-9.670300	27.374065	5.516355E-5	20.790351
2313.653935	-3.036200	3.223100	-9.784600	27.428120	5.371145E-5	20.784513
2314.652522	-2.981200	3.224700	-9.612600	27.509923	5.493254E-5	20.781465
2315.654022	-3.032800	3.222600	-9.772500	27.534613	5.354643E-5	20.769796
2316.654712	-2.998200	3.221400	-9.657700	27.563507	5.291939E-5	20.793177
2317.652359	-3.013700	3.221000	-9.706400	27.632925	5.447050E-5	20.794273
2318.654511	-3.003500	3.222500	-9.678500	27.670060	5.489953E-5	20.790862
2319.652331	-3.007300	3.220800	-9.685100	27.662912	5.367844E-5	20.793153
2320.653761	-2.974900	3.221000	-9.580600	27.668419	5.265537E-5	20.791109
2321.658604	-3.001000	3.220000	-9.662700	27.638537	5.295239E-5	20.799920
2322.659070	-3.012400	3.220600	-9.701100	27.619786	5.311740E-5	20.789588
2323.656666	-3.025100	3.219000	-9.737000	27.631445	5.202832E-5	20.800844
2324.655154	-3.009500	3.217500	-9.682000	27.666767	5.447050E-5	20.802248
2325.656366	-2.983400	3.218800	-9.602000	27.646126	5.242435E-5	20.803289
2326.655625	-2.985900	3.218500	-9.609100	27.558807	5.093924E-5	20.800303
2327.659657	-3.000700	3.217300	-9.652800	27.466853	5.021319E-5	20.799773
2328.662510	-2.996500	3.216700	-9.637600	27.471646	5.051021E-5	20.807439
2329.657560	-3.015500	3.216600	-9.698800	27.449795	5.110425E-5	20.783559
2330.661848	-3.009800	3.215500	-9.677000	27.470159	5.196232E-5	20.799779
2331.663087	-2.985100	3.216100	-9.598900	27.548066	5.262237E-5	20.789496
2332.660678	-2.998000	3.214600	-9.637100	27.600601	5.107125E-5	20.779292
2333.663063	-3.015600	3.215700	-9.695400	27.600576	5.044421E-5	20.793018
2334.665465	-3.015000	3.213200	-9.687400	27.670819	5.080723E-5	20.808696
2335.665451	-2.987900	3.213400	-9.600700	27.668610	5.219333E-5	20.792723
2336.662212	-2.971000	3.213900	-9.548100	27.645985	5.120326E-5	20.805044
2337.663356	-2.986900	3.212600	-9.594900	27.675451	5.110425E-5	20.800081
2338.662573	-3.011900	3.213900	-9.679600	27.646616	4.899210E-5	20.808524
2339.663232	-2.985200	3.211900	-9.587500	27.602915	5.202832E-5	20.802957
2340.666023	-2.980600	3.211600	-9.571400	27.587186	5.077423E-5	20.830279
2341.665603	-2.985000	3.211700	-9.586000	27.569456	4.810103E-5	20.802483
2342.666643	-3.001700	3.210000	-9.634900	27.613802	5.044421E-5	20.791152
2343.666326	-3.021400	3.209200	-9.695500	27.633171	4.862907E-5	20.806375
2344.671766	-3.018900	3.208600	-9.685300	27.640508	4.777101E-5	20.821344
2345.668653	-3.017700	3.208800	-9.682400	27.634982	4.836505E-5	20.799188
2346.672102	-3.003500	3.209100	-9.637300	27.648054	4.787002E-5	20.818980
2347.672568	-2.998100	3.208800	-9.619600	27.624842	4.952014E-5	20.822175
2348.669705	-3.010600	3.209600	-9.661600	27.618808	4.753999E-5	20.826061
2349.672003	-3.004500	3.208000	-9.637900	27.697500	4.971815E-5	20.794293
2350.672152	-3.009600	3.206000	-9.648200	27.682721	4.899210E-5	20.826362
2351.671308	-3.014500	3.204900	-9.660500	27.702909	4.780401E-5	20.819176
2352.670491	-3.002400	3.205100	-9.622000	27.678229	4.853007E-5	20.818524
2353.672592	-3.004300	3.205000	-9.628100	27.671933	4.648392E-5	20.801756
2354.670731	-3.000000	3.204400	-9.612800	27.634934	4.872808E-5	20.823795
2355.670561	-3.007800	3.204300	-9.636800	27.669356	4.628590E-5	20.816233
2356.677627	-3.012000	3.204400	-9.650300	27.633098	4.569186E-5	20.823370
2357.670105	-3.013300	3.203600	-9.651500	27.659332	4.549384E-5	20.818000
2358.669623	-3.000800	3.202100	-9.607700	27.642718	4.612089E-5	20.822619
2359.671272	-2.999300	3.202300	-9.604000	27.588380	4.694595E-5	20.826264
2360.676477	-3.001400	3.201800	-9.609200	27.631262	4.654992E-5	20.812988
2361.671123	-3.021900	3.199900	-9.668900	27.675158	4.602188E-5	20.818752
2362.670765	-2.978400	3.201900	-9.535100	27.725024	4.638491E-5	20.834318
2363.679612	-2.980300	3.199700	-9.534400	27.697028	4.506481E-5	20.818474
2364.675379	-3.019900	3.199600	-9.661800	27.640882	4.338169E-5	20.843530
2365.670890	-2.986800	3.199800	-9.556300	27.639639	4.565886E-5	20.815254
2366.673666	-2.974500	3.198300	-9.512800	27.689281	4.615389E-5	20.827273
2367.676816	-2.992000	3.197900	-9.567700	27.720435	4.522982E-5	20.816424
2368.672866	-2.991800	3.197500	-9.565300	27.695021	4.506481E-5	20.803653
2369.679102	-3.000400	3.196800	-9.590100	27.612804	4.390973E-5	20.817649
2370.675854	-2.989600	3.198000	-9.559500	27.594866	4.453677E-5	20.813351
2371.675673	-2.985000	3.196400	-9.540200	27.654222	4.387672E-5	20.818074
2372.678786	-3.008000	3.196000	-9.613000	27.616794	4.357970E-5	20.825931
2373.677671	-2.997400	3.194200	-9.574000	27.641249	4.341469E-5	20.805494
2374.679082	-2.998600	3.195700	-9.581500	27.705748	4.298566E-5	20.816343
2375.681590	-2.999000	3.194000	-9.578100	27.667012	4.377772E-5	20.811503
2376.679902	-2.980700	3.196000	-9.526300	27.721799	4.156656E-5	20.794564
2377.678800	-3.019400	3.192100	-9.637400	27.696006	4.344769E-5	20.801799
2378.680486	-3.001300	3.192000	-9.579700	27.763825	4.351370E-5	20.811251
2379.680440	-3.007500	3.191300	-9.597600	27.768145	4.285365E-5	20.785727
2380.677574	-2.996600	3.191300	-9.562200	27.818698	4.206159E-5	20.814791
2381.678447	-3.001600	3.190300	-9.575300	27.793734	4.282065E-5	20.783504
2382.680466	-3.008300	3.189900	-9.594900	27.769283	4.060948E-5	20.792088
2383.678775	-3.005900	3.189100	-9.585500	27.754646	3.925639E-5	20.807230
2384.679212	-3.008200	3.189100	-9.592800	27.712932	3.882735E-5	20.804606
2385.680841	-2.984200	3.189300	-9.516700	27.686392	4.064249E-5	20.802556
2386.683096	-3.019700	3.188000	-9.626000	27.704653	4.159956E-5	20.806232
2387.681817	-3.028900	3.186100	-9.648700	27.692402	3.869534E-5	20.799120
2388.685318	-2.983500	3.186200	-9.505800	27.687041	4.018045E-5	20.811269
2389.685505	-3.010100	3.184900	-9.586100	27.692266	4.060948E-5	20.802777
2390.685111	-2.989900	3.184600	-9.520400	27.772330	4.064249E-5	20.784249
2391.685456	-3.003900	3.184600	-9.565500	27.833328	4.074149E-5	20.783048
2392.686327	-2.998500	3.184000	-9.545500	27.791219	4.140154E-5	20.797094
2393.684137	-3.010400	3.183200	-9.582100	27.792957	3.889336E-5	20.788411
2394.682879	-3.003000	3.183200	-9.558900	27.725972	3.813430E-5	20.770313
2395.685380	-2.999800	3.182900	-9.546600	27.688632	3.651718E-5	20.796749
2396.681720	-3.001300	3.182600	-9.550700	27.686276	3.925639E-5	20.780628
2397.684835	-2.985000	3.181500	-9.496200	27.735493	3.813430E-5	20.787007
2398.686162	-3.014100	3.181200	-9.586400	27.750075	4.051048E-5	20.785560
2399.684203	-3.012600	3.180200	-9.579900	27.784770	3.747425E-5	20.764999
2400.687839	-3.006100	3.179700	-9.557600	27.784078	3.820031E-5	20.777105
2401.689379	-2.996300	3.179600	-9.526100	27.782940	3.849733E-5	20.776434
2402.684082	-2.997400	3.178200	-9.525400	27.726351	3.750726E-5	20.781601
2403.686364	-3.005000	3.176900	-9.545400	27.800820	3.787028E-5	20.782100
2404.685727	-3.011300	3.177500	-9.567500	27.828299	3.684721E-5	20.760442
2405.686175	-2.989800	3.175900	-9.494300	27.888651	3.565912E-5	20.785622
2406.688375	-3.005200	3.175700	-9.542700	27.850570	3.803530E-5	20.776219
2407.688339	-2.970000	3.175700	-9.430600	27.830654	3.546111E-5	20.770400
2408.690272	-3.002100	3.174900	-9.530200	27.831946	3.681421E-5	20.798726
2409.691328	-2.984500	3.174100	-9.472000	27.787958	3.631917E-5	20.776742
2410.689883	-2.979000	3.173600	-9.453600	27.748883	3.612116E-5	20.771558
2411.689612	-2.966900	3.175800	-9.421900	27.748191	3.631917E-5	20.768017
2412.690653	-3.001400	3.172700	-9.521700	27.803886	3.536210E-5	20.769538
2413.690744	-2.986900	3.170900	-9.470800	27.857895	3.780428E-5	20.778375
2414.690893	-3.012500	3.169800	-9.548100	27.832087	3.579113E-5	20.788437
2415.690742	-2.995900	3.171000	-9.499200	27.810861	3.466905E-5	20.757118
2416.691666	-2.989800	3.169300	-9.475000	27.744973	3.417401E-5	20.767623
2417.691928	-2.998400	3.169000	-9.502100	27.780750	3.556011E-5	20.760954
2418.695435	-3.013200	3.168200	-9.545700	27.816686	3.655019E-5	20.775782
2419.692790	-2.996600	3.167800	-9.491400	27.856512	3.212786E-5	20.768448
2420.698488	-3.004500	3.166300	-9.512700	27.870426	3.440503E-5	20.761114
2421.696857	-3.020400	3.165200	-9.559500	27.855870	3.433902E-5	20.760689
2422.697143	-2.995200	3.164800	-9.478500	27.909827	3.414101E-5	20.779434
2423.700960	-3.023900	3.163800	-9.566400	27.983836	3.301893E-5	20.748663
2424.698520	-3.005400	3.164200	-9.508600	27.962907	3.140181E-5	20.764581
2425.697045	-3.007600	3.164100	-9.515400	27.909656	3.291992E-5	20.759347
2426.699583	-2.999300	3.162300	-9.484000	27.833458	3.354697E-5	20.754729
2427.697199	-2.966000	3.162300	-9.378900	27.825528	3.321694E-5	20.774250
2428.696926	-3.001700	3.160300	-9.485300	27.805569	3.206186E-5	20.773129
2429.695613	-2.990600	3.161300	-9.453000	27.745181	3.262290E-5	20.770204
2430.696891	-3.006300	3.159100	-9.495700	27.820939	3.051074E-5	20.760148
2431.697929	-2.993100	3.158600	-9.452500	27.839411	3.318394E-5	20.751711
2432.698946	-3.012600	3.157200	-9.510500	27.906927	3.126980E-5	20.754704
2433.700967	-3.025300	3.157300	-9.550700	27.932293	3.163283E-5	20.747517
2434.701138	-2.996200	3.157400	-9.459000	27.953565	3.120379E-5	20.755652
2435.697252	-2.986800	3.155900	-9.424600	27.926817	2.975169E-5	20.758128
2436.699693	-2.998700	3.155600	-9.461400	27.943581	3.067576E-5	20.758405
2437.699391	-3.019200	3.154700	-9.522900	27.879065	2.952067E-5	20.763172
2438.697398	-2.972600	3.155200	-9.377600	27.851067	2.813457E-5	20.739734
2439.698163	-3.006700	3.152700	-9.477300	27.860367	3.027973E-5	20.755258
2440.700479	-2.996200	3.152400	-9.444200	27.880503	2.925665E-5	20.747074
2441.699791	-3.022300	3.150600	-9.521100	27.841547	2.806856E-5	20.746748
2442.699709	-3.004000	3.150000	-9.462200	27.865250	2.843159E-5	20.759224
2443.698573	-2.990700	3.149700	-9.418100	27.912985	2.991670E-5	20.766017
2444.700589	-2.984600	3.150400	-9.402500	27.919653	3.087377E-5	20.754710
2445.701159	-2.992400	3.148300	-9.419800	27.920393	2.767254E-5	20.756404
2446.705363	-3.020000	3.147300	-9.503700	27.886621	2.450430E-5	20.762716
2447.699610	-3.011300	3.144800	-9.469100	27.864234	2.862961E-5	20.753460
2448.700878	-2.973000	3.147300	-9.356500	27.808341	2.711149E-5	20.727553
2449.702283	-2.972100	3.146200	-9.350100	27.755920	2.889362E-5	20.759674
2450.701571	-3.003400	3.143700	-9.439800	27.761795	2.942166E-5	20.753257
2451.700957	-3.006000	3.143200	-9.446900	27.784937	2.638544E-5	20.757580
2452.702003	-3.006500	3.143100	-9.449300	27.752151	2.671546E-5	20.740233
2453.705966	-2.994200	3.142200	-9.407200	27.815139	2.839859E-5	20.741507
2454.702209	-2.997900	3.141500	-9.417000	27.823968	2.760653E-5	20.749919
2455.706064	-2.985000	3.140600	-9.373900	27.857498	2.674847E-5	20.738145
2456.704654	-2.988800	3.139500	-9.382700	27.874263	2.684747E-5	20.757864
2457.701766	-3.011500	3.138500	-9.450000	27.876636	2.635244E-5	20.753140
2458.703900	-2.999700	3.136500	-9.407500	27.888463	2.598941E-5	20.746551
2459.711781	-3.014500	3.135000	-9.450100	27.934019	2.935566E-5	20.737400
2460.704037	-2.986700	3.136600	-9.366500	28.018089	2.777154E-5	20.747105
2461.707387	-2.997700	3.134300	-9.394800	28.014223	2.780454E-5	20.728514
2462.710761	-2.998500	3.135500	-9.401300	28.060465	2.909164E-5	20.748036
2463.704926	-2.987300	3.134000	-9.360700	28.123336	2.754053E-5	20.734987
2464.708598	-2.972200	3.134300	-9.315100	28.182381	2.701249E-5	20.737056
2465.709063	-3.003300	3.132400	-9.407100	28.228218	2.618743E-5	20.747168
2466.706970	-2.996200	3.131200	-9.381200	28.233838	2.367924E-5	20.743817
2467.706583	-3.000200	3.130200	-9.390800	28.206554	2.536237E-5	20.745271
2468.709177	-2.993700	3.128000	-9.363100	28.154226	2.506534E-5	20.745696
2469.708280	-2.961300	3.129000	-9.264600	28.141558	2.450430E-5	20.738158
2470.712912	-2.977400	3.128200	-9.312400	28.088439	2.367924E-5	20.745850
2471.709246	-2.982600	3.126200	-9.323100	28.064521	2.589040E-5	20.741213
2472.708899	-2.985400	3.125300	-9.329700	28.053461	2.430629E-5	20.729605
2473.708651	-2.988700	3.125800	-9.340900	28.094122	2.384425E-5	20.735923
2474.710132	-2.988800	3.124300	-9.336800	28.151120	2.532936E-5	20.740672
2475.711336	-2.996100	3.123500	-9.357700	28.123820	2.486733E-5	20.748751
2476.715504	-3.014000	3.122900	-9.409900	28.127441	2.493333E-5	20.734852
2477.714513	-3.007800	3.121700	-9.389000	28.211227	2.562638E-5	20.733380
2478.713963	-3.007100	3.120800	-9.383800	28.229148	2.450430E-5	20.721550
2479.709279	-3.003900	3.119500	-9.369200	28.243705	2.407527E-5	20.719611
2480.709248	-2.995800	3.119400	-9.344700	28.281527	2.397626E-5	20.722129
2481.713881	-3.018200	3.117500	-9.408400	28.240384	2.443830E-5	20.724328
2482.709900	-3.023700	3.116300	-9.422000	28.221228	2.420728E-5	20.718792
2483.711231	-2.993000	3.117400	-9.329000	28.194677	2.394326E-5	20.731890
2484.714636	-2.989900	3.114700	-9.312300	28.176535	2.348123E-5	20.733541
2485.715016	-2.993100	3.115100	-9.323300	28.157842	2.569239E-5	20.718989
2486.711100	-3.004100	3.112900	-9.349900	28.131644	2.354723E-5	20.724858
2487.716613	-2.992500	3.112900	-9.315000	28.052318	2.367924E-5	20.723713
2488.716299	-2.972200	3.112000	-9.248200	27.968935	2.427329E-5	20.704264
2489.712139	-2.982000	3.110200	-9.274000	27.938939	2.057701E-5	20.730499
2490.712895	-3.018500	3.109100	-9.383900	27.998863	2.334922E-5	20.716372
2491.715192	-2.991300	3.109900	-9.301600	28.103831	2.331622E-5	20.715350
2492.712250	-3.006600	3.106900	-9.339500	28.170412	2.285418E-5	20.721686
2493.711273	-3.010800	3.104500	-9.346000	28.208788	2.226014E-5	20.722863
2494.716888	-2.991300	3.104800	-9.286900	28.212726	2.364624E-5	20.732993
2495.712284	-3.010500	3.104000	-9.343500	28.141120	2.252416E-5	20.716378
2496.713110	-3.001600	3.103500	-9.315200	28.110320	2.133607E-5	20.730418
2497.714183	-3.011100	3.102100	-9.340400	28.074872	2.255716E-5	20.710854
2498.713344	-3.002100	3.101200	-9.309500	28.125075	2.027999E-5	20.723934
2499.712030	-2.991600	3.101500	-9.276900	28.053431	2.120406E-5	20.730998
2500.714555	-2.987500	3.099800	-9.259700	28.044482	2.021399E-5	20.724359
2501.714343	-2.999200	3.099100	-9.294200	28.117814	2.103905E-5	20.712357
2502.714405	-3.003500	3.097900	-9.303800	28.207203	2.051101E-5	20.712732
2503.715487	-3.009600	3.095000	-9.313800	28.264329	2.305220E-5	20.712399
2504.713679	-3.006000	3.095100	-9.303500	28.288378	2.490033E-5	20.715750
2505.715985	-2.998300	3.094300	-9.275900	28.214714	2.100605E-5	20.713182
2506.715864	-3.004300	3.092400	-9.289500	28.124335	2.232614E-5	20.712283
2507.720396	-2.999500	3.092400	-9.275100	28.101867	2.150108E-5	20.709105
2508.715950	-3.006800	3.091400	-9.294300	28.087370	2.027999E-5	20.714426
2509.719414	-3.013700	3.088900	-9.307900	28.087516	2.120406E-5	20.729273
2510.718568	-2.997500	3.088600	-9.256300	28.135241	2.239215E-5	20.729902
2511.717521	-3.005400	3.089000	-9.282900	28.103928	1.975195E-5	20.714025
2512.720831	-3.011500	3.087500	-9.297500	28.131547	2.080803E-5	20.730924
2513.718839	-2.985000	3.085500	-9.209800	28.179734	1.994997E-5	20.715898
2514.719039	-3.013600	3.084100	-9.293200	28.211833	2.034600E-5	20.709807
2515.719924	-3.020800	3.084200	-9.315200	28.267234	2.193011E-5	20.715799
2516.719826	-3.017400	3.082400	-9.300000	28.254188	1.866287E-5	20.714992
2517.721526	-2.996700	3.082100	-9.235100	28.232011	1.790382E-5	20.731546
2518.718750	-2.985700	3.081200	-9.198700	28.212775	1.816784E-5	20.719765
2519.719113	-2.997400	3.079200	-9.228300	28.253546	1.932292E-5	20.675936
2520.719831	-3.006300	3.078400	-9.253300	28.220384	1.899290E-5	20.697552
2521.720390	-3.008900	3.077400	-9.257800	28.304480	2.070902E-5	20.709677
2522.722843	-3.009500	3.075900	-9.255500	28.397297	1.905890E-5	20.706407
2523.724924	-2.992700	3.075100	-9.201200	28.318161	1.711176E-5	20.727247
2524.724587	-2.987100	3.074100	-9.181700	28.282916	1.813483E-5	20.718785
2525.724116	-2.996100	3.071600	-9.201800	28.273497	1.886089E-5	20.693653
2526.725264	-2.992900	3.071600	-9.192000	28.258769	1.886089E-5	20.698740
2527.722965	-3.004200	3.070600	-9.223900	28.324583	1.645171E-5	20.715220
2528.730493	-2.971100	3.069300	-9.118300	28.390747	1.810183E-5	20.704553
2529.725346	-3.000900	3.067400	-9.202600	28.466214	1.892689E-5	20.705157
2530.722417	-2.963500	3.068500	-9.091600	28.496000	1.895989E-5	20.682045
2531.722455	-3.003300	3.066500	-9.208900	28.530786	1.942193E-5	20.706173
2532.740770	-3.001300	3.064700	-9.197300	28.428937	1.829985E-5	20.707448
2533.722206	-2.996600	3.064200	-9.181500	28.401577	2.001597E-5	20.692698
2534.722331	-2.995900	3.061600	-9.172100	28.458179	1.859687E-5	20.696116
2535.722892	-3.000200	3.061600	-9.183500	28.439620	1.928992E-5	20.712990
2536.723144	-3.015900	3.059100	-9.225300	28.367796	1.694675E-5	20.697089
2537.724967	-3.007900	3.058900	-9.199700	28.259533	1.806883E-5	20.689077
2538.726815	-2.969200	3.058000	-9.078700	28.197520	1.622069E-5	20.683541
2539.731728	-2.997000	3.055700	-9.157400	28.149181	1.592367E-5	20.695568
2540.724562	-2.982400	3.056400	-9.114600	28.209313	1.579166E-5	20.696362
2541.726995	-3.000900	3.053200	-9.161400	28.207949	1.747479E-5	20.691670
2542.729184	-2.994100	3.052000	-9.137400	28.218585	1.717776E-5	20.701905
2543.724644	-2.968700	3.052700	-9.061800	28.184780	1.539563E-5	20.702958
2544.727823	-3.008000	3.050400	-9.175200	28.107604	1.856387E-5	20.685481
2545.727911	-2.983100	3.049400	-9.095600	28.100099	1.843186E-5	20.690254
2546.726714	-3.002200	3.048300	-9.151100	28.135711	1.747479E-5	20.681533
2547.733584	-3.003500	3.046800	-9.150500	28.219949	1.737578E-5	20.674827
2548.727787	-3.018800	3.045100	-9.191800	28.305734	1.876188E-5	20.688652
2549.726676	-2.979200	3.043500	-9.066100	28.277147	1.823384E-5	20.667929
2550.729038	-3.030300	3.042200	-9.218000	28.358915	1.727677E-5	20.669179
2551.729739	-3.000500	3.040800	-9.122400	28.445630	1.800282E-5	20.660717
2552.728343	-2.996100	3.038800	-9.103700	28.434574	1.905890E-5	20.672818
2553.730567	-2.998900	3.039300	-9.113100	28.413734	1.783781E-5	20.690715
2554.728745	-3.016700	3.036700	-9.160000	28.423922	1.862987E-5	20.688172
2555.728949	-2.988400	3.037100	-9.075700	28.386270	1.615469E-5	20.676809
2556.727541	-3.014400	3.034800	-9.147000	28.430385	1.721077E-5	20.679981
2557.729966	-2.981300	3.032200	-9.038500	28.361808	1.754079E-5	20.674463
2558.734783	-3.012300	3.033100	-9.135100	28.358071	1.615469E-5	20.679710
2559.729586	-2.994400	3.031800	-9.077500	28.355093	1.513161E-5	20.671020
2560.731391	-3.002200	3.029400	-9.094100	28.310626	1.509861E-5	20.678404
2561.732918	-2.970500	3.028700	-8.994800	28.326936	1.595667E-5	20.684870
2562.731423	-2.983200	3.027900	-9.032300	28.366175	1.740878E-5	20.655624
2563.730979	-2.984900	3.026000	-9.030800	28.344036	1.661672E-5	20.691183
2564.731164	-3.010100	3.025500	-9.106400	28.311072	1.651772E-5	20.680750
2565.734898	-3.013700	3.023500	-9.110400	28.334196	1.562665E-5	20.682696
2566.733283	-3.003000	3.022400	-9.074800	28.402817	1.506561E-5	20.670238
2567.733515	-2.963700	3.022000	-8.955300	28.396831	1.602268E-5	20.666106
2568.733493	-3.009500	3.019400	-9.085800	28.439179	1.585767E-5	20.654219
2569.731842	-3.001300	3.018000	-9.057700	28.490128	1.750779E-5	20.671389
2570.735139	-2.998700	3.017200	-9.047200	28.531317	1.668273E-5	20.677308
2571.740105	-3.022100	3.014400	-9.109300	28.495356	1.499960E-5	20.677129
2572.731969	-3.020700	3.012500	-9.099500	28.493626	1.539563E-5	20.647882
2573.732767	-2.985300	3.012900	-8.994000	28.503440	1.628670E-5	20.661561
2574.740699	-3.018900	3.010700	-9.087900	28.569466	1.569265E-5	20.663569
2575.734144	-3.006800	3.010200	-9.050500	28.621197	1.526362E-5	20.679636
2576.740248	-3.000000	3.008600	-9.024600	28.609177	1.612169E-5	20.662312
2577.739411	-3.009200	3.008200	-9.051500	28.572357	1.542864E-5	20.674543
2578.735293	-3.021300	3.005400	-9.079500	28.511426	1.493360E-5	20.679562
2579.737493	-3.019500	3.004600	-9.071800	28.494856	1.483459E-5	20.674728
2580.735121	-2.998700	3.003800	-9.006600	28.500806	1.549464E-5	20.650845
2581.735084	-2.995300	3.003500	-8.995500	28.470843	1.546164E-5	20.667615
2582.736317	-3.008500	3.000400	-9.026000	28.497485	1.671573E-5	20.661253
2583.736960	-3.007400	2.999800	-9.020900	28.498305	1.579166E-5	20.664924
2584.738042	-3.005900	2.998300	-9.011900	28.474861	1.440556E-5	20.678774
2585.736078	-3.014000	2.997200	-9.032400	28.477863	1.569265E-5	20.649552
2586.737938	-2.992100	2.995400	-8.961000	28.537383	1.516462E-5	20.672986
2587.738431	-2.987800	2.994100	-8.944500	28.477863	1.628670E-5	20.654769
2588.738015	-2.997300	2.992100	-8.967500	28.482529	1.496660E-5	20.676539
2589.737585	-3.003800	2.991900	-8.986300	28.564777	1.463658E-5	20.668330
2590.738666	-2.983700	2.990800	-8.922000	28.598668	1.691374E-5	20.663582
2591.738702	-2.988900	2.988400	-8.931600	28.639486	1.529663E-5	20.669131
2592.747449	-2.994400	2.987000	-8.943600	28.652092	1.509861E-5	20.661439
2593.739130	-2.974500	2.985600	-8.880000	28.679794	1.526362E-5	20.650458
2594.738245	-2.970600	2.985900	-8.869400	28.683315	1.506561E-5	20.669180
2595.739202	-2.981500	2.983900	-8.895400	28.621076	1.077529E-5	20.665288
2596.743960	-3.011100	2.981200	-8.975700	28.614803	1.407554E-5	20.659918
2597.742739	-3.017200	2.979700	-8.989900	28.534731	1.721077E-5	20.657036
2598.739891	-2.991500	2.978400	-8.908500	28.556211	1.404253E-5	20.675826
2599.742240	-2.991100	2.976800	-8.903200	28.574890	1.509861E-5	20.654806
2600.743665	-2.987900	2.975400	-8.889800	28.557899	1.493360E-5	20.652867
2601.743213	-2.958200	2.974000	-8.795400	28.560864	1.384452E-5	20.654431
2602.746531	-2.984600	2.973000	-8.871600	28.587064	1.496660E-5	20.665646
2603.744606	-3.001700	2.969700	-8.913700	28.638508	1.513161E-5	20.666724
2604.742841	-2.993500	2.969800	-8.888400	28.564410	1.430655E-5	20.657528
2605.742163	-3.030000	2.967300	-8.989800	28.559109	1.453757E-5	20.648395
2606.742822	-3.011200	2.966700	-8.932500	28.534211	1.546164E-5	20.650822
2607.747063	-3.009600	2.963900	-8.919600	28.531093	1.450457E-5	20.659062
2608.742901	-2.979500	2.963500	-8.827800	28.520484	1.377851E-5	20.663552
2609.746456	-3.030600	2.961100	-8.972500	28.477443	1.305246E-5	20.650551
2610.747024	-3.004000	2.960400	-8.892200	28.527895	1.493360E-5	20.653470
2611.745079	-2.972200	2.959500	-8.795000	28.537385	1.410854E-5	20.654018
2612.745182	-2.992000	2.957200	-8.846800	28.534609	1.542864E-5	20.661655
2613.745204	-3.000400	2.955600	-8.867000	28.544924	1.235941E-5	20.653077
2614.746308	-3.017500	2.953800	-8.911900	28.580357	1.394353E-5	20.661261
2615.746451	-3.000200	2.952600	-8.857300	28.516993	1.532963E-5	20.662881
2616.746445	-3.011900	2.951000	-8.887100	28.562295	1.348149E-5	20.648285
2617.749378	-3.031300	2.948700	-8.937600	28.607956	1.447156E-5	20.655866
2618.744830	-2.996100	2.948600	-8.832900	28.667842	1.341549E-5	20.652645
2619.745359	-2.994200	2.945900	-8.819500	28.691411	1.424055E-5	20.642243
2620.752025	-2.986400	2.946400	-8.798500	28.631055	1.427355E-5	20.649258
2621.745639	-3.003000	2.943700	-8.838400	28.581201	1.354750E-5	20.669698
2622.746495	-2.997700	2.941900	-8.817700	28.586111	1.605568E-5	20.642398
2623.746842	-3.009300	2.940300	-8.847400	28.606055	1.377851E-5	20.660590
2624.748130	-3.011100	2.938000	-8.844800	28.599122	1.371251E-5	20.662142
2625.747681	-2.989000	2.938700	-8.782700	28.576377	1.232641E-5	20.664840
2626.752193	-3.012300	2.936200	-8.843800	28.617984	1.440556E-5	20.661699
2627.750748	-2.982800	2.934900	-8.753300	28.610494	1.331648E-5	20.669329
2628.750134	-3.000500	2.932200	-8.797100	28.624349	1.450457E-5	20.646771
2629.762995	-3.001500	2.931300	-8.797400	28.612335	1.394353E-5	20.635143
2630.753256	-3.024900	2.929400	-8.860100	28.638197	1.466958E-5	20.671152
2631.751895	-2.984100	2.928000	-8.736900	28.627149	1.463658E-5	20.670931
2632.754741	-3.004100	2.924800	-8.785500	28.643406	1.292045E-5	20.672132
2633.751818	-3.027400	2.923400	-8.849600	28.671230	1.331648E-5	20.667913
2634.751089	-2.976800	2.923500	-8.701600	28.668583	1.212839E-5	20.649598
2635.752230	-3.010900	2.920900	-8.793400	28.750639	1.536263E-5	20.661127
2636.752645	-2.986000	2.919500	-8.716400	28.763526	1.668273E-5	20.658934
2637.751681	-3.003300	2.917200	-8.760100	28.701145	1.572566E-5	20.658688
2638.753257	-3.032700	2.914200	-8.836100	28.652242	1.358050E-5	20.645466
2639.758338	-2.998200	2.914300	-8.736900	28.673475	1.414154E-5	20.652628
2640.758181	-2.974900	2.913800	-8.666300	28.702288	1.394353E-5	20.640871
2641.755400	-2.974400	2.911500	-8.659000	28.670124	1.212839E-5	20.663479
2642.757274	-2.995200	2.908800	-8.711200	28.686307	1.536263E-5	20.648958
2643.755837	-3.003200	2.908300	-8.732600	28.749288	1.384452E-5	20.655024
2644.758118	-3.001700	2.905800	-8.721400	28.678488	1.268943E-5	20.651040
2645.758572	-2.998700	2.903600	-8.706000	28.643004	1.513161E-5	20.649438
2646.758366	-2.986700	2.901600	-8.664900	28.634983	1.486759E-5	20.653214
2647.758654	-2.981200	2.899900	-8.644600	28.718631	1.400953E-5	20.678674
2648.759146	-2.976700	2.898900	-8.628400	28.715788	1.443856E-5	20.666800
2649.757878	-2.980000	2.897800	-8.635000	28.732533	1.387752E-5	20.663752
2650.761437	-2.965400	2.894700	-8.583500	28.792241	1.549464E-5	20.663204
2651.763925	-2.984200	2.893000	-8.631700	28.853535	1.480159E-5	20.664731
2652.760367	-2.972500	2.891700	-8.594800	28.913187	1.450457E-5	20.678360
2653.761194	-3.022000	2.888600	-8.729000	28.986679	1.394353E-5	20.671321
2654.762107	-2.989500	2.887600	-8.631600	28.964640	1.509861E-5	20.651010
2655.763202	-2.989700	2.885600	-8.625900	28.919019	1.219440E-5	20.667165
2656.763124	-3.001800	2.884300	-8.657000	28.930314	1.338248E-5	20.667639
2657.763832	-2.982200	2.882600	-8.595400	28.847777	1.470258E-5	20.656085
2658.762083	-2.970900	2.881900	-8.561200	28.825491	1.348149E-5	20.648332
2659.766315	-2.991000	2.878900	-8.610100	28.791594	1.410854E-5	20.658758
2660.764065	-3.034800	2.876100	-8.727300	28.724660	1.394353E-5	20.669573
2661.762349	-3.018200	2.875400	-8.677800	28.667724	1.305246E-5	20.671020
2662.768160	-2.977100	2.872700	-8.550900	28.666385	1.470258E-5	20.659239
2663.766664	-2.997900	2.871300	-8.607100	28.690767	1.420755E-5	20.674315
2664.762757	-2.993500	2.869500	-8.589200	28.775401	1.585767E-5	20.656197
2665.763444	-3.001600	2.866600	-8.604000	28.843756	1.483459E-5	20.669106
2666.766069	-2.992100	2.865300	-8.571300	28.909503	1.589067E-5	20.664216
2667.764675	-2.981300	2.863600	-8.536200	28.894369	1.658372E-5	20.669358
2668.762568	-3.004300	2.861100	-8.594800	28.935364	1.457057E-5	20.687427
2669.760591	-3.017000	2.858800	-8.624200	28.923476	1.546164E-5	20.657903
2670.765511	-2.997300	2.856400	-8.560700	28.960046	1.361350E-5	20.662030
2671.762130	-3.028000	2.854600	-8.642800	28.950999	1.506561E-5	20.660977
2672.767492	-3.019200	2.853500	-8.614100	29.009534	1.311847E-5	20.670166
2673.765791	-2.993800	2.851100	-8.534700	28.948995	1.235941E-5	20.667018
2674.763668	-3.023100	2.850100	-8.615300	28.894106	1.450457E-5	20.672413
2675.766943	-3.001400	2.846900	-8.543600	28.879223	1.348149E-5	20.675438
2676.768012	-3.045400	2.842900	-8.657000	28.918751	1.440556E-5	20.685389
2677.766256	-3.013200	2.843500	-8.567400	28.936489	1.387752E-5	20.677654
2678.766691	-3.026400	2.840300	-8.596000	28.978382	1.358050E-5	20.692835
2679.768345	-3.015400	2.838800	-8.559200	28.957619	1.414154E-5	20.673337
2680.765066	-2.998800	2.835600	-8.503000	28.913428	1.651772E-5	20.670541
2681.766363	-3.008800	2.832600	-8.521200	28.855958	1.295345E-5	20.681399
2682.769506	-3.001600	2.831800	-8.499200	28.829411	1.476859E-5	20.669353
2683.766250	-3.018900	2.830300	-8.543400	28.791051	1.341549E-5	20.677180
2684.768302	-2.999900	2.827500	-8.481100	28.850310	1.400953E-5	20.670492
2685.767221	-3.005800	2.824500	-8.489400	28.926899	1.529663E-5	20.680321
2686.768785	-3.027400	2.822200	-8.542300	28.909290	1.433956E-5	20.684392
2687.769123	-3.008000	2.820500	-8.483200	28.845952	1.457057E-5	20.681750
2688.770292	-2.988000	2.819200	-8.423000	28.863367	1.582466E-5	20.690760
2689.777481	-2.998600	2.815100	-8.440400	28.925445	1.638571E-5	20.689762
2690.775466	-3.002300	2.813700	-8.446200	28.993790	1.681474E-5	20.669476
2691.771896	-3.000800	2.811800	-8.436500	28.995324	1.516462E-5	20.689042
2692.775794	-3.029500	2.808100	-8.506400	28.966445	1.420755E-5	20.686973
2693.771650	-3.001800	2.805700	-8.421700	28.914669	1.572566E-5	20.692656
2694.773262	-2.980200	2.803900	-8.355300	28.948335	1.476859E-5	20.682003
2695.776126	-3.024800	2.799700	-8.467800	29.060463	1.763980E-5	20.692558
2696.772576	-2.988600	2.798400	-8.362500	29.017217	1.556064E-5	20.693081
2697.773909	-2.998500	2.796200	-8.382900	28.960021	1.364650E-5	20.685716
2698.775798	-3.009100	2.792600	-8.402600	28.966519	1.381152E-5	20.684675
2699.772412	-2.989900	2.790100	-8.340700	28.976799	1.394353E-5	20.690292
2700.773893	-3.040700	2.786700	-8.472600	28.991706	1.400953E-5	20.679231
2701.774070	-3.011700	2.784500	-8.385200	29.021104	1.384452E-5	20.684195
2702.775362	-3.012000	2.781000	-8.376100	29.098952	1.410854E-5	20.704314
2703.775448	-3.005500	2.779100	-8.351100	29.156733	1.542864E-5	20.688567
2704.776223	-3.018200	2.775500	-8.375600	29.149644	1.341549E-5	20.676207
2705.775492	-3.009400	2.772300	-8.341800	29.153861	1.420755E-5	20.703218
2706.775946	-3.007000	2.770500	-8.329300	29.114212	1.410854E-5	20.704518
2707.776203	-3.024500	2.766700	-8.367100	29.109482	1.460357E-5	20.705916
2708.777774	-3.043200	2.763100	-8.407200	29.123843	1.308546E-5	20.718491
2709.775950	-3.014400	2.761500	-8.323700	29.170476	1.381152E-5	20.706211
2710.780925	-3.009900	2.759300	-8.303600	29.128653	1.460357E-5	20.700102
2711.777752	-2.991900	2.755300	-8.243000	29.089101	1.542864E-5	20.687275
2712.777277	-2.981600	2.752800	-8.207500	29.054700	1.453757E-5	20.677267
2713.780933	-3.016400	2.747000	-8.285200	28.983290	1.546164E-5	20.708687
2714.778561	-2.986700	2.745900	-8.200100	29.080313	1.552764E-5	20.713509
2715.777493	-2.999500	2.742100	-8.224300	29.103609	1.628670E-5	20.712326
2716.778574	-3.005400	2.738500	-8.229600	29.071983	1.476859E-5	20.689941
2717.778328	-2.990500	2.735100	-8.178800	29.024704	1.341549E-5	20.697781
2718.777859	-3.001900	2.733100	-8.203900	29.132124	1.493360E-5	20.700755
2719.777268	-2.995200	2.729900	-8.176200	29.169193	1.486759E-5	20.725782
2720.779750	-2.984100	2.725200	-8.131500	29.185606	1.496660E-5	20.704388
2721.778813	-2.977100	2.721800	-8.102500	29.187067	1.509861E-5	20.711550
2722.800092	-2.990200	2.717300	-8.124400	29.208307	1.628670E-5	20.708772
2723.784147	-3.041500	2.713200	-8.251900	29.150365	1.443856E-5	20.702066
2724.782382	-3.012500	2.710100	-8.162900	29.156751	1.457057E-5	20.707079
2725.780694	-3.010900	2.708400	-8.154000	29.235071	1.674873E-5	20.691171
2726.783296	-3.023400	2.703100	-8.170600	29.262935	1.430655E-5	20.700760
2727.783835	-2.960200	2.699400	-7.989800	29.277325	1.417454E-5	20.709573
2728.781643	-2.974800	2.696400	-8.020300	29.350907	1.552764E-5	20.715928
2729.780317	-2.998800	2.689900	-8.065200	29.432391	1.661672E-5	20.727881
2730.779809	-2.983700	2.687200	-8.016600	29.392129	1.585767E-5	20.708636
2731.785554	-3.008000	2.682600	-8.067700	29.419933	1.575866E-5	20.729075
2732.781101	-3.010100	2.678800	-8.061800	29.478209	1.754079E-5	20.700568
2733.778594	-2.987800	2.674500	-7.989700	29.502370	1.490060E-5	20.741046
2734.786350	-2.992700	2.669700	-7.987600	29.389300	1.770580E-5	20.733287
2735.781791	-2.995600	2.666500	-7.986100	29.282585	1.348149E-5	20.710133
2736.781926	-2.978300	2.661000	-7.924400	29.267523	1.526362E-5	20.729093
2737.780946	-2.987300	2.657200	-7.937400	29.392391	1.711176E-5	20.723126
2738.781698	-2.992400	2.652400	-7.935100	29.428144	1.509861E-5	20.727394
2739.781403	-3.026400	2.647000	-8.010300	29.334599	1.493360E-5	20.739322
2740.780589	-2.996600	2.643100	-7.919200	29.388011	1.615469E-5	20.711124
2741.782342	-3.003900	2.636700	-7.918300	29.472729	1.813483E-5	20.700260
2742.783187	-2.975300	2.633800	-7.834300	29.543757	1.701275E-5	20.708321
2743.785712	-3.025300	2.628400	-7.951300	29.613401	1.638571E-5	20.726846
2744.782340	-3.001500	2.624900	-7.877400	29.607634	1.523062E-5	20.727671
2745.782950	-3.012000	2.617900	-7.884000	29.516781	1.447156E-5	20.721433
2746.785849	-3.000900	2.613400	-7.841600	29.545847	1.450457E-5	20.716118
2747.786672	-2.948600	2.610200	-7.695300	29.500415	1.750779E-5	20.723902
2748.785315	-2.989400	2.603800	-7.782400	29.484569	1.463658E-5	20.721679
2749.785152	-2.999100	2.596500	-7.785500	29.508168	1.734278E-5	20.727449
2750.785014	-2.975900	2.593100	-7.715300	29.577117	1.499960E-5	20.722511
2751.783595	-3.016800	2.585800	-7.800300	29.538920	1.602268E-5	20.739957
2752.785389	-2.984100	2.581900	-7.703400	29.521913	1.645171E-5	20.730874
2753.786633	-3.017600	2.575200	-7.770100	29.520129	1.394353E-5	20.735240
2754.785914	-2.982900	2.571000	-7.668300	29.540875	1.684774E-5	20.728176
2755.785218	-2.996300	2.563500	-7.680200	29.618392	1.648471E-5	20.740887
2756.788765	-2.969200	2.557700	-7.593300	29.634133	1.608868E-5	20.737315
2757.802955	-3.005900	2.550600	-7.664600	29.593195	1.460357E-5	20.740616
2758.787633	-2.999300	2.546000	-7.635500	29.500484	1.556064E-5	20.763802
2759.786999	-2.979000	2.539500	-7.564500	29.543759	1.704575E-5	20.729187
2760.792058	-3.004200	2.535100	-7.614600	29.594216	1.486759E-5	20.727420
2761.790142	-2.971000	2.527800	-7.509200	29.632209	1.532963E-5	20.731108
2762.787665	-2.980200	2.522900	-7.518000	29.695666	1.440556E-5	20.747194
2763.790544	-3.010500	2.516300	-7.574400	29.692660	1.763980E-5	20.728516
2764.793126	-2.999800	2.508000	-7.522800	29.650241	1.552764E-5	20.727950
2765.789331	-3.003900	2.503400	-7.519000	29.649007	1.823384E-5	20.748518
2766.789778	-2.985900	2.497500	-7.456800	29.675767	1.730977E-5	20.728554
