LabVIEW Measurement	
Writer_Version	2
Reader_Version	2
Separator	Tab
Decimal_Separator	.
Multi_Headings	No
X_Columns	One
Time_Pref	Absolute
Operator	admin
Description	Clolumns are: time, Current, Voltage, Power, Battery Temp, and Chamber Temp
Date	2024/08/16
Time	13:07:17.8513970375061035156
***End_of_Header***	
	
Channels	6						
Samples	1	1	1	1	1	1	
Date	2024/09/16	2024/09/16	2024/09/16	2024/09/16	2024/09/16	2024/09/16	
Time	01:01:40.4236502647399902344	01:01:40.4316782951354980469	01:01:40.4366478919982910156	01:01:40.4026551246643066407	01:01:40.4026551246643066407	01:01:40.4026551246643066407	
X_Dimension	Time	Time	Time	Time	Time	Time	
X0	0.0000000000000000E+0	0.0000000000000000E+0	0.0000000000000000E+0	0.0000000000000000E+0	0.0000000000000000E+0	0.0000000000000000E+0	
Delta_X	1.000000	1.000000	1.000000	1.000000	1.000000	1.000000	
***End_of_Header***							
X_Value	Untitled	Untitled 1	Untitled 2	Untitled 3	Untitled 4	Untitled 5	Comment
0.000000	0.007444	4.084800	0.030440	20.836838	0.000473	20.839683
1.001789	-3.008400	3.915900	-11.780000	20.841657	0.000470	20.840234
2.002624	-2.990600	3.909600	-11.691000	20.855206	0.000470	20.863740
2.999725	-2.999800	3.903400	-11.709000	20.851862	0.000470	20.864190
3.999300	-3.015700	3.901100	-11.763000	20.841182	0.000472	20.866786
5.003928	-2.985200	3.898500	-11.637000	20.871602	0.000468	20.862119
6.001432	-3.001100	3.895600	-11.690000	20.873049	0.000469	20.871627
6.997659	-2.987100	3.893300	-11.629000	20.859573	0.000468	20.837763
7.997993	-2.972700	3.892500	-11.569000	20.876368	0.000464	20.867834
8.999400	-3.001000	3.890600	-11.674000	20.875071	0.000467	20.876967
9.999660	-3.005800	3.887100	-11.682000	20.895932	0.000466	20.861796
10.998440	-3.005300	3.885300	-11.675000	20.900124	0.000465	20.849393
12.001027	-2.988500	3.885800	-11.611000	20.923754	0.000465	20.848844
13.005142	-2.983800	3.884800	-11.590000	20.906962	0.000464	20.847223
14.003156	-2.988400	3.883000	-11.604000	20.938727	0.000462	20.856705
15.005285	-2.999000	3.883000	-11.644000	20.928946	0.000462	20.865415
16.013765	-3.021800	3.880300	-11.725000	20.962258	0.000464	20.869807
16.999536	-2.967800	3.878700	-11.510000	20.959064	0.000465	20.851441
18.003912	-2.991300	3.878300	-11.601000	20.948359	0.000459	20.866812
19.012924	-2.994800	3.879200	-11.617000	20.971190	0.000460	20.867361
20.002829	-2.997300	3.877200	-11.620000	20.979974	0.000460	20.870931
21.005822	-3.005600	3.875300	-11.646000	20.979623	0.000460	20.848296
22.009209	-3.006000	3.876100	-11.651000	20.992225	0.000459	20.885553
23.009449	-3.005700	3.874400	-11.643000	21.015406	0.000462	20.853265
24.007438	-3.016600	3.874200	-11.686000	21.006846	0.000459	20.870781
25.010742	-3.010800	3.873800	-11.662000	21.022642	0.000457	20.859553
26.002615	-2.987600	3.872500	-11.569000	21.039756	0.000457	20.876670
27.007328	-2.991600	3.872300	-11.583000	21.017426	0.000458	20.877094
28.006564	-2.995200	3.872400	-11.596000	21.049239	0.000459	20.862922
29.004722	-3.014900	3.870700	-11.668000	21.052159	0.000458	20.868687
30.003287	-2.993200	3.870800	-11.585000	21.079054	0.000457	20.880415
31.009356	-2.970600	3.871900	-11.501000	21.092753	0.000457	20.865195
32.011596	-3.003200	3.870000	-11.621000	21.092078	0.000456	20.885381
33.008296	-3.011300	3.868100	-11.647000	21.097616	0.000456	20.880964
34.009426	-2.997200	3.869500	-11.597000	21.108471	0.000455	20.887079
35.011947	-3.008700	3.867500	-11.636000	21.123765	0.000455	20.866343
36.029930	-2.997700	3.867400	-11.592000	21.123140	0.000457	20.861452
37.028816	-2.998200	3.867000	-11.593000	21.143847	0.000457	20.884059
38.026543	-3.016100	3.867500	-11.663000	21.157570	0.000456	20.877398
39.025375	-2.996600	3.867300	-11.588000	21.166601	0.000456	20.902077
40.028966	-2.993900	3.867600	-11.579000	21.148589	0.000454	20.864622
41.020205	-2.985700	3.865700	-11.540000	21.171516	0.000454	20.878547
42.029089	-3.012900	3.865500	-11.645000	21.168348	0.000455	20.876326
43.011468	-3.012700	3.865100	-11.644000	21.195243	0.000456	20.892797
44.006142	-3.003300	3.865400	-11.608000	21.213204	0.000456	20.906496
45.012015	-3.022100	3.864100	-11.677000	21.222932	0.000456	20.885884
46.017977	-3.014200	3.863000	-11.643000	21.226924	0.000452	20.908842
47.016244	-2.990900	3.864800	-11.558000	21.227398	0.000453	20.871861
48.010427	-3.005800	3.863800	-11.613000	21.227423	0.000452	20.889428
49.011573	-3.003400	3.863100	-11.601000	21.240024	0.000454	20.901084
50.011096	-3.029700	3.863300	-11.704000	21.236855	0.000453	20.875630
51.008620	-3.000400	3.862800	-11.589000	21.247033	0.000455	20.882019
52.015056	-3.005300	3.861800	-11.605000	21.282280	0.000453	20.894520
53.009827	-3.008500	3.861900	-11.617000	21.268485	0.000454	20.884513
54.015991	-3.010800	3.863300	-11.630000	21.287420	0.000454	20.888283
55.008029	-3.018000	3.861300	-11.652000	21.273375	0.000454	20.887034
56.013147	-2.998900	3.861300	-11.578000	21.314535	0.000453	20.878427
57.010476	-2.993900	3.861600	-11.560000	21.305133	0.000453	20.886563
58.013484	-2.992300	3.862300	-11.556000	21.323615	0.000452	20.895570
59.017205	-3.004800	3.860800	-11.600000	21.338134	0.000455	20.877854
60.033405	-2.996300	3.861200	-11.567000	21.337409	0.000456	20.870018
61.033121	-2.967200	3.861400	-11.457000	21.354947	0.000451	20.877605
62.033630	-3.009700	3.861700	-11.621000	21.349410	0.000452	20.883919
63.048167	-3.021700	3.860700	-11.665000	21.341753	0.000454	20.884794
64.027310	-3.001600	3.860700	-11.588000	21.364949	0.000451	20.881922
65.030565	-2.998100	3.860300	-11.572000	21.355521	0.000454	20.881024
66.030835	-2.981200	3.861700	-11.512000	21.373056	0.000453	20.892877
67.030058	-3.020500	3.859700	-11.657000	21.380416	0.000454	20.867053
68.036448	-3.022500	3.858800	-11.662000	21.386626	0.000454	20.884644
69.049416	-3.000200	3.859000	-11.576000	21.395108	0.000453	20.879854
70.031949	-3.002500	3.859700	-11.587000	21.413790	0.000453	20.878158
71.031643	-3.001900	3.858600	-11.583000	21.434965	0.000453	20.878956
72.038376	-3.014800	3.858400	-11.632000	21.448735	0.000454	20.880405
73.045359	-3.007900	3.858400	-11.605000	21.464497	0.000451	20.862038
74.035246	-2.991800	3.858900	-11.544000	21.471431	0.000453	20.861390
75.040402	-2.976400	3.859600	-11.487000	21.464997	0.000451	20.863013
76.038599	-2.998000	3.858400	-11.567000	21.472454	0.000453	20.870948
77.040152	-2.995100	3.857800	-11.553000	21.489739	0.000451	20.878759
78.033853	-2.994000	3.859000	-11.553000	21.492832	0.000451	20.855777
79.017666	-3.005800	3.856400	-11.590000	21.494853	0.000453	20.859696
80.018771	-2.984000	3.858600	-11.513000	21.493083	0.000455	20.874519
81.032856	-2.998500	3.856200	-11.562000	21.526351	0.000455	20.856126
82.014431	-2.989400	3.857500	-11.531000	21.527700	0.000455	20.880707
83.025902	-2.995700	3.855400	-11.548000	21.541641	0.000454	20.873796
84.015297	-3.003300	3.855800	-11.579000	21.562165	0.000454	20.842652
85.034111	-2.998300	3.856000	-11.561000	21.562816	0.000455	20.866061
86.046456	-3.005800	3.857000	-11.592000	21.571245	0.000454	20.868806
87.020315	-3.005200	3.856000	-11.587000	21.571717	0.000453	20.857899
88.021084	-3.025100	3.855700	-11.662000	21.590921	0.000454	20.853408
89.020990	-2.988100	3.856100	-11.522000	21.598253	0.000454	20.880185
90.020439	-2.997200	3.856200	-11.557000	21.623865	0.000454	20.863141
91.021200	-3.012000	3.854300	-11.608000	21.606707	0.000454	20.861145
92.036649	-2.985000	3.854900	-11.506000	21.633639	0.000456	20.853958
93.048377	-3.019900	3.854000	-11.638000	21.639300	0.000452	20.838760
94.022974	-2.988500	3.855000	-11.519000	21.652742	0.000454	20.841780
95.053470	-3.005000	3.855000	-11.584000	21.633815	0.000456	20.842280
96.024550	-2.997500	3.854400	-11.552000	21.678602	0.000457	20.838263
97.027944	-2.996000	3.853700	-11.544000	21.662643	0.000454	20.844103
98.021263	-3.003200	3.855600	-11.578000	21.690349	0.000455	20.835794
99.025751	-3.018900	3.853600	-11.633000	21.677006	0.000457	20.843303
100.021618	-2.994100	3.853400	-11.536000	21.684438	0.000454	20.813758
101.045092	-3.005000	3.854400	-11.582000	21.702168	0.000455	20.850467
102.050267	-3.001200	3.854100	-11.566000	21.704238	0.000457	20.836892
103.021417	-3.017700	3.854200	-11.630000	21.700348	0.000456	20.838215
104.023957	-3.017100	3.852200	-11.622000	21.720821	0.000457	20.844004
105.039747	-3.005900	3.853700	-11.583000	21.728950	0.000456	20.836493
106.052112	-3.000300	3.853400	-11.560000	21.731369	0.000456	20.849345
107.059970	-2.993700	3.853000	-11.534000	21.748898	0.000458	20.838440
108.044127	-2.970400	3.853800	-11.446000	21.775455	0.000458	20.843682
109.043930	-3.002600	3.853200	-11.569000	21.805250	0.000458	20.846001
110.026511	-2.983800	3.852600	-11.493000	21.758225	0.000459	20.837817
111.047981	-3.003700	3.851900	-11.568000	21.796175	0.000459	20.805151
112.031099	-2.985900	3.852000	-11.501000	21.786201	0.000456	20.849222
113.042338	-2.986300	3.852000	-11.501000	21.791861	0.000459	20.843981
114.031780	-2.983400	3.852300	-11.493000	21.798517	0.000458	20.834996
115.030940	-3.015500	3.851300	-11.613000	21.806099	0.000458	20.836894
116.026837	-2.984900	3.851000	-11.493000	21.816022	0.000456	20.837817
117.036614	-3.001700	3.851200	-11.560000	21.808991	0.000459	20.817504
118.025980	-2.989700	3.852600	-11.517000	21.816571	0.000460	20.836944
119.033394	-2.996800	3.850400	-11.537000	21.816896	0.000460	20.835373
120.031982	-3.003700	3.849800	-11.562000	21.844696	0.000459	20.825266
121.027382	-2.995000	3.850300	-11.530000	21.831308	0.000460	20.830358
122.033343	-2.971900	3.851200	-11.445000	21.852376	0.000460	20.837694
123.048515	-2.999900	3.850300	-11.550000	21.870103	0.000460	20.833627
124.031401	-2.997300	3.851700	-11.544000	21.889127	0.000461	20.826116
125.049900	-3.000000	3.850300	-11.549000	21.870827	0.000461	20.820127
126.043591	-3.004600	3.849300	-11.565000	21.892791	0.000460	20.830258
127.062461	-2.992900	3.849200	-11.519000	21.923310	0.000462	20.835201
128.043945	-2.978800	3.849300	-11.465000	21.934180	0.000462	20.796296
129.066216	-2.994100	3.850400	-11.527000	21.954573	0.000462	20.821451
130.028123	-2.989900	3.849900	-11.509000	21.929866	0.000462	20.820902
131.051393	-2.993200	3.848500	-11.518000	21.953899	0.000462	20.814139
132.030694	-3.003000	3.848800	-11.557000	21.969732	0.000462	20.815289
133.055103	-3.012100	3.848000	-11.589000	21.990597	0.000464	20.813416
134.030522	-2.994000	3.849200	-11.523000	22.006154	0.000463	20.807179
135.053704	-3.021300	3.847500	-11.623000	22.008122	0.000464	20.814838
136.049195	-3.003600	3.848400	-11.558000	22.019191	0.000464	20.837298
137.035807	-3.004100	3.847200	-11.556000	22.020366	0.000465	20.830887
138.059913	-3.013800	3.847900	-11.596000	22.014878	0.000465	20.823972
139.050371	-3.003000	3.847200	-11.552000	22.020514	0.000464	20.826769
140.053923	-3.013900	3.847100	-11.594000	22.027992	0.000463	20.829513
141.050567	-2.999500	3.846800	-11.538000	21.990574	0.000463	20.798220
142.058761	-3.003100	3.845800	-11.548000	22.033104	0.000466	20.821829
143.051946	-3.016000	3.847200	-11.603000	22.039136	0.000466	20.823600
144.039042	-3.030400	3.847000	-11.657000	22.057034	0.000468	20.813069
145.052951	-3.023100	3.846100	-11.626000	22.077476	0.000465	20.795126
146.048574	-3.010200	3.846600	-11.578000	22.074684	0.000464	20.835953
147.050870	-3.010700	3.846700	-11.580000	22.077626	0.000467	20.820406
148.050693	-3.027400	3.845300	-11.641000	22.106892	0.000466	20.811773
149.051920	-2.992700	3.845800	-11.509000	22.100883	0.000468	20.807180
150.058754	-3.010100	3.845200	-11.573000	22.117833	0.000467	20.803761
151.073793	-2.989200	3.844700	-11.492000	22.121299	0.000468	20.811972
152.057548	-3.014600	3.845500	-11.592000	22.112875	0.000467	20.801168
153.053603	-3.014200	3.846200	-11.592000	22.121250	0.000469	20.826622
154.060224	-2.998500	3.844600	-11.527000	22.137029	0.000469	20.822505
155.064847	-3.001400	3.844200	-11.537000	22.133489	0.000471	20.823228
156.061278	-3.008400	3.844300	-11.565000	22.136879	0.000470	20.809553
157.063406	-3.016300	3.844000	-11.594000	22.142713	0.000468	20.828669
158.063540	-2.999700	3.843500	-11.529000	22.127282	0.000466	20.822229
159.044112	-2.988200	3.844100	-11.486000	22.148047	0.000468	20.802242
160.042058	-2.991100	3.843400	-11.494000	22.147125	0.000469	20.811276
161.041551	-2.979200	3.843700	-11.450000	22.152933	0.000469	20.825151
162.045502	-3.003500	3.843500	-11.543000	22.164896	0.000469	20.815792
163.044624	-2.990600	3.843700	-11.494000	22.188277	0.000470	20.816441
164.036986	-3.012100	3.842200	-11.572000	22.199868	0.000470	20.812874
165.038068	-2.997600	3.843600	-11.521000	22.228933	0.000469	20.802145
166.065487	-2.987300	3.843500	-11.481000	22.212033	0.000472	20.786173
167.056812	-2.990700	3.842100	-11.489000	22.234566	0.000471	20.835759
168.071567	-2.989800	3.843200	-11.490000	22.234215	0.000471	20.810279
169.067394	-3.012600	3.841100	-11.571000	22.253184	0.000472	20.808409
170.057782	-3.022300	3.840300	-11.605000	22.276538	0.000472	20.795283
171.073494	-2.984300	3.841500	-11.463000	22.275591	0.000473	20.808086
172.063080	-3.008900	3.841400	-11.558000	22.273297	0.000474	20.801521
173.071321	-3.000100	3.841700	-11.525000	22.304177	0.000473	20.818216
174.066240	-3.000000	3.840900	-11.521000	22.327505	0.000474	20.799375
175.072196	-2.997800	3.842300	-11.518000	22.325861	0.000475	20.808635
176.073254	-3.017600	3.839600	-11.585000	22.319830	0.000474	20.790268
177.046407	-2.995800	3.841300	-11.506000	22.324789	0.000476	20.785750
178.043056	-2.999500	3.840100	-11.517000	22.322995	0.000474	20.787273
179.074190	-2.992800	3.839200	-11.488000	22.341188	0.000473	20.802646
180.056454	-2.981200	3.841300	-11.451000	22.337127	0.000476	20.803795
181.043025	-3.023200	3.839300	-11.606000	22.340441	0.000476	20.778665
182.057229	-2.981000	3.840400	-11.447000	22.348765	0.000477	20.803595
183.067127	-3.016200	3.840000	-11.581000	22.365513	0.000477	20.792864
184.062491	-3.002700	3.838000	-11.523000	22.347296	0.000478	20.810658
185.061380	-2.996300	3.838300	-11.500000	22.359582	0.000478	20.798305
186.059566	-3.004000	3.838800	-11.531000	22.374984	0.000477	20.797134
187.042954	-3.003500	3.838900	-11.528000	22.392827	0.000478	20.809785
188.046422	-3.007800	3.839500	-11.547000	22.394248	0.000478	20.799354
189.040335	-3.007700	3.838100	-11.543000	22.400727	0.000476	20.796833
190.047503	-2.987300	3.839500	-11.469000	22.409149	0.000479	20.812380
191.039042	-2.997300	3.838700	-11.504000	22.427615	0.000477	20.776344
192.046048	-2.994800	3.838700	-11.495000	22.415801	0.000478	20.781109
193.061782	-3.000900	3.838000	-11.517000	22.433324	0.000480	20.797234
194.064659	-2.997800	3.837700	-11.504000	22.462877	0.000479	20.799803
195.075679	-2.992200	3.837500	-11.481000	22.450492	0.000480	20.789771
196.074115	-2.996700	3.837100	-11.498000	22.468957	0.000478	20.766063
197.067523	-3.004400	3.836900	-11.526000	22.465743	0.000481	20.780862
198.062105	-3.023200	3.834700	-11.592000	22.498535	0.000480	20.777666
199.073172	-3.003000	3.837500	-11.523000	22.492878	0.000480	20.780062
200.072099	-2.984700	3.836000	-11.448000	22.477329	0.000481	20.778241
201.066707	-3.013800	3.835300	-11.557000	22.486999	0.000481	20.804520
202.046206	-3.017700	3.834700	-11.570000	22.490809	0.000481	20.795060
203.074459	-2.990400	3.835800	-11.470000	22.489589	0.000482	20.784829
204.070538	-2.972700	3.837300	-11.406000	22.497413	0.000482	20.784129
205.068259	-2.995700	3.833800	-11.484000	22.498385	0.000482	20.788896
206.053862	-3.017200	3.834200	-11.567000	22.502671	0.000481	20.789395
207.046533	-3.004900	3.835400	-11.524000	22.504166	0.000483	20.779513
208.053186	-2.990000	3.834700	-11.465000	22.534415	0.000481	20.777090
209.046605	-3.014800	3.834900	-11.560000	22.532072	0.000483	20.767158
210.047180	-2.996600	3.833400	-11.486000	22.555519	0.000484	20.783054
211.046767	-3.020900	3.833500	-11.580000	22.543161	0.000485	20.778738
212.045979	-3.004200	3.834500	-11.518000	22.576624	0.000484	20.786174
213.045952	-3.006100	3.832500	-11.520000	22.581135	0.000485	20.785002
214.051001	-3.002300	3.832900	-11.507000	22.605678	0.000486	20.773073
215.047602	-3.031000	3.832600	-11.616000	22.585918	0.000484	20.771300
216.052930	-3.005600	3.832100	-11.516000	22.591125	0.000485	20.790741
217.051958	-3.007800	3.832800	-11.527000	22.609986	0.000486	20.782131
218.073072	-2.997100	3.833100	-11.487000	22.639287	0.000486	20.781132
219.075017	-2.985000	3.832800	-11.440000	22.634030	0.000485	20.763538
220.064083	-2.991200	3.832300	-11.462000	22.648306	0.000486	20.764561
221.050091	-2.988800	3.832900	-11.454000	22.644194	0.000486	20.772771
222.052277	-3.015500	3.830100	-11.549000	22.646486	0.000487	20.774118
223.050312	-3.001600	3.832400	-11.503000	22.675838	0.000485	20.774594
224.047916	-3.008300	3.831900	-11.527000	22.657226	0.000489	20.781082
225.071739	-2.994200	3.831700	-11.471000	22.683510	0.000488	20.774692
226.071214	-3.002600	3.830900	-11.502000	22.678401	0.000489	20.780481
227.050801	-2.994200	3.830800	-11.469000	22.686898	0.000489	20.778561
228.066429	-2.983200	3.830400	-11.425000	22.725167	0.000490	20.766159
229.070882	-3.001100	3.829900	-11.493000	22.708771	0.000489	20.772495
230.078015	-2.978600	3.831100	-11.411000	22.704313	0.000490	20.768503
231.054075	-3.002900	3.830100	-11.501000	22.716917	0.000489	20.773068
232.082014	-3.013800	3.828600	-11.538000	22.740985	0.000488	20.767779
233.070065	-2.992300	3.828800	-11.456000	22.697436	0.000491	20.773943
234.075254	-3.017400	3.829600	-11.554000	22.722774	0.000491	20.769926
235.080303	-3.009800	3.828600	-11.522000	22.705210	0.000493	20.761341
236.069036	-3.007900	3.828700	-11.516000	22.721256	0.000490	20.785949
237.069420	-2.984400	3.829300	-11.427000	22.731941	0.000491	20.751607
238.051987	-3.021400	3.829400	-11.569000	22.736849	0.000495	20.758421
239.082438	-2.999300	3.828600	-11.482000	22.716470	0.000494	20.784000
240.054206	-3.001800	3.828700	-11.492000	22.743128	0.000493	20.755701
241.051422	-3.002900	3.826400	-11.490000	22.758150	0.000492	20.767430
242.050351	-3.006700	3.828300	-11.510000	22.733336	0.000493	20.747788
243.056986	-3.002700	3.827800	-11.493000	22.753715	0.000494	20.764409
244.053474	-2.999400	3.828300	-11.482000	22.765450	0.000496	20.766208
245.054110	-2.981100	3.827400	-11.409000	22.801623	0.000495	20.751709
246.060709	-3.005100	3.825700	-11.496000	22.760890	0.000493	20.770649
247.058855	-2.989400	3.827400	-11.441000	22.773895	0.000495	20.743846
248.056830	-2.993300	3.826600	-11.453000	22.782042	0.000496	20.776190
249.056922	-2.995700	3.826200	-11.461000	22.784185	0.000496	20.747042
250.064065	-3.016500	3.826400	-11.542000	22.809868	0.000495	20.752382
251.061273	-2.991700	3.825600	-11.444000	22.793775	0.000497	20.742424
252.067439	-3.015500	3.824700	-11.533000	22.816494	0.000496	20.753804
253.066790	-2.999800	3.825600	-11.474000	22.835402	0.000499	20.782229
254.054521	-2.987500	3.825400	-11.427000	22.832614	0.000497	20.756202
255.058220	-2.980000	3.824400	-11.396000	22.867015	0.000498	20.754155
256.078004	-3.006700	3.824000	-11.497000	22.887441	0.000500	20.764662
257.089024	-2.987900	3.825200	-11.428000	22.899373	0.000500	20.748640
258.073823	-3.017700	3.823100	-11.536000	22.908866	0.000498	20.750564
259.075346	-2.997100	3.824100	-11.460000	22.919078	0.000497	20.730448
260.075358	-2.991700	3.824000	-11.439000	22.933551	0.000498	20.720291
261.073601	-3.009400	3.823800	-11.506000	22.928643	0.000498	20.769430
262.059992	-3.001700	3.823900	-11.477000	22.929341	0.000501	20.753534
263.064770	-3.009700	3.823400	-11.505000	22.932654	0.000503	20.748318
264.057840	-3.009600	3.823400	-11.505000	22.901243	0.000502	20.735340
265.059638	-2.998200	3.822800	-11.461000	22.907696	0.000501	20.733270
266.064152	-2.988700	3.822900	-11.424000	22.920426	0.000500	20.740334
267.058248	-2.976500	3.823500	-11.379000	22.910066	0.000502	20.746550
268.064683	-2.987900	3.822200	-11.419000	22.929068	0.000503	20.766537
269.069361	-2.985700	3.822400	-11.412000	22.932833	0.000503	20.778369
270.066333	-3.010000	3.820800	-11.500000	22.966309	0.000503	20.733198
271.059698	-2.991600	3.821100	-11.431000	22.969324	0.000503	20.731477
272.094065	-2.983800	3.823100	-11.406000	22.973658	0.000503	20.731078
273.076423	-3.008400	3.820800	-11.494000	22.988902	0.000504	20.740187
274.063694	-3.024000	3.820400	-11.552000	23.015901	0.000504	20.753489
275.060583	-2.994800	3.820400	-11.441000	23.038395	0.000505	20.740939
276.079847	-2.976200	3.821800	-11.374000	23.033338	0.000505	20.751519
277.063533	-2.999300	3.820600	-11.458000	23.029677	0.000507	20.727461
278.073258	-3.009200	3.818800	-11.490000	23.031322	0.000505	20.744283
279.069369	-2.983500	3.820200	-11.397000	23.040936	0.000504	20.732105
280.062484	-3.003300	3.818600	-11.467000	23.044895	0.000507	20.740814
281.068859	-2.979500	3.820700	-11.382000	23.063502	0.000505	20.748078
282.069335	-2.997600	3.820300	-11.450000	23.060315	0.000505	20.742513
283.074570	-2.993800	3.818900	-11.432000	23.045274	0.000505	20.735029
284.064231	-3.014700	3.818000	-11.509000	23.050429	0.000506	20.741617
285.069999	-3.004800	3.818800	-11.473000	23.073491	0.000508	20.740543
286.063893	-2.985500	3.818300	-11.399000	23.095410	0.000508	20.746860
287.067078	-2.991600	3.817900	-11.421000	23.079720	0.000508	20.743940
288.084197	-3.003600	3.817900	-11.466000	23.093718	0.000507	20.724774
289.071168	-3.005700	3.818000	-11.475000	23.120490	0.000507	20.763930
290.065495	-2.999300	3.817200	-11.448000	23.151300	0.000507	20.735533
291.066329	-2.998200	3.817400	-11.444000	23.125398	0.000509	20.745614
292.074305	-3.016800	3.815100	-11.508000	23.168607	0.000507	20.735333
293.067091	-3.008300	3.817400	-11.483000	23.149730	0.000510	20.732064
294.092257	-2.987900	3.817300	-11.405000	23.179217	0.000509	20.750707
295.068681	-2.978500	3.816400	-11.366000	23.156082	0.000509	20.740799
296.069895	-3.015900	3.815200	-11.505000	23.152895	0.000509	20.745192
297.076939	-3.018000	3.814300	-11.511000	23.182506	0.000510	20.748787
298.068508	-2.992500	3.815900	-11.418000	23.183725	0.000510	20.741948
299.072290	-3.011200	3.816100	-11.490000	23.205269	0.000511	20.740778
300.089056	-3.003600	3.814600	-11.457000	23.207237	0.000512	20.738008
301.081350	-2.991900	3.815700	-11.415000	23.209478	0.000509	20.761591
302.084983	-2.999100	3.813800	-11.437000	23.201061	0.000511	20.737509
303.081959	-3.000800	3.814500	-11.446000	23.180863	0.000512	20.732916
304.083805	-2.995000	3.814300	-11.424000	23.193813	0.000511	20.738781
305.097213	-2.988100	3.814400	-11.396000	23.209851	0.000512	20.753905
306.085940	-2.996000	3.813900	-11.425000	23.197227	0.000512	20.760695
307.092324	-2.996800	3.813700	-11.429000	23.187291	0.000512	20.764014
308.087568	-2.998500	3.814100	-11.436000	23.192794	0.000514	20.742975
309.099838	-2.998200	3.812900	-11.431000	23.196481	0.000512	20.739558
310.091681	-2.991400	3.812400	-11.404000	23.212493	0.000515	20.768407
311.102546	-3.002700	3.812300	-11.447000	23.233585	0.000514	20.749714
312.096120	-2.995300	3.813100	-11.419000	23.244467	0.000513	20.751611
313.100252	-2.989400	3.812000	-11.395000	23.226488	0.000515	20.753982
314.093051	-2.995600	3.813000	-11.421000	23.226463	0.000515	20.762966
315.096615	-2.986100	3.811700	-11.380000	23.253283	0.000516	20.768507
316.071095	-3.008700	3.810800	-11.464000	23.259932	0.000515	20.769955
317.085910	-3.021500	3.810900	-11.514000	23.252212	0.000516	20.740880
318.072114	-2.968000	3.811200	-11.310000	23.264390	0.000513	20.754033
319.075230	-2.986400	3.811100	-11.380000	23.253131	0.000516	20.721412
320.093583	-2.979900	3.810300	-11.353000	23.252537	0.000515	20.757802
321.098111	-3.004500	3.809900	-11.445000	23.241705	0.000517	20.760223
322.076884	-3.002700	3.810600	-11.441000	23.254179	0.000515	20.739533
323.077363	-2.997100	3.810800	-11.420000	23.280028	0.000517	20.747420
324.078605	-2.982600	3.809700	-11.362000	23.294520	0.000518	20.751986
325.082783	-3.001500	3.808500	-11.431000	23.342278	0.000517	20.759548
326.082487	-2.985700	3.810800	-11.376000	23.329206	0.000518	20.764939
327.076363	-3.006700	3.808100	-11.448000	23.322135	0.000519	20.753584
328.078359	-3.009400	3.808500	-11.461000	23.346711	0.000517	20.742179
329.076188	-2.998800	3.807900	-11.418000	23.348480	0.000517	20.755807
330.079886	-3.013800	3.807500	-11.473000	23.339988	0.000519	20.764365
331.112537	-3.006700	3.807400	-11.447000	23.364840	0.000521	20.767462
332.104039	-3.015600	3.806000	-11.477000	23.400542	0.000518	20.749192
333.079266	-3.029500	3.805600	-11.527000	23.390361	0.000521	20.759376
334.083353	-2.989100	3.807800	-11.381000	23.386227	0.000519	20.759500
335.084250	-3.023100	3.805700	-11.504000	23.370492	0.000521	20.773127
336.082152	-3.026200	3.805300	-11.515000	23.393523	0.000520	20.760649
337.084348	-3.010200	3.805300	-11.454000	23.391307	0.000519	20.757954
338.108823	-2.979300	3.807700	-11.344000	23.363373	0.000520	20.770733
339.087767	-3.008200	3.804900	-11.445000	23.370096	0.000520	20.773678
340.104014	-2.989400	3.806000	-11.376000	23.391434	0.000521	20.768513
341.109171	-2.989000	3.804900	-11.372000	23.384386	0.000521	20.765716
342.106067	-3.008200	3.804100	-11.442000	23.414365	0.000522	20.759253
343.084334	-3.005500	3.805100	-11.435000	23.431023	0.000524	20.769787
344.081864	-2.996900	3.804600	-11.400000	23.435406	0.000521	20.779869
345.085855	-3.006100	3.805500	-11.439000	23.438542	0.000522	20.767366
346.098959	-3.000000	3.803500	-11.409000	23.445986	0.000523	20.772456
347.087097	-3.014500	3.804000	-11.466000	23.450767	0.000521	20.771084
348.085970	-2.996500	3.803000	-11.394000	23.429856	0.000522	20.770988
349.083697	-3.003300	3.802900	-11.420000	23.395769	0.000523	20.760529
350.084888	-3.007200	3.802600	-11.434000	23.427514	0.000524	20.771959
351.082110	-2.989800	3.802800	-11.368000	23.390567	0.000523	20.776178
352.103954	-2.996900	3.803100	-11.396000	23.416211	0.000523	20.788131
353.105563	-3.005900	3.803000	-11.431000	23.426620	0.000525	20.773908
354.113001	-3.007700	3.801700	-11.433000	23.422760	0.000524	20.775255
355.111425	-3.005300	3.803000	-11.427000	23.475293	0.000524	20.779073
356.111290	-2.989400	3.800900	-11.361000	23.489459	0.000525	20.754866
357.112955	-2.983400	3.801700	-11.340000	23.505392	0.000527	20.781269
358.089868	-3.000000	3.802500	-11.406000	23.531535	0.000528	20.767171
359.106283	-3.005000	3.801900	-11.423000	23.536911	0.000525	20.786785
360.084454	-2.999400	3.801000	-11.400000	23.563974	0.000526	20.788310
361.111175	-2.985200	3.800600	-11.345000	23.560887	0.000524	20.794223
362.083233	-3.012400	3.799600	-11.445000	23.569873	0.000524	20.770041
363.086316	-3.015300	3.800100	-11.458000	23.593946	0.000527	20.763827
364.097123	-2.962600	3.800800	-11.259000	23.590212	0.000526	20.766722
365.086143	-3.009100	3.798100	-11.429000	23.554912	0.000527	20.800563
366.087318	-3.003700	3.798900	-11.410000	23.568480	0.000527	20.779549
367.109017	-3.005400	3.798200	-11.413000	23.539153	0.000527	20.785713
368.107393	-2.999100	3.800000	-11.395000	23.593923	0.000530	20.776606
369.108200	-3.004400	3.797300	-11.407000	23.604577	0.000528	20.777329
370.084131	-2.985900	3.799400	-11.343000	23.595242	0.000526	20.776506
371.085618	-2.981500	3.797000	-11.320000	23.560812	0.000527	20.769018
372.084676	-2.994100	3.798400	-11.372000	23.564572	0.000529	20.813091
373.083584	-2.989600	3.797900	-11.353000	23.581252	0.000528	20.792354
374.086655	-3.006200	3.796900	-11.412000	23.606493	0.000531	20.793001
375.087852	-2.991300	3.797400	-11.359000	23.607341	0.000531	20.799067
376.087260	-2.996000	3.797300	-11.376000	23.657424	0.000528	20.785264
377.089076	-3.004300	3.796300	-11.405000	23.629294	0.000533	20.809221
378.088860	-2.975400	3.797600	-11.299000	23.611375	0.000529	20.795998
379.092178	-3.000200	3.795800	-11.387000	23.606046	0.000530	20.788285
380.087183	-3.004200	3.796700	-11.405000	23.618418	0.000529	20.776980
381.086425	-3.014100	3.794800	-11.435000	23.645627	0.000531	20.791455
382.114602	-3.019600	3.794700	-11.458000	23.661608	0.000530	20.805106
383.103959	-2.997500	3.794700	-11.375000	23.637985	0.000530	20.790906
384.086895	-3.009900	3.794300	-11.420000	23.640574	0.000530	20.800140
385.120705	-2.968800	3.795600	-11.267000	23.624768	0.000532	20.790459
386.107678	-3.015100	3.793700	-11.438000	23.642018	0.000530	20.805381
387.114278	-2.997300	3.794400	-11.373000	23.644310	0.000534	20.784919
388.092968	-2.991100	3.794400	-11.348000	23.617078	0.000529	20.794129
389.088411	-2.995700	3.794000	-11.364000	23.658697	0.000532	20.809300
390.096172	-3.015500	3.791600	-11.432000	23.669154	0.000531	20.780428
391.096641	-3.012400	3.792800	-11.424000	23.683938	0.000532	20.818484
392.102932	-2.992900	3.792600	-11.350000	23.724613	0.000531	20.789563
393.111451	-3.011700	3.792700	-11.420000	23.727448	0.000533	20.816113
394.094130	-2.993100	3.791200	-11.347000	23.766128	0.000532	20.797521
395.092168	-3.011000	3.792000	-11.416000	23.714727	0.000533	20.788186
396.096024	-3.009300	3.791000	-11.407000	23.708581	0.000531	20.790085
397.092033	-2.987000	3.791100	-11.323000	23.687622	0.000533	20.809849
398.104350	-2.985200	3.792100	-11.320000	23.710223	0.000535	20.819706
399.119702	-2.992300	3.793000	-11.349000	23.719334	0.000533	20.791382
400.112195	-3.000800	3.792000	-11.376000	23.730086	0.000532	20.795524
401.109048	-2.980800	3.791400	-11.300000	23.716323	0.000534	20.814916
402.121542	-2.982600	3.791100	-11.306000	23.729738	0.000537	20.804658
403.091774	-3.010000	3.789200	-11.404000	23.705594	0.000534	20.818858
404.109835	-2.977000	3.790500	-11.283000	23.711517	0.000536	20.798718
405.109416	-2.995500	3.789800	-11.351000	23.744822	0.000536	20.807927
406.108041	-2.998700	3.789500	-11.363000	23.740615	0.000534	20.817934
407.106433	-3.039200	3.787500	-11.510000	23.765703	0.000535	20.823647
408.112820	-2.992700	3.790200	-11.341000	23.767645	0.000536	20.812792
409.098540	-2.979800	3.788900	-11.289000	23.798533	0.000536	20.814839
410.097796	-2.993100	3.789900	-11.343000	23.794873	0.000535	20.812118
411.119004	-2.994900	3.789200	-11.347000	23.804108	0.000536	20.813791
412.116746	-2.993200	3.787700	-11.336000	23.785915	0.000536	20.819257
413.118973	-3.008200	3.787400	-11.393000	23.813466	0.000534	20.808001
414.116724	-3.003300	3.786900	-11.372000	23.805625	0.000535	20.818156
415.095384	-3.003100	3.786100	-11.369000	23.781955	0.000536	20.815286
416.096658	-2.998100	3.786000	-11.350000	23.773493	0.000539	20.830509
417.096102	-3.009200	3.786400	-11.393000	23.775807	0.000539	20.817657
418.096198	-2.985600	3.785900	-11.302000	23.798505	0.000537	20.827612
419.099635	-3.000800	3.786200	-11.360000	23.842460	0.000538	20.814787
420.098264	-3.008200	3.786500	-11.389000	23.861773	0.000537	20.809970
421.104649	-2.985000	3.786800	-11.303000	23.869068	0.000537	20.812069
422.096959	-3.001500	3.786400	-11.364000	23.890368	0.000539	20.826315
423.106283	-3.014300	3.785800	-11.411000	23.892259	0.000538	20.822048
424.096069	-3.012400	3.785100	-11.402000	23.885018	0.000537	20.822848
425.098966	-2.982700	3.784500	-11.287000	23.898433	0.000537	20.825868
426.095182	-3.012500	3.783700	-11.397000	23.917520	0.000537	20.832679
427.096174	-3.012900	3.783800	-11.398000	23.878124	0.000538	20.837270
428.102162	-2.997400	3.783700	-11.341000	23.910676	0.000539	20.804953
429.133070	-2.990900	3.783500	-11.315000	23.921576	0.000537	20.838643
430.125516	-3.023400	3.782500	-11.435000	23.920234	0.000539	20.840142
431.123652	-3.000000	3.782000	-11.345000	23.907241	0.000539	20.828535
432.100035	-3.007700	3.782700	-11.376000	23.924165	0.000537	20.834127
433.100061	-3.012000	3.782800	-11.393000	23.956716	0.000536	20.825991
434.114914	-3.006200	3.781000	-11.366000	23.953281	0.000539	20.837719
435.097163	-2.994200	3.782500	-11.325000	23.944074	0.000540	20.817582
436.127202	-3.003500	3.781200	-11.356000	23.970080	0.000539	20.825642
437.099165	-2.976900	3.781800	-11.256000	23.931158	0.000539	20.835449
438.096612	-3.000700	3.781600	-11.346000	23.926429	0.000539	20.836871
439.110879	-2.986000	3.781300	-11.290000	23.964829	0.000543	20.812790
440.098420	-3.013600	3.780300	-11.391000	23.984365	0.000540	20.825743
441.103910	-2.996100	3.781500	-11.329000	23.983940	0.000541	20.835748
442.105783	-3.014000	3.780200	-11.392000	24.001086	0.000540	20.838244
443.117553	-3.031900	3.778600	-11.455000	24.018555	0.000540	20.846753
444.115703	-3.011500	3.778600	-11.379000	23.996160	0.000539	20.857959
445.117825	-2.985100	3.780200	-11.283000	24.018282	0.000540	20.840316
446.129958	-3.011500	3.779100	-11.380000	24.000713	0.000542	20.862999
447.126376	-2.990800	3.778800	-11.301000	23.992426	0.000543	20.840464
448.126392	-3.004800	3.778400	-11.353000	24.003823	0.000541	20.842885
449.127691	-2.993600	3.777500	-11.308000	24.029554	0.000541	20.842611
450.101090	-2.989900	3.778100	-11.295000	24.055708	0.000538	20.845606
451.100434	-3.006500	3.778000	-11.358000	24.023631	0.000541	20.867015
452.105515	-2.990300	3.778200	-11.296000	24.057797	0.000541	20.840115
453.114604	-2.993400	3.776200	-11.302000	24.082530	0.000542	20.844531
454.100774	-3.018600	3.775800	-11.396000	24.046400	0.000540	20.844806
455.106363	-2.979800	3.776300	-11.252000	24.044161	0.000538	20.852992
456.101054	-3.006900	3.776600	-11.355000	24.046823	0.000540	20.857558
457.117281	-2.983100	3.776500	-11.264000	24.083029	0.000543	20.869687
458.108442	-3.022700	3.775400	-11.411000	24.060459	0.000541	20.864120
459.102794	-2.985400	3.775900	-11.272000	24.044509	0.000542	20.856186
460.114648	-3.006400	3.774500	-11.346000	24.071160	0.000542	20.856361
461.108547	-2.985000	3.776100	-11.270000	24.104752	0.000542	20.832679
462.106031	-2.956000	3.775900	-11.162000	24.129756	0.000543	20.844007
463.135767	-2.986200	3.775300	-11.273000	24.115575	0.000542	20.846853
464.127254	-2.999800	3.774400	-11.321000	24.087607	0.000542	20.854364
465.128703	-2.991900	3.773600	-11.290000	24.078078	0.000543	20.863773
466.112601	-3.025300	3.772900	-11.414000	24.090916	0.000541	20.865269
467.133141	-3.015800	3.772600	-11.376000	24.109629	0.000542	20.856536
468.124998	-3.014100	3.773500	-11.372000	24.154441	0.000543	20.859755
469.127533	-2.970100	3.774100	-11.209000	24.161134	0.000544	20.857934
470.108442	-3.011200	3.773100	-11.359000	24.157079	0.000543	20.850548
471.114660	-2.993300	3.773000	-11.293000	24.178453	0.000544	20.853967
472.107329	-3.020900	3.771400	-11.392000	24.184496	0.000543	20.866666
473.108946	-2.976300	3.772400	-11.227000	24.195296	0.000544	20.869438
474.106628	-2.981100	3.771400	-11.242000	24.213358	0.000543	20.870484
475.127907	-2.997800	3.770900	-11.303000	24.198432	0.000545	20.872109
476.131351	-2.995600	3.772100	-11.298000	24.186164	0.000542	20.870710
477.113327	-2.984000	3.771300	-11.252000	24.209330	0.000541	20.878772
478.109179	-3.024800	3.770800	-11.406000	24.223636	0.000545	20.870363
479.106606	-3.015100	3.769800	-11.365000	24.251153	0.000543	20.886583
480.141687	-3.001200	3.769900	-11.314000	24.221298	0.000546	20.888405
481.138170	-3.005300	3.769600	-11.327000	24.229657	0.000543	20.883987
482.140793	-3.011800	3.770700	-11.356000	24.212964	0.000542	20.888580
483.129601	-3.020100	3.769500	-11.383000	24.201768	0.000544	20.869291
484.140609	-2.996000	3.769300	-11.292000	24.219906	0.000544	20.878949
485.113518	-2.992400	3.769800	-11.279000	24.216198	0.000544	20.894194
486.115647	-2.990000	3.769900	-11.272000	24.214583	0.000545	20.859387
487.113678	-3.002500	3.768100	-11.312000	24.221251	0.000543	20.891677
488.118287	-2.999700	3.768500	-11.303000	24.246080	0.000544	20.887185
489.124707	-3.007900	3.767800	-11.332000	24.273547	0.000544	20.873011
490.135260	-2.992100	3.768400	-11.275000	24.289320	0.000546	20.869868
491.113049	-2.996000	3.768300	-11.288000	24.310395	0.000544	20.889584
492.114112	-3.013900	3.766500	-11.351000	24.255561	0.000545	20.903331
493.115458	-2.982000	3.766700	-11.231000	24.225608	0.000542	20.886564
494.127756	-3.016500	3.766600	-11.361000	24.256908	0.000546	20.920328
495.141272	-3.019400	3.767000	-11.372000	24.287929	0.000547	20.900238
496.114107	-2.995600	3.765900	-11.280000	24.293056	0.000546	20.893053
497.132338	-3.004000	3.765500	-11.310000	24.297410	0.000545	20.882723
498.136872	-3.003900	3.764700	-11.308000	24.268726	0.000547	20.901838
499.135367	-3.014100	3.764400	-11.345000	24.232254	0.000546	20.917884
500.142355	-2.990800	3.766200	-11.263000	24.239618	0.000545	20.883074
501.112838	-3.021900	3.764700	-11.376000	24.277211	0.000547	20.892332
502.116728	-3.001400	3.764300	-11.297000	24.274650	0.000546	20.888815
503.142081	-3.014700	3.763900	-11.346000	24.284005	0.000544	20.896302
504.140042	-2.986200	3.764700	-11.241000	24.271341	0.000546	20.889289
505.116753	-3.017200	3.763500	-11.354000	24.269675	0.000547	20.885248
506.114768	-3.009500	3.764600	-11.329000	24.304406	0.000548	20.895429
507.116575	-3.015600	3.763500	-11.348000	24.303608	0.000547	20.899845
508.123000	-2.964700	3.763200	-11.155000	24.333239	0.000546	20.907282
509.113882	-3.006000	3.762100	-11.308000	24.301869	0.000546	20.916117
510.114331	-3.000700	3.761900	-11.288000	24.320728	0.000547	20.903268
511.117146	-3.009500	3.760800	-11.317000	24.351225	0.000546	20.885972
512.118740	-3.007800	3.761100	-11.312000	24.350679	0.000547	20.891588
513.117778	-2.950300	3.763300	-11.102000	24.298935	0.000545	20.920285
514.118076	-2.989100	3.762200	-11.245000	24.320953	0.000547	20.885477
515.117574	-2.969800	3.761400	-11.170000	24.300303	0.000548	20.883255
516.119122	-3.019900	3.760000	-11.353000	24.341403	0.000545	20.916893
517.124264	-3.018200	3.760000	-11.348000	24.361652	0.000546	20.894061
518.116894	-2.981600	3.760500	-11.211000	24.331227	0.000543	20.891515
519.151970	-3.008000	3.759800	-11.308000	24.331004	0.000546	20.890817
520.126270	-3.015000	3.759700	-11.334000	24.309311	0.000546	20.889445
521.119633	-2.995000	3.760200	-11.260000	24.312570	0.000545	20.886550
522.123987	-3.000100	3.759900	-11.279000	24.316228	0.000548	20.903495
523.137471	-2.984200	3.760400	-11.221000	24.344787	0.000546	20.882358
524.123395	-3.004100	3.759100	-11.292000	24.402949	0.000546	20.877170
525.121664	-2.981300	3.758500	-11.204000	24.430660	0.000546	20.886951
526.131211	-2.966800	3.759400	-11.153000	24.436206	0.000547	20.908161
527.121645	-2.989600	3.758700	-11.237000	24.442798	0.000548	20.877319
528.123291	-2.985900	3.757700	-11.218000	24.477748	0.000545	20.882037
529.117237	-3.002100	3.757200	-11.278000	24.469191	0.000546	20.891943
530.118075	-2.977500	3.758300	-11.190000	24.470584	0.000544	20.887177
531.123630	-2.993400	3.757900	-11.248000	24.446879	0.000546	20.875249
532.118277	-2.982500	3.757400	-11.205000	24.448197	0.000546	20.862821
533.123652	-2.977600	3.756500	-11.184000	24.415538	0.000544	20.871307
534.126320	-3.006200	3.755600	-11.289000	24.436358	0.000545	20.879392
535.138329	-2.991000	3.755100	-11.230000	24.399718	0.000546	20.885307
536.126770	-3.004900	3.755200	-11.283000	24.397677	0.000543	20.890846
537.128084	-3.004700	3.755500	-11.282000	24.437203	0.000545	20.864594
538.122225	-3.006700	3.753700	-11.286000	24.431880	0.000544	20.857831
539.124242	-3.002500	3.755200	-11.274000	24.424840	0.000545	20.868786
540.123580	-2.990100	3.755000	-11.227000	24.446606	0.000546	20.870234
541.126441	-2.982300	3.755500	-11.199000	24.430737	0.000546	20.867115
542.128710	-2.990200	3.754700	-11.227000	24.427253	0.000545	20.883060
543.131235	-2.994600	3.753800	-11.240000	24.419044	0.000547	20.866290
544.128194	-3.003100	3.754800	-11.276000	24.423522	0.000547	20.849447
545.138848	-2.996800	3.754000	-11.249000	24.403297	0.000546	20.837218
546.133958	-3.008500	3.754800	-11.296000	24.398771	0.000544	20.862547
547.135878	-3.009600	3.752900	-11.294000	24.386807	0.000549	20.871407
548.133724	-3.004800	3.753900	-11.279000	24.407478	0.000546	20.850421
549.128272	-3.000400	3.752600	-11.259000	24.409391	0.000545	20.855185
550.134154	-2.969100	3.752800	-11.142000	24.461282	0.000547	20.854138
551.130933	-3.002700	3.752900	-11.267000	24.452900	0.000546	20.843359
552.129972	-2.996800	3.751700	-11.243000	24.463470	0.000546	20.859178
553.132051	-2.992700	3.751900	-11.228000	24.505929	0.000547	20.850095
554.159330	-2.998000	3.751100	-11.245000	24.543189	0.000546	20.844804
555.139094	-3.005800	3.749500	-11.270000	24.574503	0.000546	20.858679
556.137738	-2.978300	3.751200	-11.171000	24.576493	0.000546	20.838392
557.138484	-3.005500	3.750600	-11.271000	24.588828	0.000546	20.853138
558.133934	-2.988000	3.750200	-11.205000	24.557416	0.000549	20.835846
559.136730	-2.986200	3.750100	-11.198000	24.503119	0.000546	20.848223
560.139006	-2.996900	3.749500	-11.235000	24.468269	0.000545	20.870631
561.135914	-2.981700	3.748900	-11.178000	24.456181	0.000545	20.824366
562.137503	-3.008500	3.748200	-11.276000	24.445534	0.000543	20.855883
563.135498	-2.982300	3.749100	-11.180000	24.421978	0.000545	20.850742
564.135434	-3.004800	3.747900	-11.261000	24.464588	0.000545	20.854611
565.138690	-3.000300	3.748700	-11.246000	24.501449	0.000548	20.851290
566.137382	-3.010300	3.747500	-11.281000	24.537218	0.000548	20.836443
567.144320	-2.981300	3.748600	-11.175000	24.517320	0.000546	20.861048
568.139628	-2.998100	3.747700	-11.235000	24.541769	0.000547	20.833897
569.138690	-2.994300	3.746800	-11.217000	24.538236	0.000545	20.863542
570.137608	-2.984200	3.746900	-11.181000	24.538659	0.000544	20.831251
571.144330	-2.991100	3.746900	-11.207000	24.505951	0.000544	20.854857
572.135090	-2.995800	3.747100	-11.225000	24.511697	0.000545	20.844027
573.136406	-3.007100	3.745800	-11.264000	24.503140	0.000545	20.827857
574.135485	-3.011500	3.746600	-11.281000	24.505253	0.000544	20.847994
575.135846	-2.997900	3.746100	-11.230000	24.571092	0.000545	20.828705
576.137157	-3.009600	3.746000	-11.274000	24.544553	0.000544	20.835742
577.136780	-2.994900	3.745400	-11.216000	24.542140	0.000543	20.832373
578.141745	-2.987000	3.746400	-11.188000	24.565221	0.000546	20.819496
579.143110	-3.007100	3.743800	-11.257000	24.580218	0.000544	20.836913
580.148854	-2.992200	3.745000	-11.204000	24.548331	0.000545	20.837162
581.142167	-3.000800	3.744300	-11.235000	24.516496	0.000545	20.825609
582.141499	-3.005600	3.742500	-11.247000	24.540421	0.000545	20.808837
583.137723	-3.028200	3.743000	-11.334000	24.558104	0.000544	20.818518
584.140675	-3.005000	3.743100	-11.247000	24.571562	0.000545	20.820168
585.144000	-3.019000	3.743800	-11.301000	24.591707	0.000545	20.818096
586.142857	-3.016600	3.742800	-11.290000	24.619613	0.000544	20.822863
587.139267	-2.979300	3.742100	-11.148000	24.595265	0.000544	20.817873
588.144301	-2.995800	3.742200	-11.210000	24.578253	0.000545	20.817399
589.142515	-2.983600	3.742800	-11.166000	24.561440	0.000545	20.830875
590.137555	-2.994100	3.742900	-11.206000	24.566066	0.000546	20.809912
591.144056	-2.982900	3.741100	-11.159000	24.591609	0.000543	20.806618
592.142724	-3.015400	3.741600	-11.281000	24.583376	0.000546	20.820642
593.142271	-2.987100	3.741400	-11.175000	24.547463	0.000543	20.820644
594.142130	-2.996400	3.741200	-11.208000	24.539203	0.000542	20.803348
595.144755	-2.995600	3.741000	-11.205000	24.529230	0.000545	20.830326
596.142364	-3.018600	3.739600	-11.287000	24.567980	0.000546	20.817522
597.146275	-3.004800	3.739800	-11.236000	24.548581	0.000546	20.838361
598.142848	-2.991300	3.740200	-11.185000	24.557262	0.000545	20.821941
599.141086	-3.002300	3.738900	-11.225000	24.614567	0.000545	20.810687
600.146847	-3.004400	3.740600	-11.238000	24.651597	0.000545	20.830775
601.148109	-3.002900	3.740400	-11.231000	24.665648	0.000544	20.816425
602.144636	-3.005400	3.738800	-11.236000	24.627971	0.000544	20.813706
603.146745	-2.972800	3.738900	-11.114000	24.600738	0.000542	20.837114
604.150270	-2.987100	3.737600	-11.164000	24.606506	0.000544	20.813979
605.146013	-2.992800	3.737900	-11.185000	24.644709	0.000545	20.825760
606.149377	-3.001300	3.736100	-11.213000	24.657988	0.000541	20.841454
607.151391	-3.002600	3.738500	-11.225000	24.703427	0.000543	20.821618
608.152452	-2.987400	3.738900	-11.168000	24.717029	0.000543	20.797810
609.152345	-3.001600	3.737800	-11.219000	24.723272	0.000545	20.817824
610.163706	-2.996600	3.738200	-11.201000	24.699719	0.000543	20.817424
611.153169	-3.002000	3.736900	-11.217000	24.712925	0.000541	20.808864
612.156868	-2.988600	3.737100	-11.168000	24.667016	0.000543	20.814478
613.157079	-3.007200	3.737500	-11.238000	24.669430	0.000542	20.815005
614.154131	-2.975100	3.736200	-11.114000	24.690171	0.000542	20.819222
615.164921	-3.027600	3.735200	-11.308000	24.715562	0.000543	20.815778
616.150853	-3.001800	3.736100	-11.214000	24.734412	0.000540	20.807193
617.157285	-2.978600	3.735400	-11.126000	24.741299	0.000542	20.813630
618.151952	-3.005500	3.736300	-11.228000	24.684949	0.000542	20.813507
619.162442	-3.007300	3.735300	-11.232000	24.663512	0.000542	20.790574
620.154838	-2.985900	3.735300	-11.153000	24.671419	0.000542	20.812258
621.153888	-3.003100	3.734900	-11.216000	24.683308	0.000543	20.803326
622.157598	-2.953900	3.735200	-11.032000	24.717776	0.000542	20.826060
623.157036	-2.984500	3.734400	-11.145000	24.749134	0.000543	20.810113
624.157629	-2.998600	3.732400	-11.192000	24.755328	0.000542	20.799734
625.153137	-2.987500	3.732400	-11.150000	24.741177	0.000543	20.816826
626.155677	-2.992200	3.733400	-11.170000	24.767835	0.000543	20.814182
627.153444	-2.999000	3.732900	-11.194000	24.737992	0.000540	20.805096
628.155687	-2.995000	3.734000	-11.182000	24.744336	0.000539	20.808617
629.157614	-2.997200	3.732600	-11.186000	24.684999	0.000543	20.791746
630.156636	-3.002200	3.732500	-11.205000	24.671668	0.000544	20.782637
631.175479	-3.011500	3.731300	-11.235000	24.687934	0.000541	20.814132
632.157242	-3.005000	3.732100	-11.214000	24.691913	0.000541	20.801056
633.160571	-2.983700	3.731700	-11.134000	24.659880	0.000543	20.801628
634.155462	-3.015200	3.730200	-11.247000	24.673633	0.000541	20.802153
635.159779	-2.987100	3.730900	-11.143000	24.715039	0.000542	20.802451
636.159279	-2.996500	3.730400	-11.177000	24.724591	0.000540	20.818674
637.158559	-2.977600	3.729900	-11.105000	24.745777	0.000541	20.807692
638.158617	-2.997400	3.730800	-11.181000	24.736477	0.000539	20.809265
639.160721	-3.010600	3.729700	-11.228000	24.773008	0.000541	20.799458
640.160090	-2.983200	3.728600	-11.122000	24.790514	0.000539	20.809914
641.177729	-3.000200	3.730200	-11.191000	24.781117	0.000540	20.805699
642.163094	-2.988200	3.729300	-11.142000	24.764131	0.000540	20.814731
643.162969	-2.992600	3.728700	-11.158000	24.803048	0.000541	20.796415
644.161093	-2.992200	3.728500	-11.155000	24.811280	0.000540	20.820797
645.166790	-2.992000	3.727600	-11.153000	24.804442	0.000540	20.785960
646.160038	-2.997600	3.728700	-11.176000	24.824983	0.000540	20.800410
647.160213	-3.018000	3.727200	-11.247000	24.843109	0.000541	20.791575
648.159897	-3.009200	3.727500	-11.215000	24.886377	0.000540	20.793275
649.167603	-2.995200	3.728100	-11.165000	24.887293	0.000538	20.795142
650.160568	-3.013300	3.725400	-11.224000	24.879066	0.000539	20.801584
651.159741	-2.984100	3.728700	-11.125000	24.831000	0.000539	20.786534
652.166899	-3.007700	3.727500	-11.210000	24.806532	0.000538	20.798488
653.162006	-2.993900	3.726200	-11.155000	24.822770	0.000539	20.807673
654.168262	-2.984300	3.726800	-11.121000	24.783606	0.000538	20.792076
655.167461	-2.995300	3.725900	-11.159000	24.805337	0.000538	20.804402
656.164615	-3.009300	3.724600	-11.207000	24.777366	0.000540	20.803831
657.161319	-2.990800	3.726300	-11.143000	24.794622	0.000537	20.804080
658.170658	-3.026100	3.724300	-11.269000	24.788580	0.000537	20.798965
659.160621	-2.985800	3.723900	-11.118000	24.757746	0.000538	20.772288
660.167238	-2.983800	3.725000	-11.113000	24.763887	0.000538	20.779873
661.168004	-3.002800	3.723800	-11.180000	24.768861	0.000538	20.782494
662.165114	-3.003300	3.723900	-11.182000	24.779453	0.000536	20.779848
663.167033	-3.002000	3.723900	-11.178000	24.799597	0.000537	20.780623
664.166405	-3.011100	3.723600	-11.211000	24.834607	0.000536	20.771188
665.164987	-2.996500	3.722600	-11.153000	24.780746	0.000537	20.795844
666.166375	-3.004000	3.722900	-11.183000	24.766472	0.000537	20.774881
667.166417	-2.999800	3.722400	-11.166000	24.763887	0.000537	20.782244
668.165023	-2.994900	3.723800	-11.152000	24.798377	0.000537	20.784615
669.166482	-3.007200	3.722000	-11.192000	24.782759	0.000539	20.774156
670.162683	-2.975700	3.722600	-11.077000	24.797930	0.000537	20.781795
671.169034	-3.020700	3.721400	-11.240000	24.809864	0.000537	20.775280
672.167397	-2.988900	3.722700	-11.126000	24.833362	0.000535	20.780370
673.165658	-3.013300	3.722400	-11.215000	24.833139	0.000536	20.776353
674.168979	-2.993100	3.721200	-11.137000	24.833934	0.000537	20.776677
675.166695	-3.014400	3.721000	-11.216000	24.826973	0.000536	20.768742
676.167923	-2.986800	3.721400	-11.114000	24.764132	0.000535	20.768266
677.172472	-3.009100	3.720300	-11.194000	24.769280	0.000536	20.784811
678.168043	-3.016100	3.719800	-11.219000	24.760975	0.000536	20.782641
679.169478	-2.995500	3.721500	-11.147000	24.777809	0.000535	20.786259
680.170006	-3.020700	3.720000	-11.236000	24.814139	0.000534	20.767716
681.168589	-3.003200	3.719600	-11.170000	24.879560	0.000536	20.766043
682.171978	-2.992800	3.719200	-11.130000	24.907060	0.000533	20.776101
683.176595	-2.993300	3.720300	-11.134000	24.933415	0.000535	20.795441
684.171295	-2.994900	3.719800	-11.139000	24.912929	0.000535	20.784836
685.169998	-3.013200	3.717300	-11.200000	24.907158	0.000536	20.772880
686.175366	-2.980800	3.719300	-11.086000	24.854273	0.000535	20.787132
687.171583	-3.008200	3.717900	-11.182000	24.832861	0.000536	20.762797
688.166224	-3.009200	3.719300	-11.191000	24.833733	0.000534	20.772682
689.171607	-2.996900	3.718300	-11.143000	24.832563	0.000533	20.788577
690.166944	-2.991100	3.718000	-11.120000	24.818987	0.000531	20.760727
691.170465	-3.016200	3.716700	-11.210000	24.793772	0.000534	20.758655
692.170811	-2.991000	3.716400	-11.115000	24.775868	0.000532	20.766766
693.171856	-2.992500	3.716600	-11.120000	24.766468	0.000534	20.765394
694.171392	-2.990700	3.715800	-11.112000	24.814136	0.000530	20.747797
695.170622	-3.018000	3.715700	-11.212000	24.825851	0.000534	20.780893
696.171413	-2.985600	3.715600	-11.092000	24.877791	0.000532	20.768061
697.169627	-3.015700	3.714900	-11.202000	24.913522	0.000534	20.758405
698.169742	-3.020000	3.715800	-11.221000	24.946641	0.000534	20.739488
699.170268	-2.997400	3.714700	-11.133000	24.964119	0.000533	20.756084
700.173541	-3.000500	3.715800	-11.148000	24.949400	0.000533	20.760276
701.170113	-2.970900	3.715900	-11.039000	24.950047	0.000531	20.761874
702.171010	-3.010000	3.714800	-11.181000	24.969738	0.000534	20.752240
703.174497	-3.005700	3.713600	-11.161000	24.933863	0.000531	20.754164
704.170187	-3.000000	3.714600	-11.143000	24.845444	0.000528	20.751718
705.176839	-3.009900	3.714300	-11.178000	24.862054	0.000532	20.753216
706.172909	-2.975000	3.713300	-11.046000	24.850119	0.000534	20.751668
707.173281	-3.005500	3.713400	-11.159000	24.897262	0.000531	20.743032
708.176255	-3.007200	3.712000	-11.161000	24.907258	0.000533	20.762075
709.178152	-3.007400	3.712500	-11.164000	24.907903	0.000530	20.768412
710.173102	-2.991700	3.713200	-11.107000	24.951465	0.000531	20.754762
711.180844	-3.002300	3.712200	-11.143000	24.968248	0.000531	20.748374
712.173572	-2.972100	3.712800	-11.033000	24.950844	0.000529	20.750346
713.176242	-2.981000	3.712400	-11.066000	24.956786	0.000530	20.735920
714.176007	-2.983600	3.712100	-11.074000	24.955718	0.000530	20.764721
715.176195	-3.012700	3.711200	-11.180000	24.988188	0.000529	20.761751
716.177588	-3.026900	3.710800	-11.231000	24.991495	0.000529	20.763173
717.178042	-2.973000	3.711400	-11.033000	24.950819	0.000531	20.761701
718.182855	-3.009800	3.709900	-11.165000	24.928766	0.000529	20.748100
719.178034	-2.996900	3.711700	-11.123000	24.913526	0.000530	20.757934
720.179042	-3.007100	3.710700	-11.158000	24.919692	0.000530	20.757485
721.175591	-3.010400	3.710300	-11.169000	24.907534	0.000530	20.736747
722.182542	-3.026100	3.709600	-11.224000	24.920860	0.000530	20.750596
723.178472	-3.017800	3.709400	-11.193000	24.938316	0.000528	20.754841
724.181119	-2.996300	3.709900	-11.116000	24.937446	0.000529	20.751597
725.185168	-2.998800	3.709800	-11.124000	24.912307	0.000528	20.757659
726.180550	-3.015900	3.708000	-11.183000	24.880383	0.000528	20.742213
727.180759	-3.011900	3.709100	-11.170000	24.849277	0.000529	20.766471
728.183914	-2.999300	3.707400	-11.119000	24.871955	0.000529	20.741340
729.185638	-3.033600	3.706400	-11.243000	24.915095	0.000527	20.743861
730.185207	-3.002100	3.707600	-11.130000	24.930312	0.000527	20.754393
731.182803	-3.014600	3.707600	-11.176000	24.904704	0.000526	20.732957
732.177627	-2.984900	3.707700	-11.066000	24.873199	0.000528	20.738796
733.180361	-3.015300	3.706600	-11.175000	24.879417	0.000527	20.740770
734.182592	-3.007900	3.707300	-11.150000	24.875836	0.000526	20.757090
735.179713	-3.025300	3.706400	-11.212000	24.847812	0.000525	20.748879
736.180107	-2.992500	3.705700	-11.088000	24.837991	0.000528	20.748979
737.179170	-3.016700	3.705400	-11.178000	24.843710	0.000526	20.724846
738.180656	-3.008300	3.707000	-11.151000	24.895180	0.000528	20.749004
739.180363	-3.030100	3.704900	-11.226000	24.842967	0.000526	20.753025
740.178569	-3.011400	3.706100	-11.159000	24.893118	0.000526	20.748356
741.182316	-3.022800	3.703600	-11.194000	24.937625	0.000524	20.758414
742.186710	-3.014300	3.703800	-11.164000	24.945058	0.000525	20.759237
743.180075	-3.005200	3.705300	-11.134000	24.987253	0.000526	20.760338
744.182094	-3.004900	3.704500	-11.131000	24.950633	0.000525	20.747289
745.194721	-3.004700	3.705500	-11.133000	24.961867	0.000525	20.739123
746.182884	-3.002800	3.704700	-11.124000	25.016963	0.000526	20.729941
747.180145	-2.996600	3.703700	-11.098000	25.053187	0.000523	20.751130
748.179483	-2.972100	3.704300	-11.009000	25.081776	0.000526	20.739999
749.180918	-2.994000	3.703600	-11.088000	25.080733	0.000524	20.764083
750.184536	-2.993200	3.704000	-11.086000	25.035635	0.000524	20.734933
751.199266	-3.000000	3.703100	-11.108000	25.001129	0.000523	20.755774
752.185915	-2.971700	3.702400	-11.002000	25.000232	0.000523	20.746338
753.188986	-3.017000	3.702000	-11.168000	24.977957	0.000522	20.745317
754.191486	-2.997800	3.703000	-11.100000	24.973829	0.000522	20.747811
755.184707	-3.001200	3.702200	-11.110000	24.928405	0.000523	20.756273
756.186045	-3.022500	3.699900	-11.182000	24.922984	0.000522	20.749409
757.188994	-3.017200	3.700900	-11.165000	24.929847	0.000522	20.749185
758.181575	-2.992800	3.701100	-11.076000	24.915825	0.000521	20.749810
759.183223	-3.010700	3.700200	-11.139000	24.927188	0.000520	20.729445
760.191258	-2.993600	3.700300	-11.076000	24.989047	0.000522	20.747439
761.188176	-3.011300	3.700000	-11.141000	25.005828	0.000525	20.728721
762.188190	-3.017900	3.700400	-11.167000	24.998669	0.000523	20.750459
763.188078	-3.010200	3.699500	-11.135000	25.024748	0.000518	20.738229
764.187550	-3.005800	3.699700	-11.120000	25.006700	0.000522	20.748089
765.189545	-3.000800	3.699100	-11.100000	24.996532	0.000519	20.741676
766.188533	-3.008900	3.698800	-11.128000	25.021343	0.000522	20.753304
767.191871	-3.005700	3.697100	-11.111000	25.038893	0.000520	20.759542
768.187090	-3.008300	3.698800	-11.127000	25.055080	0.000522	20.749712
769.191074	-3.012600	3.698500	-11.140000	25.072085	0.000520	20.770101
770.191065	-2.989400	3.699500	-11.059000	25.057815	0.000519	20.726851
771.190918	-3.019100	3.697900	-11.164000	25.042227	0.000518	20.743921
772.193094	-3.016800	3.698800	-11.156000	25.012220	0.000520	20.755527
773.187597	-3.015300	3.697400	-11.148000	25.010033	0.000520	20.751909
774.189046	-3.004100	3.697400	-11.107000	25.041109	0.000517	20.749912
775.190433	-3.011300	3.697500	-11.133000	25.014060	0.000521	20.740303
776.190879	-3.016100	3.696500	-11.148000	25.006404	0.000517	20.745421
777.186889	-3.019700	3.696300	-11.160000	25.016721	0.000517	20.739656
778.193025	-3.012900	3.697200	-11.139000	25.061223	0.000516	20.768680
779.190431	-3.006300	3.695800	-11.110000	25.086455	0.000517	20.736161
780.191611	-3.001500	3.696700	-11.095000	25.059681	0.000516	20.732518
781.193894	-2.999100	3.696000	-11.084000	25.032609	0.000518	20.745646
782.192924	-3.015600	3.695200	-11.142000	25.037430	0.000516	20.751435
783.194928	-3.012600	3.694400	-11.129000	25.010828	0.000515	20.744646
784.195703	-3.014500	3.694400	-11.136000	25.007349	0.000515	20.754904
785.195675	-2.980600	3.694900	-11.013000	25.058537	0.000517	20.755078
786.193295	-2.993300	3.695200	-11.060000	25.070595	0.000515	20.750587
787.196659	-2.987800	3.694400	-11.036000	25.067438	0.000515	20.749789
788.196240	-2.988700	3.695700	-11.045000	25.055852	0.000516	20.732468
789.201006	-2.960100	3.695200	-10.937000	25.047972	0.000514	20.762017
790.197514	-3.014300	3.694400	-11.134000	25.061198	0.000513	20.764388
791.201407	-2.994900	3.692800	-11.059000	25.046455	0.000516	20.755752
792.201808	-2.974800	3.693500	-10.987000	25.016646	0.000515	20.744322
793.194044	-3.013200	3.692000	-11.124000	25.031342	0.000512	20.738210
794.199790	-3.008600	3.693600	-11.111000	24.999814	0.000515	20.766307
795.199962	-3.021000	3.691300	-11.150000	25.001158	0.000515	20.744897
796.195143	-3.014500	3.692300	-11.129000	25.049862	0.000511	20.757749
797.194932	-3.000300	3.690900	-11.071000	25.049911	0.000513	20.756851
798.198887	-2.988000	3.692300	-11.031000	25.011675	0.000513	20.749289
799.195972	-3.000700	3.692200	-11.078000	25.014584	0.000513	20.746994
800.196502	-2.992200	3.692700	-11.048000	25.014386	0.000512	20.772875
801.198963	-2.996500	3.691800	-11.061000	24.999071	0.000511	20.785002
802.202772	-3.016500	3.690600	-11.131000	25.003422	0.000514	20.758075
803.201167	-2.987100	3.691000	-11.024000	25.008516	0.000511	20.768879
804.197451	-2.978000	3.690400	-10.989000	25.048969	0.000514	20.776768
805.199769	-2.980900	3.690100	-10.999000	25.054887	0.000512	20.774648
806.198382	-2.987600	3.689200	-11.020000	25.039621	0.000513	20.769756
807.200683	-3.009400	3.690000	-11.104000	25.062195	0.000513	20.776294
808.201041	-3.012200	3.688500	-11.109000	25.085737	0.000511	20.777167
809.204061	-3.005900	3.688300	-11.085000	25.119820	0.000509	20.764440
810.204629	-2.985400	3.690400	-11.016000	25.172719	0.000509	20.760647
811.202915	-3.005400	3.688500	-11.085000	25.159547	0.000511	20.780613
812.207779	-2.988700	3.688600	-11.023000	25.182315	0.000509	20.770280
813.213655	-3.010900	3.687500	-11.102000	25.162380	0.000510	20.754060
814.206753	-2.977100	3.687700	-10.978000	25.168870	0.000509	20.772904
815.202922	-2.996000	3.688300	-11.049000	25.125814	0.000509	20.752913
816.205386	-2.970000	3.687100	-10.950000	25.122059	0.000509	20.770481
817.203456	-2.991200	3.687900	-11.031000	25.073285	0.000509	20.772728
818.207773	-2.986700	3.687000	-11.011000	25.104087	0.000510	20.758603
819.205856	-3.001300	3.687100	-11.064000	25.068164	0.000509	20.764268
820.217566	-3.016900	3.685500	-11.118000	25.075947	0.000506	20.771132
821.203477	-2.988700	3.685600	-11.014000	25.079380	0.000507	20.763199
822.213041	-3.025200	3.686100	-11.149000	25.085570	0.000508	20.760878
823.206117	-3.010000	3.685300	-11.092000	25.117414	0.000507	20.790475
824.211135	-3.005000	3.685500	-11.074000	25.145258	0.000507	20.779072
825.218239	-2.984100	3.686000	-10.999000	25.162684	0.000506	20.758632
826.217582	-2.990800	3.684500	-11.019000	25.143344	0.000507	20.766718
827.215207	-3.000300	3.684200	-11.053000	25.145458	0.000507	20.784962
828.208754	-2.993200	3.684000	-11.026000	25.125920	0.000507	20.776254
829.207218	-2.994500	3.685200	-11.035000	25.128854	0.000506	20.761655
830.215672	-2.985500	3.684000	-10.997000	25.096188	0.000506	20.780072
831.211842	-2.985700	3.684400	-10.999000	25.132682	0.000506	20.774508
832.211683	-3.014800	3.683700	-11.105000	25.157915	0.000507	20.776130
833.209798	-3.012700	3.682300	-11.093000	25.141459	0.000504	20.786163
834.211243	-2.982400	3.684200	-10.987000	25.145485	0.000506	20.788782
835.213428	-3.011600	3.682500	-11.089000	25.119955	0.000508	20.781645
836.212482	-3.016200	3.682800	-11.107000	25.134251	0.000504	20.792204
837.217824	-3.016800	3.681700	-11.107000	25.112474	0.000505	20.772713
838.218645	-3.003300	3.682100	-11.057000	25.089080	0.000503	20.779575
839.214091	-2.989600	3.682800	-11.009000	25.083464	0.000502	20.796697
840.217790	-3.003700	3.682500	-11.060000	25.096415	0.000505	20.785041
841.224901	-3.020900	3.681200	-11.119000	25.147526	0.000504	20.792728
842.218664	-2.996000	3.681500	-11.029000	25.136540	0.000504	20.789286
843.222495	-3.001200	3.681100	-11.047000	25.179171	0.000502	20.782771
844.230289	-3.000700	3.679000	-11.039000	25.194831	0.000504	20.780001
845.223060	-3.018200	3.680600	-11.107000	25.170097	0.000503	20.797843
846.219369	-2.990000	3.680600	-11.004000	25.170819	0.000502	20.806629
847.218336	-3.027000	3.679200	-11.136000	25.179743	0.000502	20.784768
848.218915	-3.025700	3.679900	-11.133000	25.201891	0.000502	20.795623
849.219194	-3.003100	3.679400	-11.049000	25.183944	0.000501	20.809373
850.227686	-3.010100	3.678900	-11.073000	25.209770	0.000500	20.810171
851.223598	-2.990200	3.678700	-10.999000	25.247005	0.000500	20.799191
852.225539	-2.988500	3.680000	-10.997000	25.268334	0.000501	20.779828
853.220102	-2.997000	3.679200	-11.026000	25.296519	0.000502	20.796747
854.220081	-3.005600	3.678800	-11.056000	25.252275	0.000500	20.791679
855.216511	-2.985400	3.679100	-10.983000	25.232242	0.000500	20.806180
856.217221	-2.972500	3.678600	-10.933000	25.240393	0.000499	20.803932
857.216953	-3.004200	3.676700	-11.044000	25.254116	0.000501	20.811546
858.221527	-3.008300	3.677500	-11.062000	25.280785	0.000499	20.818881
859.233149	-3.010600	3.677500	-11.071000	25.284191	0.000499	20.806180
860.219673	-3.014900	3.677000	-11.085000	25.267537	0.000501	20.793252
861.221271	-3.014900	3.675400	-11.080000	25.254439	0.000498	20.789584
862.228874	-3.017500	3.675300	-11.089000	25.233733	0.000498	20.806729
863.220251	-3.012000	3.676200	-11.072000	25.227319	0.000500	20.805979
864.219863	-2.987100	3.676700	-10.981000	25.256875	0.000498	20.819057
865.227786	-3.006500	3.676700	-11.053000	25.206118	0.000496	20.811247
866.226013	-2.997900	3.674900	-11.016000	25.221306	0.000497	20.816064
867.219903	-2.984800	3.674900	-10.968000	25.208008	0.000497	20.817411
868.229444	-3.000800	3.674200	-11.025000	25.221429	0.000496	20.813342
869.219904	-2.991500	3.674300	-10.991000	25.238781	0.000497	20.813693
870.226929	-3.007600	3.675600	-11.054000	25.200948	0.000495	20.805108
871.233768	-2.999100	3.673600	-11.017000	25.164431	0.000495	20.806854
872.224312	-3.001300	3.674400	-11.027000	25.166125	0.000495	20.813770
873.225830	-3.016500	3.672800	-11.077000	25.190135	0.000494	20.805632
874.229970	-3.014500	3.674800	-11.076000	25.238808	0.000497	20.820358
875.224586	-3.015200	3.671700	-11.070000	25.225734	0.000495	20.810077
876.221405	-3.034900	3.671000	-11.140000	25.185240	0.000495	20.813520
877.228000	-3.007000	3.673300	-11.045000	25.200653	0.000493	20.815717
878.237342	-3.018800	3.671900	-11.084000	25.199783	0.000495	20.826697
879.225164	-3.028100	3.671600	-11.117000	25.232023	0.000494	20.814969
880.234063	-3.022500	3.671300	-11.096000	25.212610	0.000493	20.818238
881.225242	-2.990400	3.672000	-10.980000	25.210223	0.000491	20.836704
882.223691	-3.003300	3.671600	-11.026000	25.225832	0.000492	20.819658
883.228995	-2.969600	3.672100	-10.904000	25.272214	0.000492	20.833509
884.226366	-2.981700	3.671300	-10.945000	25.292596	0.000495	20.813196
885.227666	-2.985800	3.671500	-10.961000	25.313426	0.000491	20.825102
886.231368	-3.000300	3.670600	-11.012000	25.258591	0.000492	20.818883
887.227102	-3.005800	3.668700	-11.027000	25.243058	0.000492	20.826048
888.231387	-3.022100	3.670600	-11.092000	25.257176	0.000491	20.833584
889.230947	-3.002600	3.670000	-11.019000	25.257773	0.000491	20.836554
890.230650	-3.004700	3.670200	-11.026000	25.286629	0.000491	20.824749
891.228443	-3.001800	3.669000	-11.013000	25.226751	0.000489	20.831487
892.236804	-2.983100	3.670200	-10.947000	25.282281	0.000491	20.836978
893.244427	-3.003900	3.668700	-11.020000	25.246986	0.000489	20.831414
894.236001	-3.025500	3.667000	-11.094000	25.246289	0.000490	20.826447
895.231859	-3.001000	3.667900	-11.007000	25.277560	0.000488	20.844092
896.234115	-2.986700	3.668000	-10.955000	25.271369	0.000490	20.828868
897.239606	-2.997200	3.668000	-10.992000	25.300054	0.000488	20.826374
898.231804	-2.995600	3.667600	-10.985000	25.302066	0.000488	20.834083
899.232645	-2.978400	3.666800	-10.921000	25.303705	0.000489	20.861806
900.234210	-3.012900	3.665900	-11.044000	25.309076	0.000490	20.823579
901.233480	-2.998500	3.667000	-10.994000	25.248505	0.000489	20.824404
902.233927	-2.969700	3.667800	-10.891000	25.219744	0.000489	20.835831
903.234793	-3.002100	3.666800	-11.007000	25.188100	0.000488	20.832038
904.232939	-2.997600	3.665000	-10.985000	25.238685	0.000486	20.845364
905.235961	-2.989700	3.665900	-10.959000	25.260457	0.000488	20.836404
906.233155	-3.004500	3.665800	-11.013000	25.303584	0.000487	20.833237
907.236757	-2.999600	3.665900	-10.995000	25.325183	0.000486	20.829793
908.244295	-3.020000	3.664900	-11.067000	25.289689	0.000487	20.850580
909.248692	-3.012500	3.663800	-11.036000	25.261204	0.000487	20.840947
910.245233	-3.013600	3.664300	-11.041000	25.240127	0.000487	20.838277
911.251740	-3.003400	3.664000	-11.003000	25.307088	0.000487	20.858090
912.240922	-3.006800	3.663400	-11.014000	25.300276	0.000484	20.850778
913.240032	-3.004900	3.663400	-11.008000	25.283252	0.000484	20.832738
914.241366	-3.016500	3.662900	-11.049000	25.265332	0.000485	20.835608
915.246634	-3.014500	3.662900	-11.041000	25.290411	0.000483	20.851778
916.239001	-2.993500	3.663300	-10.965000	25.341811	0.000485	20.838902
917.241442	-3.004600	3.662600	-11.004000	25.330650	0.000483	20.840497
918.243403	-3.010200	3.662500	-11.023000	25.314866	0.000484	20.837926
919.245869	-2.999500	3.660600	-10.978000	25.286359	0.000483	20.848184
920.242657	-2.985600	3.662000	-10.933000	25.260085	0.000483	20.846461
921.246974	-3.001800	3.661400	-10.990000	25.247011	0.000483	20.851827
922.241328	-3.029900	3.660600	-11.090000	25.282308	0.000482	20.857867
923.244517	-3.018500	3.661300	-11.050000	25.345561	0.000483	20.855469
924.246928	-3.006400	3.661200	-11.006000	25.313722	0.000481	20.849579
925.243485	-3.022500	3.660100	-11.062000	25.340989	0.000480	20.842818
926.248674	-3.019900	3.659700	-11.050000	25.343252	0.000481	20.847935
927.243532	-3.016800	3.660600	-11.042000	25.360098	0.000481	20.855367
928.254257	-2.981700	3.660600	-10.914000	25.376006	0.000482	20.841469
929.248894	-2.996300	3.659800	-10.964000	25.391019	0.000480	20.874560
930.245702	-3.013200	3.658000	-11.022000	25.393430	0.000480	20.858964
931.248570	-2.984900	3.659100	-10.921000	25.401505	0.000481	20.845736
932.250124	-3.001000	3.659300	-10.980000	25.381997	0.000478	20.876880
933.245177	-3.004000	3.659300	-10.990000	25.363556	0.000480	20.859312
934.252962	-2.991600	3.658000	-10.942000	25.361145	0.000478	20.865900
935.247147	-3.004000	3.657700	-10.986000	25.366214	0.000478	20.861982
936.247003	-2.994200	3.657000	-10.949000	25.370714	0.000480	20.870292
937.250007	-3.022900	3.656000	-11.051000	25.379166	0.000479	20.866925
938.246757	-3.006400	3.656200	-10.990000	25.353839	0.000477	20.858090
939.248413	-3.005900	3.656600	-10.991000	25.305970	0.000477	20.869770
940.246986	-3.009600	3.655900	-11.002000	25.302663	0.000477	20.855544
941.249084	-2.995000	3.656200	-10.950000	25.259142	0.000478	20.852152
942.251769	-2.987500	3.656500	-10.923000	25.267595	0.000478	20.879604
943.246078	-2.993000	3.655700	-10.940000	25.269432	0.000475	20.869121
944.244424	-2.979500	3.656600	-10.893000	25.297370	0.000475	20.884368
945.248780	-2.991000	3.654800	-10.931000	25.322699	0.000476	20.869022
946.247761	-3.004200	3.655400	-10.981000	25.351055	0.000474	20.867623
947.261827	-2.971200	3.655500	-10.860000	25.348472	0.000475	20.893002
948.253645	-2.989600	3.654900	-10.926000	25.350311	0.000473	20.894848
949.245865	-3.018000	3.653800	-11.026000	25.335696	0.000472	20.877331
950.259039	-3.029100	3.653300	-11.066000	25.371288	0.000475	20.901212
951.264920	-2.977700	3.653000	-10.877000	25.361371	0.000473	20.858542
952.245482	-3.023600	3.652900	-11.044000	25.357096	0.000473	20.871792
953.260009	-2.990900	3.653000	-10.924000	25.315713	0.000473	20.859164
954.253682	-3.006300	3.651800	-10.978000	25.327446	0.000472	20.899865
955.244565	-2.958000	3.654400	-10.809000	25.355630	0.000473	20.875061
956.256664	-3.005800	3.652400	-10.978000	25.346135	0.000471	20.884019
957.256598	-2.974000	3.652600	-10.862000	25.367286	0.000471	20.899090
958.251512	-2.998400	3.651200	-10.947000	25.420695	0.000473	20.895822
959.253534	-2.992700	3.652400	-10.929000	25.442043	0.000471	20.887388
960.257024	-2.975700	3.650900	-10.863000	25.419453	0.000471	20.876084
961.256389	-2.981000	3.651600	-10.885000	25.465130	0.000471	20.897768
962.266922	-2.973200	3.650600	-10.853000	25.412817	0.000470	20.886964
963.253940	-3.001800	3.650900	-10.958000	25.397183	0.000470	20.886912
964.252143	-2.999100	3.650600	-10.948000	25.372158	0.000468	20.887388
965.258108	-3.011700	3.648900	-10.988000	25.334380	0.000469	20.882173
966.270411	-2.983400	3.650000	-10.888000	25.333285	0.000469	20.901935
967.254047	-2.994800	3.648900	-10.928000	25.351752	0.000468	20.890132
968.254611	-2.988700	3.648800	-10.904000	25.369722	0.000470	20.900588
969.256672	-3.004600	3.648300	-10.961000	25.396987	0.000470	20.895249
970.261754	-3.003000	3.648100	-10.954000	25.402454	0.000466	20.906902
971.269580	-3.038700	3.647800	-11.083000	25.441024	0.000467	20.901536
972.257115	-2.994700	3.648500	-10.926000	25.475543	0.000466	20.906801
973.264107	-3.004600	3.648200	-10.961000	25.468587	0.000468	20.896024
974.263421	-3.027200	3.646300	-11.037000	25.493338	0.000467	20.894326
975.255793	-2.978600	3.648100	-10.865000	25.493313	0.000465	20.900465
976.269598	-3.025100	3.647400	-11.033000	25.456708	0.000465	20.922025
977.260599	-3.015500	3.647000	-10.997000	25.472067	0.000466	20.897622
978.262241	-2.978000	3.646600	-10.858000	25.502311	0.000465	20.901914
979.266926	-2.995400	3.647400	-10.925000	25.521694	0.000466	20.915688
980.261102	-2.971200	3.647500	-10.837000	25.446744	0.000464	20.899220
981.266568	-3.002900	3.645800	-10.947000	25.446445	0.000466	20.892756
982.263551	-3.005300	3.645600	-10.954000	25.431684	0.000465	20.908278
983.271428	-3.006600	3.645300	-10.959000	25.401214	0.000465	20.926517
984.268099	-3.031900	3.643400	-11.046000	25.373576	0.000463	20.896872
985.264523	-3.006100	3.645400	-10.957000	25.387223	0.000464	20.908203
986.265211	-3.003200	3.644600	-10.943000	25.427437	0.000463	20.902117
987.273427	-2.990600	3.643500	-10.896000	25.453182	0.000464	20.899995
988.277480	-3.010900	3.643200	-10.968000	25.474680	0.000465	20.890763
989.267500	-2.981600	3.645200	-10.868000	25.462553	0.000462	20.892336
990.265584	-3.014700	3.642200	-10.979000	25.444808	0.000462	20.897275
991.263377	-2.994000	3.643600	-10.908000	25.408923	0.000463	20.904863
992.266418	-2.994600	3.643300	-10.908000	25.422839	0.000462	20.892286
993.270355	-3.005000	3.642500	-10.945000	25.441430	0.000461	20.891987
994.268172	-3.022700	3.640400	-11.003000	25.460242	0.000462	20.904713
995.265004	-2.998600	3.641600	-10.917000	25.402537	0.000461	20.873323
996.276384	-3.023700	3.641100	-11.009000	25.458205	0.000460	20.904090
997.263608	-3.008700	3.642500	-10.958000	25.486933	0.000459	20.895007
998.265684	-2.990800	3.641800	-10.891000	25.455622	0.000458	20.886325
999.268409	-3.002700	3.641500	-10.934000	25.417473	0.000458	20.882630
1000.264701	-2.999200	3.641100	-10.919000	25.429105	0.000456	20.875819
1001.269052	-3.009000	3.640200	-10.952000	25.418665	0.000458	20.871025
1002.268450	-2.979600	3.639300	-10.843000	25.402786	0.000458	20.898702
1003.268294	-3.006100	3.640000	-10.941000	25.412778	0.000457	20.875071
1004.269812	-2.984000	3.638800	-10.857000	25.449336	0.000456	20.883332
1005.281307	-2.992800	3.637600	-10.886000	25.485146	0.000456	20.858602
1006.270452	-3.004000	3.638500	-10.929000	25.474286	0.000456	20.893687
1007.270713	-3.008200	3.639200	-10.947000	25.425329	0.000457	20.889570
1008.278223	-3.014500	3.639000	-10.969000	25.408106	0.000455	20.858527
1009.269093	-3.016900	3.638000	-10.974000	25.386284	0.000455	20.875969
1010.272686	-3.018000	3.636800	-10.975000	25.338738	0.000456	20.877066
1011.278572	-2.996400	3.638300	-10.901000	25.354993	0.000453	20.867784
1012.276080	-2.998600	3.637800	-10.907000	25.404376	0.000454	20.876117
1013.277622	-3.006700	3.638400	-10.938000	25.425874	0.000455	20.862144
1014.274435	-3.003200	3.636900	-10.921000	25.462108	0.000452	20.880984
1015.279889	-3.008500	3.635700	-10.936000	25.468793	0.000452	20.883430
1016.275833	-2.987000	3.636300	-10.861000	25.488749	0.000454	20.876917
1017.275110	-2.976000	3.635800	-10.819000	25.447743	0.000454	20.877465
1018.276098	-3.008100	3.636400	-10.938000	25.443867	0.000451	20.873573
1019.275779	-3.002100	3.634600	-10.911000	25.435443	0.000450	20.876493
1020.280233	-3.013400	3.635200	-10.953000	25.415906	0.000451	20.838386
1021.278573	-3.009600	3.635000	-10.939000	25.428830	0.000453	20.858000
1022.281994	-3.000600	3.634000	-10.903000	25.436758	0.000453	20.840357
1023.279692	-3.001500	3.633200	-10.904000	25.391327	0.000452	20.854007
1024.283585	-3.008700	3.632400	-10.928000	25.445259	0.000451	20.874971
1025.283119	-2.997300	3.633700	-10.891000	25.466158	0.000449	20.849491
1026.279069	-3.024500	3.632300	-10.986000	25.434249	0.000449	20.875294
1027.282558	-2.998400	3.633200	-10.893000	25.426792	0.000450	20.862591
1028.286918	-3.006500	3.631900	-10.918000	25.425177	0.000450	20.872824
1029.276512	-3.015700	3.632000	-10.952000	25.471252	0.000451	20.849391
1030.288064	-3.005000	3.631500	-10.911000	25.491403	0.000448	20.851609
1031.276430	-2.996800	3.632000	-10.883000	25.462628	0.000448	20.855903
1032.279850	-3.000400	3.630300	-10.892000	25.498413	0.000448	20.876665
1033.283276	-2.979700	3.632400	-10.823000	25.476768	0.000447	20.826956
1034.292297	-3.028000	3.630000	-10.990000	25.448412	0.000448	20.855853
1035.280535	-2.981800	3.630800	-10.826000	25.422517	0.000446	20.857825
1036.298681	-2.992300	3.629300	-10.859000	25.399677	0.000448	20.850063
1037.279204	-3.000200	3.630000	-10.890000	25.415259	0.000447	20.854331
1038.279768	-2.952100	3.630500	-10.715000	25.398757	0.000446	20.859571
1039.280294	-2.973900	3.629900	-10.794000	25.450996	0.000447	20.871249
1040.290278	-2.991000	3.629400	-10.855000	25.523362	0.000447	20.843401
1041.280598	-3.011700	3.628300	-10.927000	25.541229	0.000444	20.852808
1042.279490	-2.986900	3.629300	-10.840000	25.565183	0.000445	20.853631
1043.280301	-2.999400	3.628700	-10.883000	25.578378	0.000445	20.851235
1044.286348	-3.014000	3.628500	-10.935000	25.579422	0.000444	20.853706
1045.282087	-2.985400	3.627700	-10.829000	25.536183	0.000441	20.836362
1046.283886	-3.010200	3.626300	-10.915000	25.567569	0.000443	20.842751
1047.282515	-2.971400	3.628400	-10.779000	25.507604	0.000441	20.851757
1048.282383	-2.996400	3.626400	-10.865000	25.505268	0.000442	20.842774
1049.290357	-2.997900	3.625800	-10.869000	25.555093	0.000444	20.854878
1050.293135	-3.005500	3.626100	-10.897000	25.561926	0.000441	20.848938
1051.289406	-3.000900	3.626000	-10.881000	25.593484	0.000439	20.852181
1052.295242	-3.000600	3.625500	-10.878000	25.566722	0.000439	20.833841
1053.288157	-3.026100	3.624000	-10.966000	25.587096	0.000440	20.827750
1054.288158	-2.992100	3.625100	-10.846000	25.585381	0.000441	20.843096
1055.285819	-2.982600	3.625800	-10.813000	25.587444	0.000441	20.843745
1056.294829	-3.003500	3.624100	-10.884000	25.610752	0.000439	20.836809
1057.286929	-3.023300	3.622800	-10.951000	25.611472	0.000439	20.827100
1058.288329	-3.008500	3.624200	-10.903000	25.607670	0.000437	20.829920
1059.291823	-3.001900	3.622100	-10.873000	25.582496	0.000440	20.818862
1060.286692	-3.006200	3.622900	-10.891000	25.601703	0.000438	20.844790
1061.299966	-2.989800	3.623200	-10.831000	25.615072	0.000439	20.853474
1062.298462	-2.988500	3.624100	-10.829000	25.589653	0.000436	20.839800
1063.300084	-3.002800	3.621200	-10.873000	25.528475	0.000438	20.825776
1064.295239	-2.993700	3.621000	-10.839000	25.514433	0.000439	20.828270
1065.296071	-2.991500	3.620800	-10.831000	25.540973	0.000437	20.835008
1066.290224	-2.996500	3.621600	-10.850000	25.561026	0.000438	20.820059
1067.297012	-2.989200	3.620500	-10.822000	25.570641	0.000436	20.814069
1068.292619	-2.988700	3.620400	-10.819000	25.569251	0.000435	20.843493
1069.287672	-3.008300	3.619500	-10.888000	25.557321	0.000433	20.861382
1070.293373	-3.008900	3.620200	-10.892000	25.540077	0.000433	20.836005
1071.294805	-2.996200	3.620400	-10.846000	25.528223	0.000434	20.826946
1072.291371	-3.008400	3.619300	-10.887000	25.515847	0.000433	20.816415
1073.292374	-2.989600	3.619700	-10.821000	25.561546	0.000433	20.829590
1074.296873	-3.014800	3.619300	-10.910000	25.600210	0.000436	20.812471
1075.291389	-3.014600	3.617700	-10.904000	25.582095	0.000435	20.840270
1076.302186	-2.986600	3.619900	-10.810000	25.590096	0.000435	20.820331
1077.292547	-2.994100	3.617700	-10.831000	25.594869	0.000434	20.812323
1078.295515	-3.011400	3.617400	-10.892000	25.600385	0.000431	20.828293
1079.288908	-2.983400	3.617900	-10.792000	25.545418	0.000432	20.826196
1080.293425	-3.002900	3.617900	-10.863000	25.532995	0.000432	20.840272
1081.307252	-3.006900	3.616800	-10.875000	25.562392	0.000430	20.840397
1082.301763	-3.019500	3.616800	-10.920000	25.574168	0.000430	20.818086
1083.293834	-3.004200	3.616700	-10.864000	25.569075	0.000427	20.837151
1084.296770	-3.012100	3.615700	-10.890000	25.498103	0.000429	20.828941
1085.295694	-2.984300	3.616400	-10.792000	25.540324	0.000432	20.812072
1086.295032	-2.984400	3.616300	-10.792000	25.581202	0.000431	20.827520
1087.298456	-2.979900	3.616300	-10.775000	25.536921	0.000430	20.816715
1088.293834	-2.996500	3.615300	-10.832000	25.548875	0.000430	20.816866
1089.294612	-2.955100	3.615000	-10.682000	25.559732	0.000426	20.821605
1090.298738	-3.028800	3.611700	-10.938000	25.603791	0.000427	20.837404
1091.294597	-2.983000	3.614900	-10.782000	25.538163	0.000427	20.828868
1092.296451	-3.002800	3.613600	-10.849000	25.551036	0.000426	20.818562
1093.294110	-2.991400	3.614300	-10.810000	25.544476	0.000427	20.823353
1094.294115	-2.994300	3.613300	-10.818000	25.558790	0.000426	20.813547
1095.294194	-2.967900	3.613700	-10.724000	25.568432	0.000426	20.829868
1096.295195	-3.008200	3.611400	-10.863000	25.635547	0.000426	20.818564
1097.299795	-2.991800	3.612300	-10.806000	25.670183	0.000426	20.809728
1098.293728	-2.997300	3.611700	-10.824000	25.669711	0.000427	20.817789
1099.299932	-2.996800	3.611600	-10.822000	25.690085	0.000426	20.803640
1100.294882	-2.992400	3.611500	-10.806000	25.669688	0.000423	20.813973
1101.294898	-3.028900	3.610400	-10.935000	25.645337	0.000424	20.810852
1102.300096	-2.992800	3.611500	-10.807000	25.648866	0.000423	20.812026
1103.296358	-3.006300	3.611300	-10.856000	25.639921	0.000422	20.834810
1104.296594	-2.984900	3.610800	-10.777000	25.669413	0.000423	20.825076
1105.301400	-3.023600	3.609800	-10.912000	25.674879	0.000423	20.822979
1106.308450	-3.017300	3.608900	-10.888000	25.603668	0.000423	20.800772
1107.297244	-3.006800	3.609000	-10.850000	25.603791	0.000423	20.809904
1108.298571	-3.007100	3.609300	-10.852000	25.565451	0.000420	20.812176
1109.299466	-3.014600	3.608700	-10.878000	25.532002	0.000419	20.792809
1110.296455	-3.017400	3.608800	-10.889000	25.598525	0.000420	20.813150
1111.301062	-2.983600	3.607800	-10.763000	25.569526	0.000421	20.817691
1112.308525	-2.997400	3.607800	-10.812000	25.555162	0.000420	20.826499
1113.303636	-2.995300	3.607800	-10.805000	25.591343	0.000418	20.811627
1114.299430	-3.001800	3.607700	-10.828000	25.551287	0.000420	20.814073
1115.310433	-2.987100	3.606400	-10.772000	25.570570	0.000418	20.810679
1116.310778	-3.010000	3.604900	-10.850000	25.555064	0.000420	20.807435
1117.304337	-2.998500	3.606400	-10.813000	25.577750	0.000418	20.799871
1118.306664	-3.001900	3.605900	-10.824000	25.527826	0.000417	20.797624
1119.299700	-2.983300	3.605900	-10.757000	25.567635	0.000419	20.785920
1120.310174	-3.011600	3.605000	-10.856000	25.556107	0.000417	20.803266
1121.310910	-3.013200	3.603700	-10.858000	25.557546	0.000416	20.812298
1122.305319	-3.005700	3.604800	-10.834000	25.579441	0.000419	20.799673
1123.306339	-3.016300	3.604500	-10.871000	25.590670	0.000418	20.815218
1124.309188	-2.995400	3.603600	-10.792000	25.562068	0.000415	20.796450
1125.302494	-3.013600	3.603800	-10.859000	25.592433	0.000416	20.803239
1126.303747	-3.002900	3.603800	-10.821000	25.583910	0.000416	20.813171
1127.302103	-3.009200	3.603200	-10.842000	25.606722	0.000414	20.801941
1128.307751	-2.996600	3.602100	-10.793000	25.598945	0.000418	20.793183
1129.305046	-2.998200	3.602400	-10.800000	25.646528	0.000416	20.801144
1130.305922	-3.004400	3.600600	-10.817000	25.646179	0.000416	20.793680
1131.307379	-3.006600	3.602300	-10.830000	25.622748	0.000414	20.789588
1132.306356	-3.020400	3.601200	-10.876000	25.574195	0.000414	20.797250
1133.305827	-3.011000	3.602300	-10.845000	25.559857	0.000414	20.789488
1134.311440	-3.013400	3.600500	-10.849000	25.566714	0.000411	20.787840
1135.310172	-3.023100	3.599400	-10.881000	25.585924	0.000415	20.785795
1136.310098	-2.998900	3.600300	-10.796000	25.616039	0.000414	20.783324
1137.311070	-2.991000	3.599700	-10.766000	25.625928	0.000409	20.798946
1138.306468	-2.983400	3.601000	-10.742000	25.659472	0.000412	20.798497
1139.315729	-2.993700	3.599400	-10.775000	25.660219	0.000413	20.788816
1140.312923	-2.992300	3.600000	-10.771000	25.648192	0.000412	20.776736
1141.312251	-3.005200	3.598600	-10.813000	25.633757	0.000410	20.786420
1142.314045	-3.002600	3.600000	-10.808000	25.635595	0.000411	20.802491
1143.312889	-3.010900	3.597100	-10.830000	25.648741	0.000411	20.796254
1144.313913	-3.008300	3.598100	-10.823000	25.669536	0.000410	20.770198
1145.312594	-3.016500	3.596600	-10.849000	25.680743	0.000412	20.803740
1146.311241	-3.001800	3.597400	-10.798000	25.636741	0.000409	20.796529
1147.308463	-3.006600	3.596600	-10.813000	25.637785	0.000410	20.794733
1148.319075	-2.995500	3.597200	-10.774000	25.657763	0.000409	20.787297
1149.319840	-2.979800	3.596700	-10.716000	25.642706	0.000408	20.787821
1150.312815	-2.994800	3.596400	-10.769000	25.652470	0.000408	20.792412
1151.318091	-3.016700	3.594300	-10.842000	25.635973	0.000409	20.790543
1152.318295	-3.003300	3.596200	-10.800000	25.616790	0.000408	20.794509
1153.319838	-2.993500	3.595400	-10.762000	25.627503	0.000407	20.782035
1154.318984	-2.975800	3.595700	-10.699000	25.628570	0.000406	20.803495
1155.318802	-3.006500	3.593800	-10.804000	25.601189	0.000404	20.796385
1156.313285	-3.005200	3.593200	-10.797000	25.588292	0.000406	20.771104
1157.319394	-2.985800	3.592900	-10.728000	25.532358	0.000406	20.791270
1158.315680	-2.996900	3.593100	-10.767000	25.561955	0.000403	20.791595
1159.314659	-3.009400	3.593500	-10.814000	25.599997	0.000403	20.777170
1160.318511	-2.987200	3.593800	-10.735000	25.592171	0.000404	20.772629
1161.314594	-2.980500	3.593200	-10.709000	25.633817	0.000404	20.776523
1162.314858	-3.009700	3.592200	-10.811000	25.639904	0.000404	20.775524
1163.314624	-2.995900	3.591500	-10.759000	25.664950	0.000405	20.774127
1164.320326	-2.997200	3.591700	-10.764000	25.674442	0.000403	20.791247
1165.323238	-3.003500	3.591900	-10.787000	25.692308	0.000401	20.769836
1166.316305	-2.989600	3.591500	-10.735000	25.623530	0.000401	20.788951
1167.316439	-2.998400	3.591100	-10.767000	25.591177	0.000402	20.772105
1168.320755	-3.021200	3.590900	-10.848000	25.606362	0.000401	20.772656
1169.317841	-2.984300	3.591600	-10.717000	25.649448	0.000400	20.794119
1170.316971	-2.992200	3.590900	-10.744000	25.648951	0.000401	20.771808
1171.319805	-2.977600	3.590000	-10.688000	25.626589	0.000399	20.774954
1172.318271	-2.991700	3.589900	-10.739000	25.561512	0.000399	20.775977
1173.320325	-2.978300	3.590400	-10.692000	25.596150	0.000398	20.774728
1174.319044	-2.975200	3.588600	-10.675000	25.595678	0.000400	20.788953
1175.319917	-2.975100	3.588300	-10.675000	25.626490	0.000397	20.774379
1176.320732	-2.998200	3.589600	-10.762000	25.628800	0.000397	20.768165
1177.326264	-3.021500	3.587700	-10.838000	25.617597	0.000397	20.797690
1178.324030	-3.006600	3.588300	-10.788000	25.645748	0.000396	20.768591
1179.325590	-3.021300	3.587500	-10.838000	25.682596	0.000396	20.770039
1180.333344	-2.975600	3.587000	-10.671000	25.712089	0.000396	20.767894
1181.320326	-3.017200	3.586900	-10.822000	25.699193	0.000395	20.772485
1182.332430	-3.004300	3.586000	-10.772000	25.755841	0.000395	20.772959
1183.330906	-3.007100	3.585300	-10.780000	25.784338	0.000395	20.763651
1184.330620	-2.973900	3.586300	-10.664000	25.782849	0.000393	20.761207
1185.322690	-3.009400	3.585600	-10.789000	25.726975	0.000394	20.766724
1186.322564	-3.019700	3.585300	-10.826000	25.674525	0.000392	20.754345
1187.324670	-3.015700	3.584700	-10.809000	25.674103	0.000396	20.764827
1188.326372	-3.015500	3.584100	-10.807000	25.653131	0.000391	20.758462
1189.323965	-3.022000	3.583900	-10.830000	25.589796	0.000392	20.758389
1190.329077	-3.020600	3.582400	-10.819000	25.589571	0.000394	20.763854
1191.332351	-3.013600	3.582900	-10.797000	25.598494	0.000391	20.760012
1192.324800	-3.017100	3.584100	-10.813000	25.621900	0.000392	20.765976
1193.328753	-2.987400	3.583500	-10.705000	25.633280	0.000391	20.760336
1194.329255	-3.013200	3.583000	-10.795000	25.653828	0.000392	20.760585
1195.327996	-3.016100	3.581800	-10.802000	25.691000	0.000390	20.769945
1196.327199	-2.988200	3.582500	-10.703000	25.733039	0.000390	20.752426
1197.339656	-2.989100	3.581400	-10.704000	25.728790	0.000391	20.748158
1198.333766	-2.992100	3.581100	-10.714000	25.740991	0.000389	20.753301
1199.325130	-2.990600	3.581100	-10.709000	25.774506	0.000389	20.753775
1200.334636	-2.991400	3.580500	-10.709000	25.796891	0.000389	20.741173
1201.328331	-3.017500	3.580900	-10.805000	25.796297	0.000387	20.768552
1202.328835	-2.989600	3.580200	-10.702000	25.775377	0.000391	20.750383
1203.331142	-2.978900	3.582100	-10.670000	25.750609	0.000388	20.762013
1204.330903	-2.978800	3.581300	-10.667000	25.728100	0.000386	20.752680
1205.327699	-3.003700	3.578400	-10.747000	25.709912	0.000387	20.759542
1206.335042	-2.996100	3.578700	-10.721000	25.654306	0.000387	20.743047
1207.337891	-2.973700	3.578400	-10.641000	25.666258	0.000386	20.769751
1208.327548	-2.991600	3.577600	-10.702000	25.673214	0.000386	20.750184
1209.328268	-2.989400	3.578500	-10.697000	25.741018	0.000384	20.730093
1210.332953	-2.999400	3.576900	-10.728000	25.665761	0.000385	20.753130
1211.332342	-3.017600	3.577800	-10.795000	25.683997	0.000385	20.739677
1212.332794	-3.000300	3.578000	-10.734000	25.697016	0.000383	20.744218
1213.337672	-3.020900	3.575900	-10.802000	25.748795	0.000383	20.762089
1214.338583	-3.008600	3.575900	-10.757000	25.731157	0.000386	20.739155
1215.345036	-2.995400	3.575900	-10.711000	25.742039	0.000383	20.726851
1216.337942	-3.000800	3.575500	-10.728000	25.736771	0.000383	20.732941
1217.333499	-3.013000	3.575900	-10.774000	25.723429	0.000382	20.733764
1218.335635	-3.001600	3.575000	-10.729000	25.719977	0.000382	20.734089
1219.341588	-2.996700	3.574800	-10.711000	25.749342	0.000384	20.730394
1220.340533	-2.998400	3.574500	-10.717000	25.709641	0.000382	20.745994
1221.343156	-3.016400	3.573100	-10.777000	25.606925	0.000383	20.748565
1222.336153	-3.010600	3.572800	-10.755000	25.615373	0.000383	20.726229
1223.335598	-3.009300	3.573700	-10.753000	25.615325	0.000382	20.742303
1224.332622	-3.010700	3.573200	-10.757000	25.633540	0.000379	20.739734
1225.344258	-3.018300	3.571900	-10.780000	25.616220	0.000381	20.763591
1226.342698	-3.000600	3.573100	-10.721000	25.621662	0.000378	20.755780
1227.338296	-2.984000	3.574000	-10.664000	25.586701	0.000379	20.755755
1228.331523	-3.002200	3.571800	-10.721000	25.597138	0.000379	20.731623
1229.337250	-2.980400	3.571400	-10.644000	25.624844	0.000378	20.747122
1230.337847	-3.012700	3.570400	-10.756000	25.628126	0.000377	20.739986
1231.340004	-3.006300	3.570700	-10.733000	25.562329	0.000379	20.745503
1232.343168	-2.995600	3.572400	-10.700000	25.569559	0.000376	20.743281
1233.339914	-2.999200	3.570100	-10.707000	25.574085	0.000376	20.738817
1234.335195	-2.977900	3.571200	-10.634000	25.574802	0.000376	20.738115
1235.341805	-2.993000	3.570100	-10.684000	25.600623	0.000378	20.736072
1236.341802	-3.021100	3.568400	-10.780000	25.649573	0.000378	20.743034
1237.341533	-3.011500	3.568500	-10.746000	25.686892	0.000376	20.734998
1238.344875	-2.988300	3.568300	-10.662000	25.705825	0.000375	20.748799
1239.342171	-2.990800	3.568400	-10.671000	25.666545	0.000376	20.734476
1240.343268	-3.009600	3.568400	-10.738000	25.678769	0.000377	20.742961
1241.341934	-2.977200	3.568200	-10.621000	25.666670	0.000375	20.739817
1242.342052	-2.989900	3.567000	-10.664000	25.678944	0.000374	20.762578
1243.341102	-3.003000	3.568000	-10.714000	25.679466	0.000373	20.728013
1244.344979	-2.997900	3.566900	-10.693000	25.672682	0.000373	20.731631
1245.346222	-3.002300	3.566600	-10.707000	25.656434	0.000375	20.747555
1246.348543	-3.009000	3.566000	-10.729000	25.599584	0.000372	20.727915
1247.337650	-3.012000	3.566200	-10.740000	25.599906	0.000373	20.720178
1248.344924	-2.983600	3.566800	-10.641000	25.657055	0.000372	20.726841
1249.339067	-2.997700	3.565800	-10.688000	25.699443	0.000373	20.756614
1250.345398	-2.983100	3.566800	-10.639000	25.724985	0.000369	20.749077
1251.345202	-2.996700	3.565400	-10.684000	25.737880	0.000371	20.737848
1252.338666	-3.019300	3.564100	-10.759000	25.744638	0.000368	20.755068
1253.345534	-2.987400	3.564100	-10.646000	25.718378	0.000371	20.747183
1254.346580	-2.998100	3.563500	-10.683000	25.720763	0.000370	20.739147
1255.341261	-3.000900	3.561900	-10.688000	25.707221	0.000370	20.730760
1256.337443	-3.004300	3.564100	-10.707000	25.738454	0.000367	20.746011
1257.344460	-3.005200	3.561800	-10.703000	25.760143	0.000369	20.752150
1258.342361	-3.023600	3.560300	-10.764000	25.784937	0.000369	20.756666
1259.348033	-2.996400	3.562900	-10.675000	25.791940	0.000367	20.766072
1260.340214	-2.997500	3.561800	-10.676000	25.785856	0.000367	20.746209
1261.342472	-2.987200	3.562200	-10.641000	25.801433	0.000367	20.740993
1262.347538	-2.993200	3.561100	-10.658000	25.804812	0.000368	20.754820
1263.344842	-3.016400	3.560800	-10.740000	25.821383	0.000365	20.750128
1264.347843	-3.001100	3.561400	-10.688000	25.830948	0.000366	20.749305
1265.342422	-3.011100	3.561300	-10.723000	25.781832	0.000365	20.753548
1266.347340	-3.014900	3.560400	-10.733000	25.731323	0.000366	20.745012
1267.350910	-3.019200	3.559200	-10.745000	25.735224	0.000366	20.722851
1268.347411	-2.985900	3.559300	-10.627000	25.775124	0.000364	20.755818
1269.344325	-3.002900	3.559100	-10.687000	25.787894	0.000365	20.747782
1270.345914	-3.009200	3.558600	-10.707000	25.772689	0.000363	20.742940
1271.346011	-2.987700	3.558400	-10.630000	25.728963	0.000364	20.749280
1272.346596	-3.000800	3.559600	-10.681000	25.710253	0.000362	20.752298
1273.357767	-2.971300	3.559700	-10.576000	25.674250	0.000363	20.754070
1274.345820	-2.987800	3.557100	-10.626000	25.706006	0.000365	20.744714
1275.361058	-3.018800	3.558000	-10.740000	25.728491	0.000362	20.732684
1276.355607	-2.979000	3.557300	-10.596000	25.736564	0.000364	20.750751
1277.352695	-3.000000	3.555700	-10.666000	25.776465	0.000364	20.741044
1278.349045	-2.991400	3.557100	-10.640000	25.768241	0.000362	20.756017
1279.361918	-2.972900	3.556200	-10.571000	25.740440	0.000361	20.765076
1280.355675	-3.005000	3.554500	-10.680000	25.774105	0.000361	20.748630
1281.349767	-2.987300	3.556600	-10.623000	25.731573	0.000358	20.743841
1282.357451	-3.011400	3.554000	-10.702000	25.701408	0.000361	20.754795
1283.356379	-3.003500	3.555000	-10.677000	25.669954	0.000361	20.753548
1284.346426	-2.998100	3.555300	-10.658000	25.676141	0.000359	20.766874
1285.359666	-2.994400	3.553900	-10.641000	25.662053	0.000359	20.754621
1286.361351	-2.998000	3.554200	-10.654000	25.645680	0.000359	20.746711
1287.352037	-2.983100	3.554500	-10.602000	25.651991	0.000360	20.750680
1288.349024	-3.008400	3.553600	-10.690000	25.662577	0.000358	20.742345
1289.351841	-2.980900	3.553700	-10.592000	25.679248	0.000358	20.768573
1290.356762	-2.978900	3.553400	-10.585000	25.666924	0.000357	20.744814
1291.354453	-3.007900	3.551800	-10.682000	25.655820	0.000357	20.754999
1292.354838	-2.975400	3.551900	-10.568000	25.670208	0.000357	20.759493
1293.360741	-2.985500	3.551100	-10.600000	25.658902	0.000358	20.762837
1294.351049	-2.989100	3.550700	-10.611000	25.659002	0.000357	20.749186
1295.355864	-3.013600	3.550900	-10.700000	25.683031	0.000358	20.760518
1296.360706	-2.985400	3.551000	-10.601000	25.708024	0.000356	20.750059
1297.355793	-3.001900	3.549500	-10.655000	25.711777	0.000353	20.767106
1298.354413	-3.005200	3.550200	-10.668000	25.701592	0.000354	20.754504
1299.354528	-3.004000	3.551100	-10.666000	25.739656	0.000353	20.760495
1300.361835	-3.002800	3.550000	-10.659000	25.727705	0.000356	20.776941
1301.368910	-3.020000	3.548800	-10.716000	25.728152	0.000353	20.750836
1302.358474	-3.014600	3.548800	-10.697000	25.675852	0.000355	20.770378
1303.357710	-2.992300	3.548600	-10.618000	25.693546	0.000353	20.763493
1304.359346	-3.003700	3.548500	-10.658000	25.670586	0.000352	20.780736
1305.358380	-2.989100	3.548000	-10.605000	25.680078	0.000352	20.778890
1306.361945	-3.000700	3.548100	-10.646000	25.653816	0.000354	20.776220
1307.362490	-3.023500	3.546500	-10.722000	25.699903	0.000353	20.754231
1308.359102	-2.990400	3.547100	-10.606000	25.679903	0.000350	20.759748
1309.355329	-2.989100	3.546400	-10.600000	25.723111	0.000350	20.789870
1310.359049	-2.996100	3.547400	-10.627000	25.774642	0.000349	20.774301
1311.359357	-2.998700	3.546400	-10.634000	25.814193	0.000348	20.759027
1312.358768	-3.001700	3.544900	-10.640000	25.854563	0.000352	20.790098
1313.363400	-2.987000	3.545600	-10.590000	25.862538	0.000351	20.763969
1314.367185	-2.982900	3.545900	-10.576000	25.866139	0.000349	20.771855
1315.359792	-3.007900	3.543600	-10.657000	25.807487	0.000349	20.784534
1316.364203	-3.008600	3.544500	-10.663000	25.788930	0.000346	20.763522
1317.361486	-2.999500	3.544000	-10.629000	25.782321	0.000347	20.781541
1318.362106	-2.998600	3.542200	-10.620000	25.747288	0.000347	20.767213
1319.360572	-2.978100	3.545000	-10.556000	25.765575	0.000345	20.790798
1320.364414	-2.973000	3.542600	-10.532000	25.724309	0.000346	20.771159
1321.357746	-2.994500	3.543100	-10.608000	25.712705	0.000347	20.787953
1322.368276	-2.980400	3.543200	-10.558000	25.751639	0.000347	20.775851
1323.367578	-3.006800	3.542300	-10.650000	25.790843	0.000345	20.773031
1324.361811	-3.007800	3.541400	-10.651000	25.812879	0.000347	20.798959
1325.360920	-2.986400	3.542800	-10.579000	25.825800	0.000346	20.775903
1326.366742	-3.015800	3.540000	-10.675000	25.801353	0.000345	20.792122
1327.363887	-3.000600	3.540400	-10.622000	25.817202	0.000344	20.764421
1328.366516	-3.017900	3.540600	-10.684000	25.791143	0.000345	20.788031
1329.365498	-2.996400	3.540600	-10.608000	25.781554	0.000344	20.790253
1330.371553	-2.990900	3.539300	-10.585000	25.757056	0.000345	20.789827
1331.369796	-2.998900	3.539500	-10.613000	25.803490	0.000343	20.795692
1332.365254	-2.994400	3.539800	-10.599000	25.852655	0.000343	20.800509
1333.372113	-2.991500	3.538000	-10.583000	25.837328	0.000341	20.801234
1334.372440	-3.012800	3.538600	-10.659000	25.780610	0.000343	20.792624
1335.371495	-2.991800	3.538600	-10.585000	25.748461	0.000341	20.792100
1336.370694	-3.005900	3.537500	-10.633000	25.755567	0.000342	20.780745
1337.375765	-3.010300	3.537100	-10.647000	25.757979	0.000342	20.785065
1338.365921	-3.015400	3.537600	-10.666000	25.694103	0.000340	20.785390
1339.373335	-3.016500	3.536000	-10.665000	25.711495	0.000342	20.802859
1340.370233	-3.015600	3.535800	-10.661000	25.728739	0.000341	20.777505
1341.381381	-3.018700	3.535800	-10.672000	25.776988	0.000343	20.791830
1342.369099	-3.011200	3.534600	-10.643000	25.798354	0.000339	20.784843
1343.366017	-3.003900	3.535100	-10.618000	25.794331	0.000340	20.800242
1344.369796	-2.997100	3.536100	-10.597000	25.793437	0.000340	20.795551
1345.378124	-3.000200	3.535900	-10.608000	25.764467	0.000337	20.811496
1346.371167	-2.992000	3.535100	-10.577000	25.759477	0.000339	20.803638
1347.370841	-2.998100	3.533600	-10.593000	25.787847	0.000337	20.803212
1348.379672	-3.009900	3.534000	-10.636000	25.806506	0.000338	20.798247
1349.371262	-3.022700	3.533500	-10.680000	25.819078	0.000338	20.802815
1350.374913	-3.005300	3.533400	-10.618000	25.829138	0.000337	20.812447
1351.374973	-3.007200	3.531700	-10.619000	25.855895	0.000336	20.803764
1352.372008	-3.011000	3.532300	-10.635000	25.817267	0.000338	20.807160
1353.377474	-3.004500	3.530700	-10.606000	25.801490	0.000336	20.804115
1354.380594	-3.018100	3.532400	-10.660000	25.803576	0.000337	20.800994
1355.376741	-3.002400	3.531200	-10.601000	25.816248	0.000334	20.807085
1356.378441	-2.995000	3.531800	-10.577000	25.825541	0.000335	20.790341
1357.385274	-3.006100	3.530600	-10.611000	25.801268	0.000334	20.803891
1358.376977	-2.983200	3.531400	-10.534000	25.820796	0.000334	20.820662
1359.371772	-2.999500	3.530400	-10.588000	25.852768	0.000335	20.809157
1360.371812	-2.983500	3.530600	-10.532000	25.866258	0.000333	20.796631
1361.372323	-3.012900	3.529100	-10.632000	25.807057	0.000333	20.808284
1362.374398	-3.000400	3.529100	-10.587000	25.790388	0.000335	20.813351
1363.379170	-2.987800	3.529800	-10.544000	25.761991	0.000332	20.803319
1364.372364	-2.985700	3.529300	-10.537000	25.769197	0.000331	20.811505
1365.369733	-2.998900	3.528100	-10.580000	25.787134	0.000333	20.811505
1366.378606	-2.997800	3.528500	-10.577000	25.796253	0.000331	20.805966
1367.378551	-2.997000	3.527000	-10.569000	25.765146	0.000332	20.801272
1368.381221	-2.996600	3.527700	-10.570000	25.782788	0.000329	20.808088
1369.374942	-3.003100	3.526700	-10.590000	25.770565	0.000330	20.815250
1370.377884	-3.001600	3.526500	-10.584000	25.699956	0.000330	20.821615
1371.378169	-3.039300	3.524300	-10.710000	25.725595	0.000329	20.792840
1372.379092	-2.994900	3.527100	-10.562000	25.734365	0.000328	20.823459
1373.382650	-2.988300	3.525600	-10.534000	25.764429	0.000330	20.806241
1374.376155	-3.000200	3.525500	-10.577000	25.788975	0.000329	20.802922
1375.390952	-2.992500	3.524000	-10.544000	25.852997	0.000331	20.813180
1376.380375	-3.003900	3.524900	-10.588000	25.868198	0.000327	20.820865
1377.380340	-2.990400	3.523200	-10.535000	25.829319	0.000329	20.831594
1378.378458	-2.983000	3.523700	-10.511000	25.790468	0.000328	20.817224
1379.381338	-3.012600	3.522000	-10.610000	25.797523	0.000327	20.809139
1380.381405	-3.003000	3.523000	-10.579000	25.790867	0.000329	20.829479
1381.376686	-3.008700	3.522500	-10.597000	25.824849	0.000325	20.798181
1382.376976	-2.987200	3.523300	-10.524000	25.845197	0.000326	20.843277
1383.377561	-3.004600	3.521200	-10.579000	25.827136	0.000327	20.827031
1384.374339	-2.998100	3.521800	-10.558000	25.868378	0.000326	20.816303
1385.378152	-3.012700	3.520000	-10.604000	25.826269	0.000325	20.831376
1386.378259	-2.990200	3.520300	-10.525000	25.792408	0.000325	20.840984
1387.375761	-3.008200	3.519400	-10.586000	25.793577	0.000326	20.832675
1388.381171	-3.017300	3.519900	-10.620000	25.789279	0.000325	20.839263
1389.374038	-2.991900	3.519200	-10.528000	25.817550	0.000322	20.825937
1390.375264	-2.998400	3.518800	-10.550000	25.839363	0.000324	20.833623
1391.385764	-3.011900	3.518700	-10.596000	25.827637	0.000323	20.824215
1392.387043	-3.011000	3.518400	-10.593000	25.832382	0.000322	20.824715
1393.391727	-2.999500	3.519100	-10.555000	25.858345	0.000322	20.852691
1394.385778	-3.043400	3.516000	-10.699000	25.912897	0.000323	20.851068
1395.388348	-2.988100	3.517500	-10.510000	25.901667	0.000321	20.831727
1396.387203	-3.003400	3.517600	-10.564000	25.874071	0.000322	20.835298
1397.390903	-2.999600	3.518500	-10.553000	25.874815	0.000320	20.832253
1398.384225	-2.991800	3.518500	-10.526000	25.854919	0.000321	20.845456
1399.388434	-3.003000	3.515700	-10.557000	25.899284	0.000321	20.840712
1400.383748	-2.983100	3.517200	-10.492000	25.909940	0.000321	20.851891
1401.386674	-2.983500	3.517700	-10.494000	25.949241	0.000321	20.844432
1402.386546	-3.000600	3.516700	-10.552000	25.914340	0.000319	20.849199
1403.389474	-2.984000	3.517000	-10.493000	25.889300	0.000321	20.822622
1404.391193	-3.019800	3.515200	-10.614000	25.883908	0.000318	20.854189
1405.385907	-3.004800	3.514400	-10.558000	25.857998	0.000318	20.838592
1406.391263	-2.995500	3.514000	-10.526000	25.831171	0.000317	20.845782
1407.392182	-2.999100	3.515100	-10.541000	25.849230	0.000319	20.844008
1408.391240	-3.005000	3.513300	-10.557000	25.841085	0.000316	20.830138
1409.394911	-3.016200	3.513400	-10.596000	25.791298	0.000317	20.858360
1410.388759	-3.004500	3.514000	-10.557000	25.771100	0.000316	20.863202
1411.393145	-3.006100	3.512800	-10.559000	25.761510	0.000317	20.854991
1412.393106	-2.995500	3.512100	-10.520000	25.797559	0.000316	20.858485
1413.389376	-3.004700	3.511200	-10.549000	25.824118	0.000315	20.866671
1414.389543	-3.022600	3.511200	-10.611000	25.838750	0.000315	20.843438
1415.397824	-2.965700	3.512300	-10.415000	25.874300	0.000317	20.838373
1416.394815	-3.004700	3.510800	-10.547000	25.903738	0.000317	20.848032
1417.395175	-2.991200	3.511300	-10.502000	25.895292	0.000316	20.858513
1418.393658	-2.996500	3.510700	-10.519000	25.910096	0.000315	20.854893
1419.392305	-3.000300	3.509500	-10.529000	25.926718	0.000313	20.877279
1420.391986	-2.995000	3.509900	-10.511000	25.853459	0.000314	20.842568
1421.402926	-3.007500	3.509000	-10.553000	25.836914	0.000312	20.857241
1422.394860	-2.986600	3.508500	-10.478000	25.862924	0.000313	20.865351
1423.394032	-2.971200	3.509600	-10.427000	25.902749	0.000313	20.858891
1424.398979	-2.991000	3.508500	-10.493000	25.950216	0.000314	20.858214
1425.398074	-2.986600	3.508400	-10.477000	25.975380	0.000312	20.868795
1426.392449	-2.995500	3.508300	-10.509000	25.966560	0.000312	20.858039
1427.394825	-3.003000	3.506400	-10.529000	25.980374	0.000311	20.867175
1428.400203	-3.008100	3.507200	-10.549000	25.969569	0.000309	20.867225
1429.392352	-3.006600	3.506100	-10.540000	25.973417	0.000310	20.871565
1430.397428	-2.986500	3.506800	-10.472000	25.991378	0.000310	20.858791
1431.395091	-3.014100	3.504800	-10.563000	25.964105	0.000312	20.881649
1432.393623	-2.995400	3.506500	-10.503000	25.939685	0.000309	20.879401
1433.400630	-3.004400	3.504700	-10.529000	25.976351	0.000311	20.869771
1434.402015	-3.018100	3.504600	-10.576000	25.935043	0.000309	20.871419
1435.402280	-3.000100	3.504300	-10.513000	25.909431	0.000309	20.871293
1436.401793	-3.002600	3.504600	-10.521000	25.872889	0.000310	20.880575
1437.397439	-2.999400	3.504300	-10.509000	25.893087	0.000307	20.888063
1438.402116	-3.011600	3.502300	-10.547000	25.928460	0.000307	20.867177
1439.393698	-2.988500	3.502900	-10.467000	25.952381	0.000307	20.887888
1440.393670	-3.016000	3.502800	-10.563000	25.957223	0.000307	20.884218
1441.402878	-3.009700	3.502800	-10.541000	25.957300	0.000308	20.897096
1442.407642	-3.018800	3.501800	-10.571000	25.924312	0.000306	20.863484
1443.399505	-3.003000	3.503400	-10.520000	25.871028	0.000308	20.870172
1444.405150	-3.021300	3.502100	-10.579000	25.858508	0.000307	20.895052
1445.400138	-2.989300	3.502700	-10.469000	25.890132	0.000307	20.888414
1446.406282	-2.992500	3.501800	-10.477000	25.915470	0.000304	20.883997
1447.405289	-2.991700	3.500700	-10.472000	25.879576	0.000306	20.894404
1448.397212	-3.046400	3.498200	-10.656000	25.846111	0.000304	20.870746
1449.404673	-3.001700	3.500400	-10.505000	25.878505	0.000304	20.882424
1450.403116	-3.038600	3.498200	-10.629000	25.886381	0.000305	20.880853
1451.403593	-2.981200	3.499100	-10.430000	25.917807	0.000304	20.892508
1452.403380	-2.982900	3.500200	-10.440000	25.946052	0.000305	20.888642
1453.405297	-3.030400	3.499000	-10.602000	25.932265	0.000304	20.883327
1454.410264	-2.996600	3.498600	-10.484000	25.938551	0.000302	20.891537
1455.414007	-2.999700	3.497300	-10.490000	25.881319	0.000303	20.897577
1456.415585	-2.996600	3.497200	-10.479000	25.916615	0.000302	20.894630
1457.407511	-2.983900	3.499000	-10.440000	25.853943	0.000300	20.898526
1458.411061	-3.005100	3.496000	-10.505000	25.822493	0.000302	20.886374
1459.402866	-3.006000	3.496800	-10.511000	25.821871	0.000302	20.901869
1460.409546	-3.007700	3.497200	-10.518000	25.824258	0.000301	20.891940
1461.406700	-3.005600	3.497300	-10.509000	25.824530	0.000300	20.899326
1462.406446	-3.006800	3.495500	-10.510000	25.858468	0.000300	20.893114
1463.409127	-3.006400	3.494000	-10.503000	25.919180	0.000302	20.911429
1464.406022	-3.005800	3.495600	-10.506000	25.916944	0.000301	20.875048
1465.410574	-3.008000	3.494200	-10.509000	25.913591	0.000300	20.905341
1466.408644	-3.001300	3.494200	-10.486000	25.925515	0.000301	20.897406
1467.410106	-2.995400	3.494000	-10.465000	25.941067	0.000299	20.895013
1468.405378	-3.005500	3.493200	-10.498000	25.926684	0.000299	20.909011
1469.409297	-3.010400	3.493300	-10.515000	25.923529	0.000299	20.901101
1470.406898	-3.028800	3.491900	-10.575000	25.913668	0.000298	20.906367
1471.402785	-3.016000	3.492800	-10.534000	25.930484	0.000296	20.892442
1472.406407	-3.020400	3.490600	-10.542000	25.908826	0.000295	20.915252
1473.411227	-3.005500	3.490700	-10.491000	25.923906	0.000294	20.915229
1474.411934	-2.993300	3.491500	-10.451000	25.907807	0.000296	20.895738
1475.412094	-3.019500	3.491500	-10.542000	25.898045	0.000296	20.921016
1476.411161	-2.989900	3.491400	-10.438000	25.924728	0.000295	20.924588
1477.411167	-2.996500	3.490400	-10.458000	25.908206	0.000296	20.916052
1478.418105	-2.992300	3.491400	-10.446000	25.883515	0.000295	20.930127
1479.417035	-2.979700	3.490500	-10.400000	25.911682	0.000297	20.913854
1480.406145	-3.030700	3.489500	-10.575000	25.971552	0.000295	20.899086
1481.407684	-3.016200	3.488000	-10.520000	26.011395	0.000294	20.922518
1482.408399	-2.994300	3.489700	-10.448000	26.006054	0.000295	20.912412
1483.412112	-2.987700	3.488200	-10.420000	26.024285	0.000294	20.907021
1484.413325	-2.995800	3.488200	-10.449000	26.002228	0.000293	20.913310
1485.415076	-3.005400	3.487800	-10.481000	25.980644	0.000294	20.918176
1486.416469	-2.984000	3.489100	-10.410000	25.961616	0.000294	20.898587
1487.418102	-3.024000	3.485900	-10.540000	25.964103	0.000291	20.913412
1488.413884	-3.001900	3.486800	-10.466000	25.947584	0.000291	20.924791
1489.421801	-2.983400	3.486200	-10.399000	25.916259	0.000293	20.906599
1490.415609	-3.003500	3.486300	-10.470000	25.957470	0.000293	20.889682
1491.423559	-2.997000	3.485000	-10.444000	26.005335	0.000294	20.907896
1492.424053	-3.011700	3.485500	-10.496000	26.007570	0.000291	20.894970
1493.415293	-2.985400	3.485200	-10.404000	25.980918	0.000293	20.915133
1494.424407	-2.993700	3.485600	-10.433000	25.991276	0.000291	20.915108
1495.423790	-3.018700	3.484300	-10.516000	25.972448	0.000291	20.889556
1496.417116	-3.007600	3.485900	-10.483000	25.903316	0.000290	20.877478
1497.420975	-2.996500	3.485800	-10.445000	25.887269	0.000287	20.904502
1498.422233	-3.015800	3.485000	-10.509000	25.832541	0.000288	20.899312
1499.415949	-2.982200	3.483700	-10.387000	25.869210	0.000287	20.896793
1500.423494	-3.010600	3.483700	-10.488000	25.877954	0.000290	20.899886
1501.425204	-2.994300	3.483100	-10.429000	25.880586	0.000288	20.884514
1502.415948	-2.988400	3.483400	-10.409000	25.872040	0.000289	20.897265
1503.425335	-2.995000	3.483700	-10.433000	25.879072	0.000287	20.892950
1504.426731	-3.001900	3.481000	-10.448000	25.928531	0.000287	20.882419
1505.419995	-3.011100	3.481200	-10.481000	25.966363	0.000286	20.886288
1506.421318	-2.991900	3.481000	-10.413000	26.003544	0.000286	20.894719
1507.418903	-2.991200	3.480500	-10.410000	26.054016	0.000285	20.889479
1508.418092	-2.992600	3.480800	-10.415000	26.092340	0.000286	20.877252
1509.419778	-3.007000	3.478900	-10.461000	26.084765	0.000284	20.890502
1510.428330	-2.993600	3.480300	-10.418000	26.020509	0.000285	20.897065
1511.419302	-2.971700	3.480500	-10.342000	26.001979	0.000283	20.879397
1512.419553	-2.999000	3.480400	-10.436000	25.949889	0.000286	20.878747
1513.416852	-2.997700	3.478700	-10.427000	25.995821	0.000285	20.876055
1514.419979	-2.983000	3.477400	-10.373000	25.972396	0.000284	20.894719
1515.428120	-3.004700	3.477800	-10.449000	26.037324	0.000283	20.883140
1516.423637	-2.974700	3.479200	-10.348000	26.053594	0.000283	20.877202
1517.418867	-2.997900	3.478000	-10.425000	26.080493	0.000284	20.867245
1518.427677	-3.013800	3.477200	-10.478000	26.018447	0.000281	20.876028
1519.418887	-2.983500	3.477700	-10.374000	25.999817	0.000284	20.880069
1520.424008	-2.980700	3.476500	-10.362000	26.053392	0.000282	20.880792
1521.427681	-2.978000	3.479100	-10.360000	26.037197	0.000282	20.874004
1522.420048	-3.003500	3.475500	-10.438000	25.937841	0.000281	20.851945
1523.427664	-2.983500	3.475300	-10.367000	25.925072	0.000279	20.882738
1524.421626	-2.987100	3.475400	-10.380000	25.880633	0.000280	20.862278
1525.427852	-2.984200	3.476100	-10.372000	25.857655	0.000282	20.869066
1526.428286	-2.977100	3.475800	-10.347000	25.827172	0.000280	20.855515
1527.428343	-3.007700	3.474400	-10.449000	25.871266	0.000280	20.872782
1528.421007	-3.006300	3.473300	-10.441000	25.877529	0.000283	20.870065
1529.424332	-3.013400	3.472800	-10.464000	25.898844	0.000279	20.866821
1530.423879	-3.017400	3.474400	-10.482000	25.905202	0.000280	20.854243
1531.425560	-2.975700	3.474400	-10.337000	25.902098	0.000277	20.871512
1532.434820	-3.013000	3.472200	-10.460000	25.871668	0.000278	20.864177
1533.424178	-3.008800	3.472100	-10.446000	25.892932	0.000277	20.864202
1534.423643	-3.013500	3.471300	-10.460000	25.899093	0.000277	20.862331
1535.435207	-2.997100	3.471800	-10.405000	25.918919	0.000278	20.873238
1536.438676	-2.980800	3.472200	-10.349000	25.909751	0.000276	20.866400
1537.425740	-3.010800	3.469900	-10.446000	25.942245	0.000278	20.856370
1538.428411	-2.978400	3.472000	-10.341000	25.935635	0.000277	20.879600
1539.429077	-3.026500	3.468400	-10.496000	25.986906	0.000276	20.852876
1540.423376	-2.987700	3.469700	-10.365000	26.013460	0.000274	20.827398
1541.430012	-2.992100	3.470200	-10.382000	26.020961	0.000276	20.849158
1542.424455	-3.002600	3.469300	-10.416000	26.029680	0.000275	20.870719
1543.429769	-2.983100	3.469100	-10.348000	26.059314	0.000273	20.852130
1544.427824	-2.995700	3.468100	-10.389000	26.076577	0.000275	20.833915
1545.426559	-3.007200	3.467400	-10.426000	26.076253	0.000275	20.830270
1546.432577	-2.993200	3.468300	-10.380000	26.040437	0.000273	20.849760
1547.432675	-2.992600	3.467600	-10.376000	26.003649	0.000273	20.859739
1548.433171	-2.991300	3.467600	-10.372000	26.034849	0.000274	20.855998
1549.423549	-3.008400	3.466900	-10.429000	26.052807	0.000272	20.862661
1550.433496	-2.976600	3.466800	-10.318000	26.061995	0.000272	20.852928
1551.428892	-2.993200	3.465900	-10.372000	26.047616	0.000273	20.845593
1552.434394	-2.977500	3.467300	-10.323000	26.025435	0.000274	20.843696
1553.435061	-2.971200	3.467500	-10.302000	26.077446	0.000271	20.852805
1554.440795	-2.995500	3.465900	-10.381000	26.115373	0.000272	20.840179
1555.429591	-2.969200	3.466500	-10.291000	26.106282	0.000270	20.845743
1556.436091	-2.993800	3.464000	-10.370000	26.113982	0.000272	20.844471
1557.429731	-2.992900	3.464900	-10.369000	26.126426	0.000268	20.836586
1558.431208	-2.992000	3.464800	-10.365000	26.111897	0.000268	20.860393
1559.427181	-2.975000	3.463800	-10.303000	26.087830	0.000268	20.823885
1560.435446	-3.005000	3.464700	-10.410000	26.072804	0.000268	20.849564
1561.429787	-2.995700	3.462600	-10.372000	26.066844	0.000267	20.856377
1562.436450	-3.005700	3.462900	-10.407000	26.029388	0.000265	20.854305
1563.435865	-3.003100	3.463300	-10.399000	26.043670	0.000267	20.854430
1564.432833	-2.997500	3.462700	-10.378000	26.044814	0.000267	20.837088
1565.431028	-2.990100	3.463000	-10.354000	26.041413	0.000266	20.845999
1566.431028	-3.008500	3.460100	-10.408000	26.040839	0.000265	20.835465
1567.432692	-2.992500	3.461000	-10.356000	26.007331	0.000265	20.848741
1568.440577	-2.996400	3.460800	-10.370000	25.986344	0.000266	20.831923
1569.439175	-3.010100	3.459600	-10.412000	26.025340	0.000267	20.853557
1570.436287	-3.002800	3.459900	-10.389000	26.037832	0.000266	20.840031
1571.434458	-3.000500	3.460700	-10.383000	26.016943	0.000265	20.827578
1572.433864	-2.998500	3.460600	-10.375000	26.039720	0.000264	20.840505
1573.439767	-3.008100	3.458000	-10.400000	26.060931	0.000264	20.854704
1574.434975	-3.001000	3.459500	-10.381000	26.085868	0.000264	20.836611
1575.430988	-3.012300	3.460100	-10.421000	26.089121	0.000264	20.848889
1576.447703	-3.044200	3.456500	-10.522000	26.115572	0.000265	20.829000
1577.440079	-3.019300	3.457800	-10.440000	26.088003	0.000264	20.839705
1578.441352	-2.980800	3.458400	-10.308000	26.018308	0.000262	20.825631
1579.442257	-2.991300	3.458000	-10.343000	25.983360	0.000264	20.814227
1580.442996	-2.981200	3.456600	-10.304000	25.949477	0.000263	20.833290
1581.435364	-3.000300	3.456500	-10.369000	25.994412	0.000261	20.835761
1582.439845	-2.997000	3.455900	-10.356000	26.056185	0.000262	20.844720
1583.446396	-3.010600	3.455100	-10.401000	26.032589	0.000262	20.837608
1584.438251	-2.990100	3.454400	-10.328000	26.060729	0.000262	20.828898
1585.440170	-3.008800	3.456000	-10.398000	26.027570	0.000264	20.824505
1586.437324	-2.993900	3.456000	-10.345000	26.082587	0.000261	20.833315
1587.440767	-2.982000	3.455600	-10.303000	26.082240	0.000262	20.830596
1588.439647	-3.004100	3.455100	-10.378000	26.099523	0.000259	20.826625
1589.437723	-2.980200	3.455600	-10.298000	26.105113	0.000260	20.830819
1590.439582	-3.002700	3.452800	-10.367000	26.105238	0.000259	20.829522
1591.437666	-3.016300	3.453000	-10.414000	26.113086	0.000259	20.835985
1592.435756	-3.005300	3.453200	-10.377000	26.038597	0.000258	20.812350
1593.440558	-3.010000	3.451800	-10.389000	26.090807	0.000258	20.827350
1594.439124	-3.001900	3.452400	-10.363000	26.120484	0.000256	20.831090
1595.437708	-2.996300	3.452300	-10.343000	26.121827	0.000257	20.814422
1596.440294	-3.012100	3.450400	-10.392000	26.102954	0.000257	20.814425
1597.442233	-3.010400	3.452000	-10.391000	26.122970	0.000259	20.839753
1598.441963	-2.992900	3.451900	-10.330000	26.123739	0.000257	20.831991
1599.448498	-2.992400	3.450700	-10.325000	26.139334	0.000256	20.844341
1600.443439	-2.989400	3.450600	-10.315000	26.176565	0.000257	20.833388
1601.449897	-2.989900	3.450700	-10.316000	26.190870	0.000256	20.840651
1602.447791	-2.969400	3.450100	-10.244000	26.194892	0.000256	20.834735
1603.444324	-3.000000	3.449100	-10.347000	26.205820	0.000253	20.822483
1604.446412	-3.027300	3.447700	-10.437000	26.135983	0.000254	20.818690
1605.445326	-3.009100	3.448500	-10.375000	26.070837	0.000254	20.819139
1606.451041	-3.021500	3.446500	-10.412000	26.081888	0.000255	20.831191
1607.444549	-3.022200	3.446800	-10.416000	26.134169	0.000253	20.821133
1608.446437	-3.010600	3.448700	-10.382000	26.124409	0.000254	20.820336
1609.450151	-3.003700	3.448100	-10.356000	26.070612	0.000254	20.819861
1610.444925	-3.016000	3.447500	-10.397000	26.084720	0.000254	20.828346
1611.451098	-3.008300	3.446500	-10.367000	26.063931	0.000252	20.819312
1612.450891	-2.994700	3.445600	-10.317000	26.052702	0.000250	20.828419
1613.468335	-3.000200	3.445900	-10.337000	26.107371	0.000251	20.822656
1614.449969	-2.977800	3.446100	-10.260000	26.126743	0.000251	20.835483
1615.450443	-2.991600	3.446000	-10.308000	26.120262	0.000252	20.805737
1616.445973	-2.991200	3.446200	-10.308000	26.084745	0.000251	20.810828
1617.450825	-3.004500	3.445300	-10.350000	26.073022	0.000251	20.821334
1618.451200	-2.992300	3.445800	-10.309000	26.078138	0.000249	20.818888
1619.455836	-3.039200	3.443700	-10.465000	26.056158	0.000250	20.811502
1620.445980	-3.010800	3.443900	-10.368000	26.085044	0.000249	20.809232
1621.448110	-2.992600	3.442100	-10.300000	26.045900	0.000250	20.814947
1622.459649	-2.986100	3.442200	-10.278000	26.043690	0.000247	20.804666
1623.449503	-2.981600	3.443800	-10.266000	25.984574	0.000248	20.814498
1624.453444	-2.997500	3.442900	-10.320000	25.963039	0.000247	20.816570
1625.449862	-3.020000	3.441500	-10.392000	25.967186	0.000247	20.814099
1626.448699	-3.011600	3.441400	-10.364000	25.930773	0.000246	20.814974
1627.452515	-2.973300	3.442900	-10.236000	25.951712	0.000248	20.799975
1628.454270	-3.012600	3.441200	-10.366000	25.969199	0.000248	20.808534
1629.456622	-3.000600	3.441200	-10.325000	25.999776	0.000248	20.805115
1630.453967	-2.987100	3.440400	-10.275000	26.031493	0.000248	20.811377
1631.449887	-2.995500	3.440000	-10.304000	26.044487	0.000246	20.812104
1632.452308	-2.996900	3.439800	-10.309000	26.044956	0.000247	20.798826
1633.450183	-2.994700	3.439000	-10.297000	26.022928	0.000245	20.801349
1634.452366	-3.014500	3.437900	-10.362000	26.031695	0.000246	20.818692
1635.453246	-2.996200	3.439800	-10.306000	26.014556	0.000243	20.804317
1636.458541	-2.989900	3.439900	-10.284000	25.972405	0.000246	20.799902
1637.455544	-2.999700	3.439100	-10.316000	26.010757	0.000244	20.803820
1638.453598	-2.994300	3.437800	-10.293000	26.061428	0.000243	20.817272
1639.460011	-3.012300	3.438500	-10.357000	26.015304	0.000243	20.808863
1640.460022	-3.008100	3.438100	-10.341000	25.986391	0.000242	20.822013
1641.456683	-2.998100	3.436300	-10.302000	25.950225	0.000242	20.797059
1642.455179	-2.990800	3.437800	-10.281000	25.954026	0.000243	20.806093
1643.459531	-3.005600	3.436900	-10.329000	25.998215	0.000239	20.810185
1644.455447	-3.018200	3.437100	-10.372000	26.046699	0.000240	20.811008
1645.460789	-2.991900	3.436100	-10.280000	26.089518	0.000243	20.809460
1646.460287	-3.005000	3.434900	-10.321000	26.122303	0.000242	20.795935
1647.455088	-3.000600	3.434400	-10.304000	26.152257	0.000240	20.800903
1648.460576	-2.996100	3.434400	-10.289000	26.176492	0.000238	20.786849
1649.459724	-3.020100	3.434700	-10.372000	26.157772	0.000239	20.791745
1650.453892	-2.996200	3.434600	-10.290000	26.104819	0.000239	20.803022
1651.460470	-3.004900	3.434700	-10.320000	26.032689	0.000241	20.793138
1652.454108	-3.019700	3.432200	-10.363000	26.062966	0.000238	20.778515
1653.455501	-3.002400	3.433600	-10.308000	26.029437	0.000238	20.808838
1654.453344	-2.995500	3.432800	-10.281000	26.036716	0.000238	20.787701
1655.456368	-3.000200	3.433300	-10.299000	26.081818	0.000237	20.787973
1656.459368	-3.013900	3.432200	-10.343000	26.093094	0.000238	20.783181
1657.463756	-3.003700	3.431600	-10.307000	26.103153	0.000240	20.775745
1658.467073	-2.991300	3.431900	-10.265000	26.115994	0.000236	20.792441
1659.464097	-3.000700	3.431100	-10.295000	26.099725	0.000238	20.798379
1660.460896	-2.995900	3.430900	-10.278000	26.096075	0.000233	20.772900
1661.460233	-2.986100	3.432100	-10.248000	26.068729	0.000236	20.787150
1662.465190	-2.990600	3.431400	-10.262000	26.025982	0.000238	20.792090
1663.457629	-2.988600	3.430600	-10.252000	26.063813	0.000234	20.788374
1664.460293	-3.011200	3.429900	-10.327000	26.060260	0.000235	20.784330
1665.462938	-3.003500	3.430600	-10.302000	26.082265	0.000236	20.768507
1666.462772	-3.005700	3.429700	-10.308000	26.108864	0.000232	20.754929
1667.466458	-2.997500	3.429800	-10.280000	26.098457	0.000233	20.789518
1668.465862	-3.016100	3.427100	-10.335000	26.124114	0.000235	20.777840
1669.467638	-3.000800	3.428800	-10.289000	26.136930	0.000233	20.786924
1670.461217	-3.024200	3.426700	-10.362000	26.105388	0.000232	20.794586
1671.466208	-3.003300	3.428100	-10.295000	26.092447	0.000232	20.786799
1672.462460	-3.005400	3.427700	-10.301000	26.124164	0.000234	20.775993
1673.475450	-2.994600	3.426300	-10.260000	26.102282	0.000231	20.765386
1674.466806	-2.986400	3.427600	-10.235000	26.076774	0.000233	20.751136
1675.468252	-3.000700	3.425500	-10.278000	26.057279	0.000231	20.768058
1676.468454	-3.018800	3.423800	-10.335000	26.024242	0.000232	20.759995
1677.463351	-3.010200	3.425900	-10.312000	26.053151	0.000231	20.760592
1678.473041	-2.988500	3.426500	-10.239000	26.055289	0.000232	20.776016
1679.466307	-2.993900	3.425500	-10.254000	26.057276	0.000233	20.767581
1680.467690	-2.995100	3.423900	-10.254000	26.069546	0.000231	20.785600
1681.462728	-2.979800	3.423800	-10.201000	26.111518	0.000230	20.783201
1682.467058	-2.993500	3.422900	-10.246000	26.128606	0.000230	20.764335
1683.463902	-2.977900	3.424200	-10.195000	26.149790	0.000229	20.768078
1684.463790	-2.994200	3.423800	-10.251000	26.159502	0.000231	20.783527
1685.466754	-3.002700	3.423300	-10.278000	26.186696	0.000229	20.785248
1686.465438	-3.026100	3.422300	-10.356000	26.179593	0.000228	20.785223
1687.472864	-2.994000	3.422800	-10.247000	26.201398	0.000229	20.788169
1688.480980	-3.003500	3.421900	-10.277000	26.225038	0.000228	20.772569
1689.468770	-2.978400	3.422700	-10.193000	26.204279	0.000227	20.768304
1690.465514	-3.010900	3.420300	-10.296000	26.113855	0.000226	20.754255
1691.468942	-2.996800	3.421500	-10.252000	26.053499	0.000228	20.741974
1692.467819	-2.994800	3.421800	-10.247000	26.061374	0.000228	20.759370
1693.472109	-3.007900	3.420200	-10.287000	26.031021	0.000227	20.755900
1694.480489	-2.996400	3.422000	-10.253000	26.062839	0.000225	20.780758
1695.476243	-2.991800	3.420200	-10.232000	26.054744	0.000226	20.753183
1696.470963	-3.008300	3.420100	-10.288000	26.096719	0.000227	20.784927
1697.475130	-3.004300	3.419000	-10.271000	26.150687	0.000225	20.772772
1698.469431	-2.990900	3.418400	-10.223000	26.162858	0.000226	20.761294
1699.474649	-3.009700	3.418900	-10.289000	26.157815	0.000224	20.756701
1700.466925	-2.992000	3.418600	-10.227000	26.100866	0.000223	20.746893
1701.468676	-3.055200	3.416200	-10.435000	26.059314	0.000222	20.760145
1702.479172	-2.975200	3.418300	-10.169000	26.103723	0.000224	20.766359
1703.464744	-2.989200	3.416400	-10.211000	26.093938	0.000226	20.764114
1704.479063	-3.012000	3.416300	-10.289000	26.092896	0.000224	20.757378
1705.471075	-2.998000	3.417100	-10.244000	26.057229	0.000222	20.761369
1706.470726	-2.998200	3.416800	-10.244000	26.063810	0.000221	20.760870
1707.476785	-3.003800	3.415800	-10.259000	26.076327	0.000222	20.761119
1708.474115	-3.004700	3.415600	-10.262000	26.060654	0.000219	20.769553
1709.476407	-3.011700	3.413900	-10.280000	26.119345	0.000222	20.761194
1710.476854	-2.992500	3.414900	-10.218000	26.161717	0.000221	20.751138
1711.473459	-3.003000	3.415300	-10.256000	26.186204	0.000221	20.748243
1712.473385	-3.003100	3.412900	-10.248000	26.184738	0.000220	20.744874
1713.475865	-3.014400	3.414200	-10.291000	26.226858	0.000220	20.761595
1714.475855	-2.996800	3.413600	-10.228000	26.176392	0.000221	20.758299
1715.473341	-2.999000	3.412100	-10.232000	26.154090	0.000221	20.742051
1716.473447	-2.989000	3.413000	-10.201000	26.113263	0.000220	20.747495
1717.477691	-2.988900	3.413500	-10.202000	26.114751	0.000219	20.741878
1718.475190	-2.985500	3.412800	-10.188000	26.101538	0.000217	20.754681
1719.476394	-2.966700	3.412400	-10.122000	26.101213	0.000219	20.756251
1720.480598	-3.007100	3.410400	-10.255000	26.129627	0.000218	20.747817
1721.474210	-2.977500	3.411700	-10.157000	26.167377	0.000216	20.737385
1722.478143	-3.005000	3.410300	-10.246000	26.139861	0.000217	20.766161
1723.481742	-3.020000	3.409500	-10.296000	26.147186	0.000218	20.761668
1724.486020	-2.996300	3.411100	-10.219000	26.185807	0.000218	20.751163
1725.476247	-3.013600	3.408600	-10.271000	26.203887	0.000218	20.761746
1726.481127	-2.997000	3.409000	-10.216000	26.220597	0.000216	20.757674
1727.483827	-3.007300	3.408700	-10.251000	26.216797	0.000214	20.741527
1728.478796	-3.024200	3.408500	-10.307000	26.212276	0.000214	20.734139
1729.484197	-3.039200	3.409000	-10.360000	26.173935	0.000213	20.751562
1730.482375	-3.006900	3.407500	-10.245000	26.191020	0.000214	20.727951
1731.482526	-3.013500	3.407800	-10.269000	26.185582	0.000214	20.745722
1732.479228	-2.994400	3.408000	-10.204000	26.169586	0.000212	20.737709
1733.479588	-2.969800	3.408700	-10.122000	26.212081	0.000212	20.748168
1734.492646	-3.010800	3.406400	-10.256000	26.171848	0.000215	20.754681
1735.480387	-2.994400	3.406300	-10.198000	26.155655	0.000214	20.743624
1736.483145	-2.995200	3.407000	-10.204000	26.145074	0.000212	20.746269
1737.485160	-3.015000	3.406400	-10.270000	26.149668	0.000213	20.745195
1738.481720	-2.987400	3.406000	-10.174000	26.191789	0.000212	20.738208
1739.488094	-2.998400	3.406100	-10.212000	26.166281	0.000211	20.741500
1740.491227	-2.995700	3.404900	-10.199000	26.193030	0.000211	20.723807
1741.496575	-2.999900	3.403600	-10.209000	26.209647	0.000210	20.741454
1742.488817	-2.994100	3.405000	-10.194000	26.196233	0.000214	20.727500
1743.488412	-2.986500	3.405700	-10.170000	26.204676	0.000212	20.724605
1744.492459	-2.982700	3.403800	-10.151000	26.235718	0.000209	20.748213
1745.493217	-2.992600	3.404400	-10.187000	26.277516	0.000208	20.725731
1746.495683	-2.985600	3.403400	-10.160000	26.287147	0.000212	20.722608
1747.482684	-3.004600	3.401300	-10.218000	26.293930	0.000208	20.754555
1748.492057	-2.993300	3.403000	-10.185000	26.302844	0.000209	20.740280
1749.493539	-2.988400	3.402700	-10.167000	26.261869	0.000210	20.737508
1750.486091	-3.000600	3.402400	-10.208000	26.260256	0.000210	20.724981
1751.488784	-3.022800	3.401600	-10.281000	26.253920	0.000206	20.756074
1752.485386	-2.998800	3.401300	-10.199000	26.212600	0.000208	20.720713
1753.493931	-2.993100	3.400300	-10.176000	26.193427	0.000209	20.726577
1754.492677	-3.003700	3.400700	-10.214000	26.185680	0.000209	20.743923
1755.487288	-3.005800	3.400300	-10.220000	26.178749	0.000207	20.729846
1756.493521	-3.007500	3.399300	-10.222000	26.195067	0.000204	20.736760
1757.489647	-2.999300	3.399700	-10.196000	26.208948	0.000205	20.743597
1758.490029	-2.986700	3.399200	-10.151000	26.211781	0.000206	20.735064
1759.497014	-3.016600	3.398700	-10.251000	26.203066	0.000205	20.726780
1760.491426	-2.998200	3.398600	-10.189000	26.242229	0.000206	20.733418
1761.494632	-3.012800	3.397900	-10.236000	26.229067	0.000203	20.737262
1762.499547	-2.991900	3.398400	-10.167000	26.237388	0.000207	20.722863
1763.496311	-3.003100	3.398400	-10.205000	26.200734	0.000202	20.721117
1764.498843	-3.019000	3.396700	-10.254000	26.142792	0.000206	20.724060
1765.495864	-3.012100	3.397200	-10.232000	26.065551	0.000202	20.719943
1766.498611	-2.993200	3.397100	-10.167000	26.096274	0.000202	20.740857
1767.495303	-3.007500	3.394900	-10.209000	26.184094	0.000203	20.721466
1768.495877	-2.987300	3.396400	-10.145000	26.149425	0.000202	20.722665
1769.493347	-3.000800	3.395500	-10.188000	26.159457	0.000202	20.730375
1770.494895	-2.993300	3.395100	-10.162000	26.150097	0.000202	20.727607
1771.495354	-2.980700	3.395500	-10.119000	26.121956	0.000201	20.734419
1772.506217	-2.992900	3.395700	-10.162000	26.151113	0.000201	20.723887
1773.495396	-3.017600	3.395200	-10.244000	26.207142	0.000199	20.741782
1774.495140	-3.009400	3.393800	-10.212000	26.207514	0.000198	20.718447
1775.500432	-2.996100	3.393400	-10.166000	26.206249	0.000200	20.720969
1776.494983	-3.024300	3.393000	-10.261000	26.228153	0.000199	20.742033
1777.505071	-3.002300	3.392700	-10.186000	26.261506	0.000199	20.754688
1778.497064	-3.009300	3.392900	-10.208000	26.271215	0.000199	20.728408
1779.499071	-3.005600	3.391500	-10.193000	26.239105	0.000199	20.744504
1780.507051	-2.987900	3.392200	-10.134000	26.286138	0.000198	20.729180
1781.495791	-2.993900	3.391500	-10.153000	26.292920	0.000196	20.737893
1782.496389	-2.975300	3.391300	-10.089000	26.305460	0.000198	20.735322
1783.501405	-3.003700	3.391200	-10.186000	26.348296	0.000198	20.746130
1784.507242	-3.012000	3.390300	-10.211000	26.292895	0.000198	20.738343
1785.500053	-2.999800	3.392000	-10.175000	26.253759	0.000195	20.722720
1786.499908	-2.981000	3.391700	-10.110000	26.282094	0.000196	20.730806
1787.500545	-2.986800	3.389700	-10.124000	26.262797	0.000196	20.727060
1788.504862	-2.974300	3.390000	-10.081000	26.264586	0.000195	20.720798
1789.502205	-2.993200	3.389500	-10.145000	26.239582	0.000194	20.749725
1790.498022	-2.990100	3.389100	-10.133000	26.254830	0.000195	20.745608
1791.506682	-2.994000	3.388000	-10.143000	26.275441	0.000194	20.726016
1792.497574	-2.980200	3.389900	-10.101000	26.289817	0.000195	20.749000
1793.500885	-3.012300	3.388800	-10.207000	26.254825	0.000194	20.748448
1794.514396	-2.992300	3.386500	-10.133000	26.257486	0.000194	20.738794
1795.501884	-3.006700	3.387300	-10.184000	26.252444	0.000195	20.740839
1796.506780	-2.975200	3.387400	-10.076000	26.272335	0.000195	20.755613
1797.508663	-2.977200	3.387700	-10.085000	26.278916	0.000194	20.725715
1798.506759	-3.015000	3.385700	-10.206000	26.288032	0.000193	20.732981
1799.503862	-2.988500	3.386100	-10.118000	26.250681	0.000193	20.724368
1800.502840	-2.973300	3.386200	-10.068000	26.258752	0.000192	20.724892
1801.502594	-3.000500	3.386400	-10.161000	26.264389	0.000191	20.747154
1802.504631	-3.011000	3.385100	-10.192000	26.225751	0.000193	20.742939
1803.500301	-2.998600	3.385100	-10.150000	26.267272	0.000194	20.734403
1804.513088	-3.014500	3.383900	-10.200000	26.254533	0.000190	20.757164
1805.509341	-2.995500	3.385100	-10.139000	26.271319	0.000190	20.731832
1806.504840	-2.981100	3.384300	-10.088000	26.259523	0.000190	20.734203
1807.507963	-3.009500	3.382300	-10.178000	26.235859	0.000191	20.760209
1808.501403	-3.019700	3.383000	-10.214000	26.228312	0.000189	20.757841
1809.508350	-3.000300	3.382200	-10.147000	26.217183	0.000187	20.736699
1810.502611	-3.022300	3.381800	-10.219000	26.210679	0.000189	20.735379
1811.503364	-3.013000	3.381400	-10.187000	26.275418	0.000188	20.741167
1812.503805	-2.997200	3.381800	-10.135000	26.324860	0.000188	20.736327
1813.520216	-2.995600	3.382900	-10.133000	26.364641	0.000188	20.754497
1814.518545	-2.998900	3.381700	-10.140000	26.379737	0.000188	20.767773
1815.506262	-3.013700	3.381100	-10.188000	26.341922	0.000186	20.752053
1816.504724	-3.007800	3.380300	-10.166000	26.306487	0.000185	20.772866
1817.510525	-3.006100	3.379500	-10.158000	26.305891	0.000187	20.731014
1818.510406	-2.990200	3.379900	-10.105000	26.294295	0.000186	20.756345
1819.504820	-2.974400	3.381500	-10.057000	26.351383	0.000186	20.734533
1820.504883	-2.977100	3.379800	-10.061000	26.341775	0.000183	20.748585
1821.507031	-2.988000	3.379300	-10.096000	26.334004	0.000185	20.751207
1822.502586	-2.967900	3.379300	-10.028000	26.281931	0.000185	20.751980
1823.509247	-2.979100	3.378600	-10.064000	26.236413	0.000182	20.754127
1824.506595	-2.979100	3.377500	-10.061000	26.249504	0.000185	20.752110
1825.506842	-2.988600	3.378600	-10.096000	26.209668	0.000183	20.753330
1826.506069	-2.999000	3.377400	-10.128000	26.231647	0.000183	20.732742
1827.507388	-3.016200	3.377300	-10.186000	26.231550	0.000184	20.744024
1828.507434	-3.009200	3.377500	-10.162000	26.160944	0.000181	20.747042
1829.508320	-2.992300	3.377400	-10.105000	26.267706	0.000182	20.771350
1830.507919	-2.999800	3.376500	-10.128000	26.298996	0.000182	20.759172
1831.504868	-2.990700	3.375300	-10.094000	26.315856	0.000183	20.758573
1832.507063	-2.987600	3.376100	-10.086000	26.331974	0.000182	20.777617
1833.520020	-3.000400	3.375800	-10.127000	26.254053	0.000179	20.738662
1834.506872	-3.014200	3.375900	-10.175000	26.270539	0.000181	20.750963
1835.522036	-3.009700	3.375700	-10.159000	26.301734	0.000180	20.768563
1836.517499	-3.004700	3.375600	-10.142000	26.283058	0.000180	20.740311
1837.515154	-2.991100	3.373900	-10.090000	26.258599	0.000181	20.761249
1838.509536	-3.011200	3.374800	-10.161000	26.263541	0.000179	20.768114
1839.509451	-3.001400	3.374900	-10.129000	26.292797	0.000179	20.777125
1840.515543	-2.986600	3.374000	-10.076000	26.287582	0.000180	20.779471
1841.515527	-3.002100	3.373100	-10.126000	26.338836	0.000180	20.782617
1842.526304	-3.043300	3.372100	-10.261000	26.379287	0.000178	20.759260
1843.512373	-2.980900	3.374300	-10.056000	26.407670	0.000179	20.756492
1844.510849	-2.980400	3.372800	-10.052000	26.373678	0.000176	20.762157
1845.517459	-2.982500	3.372400	-10.057000	26.357785	0.000178	20.764202
1846.515288	-2.998900	3.371800	-10.111000	26.345868	0.000176	20.747957
1847.511065	-2.997300	3.371600	-10.105000	26.367447	0.000179	20.774862
1848.512569	-3.000900	3.369900	-10.111000	26.373560	0.000174	20.763462
1849.515563	-2.986000	3.371100	-10.065000	26.348878	0.000176	20.759518
1850.509725	-2.966500	3.370700	-9.998500	26.331174	0.000177	20.772072
1851.517289	-3.014900	3.370700	-10.161000	26.322408	0.000176	20.769899
1852.514035	-2.987600	3.370000	-10.067000	26.318933	0.000178	20.757872
1853.520544	-3.006300	3.369300	-10.128000	26.319704	0.000176	20.779984
1854.515048	-2.987100	3.369000	-10.063000	26.281363	0.000175	20.792187
1855.520725	-3.010700	3.368600	-10.141000	26.263436	0.000175	20.765162
1856.517090	-2.992600	3.369100	-10.081000	26.270144	0.000171	20.769058
1857.515011	-2.999700	3.369300	-10.105000	26.285614	0.000175	20.772277
1858.519218	-2.991100	3.367100	-10.071000	26.280921	0.000173	20.776096
1859.515155	-3.001600	3.367100	-10.105000	26.354621	0.000173	20.765290
1860.524952	-3.005500	3.366200	-10.116000	26.340420	0.000173	20.777097
1861.514436	-3.010400	3.365300	-10.130000	26.331481	0.000173	20.794191
1862.522759	-3.030900	3.366000	-10.200000	26.322095	0.000170	20.783336
1863.523440	-3.003000	3.364600	-10.103000	26.344120	0.000171	20.782711
1864.520079	-2.992800	3.366500	-10.074000	26.344222	0.000172	20.781392
1865.516599	-2.983200	3.365600	-10.039000	26.354776	0.000171	20.802430
1866.517669	-3.009900	3.365800	-10.129000	26.298734	0.000172	20.766971
1867.529896	-3.004600	3.364400	-10.108000	26.288976	0.000170	20.793200
1868.517475	-2.996100	3.364000	-10.078000	26.321803	0.000170	20.781620
1869.518992	-2.994700	3.364700	-10.075000	26.327367	0.000169	20.791953
1870.517632	-2.995200	3.363200	-10.072000	26.331488	0.000168	20.769068
1871.517798	-3.009800	3.363200	-10.122000	26.398336	0.000169	20.772242
1872.527590	-3.016300	3.361800	-10.139000	26.429201	0.000168	20.791409
1873.526759	-3.002200	3.360900	-10.089000	26.401017	0.000169	20.780626
1874.525604	-3.013200	3.362300	-10.130000	26.390366	0.000169	20.796474
1875.526603	-3.017000	3.361600	-10.141000	26.399008	0.000167	20.790935
1876.520246	-3.014900	3.361500	-10.134000	26.416588	0.000167	20.797698
1877.519788	-2.983600	3.362700	-10.032000	26.434043	0.000169	20.806707
1878.520644	-2.998300	3.361200	-10.076000	26.430618	0.000166	20.805162
1879.524233	-2.980500	3.361500	-10.018000	26.385007	0.000166	20.801519
1880.520171	-2.999500	3.360900	-10.080000	26.421455	0.000164	20.800694
1881.520162	-3.011000	3.360200	-10.117000	26.450559	0.000166	20.794384
1882.520678	-3.003600	3.359600	-10.090000	26.483800	0.000165	20.788441
1883.526863	-3.001100	3.359800	-10.082000	26.484322	0.000166	20.779956
1884.519809	-2.986800	3.359900	-10.034000	26.443780	0.000162	20.784725
1885.521361	-3.001400	3.358800	-10.080000	26.437969	0.000165	20.810179
1886.521052	-2.997400	3.358600	-10.066000	26.432455	0.000163	20.793732
1887.521636	-2.994900	3.358200	-10.056000	26.475062	0.000165	20.800995
1888.525523	-3.012400	3.357200	-10.112000	26.536038	0.000161	20.795430
1889.527487	-2.990200	3.356900	-10.037000	26.522012	0.000162	20.801720
1890.533193	-3.026400	3.356200	-10.156000	26.432705	0.000163	20.802992
1891.519683	-2.993000	3.357000	-10.047000	26.428509	0.000161	20.800197
1892.522119	-3.014700	3.357100	-10.120000	26.449241	0.000163	20.818190
1893.527578	-3.008200	3.356300	-10.095000	26.443655	0.000164	20.833437
1894.535974	-2.999700	3.355200	-10.064000	26.466124	0.000163	20.802442
1895.518826	-3.002200	3.355200	-10.072000	26.481416	0.000160	20.801218
1896.521547	-2.985600	3.355500	-10.017000	26.480301	0.000161	20.787769
1897.519353	-2.976100	3.357000	-9.989500	26.516152	0.000162	20.806261
1898.535436	-3.000300	3.355800	-10.068000	26.495471	0.000162	20.807284
1899.524303	-2.975000	3.354100	-9.977500	26.519753	0.000160	20.812251
1900.528730	-2.985000	3.354600	-10.012000	26.483081	0.000162	20.819961
1901.531119	-2.979400	3.355100	-9.995300	26.494031	0.000159	20.808681
1902.528635	-3.009100	3.353300	-10.090000	26.527597	0.000157	20.814447
1903.526355	-2.998200	3.353400	-10.053000	26.516027	0.000160	20.787643
1904.529187	-3.002000	3.353600	-10.066000	26.593435	0.000160	20.795280
1905.533422	-2.998700	3.352900	-10.054000	26.574568	0.000158	20.812349
1906.524556	-2.999300	3.353000	-10.056000	26.596887	0.000158	20.807284
1907.527921	-2.978500	3.353600	-9.987700	26.552301	0.000159	20.824105
1908.526124	-2.986600	3.352900	-10.014000	26.482812	0.000157	20.807362
1909.531722	-2.978800	3.352100	-9.983900	26.441224	0.000157	20.825778
1910.525928	-2.993000	3.351600	-10.031000	26.458778	0.000157	20.816870
1911.528114	-2.982900	3.350300	-9.992500	26.477752	0.000157	20.825984
1912.528307	-2.999300	3.350900	-10.050000	26.448300	0.000155	20.825778
1913.527767	-3.013100	3.349800	-10.092000	26.437949	0.000157	20.827228
1914.528522	-2.991500	3.349700	-10.020000	26.510074	0.000155	20.840454
1915.528676	-3.000000	3.350500	-10.050000	26.486119	0.000155	20.839609
1916.527720	-2.999000	3.349700	-10.045000	26.448827	0.000155	20.830101
1917.526151	-3.026200	3.348100	-10.131000	26.451684	0.000155	20.852413
1918.538094	-2.999900	3.349000	-10.046000	26.493938	0.000153	20.833718
1919.529810	-2.993600	3.348800	-10.024000	26.478326	0.000153	20.828932
1920.536490	-2.997000	3.347700	-10.032000	26.537860	0.000155	20.845150
1921.532743	-3.000900	3.346700	-10.043000	26.542577	0.000152	20.836616
1922.530454	-3.027500	3.347000	-10.132000	26.484187	0.000152	20.828658
1923.537797	-3.017100	3.347600	-10.099000	26.454046	0.000153	20.819225
1924.535338	-2.989300	3.347000	-10.004000	26.527735	0.000151	20.843981
1925.528007	-2.991000	3.347900	-10.013000	26.544047	0.000151	20.841412
1926.532254	-2.983700	3.345100	-9.980500	26.560806	0.000152	20.826965
1927.533822	-2.976900	3.346700	-9.961900	26.522374	0.000149	20.847127
1928.531065	-2.999300	3.345000	-10.031000	26.501618	0.000150	20.852342
1929.532108	-2.999300	3.344300	-10.030000	26.546780	0.000149	20.849849
1930.534175	-2.984200	3.344700	-9.980500	26.597475	0.000148	20.844859
1931.532382	-3.015000	3.343500	-10.080000	26.615549	0.000149	20.847854
1932.536302	-3.000600	3.344700	-10.035000	26.568331	0.000149	20.841166
1933.534891	-2.996100	3.344200	-10.018000	26.528214	0.000151	20.832609
1934.532426	-2.985500	3.345300	-9.986700	26.513638	0.000148	20.844036
1935.534234	-3.006800	3.342500	-10.048000	26.570764	0.000147	20.844561
1936.536955	-2.996500	3.342300	-10.014000	26.606861	0.000148	20.841018
1937.533786	-3.000100	3.343500	-10.029000	26.600480	0.000149	20.848354
1938.537056	-2.990100	3.342400	-9.992500	26.592090	0.000148	20.864574
1939.537143	-2.975500	3.341900	-9.943000	26.657354	0.000148	20.838673
1940.537602	-3.002500	3.341900	-10.034000	26.676021	0.000147	20.868342
1941.538610	-2.982700	3.341200	-9.964800	26.696501	0.000146	20.844836
1942.538530	-2.988700	3.340900	-9.983800	26.710700	0.000146	20.858162
1943.543222	-3.017000	3.339800	-10.074000	26.694342	0.000145	20.868270
1944.543227	-3.021500	3.340700	-10.094000	26.638640	0.000144	20.838352
1945.548102	-2.991500	3.340600	-9.992400	26.556593	0.000144	20.859713
1946.538671	-2.987200	3.340800	-9.979300	26.538843	0.000145	20.851828
1947.545759	-3.010900	3.338300	-10.050000	26.540877	0.000143	20.839649
1948.533786	-2.999500	3.341400	-10.021000	26.594950	0.000143	20.869346
1949.541162	-2.986700	3.338100	-9.968500	26.613667	0.000145	20.834109
1950.537765	-3.006400	3.337700	-10.034000	26.649491	0.000143	20.856845
1951.540049	-3.014000	3.339000	-10.063000	26.612302	0.000143	20.864504
1952.544418	-3.007900	3.337700	-10.038000	26.598004	0.000140	20.864830
1953.537377	-2.999600	3.336800	-10.008000	26.577225	0.000139	20.856271
1954.537131	-2.994500	3.336800	-9.991200	26.539540	0.000139	20.852528
1955.542301	-3.021400	3.335800	-10.078000	26.538000	0.000140	20.855247
1956.537952	-3.009800	3.336500	-10.041000	26.619330	0.000140	20.868724
1957.535304	-2.998200	3.336500	-10.003000	26.652221	0.000143	20.852004
1958.541210	-3.027500	3.334200	-10.093000	26.626876	0.000139	20.868724
1959.542308	-3.030400	3.333600	-10.101000	26.641425	0.000139	20.880978
1960.538427	-2.989800	3.334500	-9.968700	26.615606	0.000140	20.880627
1961.540122	-2.986100	3.334700	-9.956400	26.599098	0.000137	20.877308
1962.536247	-2.998000	3.334700	-9.995000	26.597064	0.000137	20.843497
1963.543067	-3.014800	3.334100	-10.051000	26.573901	0.000136	20.862886
1964.542921	-3.014900	3.332900	-10.046000	26.570053	0.000135	20.870871
1965.538625	-2.997400	3.333800	-9.991100	26.586587	0.000137	20.880378
1966.546619	-3.020400	3.333100	-10.067000	26.587750	0.000137	20.885340
1967.543081	-3.012300	3.332700	-10.039000	26.616375	0.000138	20.880925
1968.540795	-3.012300	3.332400	-10.037000	26.598726	0.000135	20.861762
1969.543324	-2.990000	3.333700	-9.966300	26.587281	0.000134	20.870645
1970.544544	-2.985000	3.331800	-9.944700	26.607588	0.000136	20.881575
1971.538257	-3.012600	3.331800	-10.037000	26.634126	0.000134	20.875537
1972.543909	-3.027000	3.329600	-10.078000	26.554786	0.000135	20.868327
1973.546626	-2.994800	3.330700	-9.973800	26.598751	0.000133	20.879804
1974.541787	-3.005200	3.331100	-10.010000	26.659126	0.000135	20.851833
1975.543299	-3.018100	3.329500	-10.048000	26.739301	0.000137	20.884545
1976.548820	-2.991900	3.329800	-9.960500	26.785122	0.000135	20.879879
1977.543351	-2.995000	3.329100	-9.969900	26.745235	0.000134	20.873916
1978.545820	-3.013800	3.329200	-10.033000	26.728656	0.000131	20.870051
1979.544514	-2.993800	3.328900	-9.965800	26.645423	0.000132	20.879781
1980.545351	-3.009400	3.328800	-10.017000	26.674169	0.000132	20.894928
1981.546471	-2.992500	3.329300	-9.962100	26.692538	0.000133	20.888265
1982.547434	-3.011900	3.327400	-10.021000	26.683904	0.000132	20.909929
1983.550459	-3.013500	3.327300	-10.026000	26.701302	0.000132	20.888067
1984.555736	-3.008200	3.328300	-10.012000	26.735878	0.000130	20.880629
1985.547575	-3.025100	3.327000	-10.064000	26.691348	0.000131	20.889439
1986.545849	-2.992300	3.325700	-9.949400	26.704628	0.000131	20.886196
1987.546535	-2.994600	3.325900	-9.959200	26.699168	0.000130	20.871225
1988.546336	-2.990200	3.325100	-9.942200	26.696538	0.000129	20.907458
1989.547747	-2.981500	3.326400	-9.917200	26.682786	0.000128	20.893634
1990.548110	-2.985000	3.325000	-9.924700	26.689264	0.000129	20.877862
1991.547176	-3.020400	3.325100	-10.043000	26.737073	0.000128	20.878512
1992.555145	-2.983700	3.325900	-9.922500	26.757802	0.000129	20.898877
1993.550217	-3.012800	3.324200	-10.014000	26.767952	0.000128	20.901970
1994.547782	-2.983300	3.324000	-9.915600	26.829733	0.000130	20.885378
1995.546922	-2.976200	3.324400	-9.892900	26.882695	0.000127	20.904017
1996.554594	-3.021100	3.322100	-10.035000	26.893144	0.000128	20.902669
1997.546358	-2.994500	3.321600	-9.945300	26.878354	0.000127	20.893962
1998.556612	-2.987400	3.322800	-9.925400	26.862147	0.000127	20.903743
1999.546833	-3.006700	3.322400	-9.988900	26.893569	0.000126	20.898355
2000.552425	-2.984800	3.322400	-9.915400	26.859098	0.000125	20.905419
2001.546952	-3.018300	3.321100	-10.023000	26.870862	0.000123	20.895912
2002.548121	-2.982200	3.321200	-9.903700	26.875602	0.000124	20.914901
2003.553518	-2.962400	3.322800	-9.841200	26.804769	0.000123	20.879245
2004.548290	-2.993600	3.320600	-9.939400	26.774587	0.000123	20.909114
2005.543995	-3.031200	3.319000	-10.059000	26.798195	0.000125	20.890651
2006.547500	-3.016100	3.320100	-10.012000	26.848776	0.000124	20.906420
2007.543744	-2.981500	3.319400	-9.896200	26.853519	0.000123	20.905025
2008.544353	-2.994400	3.318900	-9.936400	26.806189	0.000123	20.903904
2009.552779	-3.006800	3.317500	-9.974600	26.832373	0.000121	20.907945
2010.545049	-2.992600	3.319000	-9.931300	26.893354	0.000121	20.911888
2011.552877	-3.012300	3.317300	-9.991500	26.868140	0.000121	20.936793
2012.552039	-3.002400	3.317300	-9.959000	26.840864	0.000121	20.916007
2013.553796	-3.007300	3.317800	-9.975900	26.844736	0.000121	20.925590
2014.547089	-2.988800	3.316500	-9.911700	26.802120	0.000120	20.916880
2015.552503	-3.007200	3.315800	-9.970200	26.785467	0.000119	20.917681
2016.554778	-2.994500	3.316500	-9.929800	26.765288	0.000122	20.898343
2017.545887	-3.004000	3.315400	-9.958500	26.731654	0.000120	20.895347
2018.553407	-2.996400	3.315300	-9.933000	26.758560	0.000118	20.908173
2019.554105	-3.013000	3.315300	-9.988500	26.777425	0.000117	20.916707
2020.547760	-2.985300	3.316400	-9.900000	26.754491	0.000118	20.903608
2021.551179	-2.984200	3.315200	-9.892400	26.741979	0.000116	20.909520
2022.548164	-3.000500	3.314100	-9.943700	26.770822	0.000114	20.902958
2023.554076	-2.986100	3.314800	-9.897300	26.804058	0.000119	20.911244
2024.554456	-2.999300	3.313100	-9.935900	26.837763	0.000116	20.918105
2025.562542	-2.979500	3.315900	-9.878900	26.884744	0.000117	20.911766
2026.546145	-3.004400	3.313200	-9.953400	26.924107	0.000114	20.896346
2027.546361	-3.000100	3.312500	-9.936700	26.934505	0.000114	20.917706
2028.551884	-3.009500	3.311500	-9.965000	26.941875	0.000114	20.898092
2029.551026	-2.990000	3.313300	-9.906100	26.881867	0.000114	20.907925
2030.554715	-3.004300	3.312400	-9.950900	26.892638	0.000115	20.894575
2031.552081	-3.020700	3.311300	-10.002000	26.888938	0.000115	20.904130
2032.550125	-2.983300	3.311400	-9.877800	26.891418	0.000116	20.888133
2033.546607	-3.004500	3.310900	-9.947100	26.930311	0.000112	20.895473
2034.550815	-2.998800	3.311200	-9.928700	26.918049	0.000114	20.896893
2035.551507	-3.009500	3.310900	-9.963000	26.901545	0.000111	20.874135
2036.548794	-3.015800	3.310100	-9.981400	26.869455	0.000111	20.889756
2037.555318	-3.001100	3.309700	-9.931700	26.900056	0.000111	20.895869
2038.551107	-3.017300	3.308900	-9.983300	26.923658	0.000112	20.897791
2039.552771	-3.000300	3.309500	-9.928500	26.960437	0.000111	20.874559
2040.553811	-3.017100	3.307300	-9.977000	26.978404	0.000110	20.876505
2041.554486	-3.023700	3.307400	-9.999500	27.055804	0.000109	20.879425
2042.553907	-3.011900	3.306500	-9.957500	27.044039	0.000108	20.876129
2043.561419	-2.992100	3.306800	-9.893500	27.001211	0.000107	20.871466
2044.555629	-2.996700	3.307700	-9.911500	26.976817	0.000109	20.866850
2045.557305	-3.004200	3.307100	-9.934500	26.940533	0.000109	20.860235
2046.554723	-2.997600	3.305900	-9.907900	27.000043	0.000108	20.858913
2047.565414	-3.004200	3.305600	-9.930500	27.020639	0.000105	20.870615
2048.562140	-2.998000	3.307100	-9.913700	27.030219	0.000107	20.871240
2049.564590	-3.014800	3.304100	-9.960100	26.968799	0.000108	20.891502
2050.562410	-3.001000	3.304100	-9.914900	26.976293	0.000105	20.842142
2051.560756	-2.988600	3.304500	-9.874400	27.014710	0.000106	20.862282
2052.557066	-3.009100	3.305500	-9.945500	27.094736	0.000106	20.874958
2053.559397	-3.018800	3.304200	-9.973700	27.054115	0.000105	20.883891
2054.559389	-3.003700	3.303600	-9.921400	27.023690	0.000104	20.884114
2055.569105	-2.989700	3.303700	-9.876500	27.008258	0.000103	20.861958
2056.570351	-2.988400	3.301900	-9.866500	26.996715	0.000105	20.862204
2057.561791	-3.023900	3.302600	-9.986000	26.979070	0.000104	20.885235
2058.558324	-3.016200	3.301200	-9.956000	27.050715	0.000102	20.846334
2059.557781	-3.002100	3.302500	-9.913300	26.998427	0.000103	20.859658
2060.557312	-3.009800	3.301400	-9.935200	26.987161	0.000103	20.855915
2061.571579	-2.993600	3.301800	-9.882800	26.984232	0.000101	20.867194
2062.559551	-3.003000	3.302800	-9.916400	26.940553	0.000103	20.841289
2063.565158	-3.003600	3.299000	-9.907700	26.936311	0.000101	20.857412
2064.572842	-2.994000	3.300200	-9.879200	26.955691	0.000102	20.854615
2065.560352	-3.013100	3.300500	-9.943800	26.989965	0.000102	20.852097
2066.571545	-3.007000	3.299500	-9.920600	26.960803	0.000101	20.853592
2067.575919	-3.023700	3.298100	-9.970900	26.996144	0.000101	20.856888
2068.565351	-3.005900	3.298900	-9.914800	27.037064	9.998083E-5	20.857736
2069.563324	-3.019500	3.299400	-9.961700	27.054259	0.000100	20.848003
2070.564082	-2.998100	3.299000	-9.889900	27.082251	9.941979E-5	20.851971
2071.568003	-3.021100	3.296700	-9.958800	27.027657	9.908977E-5	20.848276
2072.568449	-2.974700	3.298300	-9.810400	27.045848	9.833071E-5	20.846181
2073.566436	-2.980400	3.297500	-9.827300	27.061082	9.803369E-5	20.824045
2074.572022	-3.002000	3.297200	-9.897400	27.038498	9.661458E-5	20.862497
2075.566360	-2.991600	3.296300	-9.860600	27.012167	9.598754E-5	20.851191
2076.573035	-2.995500	3.295100	-9.869800	27.043834	9.737364E-5	20.851269
2077.572552	-2.972900	3.296700	-9.800100	27.058548	9.453543E-5	20.833349
2078.574239	-2.974100	3.296400	-9.802400	27.050285	9.743965E-5	20.843058
2079.579152	-2.988100	3.295500	-9.846800	27.116166	9.592153E-5	20.832976
2080.578234	-3.003400	3.294300	-9.892600	27.146982	9.668059E-5	20.842631
2081.566901	-2.999500	3.293900	-9.878800	27.148471	9.473345E-5	20.860250
2082.567772	-2.983500	3.294500	-9.827700	27.092219	9.684560E-5	20.833073
2083.578217	-3.045700	3.292300	-10.026000	27.069763	9.235727E-5	20.847473
2084.573987	-3.005800	3.292400	-9.895300	27.049712	9.526149E-5	20.821145
2085.568838	-2.960100	3.295900	-9.755300	27.080854	9.192824E-5	20.834920
2086.572305	-3.014100	3.292900	-9.924200	27.067481	9.371037E-5	20.829531
2087.567290	-2.998000	3.292000	-9.867700	27.050408	9.159822E-5	20.836543
2088.581516	-2.997400	3.291400	-9.864700	27.094698	9.212626E-5	20.848369
2089.571705	-3.013100	3.290700	-9.913000	27.091969	9.377638E-5	20.837090
2090.569634	-3.025700	3.290700	-9.954500	27.056909	9.235727E-5	20.826960
2091.569598	-2.995200	3.290100	-9.853500	27.059910	9.321534E-5	20.839461
2092.582167	-2.987500	3.291300	-9.831700	27.117924	9.103718E-5	20.830477
2093.572343	-2.997700	3.290400	-9.863100	27.156133	9.212626E-5	20.830974
2094.585657	-3.010800	3.289300	-9.902200	27.162686	9.202725E-5	20.823814
2095.585151	-2.998100	3.290500	-9.864500	27.151494	8.902403E-5	20.833420
2096.582012	-3.009100	3.289200	-9.896300	27.168687	9.189524E-5	20.809462
2097.570228	-2.997100	3.289300	-9.857800	27.147448	8.902403E-5	20.810385
2098.575170	-3.010700	3.287200	-9.896100	27.058098	8.915604E-5	20.841906
2099.569380	-2.965900	3.289800	-9.756600	27.021742	8.707689E-5	20.809138
2100.570540	-2.991800	3.288100	-9.836500	27.043580	8.869401E-5	20.832047
2101.577079	-2.997000	3.287800	-9.852800	27.074548	8.720890E-5	20.836638
2102.577868	-2.998700	3.285600	-9.851400	27.091842	8.823197E-5	20.836014
2103.573164	-2.996400	3.287400	-9.849100	27.089188	8.694488E-5	20.824336
2104.586906	-3.008000	3.285900	-9.883300	27.094127	8.602081E-5	20.832622
2105.579426	-3.016700	3.285500	-9.910400	27.112439	8.701088E-5	20.824486
2106.596317	-3.019200	3.285100	-9.917500	27.136183	8.681287E-5	20.832720
2107.580464	-2.994200	3.286000	-9.837800	27.158862	8.572379E-5	20.817597
2108.580764	-2.976000	3.286400	-9.779400	27.117278	8.542677E-5	20.821293
2109.578784	-2.989800	3.285300	-9.820800	27.064225	8.595481E-5	20.832421
2110.590098	-3.001100	3.284300	-9.855300	27.047649	8.747292E-5	20.799156
2111.578164	-3.011000	3.283700	-9.886100	27.071646	8.367764E-5	20.801953
2112.588988	-2.987400	3.283600	-9.808100	27.110653	8.681287E-5	20.826009
2113.581730	-3.018200	3.283100	-9.908000	27.101543	8.417268E-5	20.820640
2114.581950	-3.006400	3.282300	-9.866900	27.098395	8.555878E-5	20.830276
2115.586758	-3.011200	3.281900	-9.881600	27.074153	8.189551E-5	20.839087
2116.576450	-3.013000	3.281500	-9.886500	27.103010	8.262156E-5	20.823064
2117.584618	-2.985800	3.281900	-9.797700	27.127301	8.328161E-5	20.805769
2118.578190	-3.021800	3.281300	-9.915000	27.148294	8.248955E-5	20.821192
2119.577054	-2.988000	3.282200	-9.806600	27.161643	8.351263E-5	20.826558
2120.583998	-2.995800	3.280600	-9.826400	27.215158	7.991536E-5	20.822063
2121.584035	-2.997200	3.280300	-9.831200	27.218757	8.305059E-5	20.835166
2122.584077	-2.998500	3.279500	-9.831900	27.214442	7.856227E-5	20.828455
2123.578356	-2.987400	3.279800	-9.796900	27.246472	7.915631E-5	20.802826
2124.584738	-2.987700	3.278600	-9.794000	27.246495	7.965135E-5	20.805219
2125.579632	-3.011300	3.278700	-9.871300	27.288842	8.080643E-5	20.814625
2126.586531	-2.997100	3.279200	-9.827400	27.273932	8.120246E-5	20.805317
2127.582005	-3.014500	3.277200	-9.878300	27.239945	8.291858E-5	20.806692
2128.589334	-3.011600	3.278100	-9.871800	27.285891	8.110345E-5	20.799803
2129.584232	-3.022300	3.276000	-9.899800	27.312687	7.697815E-5	20.790247
2130.586898	-2.975600	3.278000	-9.753000	27.262100	7.948633E-5	20.802425
2131.593107	-2.981700	3.276900	-9.769900	27.209825	7.697815E-5	20.802949
2132.589998	-2.991500	3.276000	-9.798200	27.200247	7.942033E-5	20.812756
2133.592658	-2.996400	3.274400	-9.810500	27.220194	7.602108E-5	20.792515
2134.593560	-3.006800	3.275000	-9.846600	27.185858	7.803423E-5	20.812507
2135.587539	-2.996300	3.274200	-9.808700	27.179233	7.522902E-5	20.798258
2136.586236	-3.003000	3.274100	-9.830800	27.168291	7.621909E-5	20.805270
2137.589333	-3.014600	3.273600	-9.866800	27.137548	7.552604E-5	20.817023
2138.596760	-2.962100	3.274400	-9.696800	27.125737	7.546004E-5	20.795661
2139.591151	-2.991800	3.272500	-9.790100	27.162683	7.513001E-5	20.823337
2140.591817	-2.984200	3.273400	-9.767400	27.152062	7.559205E-5	20.805069
2141.588010	-2.980600	3.273600	-9.756600	27.198808	7.516302E-5	20.806092
2142.587097	-2.986800	3.272500	-9.773600	27.187913	7.516302E-5	20.810781
2143.586020	-2.988300	3.271700	-9.775400	27.162658	7.344689E-5	20.809562
2144.583412	-3.006000	3.270600	-9.829200	27.214661	7.311687E-5	20.790744
2145.584960	-2.998700	3.271600	-9.809700	27.231879	7.318287E-5	20.801424
2146.583908	-3.002300	3.270600	-9.818200	27.279985	7.278684E-5	20.809035
2147.594917	-3.000300	3.270000	-9.809800	27.322431	7.103771E-5	20.798626
2148.592362	-3.000800	3.269200	-9.809600	27.367137	7.308386E-5	20.821787
2149.584359	-3.009300	3.269200	-9.837300	27.319032	6.984963E-5	20.801845
2150.596445	-3.031400	3.267600	-9.904100	27.295588	7.169776E-5	20.804341
2151.589466	-3.009000	3.267900	-9.832300	27.219099	6.978362E-5	20.800897
2152.594227	-2.987700	3.269000	-9.765800	27.262639	7.057568E-5	20.803441
2153.594309	-3.009800	3.268600	-9.837000	27.279013	7.057568E-5	20.793358
2154.593062	-3.012900	3.266900	-9.840800	27.318383	7.120273E-5	20.797874
2155.591902	-2.989200	3.268000	-9.768600	27.330067	7.169776E-5	20.798248
2156.595290	-2.998600	3.267200	-9.796200	27.344185	7.173077E-5	20.804863
2157.595440	-2.989700	3.267200	-9.767200	27.340165	6.961861E-5	20.796077
2158.592596	-3.008700	3.265200	-9.823000	27.348674	6.803450E-5	20.790413
2159.599316	-3.030600	3.263800	-9.890000	27.403571	7.097171E-5	20.805335
2160.590578	-3.008100	3.265900	-9.823500	27.391763	6.843052E-5	20.806732
2161.591024	-3.011400	3.263900	-9.828400	27.340065	6.645038E-5	20.808305
2162.591156	-3.025700	3.264300	-9.875800	27.341624	6.767147E-5	20.797545
2163.593309	-2.993100	3.263200	-9.766600	27.308756	6.668140E-5	20.794354
2164.590363	-2.986500	3.265600	-9.751800	27.278985	6.780348E-5	20.791434
2165.591163	-2.997900	3.262300	-9.778200	27.323341	6.866154E-5	20.803335
2166.590748	-2.985400	3.263500	-9.742100	27.320959	6.813350E-5	20.783870
2167.593383	-3.002400	3.263800	-9.798400	27.355837	6.704442E-5	20.800937
2168.596927	-2.999000	3.261700	-9.781000	27.390297	6.648338E-5	20.793877
2169.593474	-3.013200	3.261100	-9.825500	27.388237	6.466825E-5	20.784219
2170.595358	-3.003400	3.260600	-9.792100	27.435319	6.575733E-5	20.795548
2171.594377	-3.017500	3.259700	-9.835400	27.504352	6.407421E-5	20.803834
2172.604300	-3.020500	3.260600	-9.846700	27.469871	6.641738E-5	20.785739
2173.614099	-3.016300	3.259200	-9.830100	27.481379	6.374418E-5	20.804429
2174.598298	-2.989200	3.259400	-9.742100	27.493832	6.420621E-5	20.772387
2175.593966	-2.981500	3.259700	-9.717700	27.466769	6.585634E-5	20.789730
2176.596014	-3.000500	3.258700	-9.777500	27.432463	6.199505E-5	20.792201
2177.598913	-3.003200	3.258900	-9.786500	27.411800	6.331515E-5	20.768095
2178.600637	-2.986400	3.258700	-9.730300	27.422838	6.265510E-5	20.787733
2179.608646	-2.993900	3.257400	-9.751200	27.459178	6.390919E-5	20.795370
2180.598920	-2.998700	3.257300	-9.766500	27.507621	6.216006E-5	20.793373
2181.595211	-2.993800	3.256600	-9.748600	27.474781	6.318314E-5	20.784989
2182.612463	-3.020500	3.255700	-9.832400	27.458136	6.057595E-5	20.775829
2183.606662	-2.999600	3.256000	-9.765700	27.491151	6.090597E-5	20.777751
2184.603050	-3.002100	3.255300	-9.771200	27.506132	6.285312E-5	20.789505
2185.602118	-2.991600	3.255400	-9.738400	27.498816	6.041094E-5	20.779299
2186.601891	-2.984700	3.254300	-9.712500	27.515979	5.928885E-5	20.785187
2187.600559	-3.004200	3.254600	-9.776700	27.529746	6.156602E-5	20.789081
2188.603766	-3.010500	3.253800	-9.795500	27.513224	5.899183E-5	20.761552
2189.602467	-2.991200	3.253900	-9.731800	27.494350	5.876082E-5	20.779547
2190.602745	-2.984600	3.253800	-9.710500	27.451139	5.810077E-5	20.774479
2191.604211	-3.006900	3.252400	-9.779200	27.414601	5.994890E-5	20.768541
2192.610385	-3.016100	3.251200	-9.804200	27.427376	5.975089E-5	20.789928
2193.608795	-3.017100	3.251400	-9.808500	27.438069	5.777074E-5	20.784091
2194.603331	-3.012000	3.250100	-9.789100	27.474831	5.796876E-5	20.773185
2195.610112	-2.992600	3.251200	-9.728500	27.425691	5.806777E-5	20.772111
2196.607122	-3.023600	3.250500	-9.827200	27.425172	5.780375E-5	20.772063
2197.607573	-2.985500	3.251600	-9.706900	27.427997	5.892583E-5	20.759733
2198.607550	-3.007200	3.249300	-9.771200	27.505935	5.747372E-5	20.762753
2199.607609	-2.974600	3.250000	-9.666000	27.520173	5.823278E-5	20.772337
2200.606692	-3.007000	3.250000	-9.771400	27.442189	5.664866E-5	20.783019
2201.610277	-3.023500	3.248700	-9.821700	27.454515	5.806777E-5	20.776928
2202.613990	-3.011800	3.248100	-9.781900	27.504472	5.687968E-5	20.771238
2203.613167	-2.993000	3.249500	-9.724900	27.488573	5.483353E-5	20.771838
2204.615110	-2.988900	3.248400	-9.708300	27.490011	5.687968E-5	20.769018
2205.615928	-2.988700	3.246400	-9.702000	27.508666	5.671467E-5	20.774984
2206.611097	-2.972800	3.248900	-9.657600	27.547731	5.661566E-5	20.762605
2207.612818	-3.010700	3.246100	-9.772200	27.549763	5.678067E-5	20.753270
2208.614611	-3.018700	3.244900	-9.794700	27.519480	5.229234E-5	20.763579
2209.615130	-2.997800	3.246300	-9.730800	27.526873	5.645065E-5	20.751576
2210.611615	-3.006100	3.245400	-9.754900	27.535777	5.437149E-5	20.758639
2211.627278	-3.004700	3.245100	-9.749600	27.481977	5.404147E-5	20.768521
2212.619402	-2.996400	3.244200	-9.720700	27.400691	5.344743E-5	20.752176
2213.612831	-2.999700	3.243900	-9.729800	27.392182	5.443750E-5	20.758315
2214.617444	-3.001700	3.243600	-9.735900	27.400172	5.348043E-5	20.767776
2215.617642	-2.992300	3.243900	-9.705000	27.453233	5.308440E-5	20.748137
2216.622000	-3.013400	3.243300	-9.773000	27.461988	5.387646E-5	20.764058
2217.614081	-2.977000	3.243900	-9.655500	27.436588	5.159929E-5	20.764108
2218.617182	-3.003300	3.241800	-9.735100	27.445618	5.173130E-5	20.736681
2219.617505	-2.956000	3.242500	-9.583800	27.497088	5.291939E-5	20.765232
2220.615149	-2.991700	3.239900	-9.692200	27.535658	5.212733E-5	20.758993
2221.617516	-3.007300	3.240700	-9.745200	27.581993	5.183031E-5	20.752981
2222.618700	-3.004000	3.241400	-9.736800	27.548955	4.928912E-5	20.772846
2223.615697	-2.994300	3.239000	-9.697900	27.563689	4.836505E-5	20.758747
2224.614555	-2.996400	3.239500	-9.705500	27.575148	5.143428E-5	20.766010
2225.618333	-3.010500	3.238300	-9.748200	27.565748	4.965215E-5	20.748965
2226.616092	-2.988400	3.238200	-9.675800	27.558310	5.037820E-5	20.755706
2227.621438	-2.979100	3.238300	-9.646500	27.544916	4.839806E-5	20.745073
2228.618161	-2.992400	3.238500	-9.689700	27.539286	4.938813E-5	20.743676
2229.618226	-2.994300	3.236500	-9.689700	27.511705	4.994917E-5	20.748644
2230.615716	-3.012200	3.237800	-9.752000	27.478391	4.978416E-5	20.754956
2231.626795	-3.000200	3.236000	-9.708000	27.487942	4.849706E-5	20.764090
2232.620556	-2.991000	3.236400	-9.679000	27.554171	4.826605E-5	20.755335
2233.618638	-2.989000	3.237300	-9.675300	27.614934	4.793602E-5	20.753410
2234.621890	-3.004300	3.234900	-9.717900	27.646506	4.767200E-5	20.738711
2235.617327	-2.993200	3.235500	-9.683600	27.673318	4.829905E-5	20.749569
2236.620094	-3.006100	3.232300	-9.716100	27.699877	4.724297E-5	20.734047
2237.619678	-3.003200	3.232400	-9.706800	27.721800	4.958614E-5	20.750468
2238.624104	-2.981300	3.233700	-9.639600	27.691323	4.800203E-5	20.729754
2239.626610	-2.993400	3.233000	-9.677400	27.731498	4.664893E-5	20.740786
2240.622307	-2.992800	3.233800	-9.677500	27.737970	4.734198E-5	20.759153
2241.625175	-3.004800	3.231300	-9.708500	27.762598	4.552685E-5	20.761652
2242.626720	-3.006500	3.231100	-9.713100	27.755752	4.750699E-5	20.754763
2243.620747	-3.005400	3.230000	-9.706400	27.756620	4.612089E-5	20.766067
2244.629125	-3.006800	3.230900	-9.714200	27.667591	4.552685E-5	20.759454
2245.626327	-3.025600	3.231500	-9.775900	27.667194	4.506481E-5	20.739614
2246.622579	-3.012300	3.228500	-9.723900	27.646189	4.470179E-5	20.730806
2247.624038	-3.013400	3.229100	-9.729800	27.700350	4.410774E-5	20.743107
2248.625630	-3.017000	3.229100	-9.741000	27.758829	4.400873E-5	20.747901
2249.622723	-2.987100	3.228400	-9.642500	27.818341	4.618689E-5	20.733824
2250.630731	-3.030900	3.227400	-9.780900	27.864736	4.526283E-5	20.753491
2251.630330	-2.986800	3.227100	-9.638200	27.876065	4.417375E-5	20.746401
2252.622887	-2.997900	3.226900	-9.673000	27.897342	4.460278E-5	20.738418
2253.631558	-2.982500	3.227300	-9.624600	27.841972	4.235861E-5	20.742434
2254.629570	-3.004900	3.227000	-9.696100	27.754167	4.575786E-5	20.751270
2255.632381	-3.002500	3.224900	-9.681700	27.779734	4.496580E-5	20.757086
2256.628838	-3.005400	3.225900	-9.694600	27.825163	4.466878E-5	20.769141
2257.628599	-3.015600	3.225100	-9.724800	27.886631	4.410774E-5	20.760829
2258.627519	-2.993400	3.225500	-9.654100	27.909713	4.159956E-5	20.724315
2259.628512	-2.997300	3.223400	-9.660800	27.906146	4.374472E-5	20.743011
2260.629254	-2.993700	3.224200	-9.651100	27.927318	4.348070E-5	20.748200
2261.632661	-2.976500	3.223600	-9.594000	27.884126	4.232561E-5	20.737918
2262.631189	-3.003800	3.221900	-9.677300	27.805448	4.150055E-5	20.759256
2263.635619	-2.971900	3.223200	-9.577800	27.788364	4.140154E-5	20.741115
2264.635816	-3.012900	3.222400	-9.707800	27.742166	4.179757E-5	20.745357
2265.630922	-2.989600	3.221900	-9.631900	27.757914	4.130254E-5	20.752196
2266.630060	-3.016400	3.222300	-9.718200	27.700679	4.126953E-5	20.736325
2267.636652	-3.004300	3.224500	-9.685600	27.724114	4.021346E-5	20.763228
2268.630972	-3.018200	3.218500	-9.713500	27.771552	4.097251E-5	20.735575
2269.630773	-3.017300	3.222100	-9.721100	27.803120	4.034547E-5	20.756439
2270.632503	-2.989000	3.219600	-9.622900	27.850532	3.915738E-5	20.752472
2271.630062	-3.013300	3.217700	-9.695000	27.894024	3.849733E-5	20.750726
2272.630372	-3.014500	3.217600	-9.698700	27.916859	3.978442E-5	20.754743
2273.633371	-2.995700	3.219500	-9.643400	27.871336	3.981743E-5	20.751599
2274.629907	-3.010000	3.216400	-9.680700	27.848969	3.658319E-5	20.751373
2275.632033	-3.000800	3.217700	-9.654800	27.822389	3.935539E-5	20.747382
2276.635138	-2.978000	3.217800	-9.581400	27.758138	3.826631E-5	20.740568
2277.633596	-2.994600	3.215600	-9.628600	27.729000	4.021346E-5	20.742540
2278.637239	-2.992100	3.216300	-9.622200	27.740730	3.912438E-5	20.747705
2279.634408	-2.988900	3.214700	-9.607800	27.794614	3.777128E-5	20.736498
2280.634140	-3.000100	3.215000	-9.644600	27.852195	3.724324E-5	20.763155
2281.632506	-2.993100	3.215900	-9.624600	27.875277	3.846433E-5	20.756040
2282.639791	-3.017200	3.213000	-9.693000	27.900345	3.886036E-5	20.755192
2283.634865	-3.013400	3.214100	-9.684700	27.953085	3.856333E-5	20.767023
2284.633239	-3.022100	3.212500	-9.707800	28.003886	3.829932E-5	20.738972
2285.639577	-2.995800	3.213000	-9.624000	28.004035	3.876135E-5	20.749554
2286.636045	-3.012600	3.212700	-9.678000	28.015141	3.681421E-5	20.752199
2287.631923	-3.004000	3.210300	-9.642900	28.005720	3.671520E-5	20.738922
2288.636716	-3.008300	3.212400	-9.663400	28.051040	3.773827E-5	20.751351
2289.635788	-3.016100	3.210900	-9.683100	28.067798	3.552711E-5	20.744037
2290.635706	-3.012600	3.210100	-9.670200	28.062048	3.542810E-5	20.762432
2291.642558	-3.012700	3.207800	-9.662800	28.072112	3.767227E-5	20.764976
2292.641165	-2.989800	3.209700	-9.595500	27.949638	3.575813E-5	20.748854
2293.642734	-3.008000	3.209200	-9.652700	27.914927	3.532910E-5	20.748057
2294.636549	-3.020100	3.208300	-9.688200	27.887653	3.430602E-5	20.744788
2295.637279	-3.019600	3.207600	-9.684400	27.924474	3.354697E-5	20.751501
2296.642880	-3.007600	3.207800	-9.646500	27.931859	3.519709E-5	20.778850
2297.639166	-3.006100	3.206600	-9.637300	27.930645	3.278791E-5	20.752497
2298.647357	-2.999500	3.206600	-9.617700	27.958788	3.493307E-5	20.749055
2299.635567	-3.003300	3.206700	-9.629600	27.945299	3.410801E-5	20.750651
2300.635298	-2.959200	3.206700	-9.487900	27.890206	3.400900E-5	20.741667
2301.645538	-3.032100	3.205100	-9.716500	27.880016	3.331595E-5	20.759861
2302.648184	-2.987200	3.205300	-9.574300	27.934242	3.268890E-5	20.748531
2303.640662	-2.987000	3.204400	-9.570900	28.012487	3.338195E-5	20.755691
2304.642309	-2.988300	3.203900	-9.573600	28.057288	3.390999E-5	20.762856
2305.640536	-2.995700	3.202700	-9.593600	28.078360	3.381099E-5	20.771266
2306.641293	-3.017400	3.203400	-9.665400	27.994290	3.074176E-5	20.760608
2307.641796	-3.024600	3.200700	-9.680200	27.964020	3.090677E-5	20.756692
2308.639294	-3.017100	3.201100	-9.657200	28.001161	3.216086E-5	20.764680
2309.641377	-3.008000	3.199500	-9.622900	28.041051	3.239188E-5	20.761685
2310.642091	-3.027000	3.199100	-9.683000	27.955742	2.866261E-5	20.772543
2311.637525	-2.991000	3.200500	-9.571600	27.957948	3.041174E-5	20.756271
2312.640988	-2.997800	3.199100	-9.589700	27.920757	2.968568E-5	20.755822
2313.638360	-3.005400	3.199800	-9.615400	27.894401	2.994970E-5	20.779555
2314.641520	-3.004500	3.197800	-9.606900	27.880193	2.872861E-5	20.760513
2315.648335	-3.004500	3.197500	-9.605700	27.868714	3.196285E-5	20.736631
2316.645740	-3.007500	3.197600	-9.615600	27.910072	2.701249E-5	20.767352
2317.640624	-3.024200	3.196700	-9.666300	27.979221	2.803556E-5	20.781477
2318.644619	-2.986100	3.195700	-9.540700	27.983411	2.928965E-5	20.787591
2319.639583	-3.004800	3.196000	-9.602200	27.986262	2.655045E-5	20.763433
2320.647882	-3.022600	3.193500	-9.652300	27.977686	2.902563E-5	20.778509
2321.643902	-3.001600	3.194400	-9.586700	27.966255	2.767254E-5	20.777909
2322.643147	-3.015900	3.192200	-9.625200	27.992311	2.688048E-5	20.781850
2323.646151	-3.011600	3.195200	-9.621400	27.909773	2.803556E-5	20.777009
2324.648811	-2.997000	3.194400	-9.572800	27.909052	2.886062E-5	20.762533
2325.642235	-2.976700	3.192400	-9.502100	27.939551	2.605542E-5	20.760987
2326.645357	-2.997100	3.194600	-9.573800	27.979861	2.704549E-5	20.774535
2327.640703	-2.985300	3.191400	-9.525900	27.973840	2.635244E-5	20.774164
2328.644811	-3.002300	3.191300	-9.578900	27.946268	2.681447E-5	20.783396
2329.642672	-2.978300	3.190300	-9.501200	27.941557	3.027973E-5	20.772490
2330.645207	-3.020300	3.189100	-9.631300	27.964665	2.833258E-5	20.786740
2331.643438	-3.021300	3.189400	-9.634800	27.972202	2.912464E-5	20.770619
2332.644798	-2.996800	3.188800	-9.555300	27.949541	2.711149E-5	20.786690
2333.647282	-2.995200	3.187800	-9.546400	27.981422	2.777154E-5	20.803132
2334.651128	-2.992800	3.186800	-9.536800	27.996747	2.664946E-5	20.778730
2335.648973	-2.969700	3.187100	-9.463600	28.011741	2.684747E-5	20.776753
2336.647159	-2.992800	3.186900	-9.537500	28.050120	2.648445E-5	20.776030
2337.652722	-2.983400	3.187100	-9.506800	28.074960	2.790355E-5	20.767844
2338.650217	-3.000300	3.186400	-9.558800	28.066878	2.582440E-5	20.781519
2339.649299	-3.015200	3.183600	-9.598400	28.017591	2.529636E-5	20.767467
2340.648271	-3.026300	3.184400	-9.636100	28.006856	2.641844E-5	20.788905
2341.650495	-3.004100	3.183500	-9.562600	27.999394	2.592341E-5	20.794670
2342.652854	-3.007900	3.182300	-9.570600	27.958733	2.499934E-5	20.782666
2343.649842	-3.004900	3.182600	-9.562600	27.905500	2.466931E-5	20.767018
2344.648651	-3.007000	3.181400	-9.565900	27.952063	2.727651E-5	20.783539
2345.650596	-3.015800	3.181700	-9.594100	27.943983	2.394326E-5	20.770190
2346.661933	-3.012900	3.179900	-9.579400	27.967040	2.681447E-5	20.786286
2347.646920	-3.021400	3.179700	-9.605800	27.970634	2.542837E-5	20.806973
2348.652403	-3.008000	3.180000	-9.565300	28.002941	2.466931E-5	20.784015
2349.651627	-3.005600	3.180000	-9.556100	28.013005	2.348123E-5	20.797465
2350.652260	-2.997600	3.178300	-9.526000	28.012781	2.582440E-5	20.811938
2351.656490	-2.986700	3.177600	-9.489300	28.028328	2.668246E-5	20.805302
2352.653742	-2.975500	3.176800	-9.452000	28.061649	2.473532E-5	20.787636
2353.653661	-3.010400	3.175400	-9.558700	28.079199	2.358023E-5	20.771163
2354.651099	-2.995800	3.176200	-9.514000	28.047516	2.351423E-5	20.804703
2355.656286	-3.007700	3.175500	-9.550100	28.016180	2.391026E-5	20.787859
2356.653517	-3.046900	3.173700	-9.669100	28.036734	2.424028E-5	20.796221
2357.657732	-3.014800	3.174700	-9.569400	28.030932	2.136907E-5	20.782794
2358.653259	-2.985200	3.173600	-9.473200	28.068712	2.433929E-5	20.790004
2359.650655	-3.001100	3.173000	-9.521800	28.117252	2.348123E-5	20.794771
2360.654646	-3.017700	3.172600	-9.573400	28.128581	2.519735E-5	20.788157
2361.654082	-2.981400	3.172100	-9.456700	28.092612	2.331622E-5	20.806476
2362.654134	-3.000000	3.171400	-9.513500	28.121394	2.318421E-5	20.805578
2363.658713	-2.966800	3.171800	-9.408500	28.127218	2.341522E-5	20.806225
2364.654345	-3.006800	3.168800	-9.527000	28.109170	2.305220E-5	20.814135
2365.662886	-3.002200	3.168500	-9.511400	28.130589	2.179810E-5	20.798240
2366.659084	-3.019600	3.169300	-9.569000	28.076475	2.222714E-5	20.821526
2367.658625	-3.008800	3.168300	-9.532100	28.000070	2.100605E-5	20.812420
2368.657458	-3.013300	3.167100	-9.542200	27.990325	2.113806E-5	20.810197
2369.659500	-2.984800	3.167400	-9.452400	27.937440	2.156709E-5	20.812916
2370.659880	-2.981300	3.165900	-9.437300	27.949813	1.991697E-5	20.821576
2371.660553	-2.990900	3.164900	-9.464900	27.993497	2.219413E-5	20.811494
2372.672999	-2.989900	3.164900	-9.462000	28.093363	2.044500E-5	20.792533
2373.659637	-3.000400	3.162800	-9.488700	28.135698	1.932292E-5	20.815237
2374.661117	-3.019700	3.162700	-9.549700	28.183417	2.090704E-5	20.804008
2375.663620	-3.001700	3.162600	-9.492300	28.229672	1.859687E-5	20.822126
2376.665298	-3.000700	3.163000	-9.489600	28.225112	2.193011E-5	20.799043
2377.667306	-3.002700	3.160500	-9.489200	28.260286	1.909190E-5	20.814068
2378.660252	-2.981400	3.160400	-9.420600	28.300489	2.061002E-5	20.802390
2379.662870	-3.011100	3.158700	-9.509600	28.277511	1.988396E-5	20.806281
2380.662679	-3.016400	3.158900	-9.527600	28.212024	2.133607E-5	20.818583
2381.665781	-3.002400	3.157200	-9.477900	28.181857	1.945493E-5	20.810498
2382.665457	-3.010700	3.157700	-9.506300	28.193285	2.044500E-5	20.834805
2383.663795	-2.994300	3.155900	-9.448800	28.280436	1.697975E-5	20.828666
2384.666134	-3.010200	3.156200	-9.500700	28.245786	2.008198E-5	20.797099
2385.661881	-2.997300	3.154500	-9.453500	28.297514	1.948793E-5	20.807929
2386.662457	-3.005900	3.153700	-9.478300	28.241772	1.770580E-5	20.817239
2387.667015	-3.004200	3.154100	-9.474900	28.209498	1.922391E-5	20.846859
2388.665143	-3.000900	3.152000	-9.457800	28.128735	1.892689E-5	20.819607
2389.663518	-2.976500	3.152400	-9.382300	28.085951	1.730977E-5	20.811624
2390.664814	-2.996800	3.151500	-9.444100	28.094230	1.876188E-5	20.843191
2391.666438	-3.006900	3.150300	-9.471300	28.105933	1.618769E-5	20.816567
2392.669559	-2.985200	3.151400	-9.405300	28.070160	1.859687E-5	20.816592
2393.671269	-3.013500	3.148900	-9.488400	28.098100	1.721077E-5	20.841872
2394.668082	-3.010300	3.149400	-9.479600	28.127751	1.664973E-5	20.819090
2395.670458	-3.000200	3.149400	-9.448500	28.167364	1.849786E-5	20.827675
2396.667999	-3.027100	3.145200	-9.520400	28.218127	1.664973E-5	20.824727
2397.667286	-3.025300	3.145100	-9.514000	28.279378	1.688074E-5	20.826177
2398.668091	-2.992500	3.145600	-9.412100	28.321118	1.737578E-5	20.824582
2399.669053	-2.992400	3.143700	-9.406000	28.334007	1.628670E-5	20.830921
2400.667127	-3.030600	3.143800	-9.526200	28.333686	1.585767E-5	20.840555
2401.667318	-3.000900	3.143500	-9.433400	28.252512	1.272244E-5	20.829000
2402.664866	-3.010300	3.142200	-9.458000	28.245350	1.331648E-5	20.821790
2403.672236	-2.999300	3.142800	-9.425300	28.267681	1.381152E-5	20.831471
2404.672362	-3.002400	3.141000	-9.429900	28.239203	1.301946E-5	20.823187
2405.670098	-3.015700	3.139100	-9.466200	28.254744	1.381152E-5	20.831722
2406.670176	-3.009200	3.139100	-9.444300	28.325608	1.457057E-5	20.820568
2407.672643	-2.996300	3.139300	-9.405500	28.383725	1.311847E-5	20.833094
2408.669337	-3.011700	3.138500	-9.451500	28.406402	1.536263E-5	20.814678
2409.674946	-3.021400	3.137000	-9.477400	28.394954	1.377851E-5	20.840607
2410.676431	-3.034500	3.135500	-9.513500	28.321965	1.196338E-5	20.838237
2411.670151	-2.980200	3.135400	-9.343200	28.338547	1.150135E-5	20.859199
2412.672503	-3.003200	3.134900	-9.414000	28.384024	1.364650E-5	20.834343
2413.679580	-3.001100	3.133300	-9.402400	28.433865	1.074229E-5	20.841857
2414.677910	-3.015000	3.133100	-9.445100	28.466329	1.127033E-5	20.851789
2415.683698	-3.029000	3.131500	-9.484200	28.417806	1.242541E-5	20.848445
2416.677655	-2.996500	3.131600	-9.383000	28.424126	1.123733E-5	20.852438
2417.682057	-3.017700	3.130900	-9.446600	28.388957	1.077529E-5	20.859224
2418.678512	-2.988500	3.129800	-9.352700	28.367817	1.216140E-5	20.870179
2419.676309	-2.999000	3.129300	-9.382700	28.359987	1.176537E-5	20.849967
2420.675786	-3.017100	3.127700	-9.435800	28.343256	1.255742E-5	20.845923
2421.681388	-3.005400	3.127400	-9.397700	28.315993	1.212839E-5	20.851663
2422.675339	-3.029600	3.126300	-9.470300	28.364668	1.037926E-5	20.868905
2423.683381	-3.015500	3.124900	-9.421300	28.361970	1.011524E-5	20.848645
2424.680852	-3.008900	3.124500	-9.400000	28.449304	1.272244E-5	20.859773
2425.682510	-2.995600	3.123300	-9.355500	28.396071	9.686213E-6	20.835568
2426.684883	-2.998200	3.123300	-9.363700	28.412551	1.031326E-5	20.857378
2427.686604	-2.980700	3.121700	-9.303700	28.443875	1.037926E-5	20.850988
2428.677829	-2.992200	3.120800	-9.337600	28.446229	1.107231E-5	20.863790
2429.679379	-3.004700	3.121700	-9.378900	28.459735	8.729143E-6	20.849415
2430.678630	-3.003300	3.119000	-9.366300	28.452968	9.950232E-6	20.851136
2431.683462	-2.993700	3.118400	-9.333400	28.445014	7.739070E-6	20.847393
2432.684397	-2.995600	3.117900	-9.338600	28.486745	7.475050E-6	20.870924
2433.683962	-2.994800	3.116500	-9.332700	28.468307	9.983235E-6	20.871797
2434.685327	-3.007800	3.117200	-9.374900	28.466349	1.008224E-5	20.874092
2435.684413	-3.027900	3.114500	-9.429300	28.434580	8.069094E-6	20.881455
2436.682116	-3.007800	3.113900	-9.364300	28.346921	8.102096E-6	20.851984
2437.682672	-3.016200	3.113500	-9.389400	28.382088	8.993162E-6	20.865583
2438.694126	-3.032300	3.110800	-9.431800	28.391805	8.300111E-6	20.844549
2439.701028	-3.006200	3.109600	-9.346800	28.465009	1.011524E-5	20.869424
2440.689070	-3.009700	3.110000	-9.360200	28.452099	1.011524E-5	20.862588
2441.687546	-3.010100	3.109400	-9.359100	28.432816	6.980014E-6	20.865929
2442.693183	-2.998000	3.107800	-9.316200	28.484216	9.125172E-6	20.849413
2443.682957	-2.997200	3.108300	-9.316300	28.490335	7.343041E-6	20.879280
2444.687406	-3.005300	3.106400	-9.334300	28.453683	7.937084E-6	20.864658
2445.686884	-2.997400	3.106700	-9.311200	28.392567	8.234106E-6	20.885143
2446.689011	-3.026500	3.102900	-9.390200	28.411948	7.937084E-6	20.866727
2447.687850	-3.016300	3.103100	-9.358700	28.398166	8.894155E-6	20.870392
2448.683844	-3.007000	3.102900	-9.329400	28.395290	7.607060E-6	20.868920
2449.693306	-3.003900	3.100600	-9.313500	28.394077	8.168101E-6	20.866750
2450.685335	-3.020500	3.099400	-9.360600	28.417920	7.442048E-6	20.894075
2451.688924	-2.981200	3.100800	-9.243600	28.461832	7.937084E-6	20.887087
2452.684921	-2.976500	3.099100	-9.223400	28.512459	7.343041E-6	20.887335
2453.690732	-2.978000	3.097600	-9.224600	28.565487	6.616987E-6	20.903753
2454.697642	-2.976700	3.098000	-9.220500	28.623790	7.475050E-6	20.863852
2455.687085	-3.002300	3.095600	-9.292900	28.698368	5.659917E-6	20.885860
2456.694268	-2.995400	3.095800	-9.272400	28.760629	6.649990E-6	20.888356
2457.687761	-2.999900	3.094000	-9.280300	28.703274	6.187956E-6	20.861880
2458.685583	-2.986400	3.093600	-9.238400	28.635854	6.815002E-6	20.892595
2459.688686	-3.005900	3.091800	-9.293100	28.580575	4.240812E-6	20.887656
2460.688176	-2.989200	3.090200	-9.236600	28.603818	6.088948E-6	20.890676
2461.687290	-2.988700	3.089800	-9.233500	28.642544	7.145026E-6	20.907393
2462.696136	-3.005100	3.087700	-9.276700	28.582184	5.989941E-6	20.898285
2463.691089	-3.003500	3.087600	-9.273000	28.571926	6.187956E-6	20.882739
2464.689371	-2.985500	3.086100	-9.212000	28.599404	5.032870E-6	20.886705
2465.692693	-3.007500	3.085000	-9.277400	28.633868	9.422193E-6	20.871631
2466.690084	-2.999400	3.083200	-9.247100	28.652527	5.461902E-6	20.888052
2467.689649	-3.002800	3.082600	-9.255600	28.649899	6.451975E-6	20.903896
2468.690558	-3.011300	3.080600	-9.275700	28.656490	4.669844E-6	20.885406
2469.688885	-2.981600	3.081700	-9.187900	28.661519	7.112024E-6	20.880040
2470.694695	-2.990200	3.079000	-9.205900	28.667069	7.013016E-6	20.888000
2471.690513	-2.992400	3.079800	-9.215500	28.703267	5.923936E-6	20.895535
2472.688902	-2.995900	3.077000	-9.218000	28.664122	4.537834E-6	20.908264
2473.695917	-3.018300	3.075600	-9.282500	28.627402	4.537834E-6	20.884558
2474.690062	-3.030900	3.074500	-9.317500	28.544592	5.494905E-6	20.881763
2475.690047	-3.015700	3.074300	-9.270000	28.548978	4.900861E-6	20.906094
2476.692646	-3.003700	3.074000	-9.232300	28.572740	7.739070E-6	20.889249
2477.696896	-3.013900	3.071200	-9.255100	28.572095	6.418973E-6	20.900452
2478.689030	-3.005000	3.071300	-9.228100	28.560103	6.682992E-6	20.904496
2479.687466	-3.031800	3.068600	-9.302700	28.527171	4.141805E-6	20.890297
2480.693905	-3.031100	3.067300	-9.296600	28.573734	4.471829E-6	20.885509
2481.691070	-3.022500	3.066400	-9.267700	28.571353	6.319965E-6	20.912031
2482.692706	-2.981700	3.067800	-9.146200	28.562978	6.187956E-6	20.902649
2483.694328	-3.003800	3.064200	-9.202700	28.576310	6.352968E-6	20.912756
2484.691724	-2.991800	3.064200	-9.166600	28.607086	4.009795E-6	20.898234
2485.690737	-2.979900	3.064000	-9.128700	28.714345	4.537834E-6	20.911908
2486.694602	-3.008800	3.061300	-9.209400	28.739394	3.976793E-6	20.914853
2487.691855	-3.006000	3.059700	-9.196700	28.778513	3.217737E-6	20.902577
2488.702689	-2.981400	3.060000	-9.121800	28.777174	2.392676E-6	20.888900
2489.706294	-2.989700	3.058300	-9.142600	28.813719	3.349747E-6	20.915754
2490.692450	-2.969100	3.057400	-9.075700	28.776830	3.349747E-6	20.903252
2491.698091	-3.016400	3.055000	-9.213700	28.803411	5.131878E-6	20.901104
2492.703214	-3.016300	3.054500	-9.212500	28.766175	3.184734E-6	20.912433
2493.708334	-3.017200	3.053300	-9.211800	28.745464	5.527907E-6	20.904373
2494.703036	-3.004400	3.053000	-9.171800	28.719698	4.867858E-6	20.919670
2495.702281	-2.989400	3.051700	-9.121800	28.737636	3.910788E-6	20.916401
2496.702175	-3.009500	3.051300	-9.182400	28.712166	3.151732E-6	20.918721
2497.695366	-3.005100	3.048400	-9.160400	28.709145	4.537834E-6	20.918049
2498.697782	-2.987400	3.048400	-9.106200	28.673193	3.580764E-6	20.933993
2499.697308	-2.989100	3.047600	-9.108400	28.686449	1.171586E-6	20.918423
2500.695910	-3.011400	3.045400	-9.170200	28.690243	3.646768E-6	20.919873
2501.700254	-2.986800	3.043500	-9.089600	28.712318	2.887713E-6	20.930253
2502.703947	-2.990100	3.042500	-9.096700	28.697700	2.425679E-6	20.937339
2503.708561	-2.996100	3.042100	-9.113900	28.714054	1.039577E-6	20.951913
2504.702609	-3.031500	3.040000	-9.214800	28.767914	3.547761E-6	20.917977
2505.700289	-3.041400	3.039300	-9.243000	28.721857	2.491683E-6	20.928008
2506.705827	-3.002700	3.037100	-9.119100	28.665318	3.514759E-6	20.928906
2507.703987	-2.999600	3.036200	-9.106100	28.676123	1.468608E-6	20.929358
2508.696479	-3.017800	3.035900	-9.161000	28.662717	2.194662E-6	20.923443
2509.697377	-3.002800	3.034600	-9.111600	28.612619	8.085595E-7	20.916607
2510.701846	-3.000700	3.032700	-9.099700	28.667475	2.359674E-6	20.920648
2511.702241	-3.010700	3.029900	-9.121600	28.762985	2.755703E-6	20.928658
2512.698668	-2.999400	3.030300	-9.088100	28.850286	2.359674E-6	20.936941
2513.699815	-2.994100	3.029900	-9.071100	28.861111	1.435606E-6	20.932674
2514.702965	-2.987400	3.027900	-9.044300	28.823977	8.745644E-7	20.916130
2515.706374	-2.992500	3.026100	-9.055100	28.799797	6.765498E-7	20.907421
2516.706698	-2.997600	3.025000	-9.066800	28.721284	-4.950365E-8	20.918423
2517.708853	-2.988500	3.024000	-9.036600	28.716231	1.485109E-7	20.921393
2518.699244	-3.011400	3.022700	-9.101800	28.703376	2.986720E-6	20.918403
2519.704021	-2.986600	3.021000	-9.021600	28.742990	2.161659E-6	20.924165
2520.706911	-2.979700	3.020100	-8.998100	28.693635	2.557688E-6	20.900532
2521.709155	-2.990500	3.018600	-9.026300	28.665883	7.095522E-7	20.919045
2522.714718	-2.984500	3.017000	-9.003400	28.656966	1.897640E-6	20.921443
2523.706231	-3.003600	3.016000	-9.058200	28.687219	1.897640E-6	20.912087
2524.709351	-2.977800	3.015600	-8.979000	28.693389	7.755571E-7	20.920671
2525.707687	-3.008100	3.012600	-9.061100	28.695122	2.557688E-6	20.878324
2526.710855	-2.996700	3.010700	-9.021700	28.730179	2.805207E-7	20.906520
2527.715006	-2.994100	3.010500	-9.013100	28.769916	1.369601E-6	20.907192
2528.710714	-2.998600	3.009900	-9.024200	28.845674	8.415620E-7	20.889625
2529.704035	-3.000500	3.006700	-9.021000	28.886425	1.006574E-6	20.911236
2530.705396	-2.992700	3.005500	-8.993500	28.949639	3.465255E-7	20.892420
2531.705387	-3.005500	3.004100	-9.028000	28.962000	8.745644E-7	20.912458
2532.719141	-2.978600	3.004200	-8.947200	28.978494	7.095522E-7	20.901576
2533.709250	-3.001100	3.003800	-9.013500	29.043391	1.171586E-6	20.890624
2534.706330	-3.010400	3.000700	-9.031700	29.052033	1.402603E-6	20.895538
2535.704406	-3.039800	2.999300	-9.116400	29.092453	1.237591E-6	20.895013
2536.719932	-2.999200	2.998600	-8.992800	29.035859	-5.115377E-7	20.899629
2537.711078	-3.018700	2.996100	-9.043400	29.008442	-1.650122E-8	20.877697
2538.702289	-2.976400	2.997300	-8.920600	28.944534	-5.775425E-7	20.902923
2539.702282	-3.008300	2.994600	-9.007900	28.900565	1.402603E-6	20.888499
2540.712118	-3.018800	2.992100	-9.031400	28.952707	1.815134E-7	20.888873
2541.712132	-2.988200	2.992400	-8.939700	29.021616	1.138584E-6	20.886703
2542.708756	-2.992000	2.990100	-8.945600	29.047250	1.369601E-6	20.883133
2543.714394	-3.004100	2.987300	-8.972200	29.085392	-1.105581E-6	20.880787
2544.716483	-3.005500	2.987000	-8.975700	29.038804	1.369601E-6	20.893589
2545.716396	-2.984800	2.985700	-8.910000	29.007919	5.445401E-7	20.881911
2546.721096	-3.014600	2.982900	-8.991500	28.983024	-8.085595E-7	20.902820
2547.708592	-3.004700	2.981800	-8.958100	28.937569	1.105581E-6	20.890217
2548.706353	-3.018500	2.980000	-8.994600	28.982451	1.732628E-6	20.883753
2549.708742	-3.023700	2.978600	-9.005100	29.017921	-5.115377E-7	20.886299
2550.708932	-2.998300	2.978600	-8.929500	29.024659	-5.775425E-7	20.892139
2551.706401	-3.015000	2.976700	-8.974000	28.993375	1.485109E-7	20.888120
2552.719156	-3.020400	2.975300	-8.985500	28.948073	-4.455328E-7	20.886101
2553.714971	-3.000400	2.973900	-8.922500	28.971007	1.468608E-6	20.884550
2554.704877	-3.019700	2.971000	-8.971100	28.977077	1.485109E-7	20.872175
2555.716930	-2.994300	2.970100	-8.892700	29.002563	9.405693E-7	20.884101
2556.713629	-2.968300	2.970600	-8.816900	28.984956	1.105581E-6	20.884380
2557.714455	-2.999500	2.967700	-8.899400	28.991888	-1.666623E-6	20.903216
2558.714639	-2.986000	2.966500	-8.857000	28.940490	-1.105581E-6	20.878936
2559.710038	-2.980300	2.964300	-8.833600	28.895629	-7.755571E-7	20.881630
2560.709184	-2.990100	2.962900	-8.857900	28.900931	-1.485109E-7	20.892660
2561.711767	-3.015600	2.961000	-8.928600	28.953469	2.095654E-6	20.879684
2562.711731	-3.010000	2.960400	-8.909800	29.021933	2.145158E-7	20.873272
2563.720758	-3.004300	2.959100	-8.888600	29.070774	6.105450E-7	20.890714
2564.712236	-3.013900	2.957800	-8.914000	29.102106	-7.755571E-7	20.870128
2565.718442	-3.011200	2.953800	-8.892800	29.099011	-6.435474E-7	20.875070
2566.726572	-3.002200	2.953100	-8.864600	29.108221	-1.650122E-8	20.872022
2567.710770	-2.980800	2.952800	-8.800100	29.025401	-4.950365E-8	20.881981
2568.718520	-2.962400	2.951500	-8.742600	28.985695	2.062652E-6	20.859996
2569.714765	-2.976700	2.950200	-8.780200	29.027582	6.435474E-7	20.877067
2570.708777	-2.979000	2.948700	-8.782800	29.047098	-2.805207E-7	20.871601
2571.714790	-2.991400	2.946200	-8.812500	29.085686	4.950364E-8	20.881558
2572.724886	-3.019300	2.944000	-8.888000	29.084969	-3.465255E-7	20.875620
2573.718918	-2.989200	2.943500	-8.797000	29.072042	2.145158E-7	20.877767
2574.715553	-3.003900	2.942300	-8.837300	29.030060	2.557688E-6	20.876719
2575.720263	-2.985100	2.940800	-8.777800	29.040512	-1.501611E-6	20.873500
2576.726924	-2.979800	2.939000	-8.756300	29.034198	-6.765498E-7	20.882784
2577.716799	-3.024500	2.935800	-8.877700	29.005392	-5.445401E-7	20.868934
2578.733065	-3.025200	2.933400	-8.872600	29.005217	1.650122E-8	20.859276
2579.712377	-2.995100	2.934500	-8.788700	29.034024	-2.062652E-6	20.854635
2580.717995	-3.017700	2.931500	-8.846000	29.021464	6.765498E-7	20.856206
2581.713983	-3.006800	2.929500	-8.806800	29.026569	-1.897640E-6	20.857081
2582.721881	-3.018700	2.928400	-8.838200	29.028205	-1.930642E-6	20.877220
2583.716602	-2.995200	2.926800	-8.765700	29.007199	-1.897640E-6	20.866963
2584.716937	-2.997400	2.926000	-8.769400	29.068108	-1.650122E-8	20.857209
2585.719320	-3.031500	2.923500	-8.860800	29.106668	3.795279E-7	20.882784
2586.719902	-3.023700	2.921800	-8.833900	29.142975	-2.128657E-6	20.879541
2587.719548	-3.029900	2.920300	-8.847200	29.109790	-1.171586E-6	20.868388
2588.718823	-3.001700	2.918900	-8.760600	29.087526	6.435474E-7	20.857335
2589.714479	-3.010400	2.917300	-8.781600	29.068357	-1.435606E-6	20.871210
2590.718550	-2.999300	2.914600	-8.740500	29.009408	3.465255E-7	20.859231
2591.718056	-3.010800	2.913200	-8.770100	29.007254	-8.085595E-7	20.873182
2592.720763	-2.971900	2.911700	-8.652400	29.001756	-2.194662E-6	20.858634
2593.715205	-2.996900	2.909800	-8.719400	29.033882	-1.336598E-6	20.861130
2594.719630	-3.016300	2.908100	-8.771100	29.060135	1.155085E-7	20.864349
2595.719924	-2.982200	2.906500	-8.666900	29.092456	-1.039577E-6	20.875577
2596.714970	-2.982000	2.904800	-8.660800	29.112889	-1.666623E-6	20.849227
2597.723422	-3.018600	2.902500	-8.760600	29.092010	3.465255E-7	20.875602
2598.717435	-3.007600	2.900900	-8.724600	29.069746	-1.963645E-6	20.869291
2599.720675	-2.989100	2.899300	-8.666100	28.991826	-6.435474E-7	20.865224
2600.719353	-2.989300	2.899600	-8.666700	29.006711	-1.006574E-6	20.891599
2601.720547	-3.027000	2.894900	-8.761400	29.032647	1.650122E-8	20.855619
2602.718854	-2.999300	2.893000	-8.675900	28.999182	-1.303596E-6	20.850351
2603.727029	-2.990500	2.891900	-8.647800	29.056323	-2.260666E-6	20.870465
2604.719004	-2.987900	2.889800	-8.633400	29.123466	-2.475182E-7	20.855616
2605.722393	-3.040200	2.888400	-8.780300	29.197590	-9.075668E-7	20.853022
2606.720639	-2.980400	2.887400	-8.603500	29.194199	-1.435606E-6	20.864778
2607.732248	-2.987300	2.884800	-8.616800	29.133026	-1.204589E-6	20.867146
2608.720540	-2.992100	2.884100	-8.628700	29.172652	-2.557688E-6	20.863927
2609.721373	-3.016500	2.880300	-8.688100	29.200958	-2.062652E-6	20.863529
2610.724870	-3.007500	2.878800	-8.657400	29.186001	-1.402603E-6	20.869318
2611.717519	-3.035400	2.875900	-8.728700	29.163739	-2.722700E-6	20.863481
2612.727569	-2.987000	2.876000	-8.589500	29.191329	-2.161659E-6	20.852403
2613.722640	-3.007000	2.873000	-8.637400	29.296943	-1.039577E-6	20.846937
2614.721881	-3.000300	2.870700	-8.611400	29.346019	-3.795279E-7	20.865101
2615.720291	-3.012300	2.869200	-8.642000	29.300679	-1.204589E-6	20.869667
2616.724582	-3.002500	2.867500	-8.608500	29.210296	-1.798632E-6	20.867249
2617.724473	-2.985600	2.866200	-8.556300	29.146847	-2.425679E-6	20.859736
2618.725584	-3.010900	2.863600	-8.621300	29.164926	-2.524686E-6	20.884116
2619.732355	-2.961300	2.862000	-8.474900	29.168146	-1.501611E-6	20.867921
2620.728958	-2.991900	2.860100	-8.555400	29.155663	-2.095654E-6	20.856765
2621.729355	-3.032800	2.857300	-8.664800	29.178968	-7.425547E-7	20.852275
2622.731927	-3.001100	2.856000	-8.569800	29.212821	-9.405693E-7	20.858888
2623.732353	-2.984600	2.854400	-8.517800	29.253879	-4.042798E-6	20.861858
2624.731736	-3.001900	2.851600	-8.559600	29.246205	-1.897640E-6	20.868348
2625.736629	-3.010700	2.850800	-8.582600	29.278716	-2.986720E-6	20.853223
2626.731544	-3.016200	2.846600	-8.584700	29.201257	-2.194662E-6	20.851976
2627.727587	-3.011100	2.845000	-8.565900	29.160794	-7.095522E-7	20.844867
2628.731093	-2.998500	2.843800	-8.526700	29.154400	-8.085595E-7	20.847433
2629.730779	-3.014900	2.841300	-8.565800	29.201678	-1.039577E-6	20.848133
2630.727005	-3.025300	2.838700	-8.587000	29.269331	-3.349747E-6	20.848507
2631.733122	-2.979700	2.837800	-8.455100	29.205594	-1.963645E-6	20.845441
2632.749602	-3.001900	2.834800	-8.508600	29.164237	-2.491683E-6	20.828897
2633.725452	-2.987400	2.832800	-8.461700	29.243033	-1.996647E-6	20.851402
2634.729801	-3.006300	2.831000	-8.509100	29.328786	-1.633620E-6	20.842045
2635.748045	-3.025600	2.828600	-8.557100	29.363923	-8.250608E-8	20.834785
2636.732542	-3.011300	2.825000	-8.506200	29.359985	-1.303596E-6	20.860212
2637.738427	-3.005300	2.823600	-8.485600	29.352284	-1.171586E-6	20.837278
2638.734564	-2.996300	2.822100	-8.455400	29.346813	1.171586E-6	20.817066
2639.729165	-3.060700	2.816300	-8.619000	29.387941	-1.798632E-6	20.853775
2640.732427	-2.985000	2.818000	-8.410700	29.444541	-2.475182E-7	20.841598
2641.730726	-2.977600	2.814000	-8.378200	29.528789	-1.732628E-6	20.854447
2642.727689	-2.991400	2.811100	-8.407800	29.481158	-3.795279E-7	20.846264
2643.735455	-2.994400	2.808400	-8.409000	29.504158	-7.095522E-7	20.842895
2644.726692	-2.995800	2.805900	-8.405100	29.489230	-1.435606E-6	20.846814
2645.734000	-2.994200	2.804200	-8.394900	29.486706	-2.095654E-6	20.858968
2646.729326	-2.992700	2.801400	-8.382800	29.463012	3.795279E-7	20.850258
2647.730163	-3.023900	2.799600	-8.464900	29.443526	-2.425679E-6	20.845790
2648.732676	-2.980400	2.795700	-8.331600	29.459893	-1.006574E-6	20.848063
2649.731357	-2.996600	2.792000	-8.365800	29.468114	-3.795279E-7	20.842599
2650.733121	-3.034500	2.789500	-8.463400	29.454099	-1.732628E-6	20.846016
2651.739296	-3.001400	2.787500	-8.364600	29.493563	-3.646769E-6	20.839328
2652.742142	-3.022000	2.783700	-8.412000	29.507426	-1.336598E-6	20.867051
2653.732524	-3.011800	2.782100	-8.378900	29.424042	-2.194662E-6	20.853652
2654.738243	-2.963100	2.779600	-8.235000	29.365957	-3.349747E-6	20.866705
2655.740509	-2.995100	2.776000	-8.313600	29.357661	-1.369601E-6	20.840326
2656.732900	-3.007200	2.773400	-8.339100	29.419238	-6.105450E-7	20.852129
2657.741125	-3.017100	2.770600	-8.358000	29.441077	-1.402603E-6	20.833839
2658.744779	-2.993200	2.768100	-8.284000	29.501239	-1.963645E-6	20.835211
2659.737614	-2.991200	2.764200	-8.267700	29.536393	-1.171586E-6	20.855473
2660.746651	-3.038500	2.759700	-8.383500	29.536963	-2.887713E-6	20.843246
2661.741519	-3.019900	2.757900	-8.328300	29.445383	-2.458681E-6	20.831541
2662.739768	-2.995800	2.755300	-8.253100	29.438080	-1.666623E-6	20.835086
2663.747233	-2.977100	2.752300	-8.192300	29.458283	-1.963645E-6	20.826052
2664.740769	-2.995500	2.748300	-8.231900	29.514927	-1.633620E-6	20.820086
2665.747331	-3.019800	2.744900	-8.288500	29.502971	-8.250608E-8	20.826052
2666.738339	-2.996600	2.743200	-8.219200	29.551840	-1.204589E-6	20.827424
2667.739511	-2.997200	2.740100	-8.212000	29.569241	-2.475182E-7	20.845439
2668.740164	-3.015200	2.735800	-8.248200	29.580557	-2.953718E-6	20.828872
2669.741496	-2.990600	2.733700	-8.174200	29.564117	-1.650122E-8	20.836006
2670.741446	-3.023300	2.728800	-8.249300	29.542259	-3.118730E-6	20.831042
2671.744887	-3.004400	2.725600	-8.187600	29.528098	-1.831635E-6	20.850905
2672.740795	-3.001100	2.721800	-8.166900	29.533419	-1.138584E-6	20.824976
2673.741573	-2.990900	2.718600	-8.130000	29.527329	-1.171586E-6	20.855345
2674.741942	-2.980300	2.714400	-8.088400	29.558298	-2.425679E-6	20.821132
2675.748690	-2.977300	2.711100	-8.071300	29.654472	-3.943790E-6	20.817091
2676.746352	-2.979800	2.707300	-8.066200	29.737492	-1.039577E-6	20.835357
2677.741281	-3.006500	2.702700	-8.125100	29.781673	-3.052725E-6	20.841021
2678.741720	-3.014900	2.699900	-8.139400	29.686127	-3.580764E-6	20.827667
2679.739750	-3.013100	2.695900	-8.122300	29.650707	-3.316744E-6	20.828468
2680.745563	-2.990000	2.692500	-8.050200	29.702046	-3.151732E-6	20.827595
2681.745445	-2.989500	2.687800	-8.034300	29.684025	4.950364E-8	20.838349
2682.748945	-2.989100	2.683600	-8.020400	29.653972	-2.491683E-6	20.808526
2683.747383	-3.013300	2.677600	-8.067400	29.699741	-8.745644E-7	20.811996
2684.744792	-3.023300	2.674400	-8.085000	29.672090	-3.613766E-6	20.834852
2685.747682	-3.018500	2.669400	-8.057100	29.651299	-9.075668E-7	20.824323
2686.740040	-3.012600	2.665800	-8.029700	29.595675	-1.501611E-6	20.820879
2687.748884	-3.010300	2.661100	-8.009600	29.616196	-3.795279E-7	20.806953
2688.747277	-3.013500	2.656300	-8.003700	29.675778	-9.735717E-7	20.802535
2689.754354	-3.002000	2.652300	-7.961300	29.734762	-2.805207E-7	20.829760
2690.743835	-2.994500	2.647900	-7.927800	29.755676	-1.435606E-6	20.823345
2691.743719	-3.043400	2.642100	-8.040200	29.697905	-2.029649E-6	20.818205
2692.746859	-3.032100	2.637600	-7.996700	29.621688	-2.788705E-6	20.803007
2693.745005	-3.002700	2.633400	-7.906500	29.653026	-1.650122E-8	20.811366
2694.750439	-3.017000	2.628600	-7.929300	29.705654	-1.237591E-6	20.809422
2695.748205	-2.967500	2.624300	-7.787000	29.791565	8.250607E-8	20.814487
2696.744099	-3.038100	2.617000	-7.949400	29.862050	-3.135231E-7	20.805899
2697.742955	-3.034500	2.611900	-7.924500	29.866160	-2.293669E-6	20.820001
2698.754224	-3.016700	2.607200	-7.864200	29.880908	-3.118730E-6	20.806898
2699.743875	-3.013800	2.602600	-7.842500	29.883011	-1.105581E-6	20.821820
2700.744459	-2.995400	2.596000	-7.775700	29.844203	-1.485109E-7	20.809241
2701.750381	-2.981400	2.592400	-7.727800	29.823714	-1.435606E-6	20.823194
2702.745001	-2.997200	2.586200	-7.750100	29.795372	-1.534613E-6	20.788928
2703.745754	-2.996200	2.580300	-7.730300	29.862619	-2.161659E-6	20.791301
2704.746257	-3.017100	2.574200	-7.765100	29.930803	2.689698E-6	20.833977
2705.750600	-2.970400	2.570300	-7.634100	30.004989	1.650122E-8	20.806373
2706.758380	-2.963400	2.563000	-7.593200	30.031617	8.085595E-7	20.808097
2707.750403	-2.992600	2.555800	-7.647700	29.980488	-4.950365E-8	20.796364
2708.746511	-3.007300	2.550500	-7.669600	29.981257	3.465255E-7	20.803777
2709.753381	-2.970700	2.544600	-7.558300	29.940893	-2.722700E-6	20.808591
2710.744107	-3.012800	2.536600	-7.641400	29.977667	-7.755571E-7	20.804898
2711.752099	-2.970600	2.531900	-7.521000	30.063706	2.145158E-7	20.797312
2712.743713	-2.976900	2.526600	-7.520800	30.135858	-1.815134E-7	20.801805
2713.752975	-2.988400	2.520400	-7.531500	30.021022	-1.897640E-6	20.798360
2714.752962	-3.002200	2.513400	-7.544800	30.007512	-1.237591E-6	20.802753
2715.745808	-2.994800	2.505700	-7.503000	29.970144	1.815134E-7	20.798734
2716.750362	-2.972000	2.501700	-7.434700	30.003750	6.765498E-7	20.800857
2717.753983	-2.995400	2.493800	-7.469600	29.925528	-2.623693E-6	20.789304
