LabVIEW Measurement	
Writer_Version	2
Reader_Version	2
Separator	Tab
Decimal_Separator	.
Multi_Headings	No
X_Columns	One
Time_Pref	Absolute
Operator	admin
Description	Clolumns are: time, Current, Voltage, Power, Battery Temp, and Chamber Temp
Date	2024/08/16
Time	13:07:17.8513970375061035156
***End_of_Header***	
	
Channels	6						
Samples	1	1	1	1	1	1	
Date	2024/08/31	2024/08/31	2024/08/31	2024/08/31	2024/08/31	2024/08/31	
Time	23:33:28.0465750694274902344	23:33:28.0605874061584472656	23:33:28.065578460693359375	23:33:28.0315766334533691406	23:33:28.0315766334533691406	23:33:28.0315766334533691406	
X_Dimension	Time	Time	Time	Time	Time	Time	
X0	0.0000000000000000E+0	0.0000000000000000E+0	0.0000000000000000E+0	0.0000000000000000E+0	0.0000000000000000E+0	0.0000000000000000E+0	
Delta_X	1.000000	1.000000	1.000000	1.000000	1.000000	1.000000	
***End_of_Header***							
X_Value	Untitled	Untitled 1	Untitled 2	Untitled 3	Untitled 4	Untitled 5	Comment
0.000000	0.013286	4.088500	0.054521	20.924568	0.000466	20.987147
1.000631	-3.000600	3.925200	-11.777000	20.920803	0.000467	20.979590
2.002067	-3.014400	3.918400	-11.811000	20.921204	0.000468	20.987577
3.005702	-2.999400	3.916400	-11.746000	20.925923	0.000467	20.977599
4.003468	-3.003700	3.912800	-11.752000	20.936629	0.000464	20.984986
5.006838	-2.985200	3.909600	-11.670000	20.940773	0.000467	20.997663
6.002527	-3.007500	3.906100	-11.747000	20.942273	0.000463	20.985415
7.003158	-3.008800	3.903300	-11.744000	20.933143	0.000467	20.970596
8.002834	-2.995700	3.902200	-11.688000	20.971946	0.000465	20.993279
9.005101	-3.009200	3.901000	-11.738000	20.971948	0.000464	20.972897
10.004562	-2.992100	3.899900	-11.667000	20.959053	0.000465	20.991765
11.008902	-2.975000	3.897900	-11.596000	20.975197	0.000461	20.989419
12.004170	-2.979100	3.896100	-11.605000	21.007560	0.000461	20.998552
13.003927	-3.006300	3.896200	-11.712000	20.984436	0.000460	20.972584
14.005760	-2.990400	3.894900	-11.646000	20.994442	0.000459	20.992546
15.004868	-3.002200	3.891400	-11.681000	21.013084	0.000461	20.999810
16.005391	-3.014700	3.890500	-11.728000	21.003056	0.000459	20.985041
17.005985	-2.996400	3.892400	-11.662000	20.981525	0.000459	20.972517
18.004627	-2.999900	3.890200	-11.669000	21.034623	0.000458	20.992431
19.006385	-3.007900	3.888600	-11.696000	21.030956	0.000459	20.989712
20.005259	-3.009900	3.888200	-11.702000	21.057082	0.000460	21.007780
21.006541	-3.005800	3.887000	-11.683000	21.030711	0.000457	20.996104
22.005980	-2.991700	3.886800	-11.627000	21.044263	0.000455	20.987375
23.005986	-3.000600	3.885900	-11.660000	21.060233	0.000455	21.009035
24.006046	-2.999900	3.885200	-11.654000	21.064976	0.000457	20.976801
25.006543	-2.996200	3.884300	-11.637000	21.075380	0.000456	21.002376
26.005745	-2.989400	3.885000	-11.613000	21.096890	0.000455	20.986910
27.007116	-2.979600	3.883800	-11.571000	21.101257	0.000455	20.975632
28.005440	-3.005800	3.883500	-11.672000	21.115879	0.000454	21.016804
29.005642	-3.016000	3.881800	-11.706000	21.112940	0.000453	20.998695
30.008705	-2.979400	3.883000	-11.567000	21.121422	0.000457	21.003385
31.007416	-3.018100	3.880600	-11.711000	21.141535	0.000454	20.995530
32.016423	-3.031100	3.880000	-11.759000	21.142187	0.000456	20.991916
33.007236	-3.007400	3.880200	-11.669000	21.151495	0.000453	21.003594
34.009724	-3.023700	3.880200	-11.731000	21.156062	0.000453	21.028547
35.007278	-2.997800	3.880000	-11.630000	21.167466	0.000453	20.994442
36.009671	-3.012100	3.879800	-11.686000	21.166621	0.000452	20.980323
37.007274	-3.003500	3.878800	-11.649000	21.181218	0.000452	20.985441
38.009685	-3.007400	3.876900	-11.657000	21.188707	0.000454	21.007153
39.008885	-3.008600	3.877900	-11.665000	21.189184	0.000453	21.000993
40.009365	-3.000700	3.877600	-11.634000	21.214880	0.000450	20.979760
41.010152	-3.001600	3.877700	-11.637000	21.207798	0.000452	20.994011
42.009776	-2.999900	3.875100	-11.623000	21.224142	0.000451	21.002773
43.010818	-3.004500	3.876500	-11.646000	21.243477	0.000452	20.989875
44.014606	-3.009100	3.876900	-11.664000	21.223824	0.000448	20.997714
45.010078	-3.007800	3.876400	-11.658000	21.261321	0.000452	20.987812
46.011307	-3.004700	3.875400	-11.643000	21.255439	0.000451	20.979083
47.011786	-2.995900	3.876200	-11.611000	21.263521	0.000450	20.991909
48.016228	-2.997800	3.875000	-11.616000	21.246113	0.000450	20.981133
49.016981	-2.974400	3.876000	-11.528000	21.271261	0.000450	20.996806
50.014421	-2.981100	3.875300	-11.552000	21.285633	0.000449	20.974678
51.016090	-2.993800	3.874900	-11.600000	21.278301	0.000450	20.995788
52.015012	-3.002900	3.874200	-11.633000	21.304469	0.000451	20.979770
53.016206	-2.994900	3.872100	-11.595000	21.310212	0.000449	20.985041
54.017560	-2.976600	3.874900	-11.533000	21.321913	0.000450	20.984419
55.013886	-3.008200	3.873400	-11.651000	21.341821	0.000450	20.956925
56.014211	-3.002300	3.873300	-11.627000	21.337107	0.000447	20.986818
57.014193	-3.001300	3.872000	-11.620000	21.370115	0.000450	20.981436
58.013697	-3.021100	3.871400	-11.695000	21.367246	0.000451	20.986152
59.015851	-2.987400	3.874300	-11.574000	21.357222	0.000449	20.981339
60.015006	-2.984500	3.872800	-11.556000	21.358995	0.000448	20.976949
61.013302	-3.022100	3.870900	-11.696000	21.366358	0.000449	20.962033
62.014546	-2.993000	3.871500	-11.586000	21.389256	0.000449	20.965976
63.013924	-2.999200	3.871600	-11.611000	21.377189	0.000450	20.973815
64.015686	-3.013800	3.870300	-11.663000	21.393232	0.000449	20.967583
65.019289	-3.008400	3.869000	-11.638000	21.389064	0.000449	20.966732
66.016263	-3.004600	3.869600	-11.626000	21.419074	0.000450	20.973523
67.016934	-3.001300	3.870600	-11.616000	21.429180	0.000449	20.975573
68.020272	-3.035800	3.868600	-11.744000	21.430228	0.000451	20.953866
69.023935	-2.991900	3.870100	-11.577000	21.425740	0.000453	20.978769
70.018488	-3.017900	3.868300	-11.673000	21.446569	0.000451	20.959784
71.017058	-2.998000	3.869700	-11.600000	21.468672	0.000450	20.962459
72.017378	-3.003100	3.869000	-11.618000	21.468148	0.000453	20.967149
73.028270	-3.019900	3.869500	-11.685000	21.474860	0.000451	20.940679
74.018388	-2.998200	3.868800	-11.598000	21.483418	0.000452	20.966782
75.019680	-3.003500	3.869800	-11.621000	21.484294	0.000449	20.971924
76.019650	-2.983600	3.868800	-11.542000	21.502727	0.000453	20.954336
77.018609	-2.993700	3.868700	-11.581000	21.515500	0.000450	20.950521
78.019388	-2.970400	3.869700	-11.493000	21.504450	0.000448	20.968860
79.019954	-2.998500	3.866700	-11.593000	21.506251	0.000451	20.937950
80.021415	-3.003800	3.868200	-11.619000	21.549548	0.000450	20.933859
81.019711	-3.001100	3.868100	-11.607000	21.560625	0.000450	20.951105
82.021370	-3.008000	3.867900	-11.634000	21.554368	0.000450	20.960015
83.023158	-2.994200	3.866600	-11.576000	21.564168	0.000452	20.949909
84.020740	-3.014300	3.867100	-11.656000	21.552450	0.000451	20.952882
85.023686	-3.021600	3.866800	-11.683000	21.570880	0.000454	20.955202
86.021292	-3.004800	3.867100	-11.618000	21.577642	0.000451	20.958649
87.021880	-3.014900	3.865800	-11.654000	21.578442	0.000450	20.936219
88.021546	-3.022600	3.865700	-11.683000	21.597474	0.000453	20.924445
89.022215	-3.009500	3.865900	-11.634000	21.598249	0.000452	20.935177
90.023021	-3.010400	3.866200	-11.638000	21.597825	0.000452	20.953243
91.027988	-2.989200	3.866700	-11.557000	21.594910	0.000451	20.939896
92.034747	-3.004600	3.866900	-11.617000	21.612118	0.000452	20.944788
93.026114	-2.985200	3.865900	-11.539000	21.625514	0.000453	20.941598
94.027206	-3.032200	3.864300	-11.717000	21.630428	0.000453	20.928499
95.024644	-3.015300	3.865200	-11.654000	21.647162	0.000453	20.958991
96.027578	-2.994600	3.864900	-11.573000	21.659286	0.000451	20.943626
97.025092	-3.022200	3.865600	-11.682000	21.641030	0.000453	20.939582
98.024478	-2.998600	3.865100	-11.589000	21.657792	0.000453	20.944028
99.026180	-3.011300	3.865000	-11.638000	21.656195	0.000454	20.904975
100.024218	-3.011300	3.864500	-11.635000	21.668919	0.000453	20.935249
101.028343	-2.980000	3.865100	-11.516000	21.679894	0.000452	20.933431
102.025452	-3.014400	3.864800	-11.649000	21.673685	0.000451	20.922002
103.026508	-3.006700	3.865300	-11.621000	21.697374	0.000454	20.933381
104.025043	-3.002900	3.863800	-11.602000	21.712542	0.000453	20.937654
105.026417	-3.007000	3.864100	-11.618000	21.728424	0.000453	20.928894
106.028917	-3.005700	3.863000	-11.610000	21.747403	0.000454	20.930345
107.030884	-3.040900	3.861600	-11.741000	21.723944	0.000455	20.925833
108.029578	-3.002900	3.864500	-11.604000	21.748260	0.000456	20.934521
109.027413	-3.014800	3.864100	-11.649000	21.752075	0.000455	20.930279
110.030102	-3.026500	3.863800	-11.694000	21.779804	0.000454	20.917255
111.030228	-3.001000	3.863000	-11.591000	21.776265	0.000455	20.925092
112.030729	-3.016400	3.861900	-11.648000	21.783772	0.000454	20.933554
113.029562	-3.024000	3.862800	-11.680000	21.791478	0.000456	20.935102
114.029832	-2.997300	3.862600	-11.577000	21.824295	0.000454	20.932386
115.030278	-3.002400	3.862200	-11.594000	21.828809	0.000454	20.914621
116.029548	-3.001300	3.862800	-11.592000	21.820407	0.000454	20.952200
117.033007	-3.002200	3.863500	-11.598000	21.817446	0.000457	20.924110
118.033771	-2.984500	3.861800	-11.525000	21.834798	0.000453	20.908288
119.033179	-2.979600	3.862100	-11.506000	21.819316	0.000455	20.922188
120.033382	-2.999300	3.860800	-11.578000	21.839642	0.000456	20.912662
121.033628	-2.982600	3.861700	-11.517000	21.830940	0.000457	20.914857
122.034067	-2.988700	3.860700	-11.538000	21.869138	0.000458	20.912314
123.034874	-2.989100	3.861600	-11.542000	21.864527	0.000456	20.910069
124.034670	-2.982100	3.861400	-11.514000	21.883353	0.000455	20.928910
125.035887	-2.993800	3.861000	-11.558000	21.884056	0.000458	20.923451
126.037392	-3.019900	3.860900	-11.657000	21.879792	0.000457	20.904012
127.035246	-2.990900	3.859600	-11.543000	21.872888	0.000457	20.911799
128.039615	-2.995400	3.859100	-11.558000	21.902706	0.000456	20.907981
129.035552	-2.991300	3.860100	-11.546000	21.930259	0.000458	20.918490
130.035789	-2.984000	3.860700	-11.519000	21.920935	0.000458	20.910107
131.034127	-3.031300	3.858400	-11.694000	21.940234	0.000458	20.920889
132.035149	-3.001900	3.858600	-11.583000	21.928866	0.000459	20.921837
133.035244	-3.005700	3.858400	-11.597000	21.936225	0.000461	20.918299
134.040104	-2.979700	3.859100	-11.498000	21.962525	0.000460	20.910961
135.036029	-2.998700	3.859800	-11.573000	21.956644	0.000461	20.915504
136.035733	-3.009700	3.859400	-11.615000	21.989876	0.000461	20.903727
137.039712	-3.024100	3.858100	-11.667000	21.985889	0.000457	20.896892
138.037720	-3.003000	3.858900	-11.588000	21.978414	0.000459	20.913115
139.035028	-3.005100	3.858300	-11.593000	21.993722	0.000463	20.903784
140.036534	-2.982800	3.859600	-11.512000	22.000905	0.000462	20.906233
141.036976	-3.024300	3.856900	-11.664000	22.010727	0.000461	20.889987
142.037672	-3.000800	3.857600	-11.575000	22.011451	0.000462	20.909203
143.039461	-3.013000	3.856000	-11.618000	22.026310	0.000462	20.911750
144.037260	-3.000100	3.856900	-11.570000	22.050642	0.000462	20.922830
145.037804	-3.008200	3.857800	-11.604000	22.043788	0.000461	20.929718
146.038833	-3.009100	3.856900	-11.605000	22.041448	0.000464	20.897034
147.039690	-3.024700	3.857500	-11.667000	22.042744	0.000464	20.899753
148.039389	-3.020300	3.856200	-11.646000	22.065880	0.000464	20.896836
149.040973	-3.017700	3.856600	-11.637000	22.082084	0.000462	20.904996
150.039474	-3.017300	3.855400	-11.632000	22.073314	0.000461	20.914708
151.040371	-3.025800	3.855800	-11.667000	22.076830	0.000464	20.913961
152.040857	-3.023500	3.856400	-11.659000	22.080418	0.000463	20.891476
153.041537	-3.008600	3.856000	-11.600000	22.093037	0.000464	20.899841
154.046298	-2.985300	3.855800	-11.510000	22.077483	0.000464	20.882848
155.041857	-3.012800	3.855800	-11.616000	22.077210	0.000464	20.882101
156.043488	-2.996300	3.854900	-11.549000	22.102290	0.000466	20.912897
157.046339	-3.005300	3.855500	-11.587000	22.111762	0.000465	20.899622
158.043506	-3.004000	3.855100	-11.580000	22.107726	0.000465	20.890839
159.045408	-3.015700	3.854800	-11.624000	22.144218	0.000466	20.870952
160.046124	-3.008200	3.855000	-11.596000	22.133781	0.000466	20.898906
161.045277	-3.020200	3.854300	-11.639000	22.147540	0.000467	20.882337
162.044719	-3.027100	3.854400	-11.666000	22.168403	0.000465	20.886155
163.046614	-2.998300	3.855100	-11.558000	22.191336	0.000466	20.899631
164.045530	-3.026400	3.853200	-11.661000	22.211803	0.000467	20.899735
165.045039	-2.995100	3.853300	-11.539000	22.200240	0.000467	20.889581
166.045865	-3.017000	3.854000	-11.626000	22.211782	0.000467	20.903980
167.057406	-3.000200	3.853000	-11.559000	22.210809	0.000467	20.913437
168.046007	-2.997600	3.853100	-11.550000	22.213457	0.000467	20.893805
169.047054	-3.004200	3.852100	-11.571000	22.220463	0.000469	20.891337
170.049623	-2.986000	3.854600	-11.509000	22.204839	0.000469	20.903193
171.048827	-3.021700	3.853200	-11.642000	22.227172	0.000470	20.886200
172.048417	-3.007500	3.852400	-11.585000	22.220269	0.000471	20.896358
173.050711	-3.035400	3.852800	-11.694000	22.243204	0.000469	20.896088
174.048325	-3.000700	3.852700	-11.560000	22.246695	0.000471	20.890100
175.051175	-2.988500	3.852100	-11.511000	22.242787	0.000469	20.869120
176.047946	-3.004000	3.851200	-11.568000	22.247049	0.000472	20.885240
177.047958	-2.970800	3.852000	-11.443000	22.280101	0.000471	20.897944
178.048598	-2.982000	3.852200	-11.487000	22.262558	0.000470	20.896974
179.048001	-3.016600	3.851200	-11.616000	22.299472	0.000470	20.897427
180.051928	-3.003500	3.851000	-11.565000	22.306127	0.000472	20.867108
181.054160	-2.988900	3.851400	-11.510000	22.298679	0.000473	20.900425
182.049334	-3.013000	3.851000	-11.602000	22.298658	0.000472	20.886180
183.048281	-3.018300	3.849400	-11.618000	22.286475	0.000472	20.901481
184.052023	-2.993400	3.851700	-11.529000	22.324605	0.000472	20.897462
185.050628	-2.998300	3.851800	-11.548000	22.323338	0.000470	20.884341
186.053199	-2.999600	3.850400	-11.549000	22.327578	0.000473	20.876259
187.051414	-2.986500	3.851300	-11.500000	22.337325	0.000473	20.873217
188.052227	-3.009000	3.849000	-11.581000	22.334408	0.000474	20.875986
189.051836	-2.998500	3.848700	-11.539000	22.339545	0.000474	20.869750
190.053317	-2.979600	3.850100	-11.471000	22.374663	0.000474	20.868881
191.054240	-3.030700	3.848200	-11.662000	22.355127	0.000475	20.874448
192.056110	-2.998900	3.848200	-11.538000	22.375990	0.000475	20.885856
193.053483	-3.001900	3.849200	-11.554000	22.416169	0.000477	20.873460
194.052957	-2.999300	3.849100	-11.543000	22.419282	0.000476	20.876703
195.053879	-2.997000	3.847900	-11.532000	22.393219	0.000476	20.868496
196.053171	-2.990500	3.849100	-11.510000	22.411268	0.000477	20.890363
197.055861	-2.990500	3.849100	-11.510000	22.423852	0.000479	20.891584
198.053649	-3.016100	3.848100	-11.605000	22.417524	0.000476	20.874343
199.055723	-3.008500	3.847800	-11.575000	22.447209	0.000477	20.888897
200.057931	-2.999500	3.847600	-11.539000	22.432733	0.000478	20.867763
201.055880	-2.985900	3.848400	-11.490000	22.421301	0.000478	20.883340
202.058017	-3.009100	3.847300	-11.575000	22.446176	0.000478	20.892603
203.055827	-3.004500	3.846300	-11.555000	22.460029	0.000478	20.877554
204.054954	-2.977600	3.847400	-11.455000	22.462575	0.000477	20.858768
205.059099	-2.981200	3.847400	-11.468000	22.480767	0.000479	20.862288
206.055902	-2.990600	3.845900	-11.500000	22.448626	0.000480	20.873247
207.058775	-3.000200	3.845300	-11.536000	22.461309	0.000482	20.856552
208.055601	-2.980000	3.845600	-11.459000	22.448582	0.000482	20.866092
209.056137	-2.991800	3.845600	-11.503000	22.499816	0.000481	20.870933
210.055989	-3.002700	3.844800	-11.544000	22.513848	0.000479	20.861278
211.056757	-3.003500	3.845800	-11.550000	22.525339	0.000482	20.872312
212.059421	-3.006400	3.845400	-11.559000	22.504633	0.000480	20.876705
213.058248	-2.998000	3.844600	-11.525000	22.499899	0.000480	20.858214
214.056822	-2.993800	3.844500	-11.509000	22.506634	0.000481	20.862589
215.055805	-3.006800	3.844400	-11.559000	22.544535	0.000480	20.862140
216.058652	-3.014700	3.845200	-11.590000	22.492237	0.000482	20.873300
217.057164	-3.008800	3.844900	-11.568000	22.529589	0.000482	20.873724
218.058810	-2.995500	3.844800	-11.516000	22.532207	0.000484	20.860226
219.056849	-3.010500	3.843500	-11.570000	22.538118	0.000483	20.860929
220.056951	-2.979200	3.845500	-11.455000	22.589351	0.000484	20.858189
221.060027	-2.982900	3.845200	-11.468000	22.563615	0.000484	20.875559
222.057587	-2.992000	3.842800	-11.497000	22.592963	0.000484	20.833358
223.062673	-2.991500	3.843000	-11.495000	22.573585	0.000485	20.864683
224.058917	-3.000400	3.843000	-11.529000	22.592751	0.000488	20.872024
225.058492	-2.984300	3.842800	-11.467000	22.580672	0.000486	20.876521
226.058301	-2.997200	3.843400	-11.519000	22.587727	0.000486	20.864622
227.058332	-3.002300	3.841600	-11.533000	22.578534	0.000487	20.866321
228.058991	-3.008600	3.842400	-11.559000	22.578265	0.000488	20.862732
229.062677	-2.974900	3.843300	-11.432000	22.587637	0.000488	20.869747
230.059409	-2.975200	3.842300	-11.431000	22.596434	0.000487	20.855800
231.060164	-3.014200	3.841600	-11.578000	22.600699	0.000485	20.872872
232.063588	-3.029600	3.840600	-11.635000	22.617024	0.000486	20.864568
233.059647	-2.984600	3.841500	-11.465000	22.629060	0.000488	20.863346
234.065566	-2.979100	3.842000	-11.444000	22.641870	0.000490	20.872384
235.062994	-3.003100	3.840500	-11.533000	22.641102	0.000490	20.833210
236.061381	-3.006300	3.840700	-11.546000	22.662283	0.000490	20.842097
237.061216	-3.013700	3.840200	-11.573000	22.659672	0.000489	20.843275
238.063107	-3.008100	3.840100	-11.550000	22.671733	0.000491	20.838760
239.064771	-3.001900	3.841400	-11.530000	22.704395	0.000489	20.857251
240.062771	-3.007700	3.839200	-11.547000	22.693436	0.000492	20.829205
241.064286	-3.010300	3.839800	-11.557000	22.678866	0.000490	20.838792
242.065280	-3.006500	3.840700	-11.546000	22.706773	0.000493	20.838297
243.065014	-3.026400	3.839200	-11.618000	22.691474	0.000493	20.860430
244.063279	-2.994400	3.838400	-11.493000	22.702416	0.000491	20.844364
245.066450	-2.995600	3.840300	-11.503000	22.714228	0.000492	20.857618
246.064795	-2.998600	3.837800	-11.507000	22.708501	0.000492	20.873691
247.064845	-3.001200	3.837600	-11.517000	22.700831	0.000491	20.854629
248.066928	-3.003100	3.838500	-11.527000	22.700784	0.000493	20.837514
249.065976	-3.005000	3.837500	-11.531000	22.718152	0.000492	20.849694
250.068491	-2.982300	3.838500	-11.447000	22.731187	0.000493	20.853742
251.065756	-3.003700	3.837000	-11.524000	22.751792	0.000494	20.861580
252.065614	-3.006600	3.837000	-11.535000	22.755582	0.000496	20.868695
253.064780	-3.029400	3.835200	-11.618000	22.772429	0.000495	20.829149
254.065921	-3.012700	3.835900	-11.555000	22.777661	0.000496	20.844346
255.070230	-3.016900	3.836600	-11.573000	22.778464	0.000495	20.849892
256.068635	-3.006500	3.836000	-11.532000	22.773207	0.000496	20.823290
257.066427	-3.019100	3.836500	-11.582000	22.791147	0.000495	20.852166
258.066705	-2.997900	3.835600	-11.497000	22.803138	0.000496	20.842842
259.072453	-3.016900	3.834600	-11.568000	22.778999	0.000496	20.849005
260.066282	-3.002900	3.835900	-11.518000	22.784883	0.000496	20.867701
261.069462	-2.983200	3.834400	-11.437000	22.792808	0.000497	20.849088
262.066185	-2.980800	3.835600	-11.433000	22.823230	0.000498	20.860123
263.066924	-2.990800	3.836800	-11.474000	22.815958	0.000498	20.840037
264.067656	-2.987800	3.834000	-11.454000	22.814613	0.000498	20.851966
265.069120	-3.005700	3.834400	-11.524000	22.836967	0.000498	20.846384
266.070107	-2.988900	3.835200	-11.462000	22.859639	0.000499	20.870044
267.072537	-3.013500	3.834000	-11.552000	22.868209	0.000500	20.847336
268.071325	-3.010000	3.833000	-11.536000	22.836351	0.000500	20.847189
269.070071	-2.990000	3.834800	-11.465000	22.860371	0.000501	20.852760
270.070654	-2.976800	3.834500	-11.414000	22.868743	0.000504	20.849294
271.071361	-2.992400	3.834900	-11.474000	22.899959	0.000499	20.848799
272.082018	-3.012200	3.832200	-11.542000	22.903200	0.000502	20.870063
273.072490	-3.016700	3.830700	-11.553000	22.897923	0.000498	20.856716
274.073814	-3.007200	3.832000	-11.523000	22.922910	0.000502	20.849507
275.076116	-3.011400	3.831900	-11.539000	22.945802	0.000502	20.856795
276.075786	-2.995900	3.832400	-11.480000	22.932157	0.000504	20.828426
277.077902	-3.005800	3.830900	-11.514000	22.952980	0.000501	20.851659
278.075777	-2.982000	3.831400	-11.424000	22.951819	0.000504	20.855237
279.076555	-2.998700	3.832400	-11.491000	22.948607	0.000502	20.856760
280.076842	-2.976800	3.832000	-11.405000	22.944322	0.000501	20.841562
281.075861	-2.990100	3.831900	-11.457000	22.929286	0.000503	20.827447
282.077303	-2.994400	3.830500	-11.469000	22.932004	0.000503	20.820212
283.078395	-2.995600	3.830700	-11.474000	22.921194	0.000503	20.854900
284.076076	-3.005800	3.830500	-11.512000	22.929645	0.000503	20.857203
285.080832	-3.013900	3.829200	-11.540000	22.959686	0.000504	20.864541
286.076844	-3.014800	3.829200	-11.543000	22.973787	0.000506	20.864918
287.078831	-3.017600	3.828900	-11.553000	23.007965	0.000506	20.836101
288.077364	-3.021300	3.828900	-11.568000	22.994145	0.000504	20.871564
289.076597	-2.983900	3.830100	-11.427000	23.037632	0.000506	20.850178
290.078614	-2.996400	3.828400	-11.471000	23.014003	0.000505	20.840728
291.077144	-3.009400	3.828200	-11.520000	23.057167	0.000506	20.856001
292.083051	-3.005800	3.828400	-11.506000	23.053883	0.000506	20.839909
293.077394	-3.003200	3.828900	-11.498000	23.034661	0.000507	20.865218
294.079169	-2.992900	3.827300	-11.453000	23.076852	0.000507	20.837320
295.078496	-2.997200	3.829800	-11.478000	23.060641	0.000507	20.839569
296.078673	-2.988700	3.828300	-11.441000	23.087066	0.000508	20.869363
297.083403	-2.993600	3.827600	-11.458000	23.091429	0.000509	20.858089
298.083915	-2.993200	3.826600	-11.453000	23.103962	0.000510	20.863535
299.080568	-3.003100	3.828100	-11.495000	23.092312	0.000509	20.856603
300.079439	-3.020600	3.826200	-11.556000	23.087311	0.000507	20.841161
301.082294	-2.996000	3.825900	-11.461000	23.095456	0.000510	20.873977
302.080720	-3.018000	3.827000	-11.549000	23.104823	0.000511	20.850648
303.083650	-3.018400	3.825600	-11.546000	23.079945	0.000510	20.857013
304.083945	-3.010000	3.824600	-11.511000	23.129609	0.000510	20.843716
305.082683	-2.993300	3.825200	-11.450000	23.106229	0.000511	20.862488
306.086530	-2.985100	3.825300	-11.418000	23.099483	0.000510	20.840556
307.084325	-2.998600	3.824900	-11.469000	23.130219	0.000511	20.851914
308.087008	-3.031000	3.823200	-11.587000	23.100161	0.000509	20.863045
309.083015	-3.004800	3.823900	-11.490000	23.108209	0.000510	20.867316
310.084241	-3.021200	3.824500	-11.553000	23.104700	0.000513	20.849102
311.085953	-2.980300	3.825700	-11.401000	23.128937	0.000510	20.862482
312.086235	-3.003900	3.824700	-11.488000	23.104884	0.000512	20.844071
313.088493	-3.007500	3.823100	-11.497000	23.129791	0.000513	20.864760
314.088584	-3.012200	3.823500	-11.516000	23.141678	0.000514	20.872404
315.085224	-3.000000	3.823900	-11.471000	23.153307	0.000514	20.852764
316.085769	-2.982000	3.822600	-11.398000	23.162380	0.000514	20.866123
317.087181	-3.008500	3.822000	-11.498000	23.182207	0.000512	20.858965
318.086380	-2.989300	3.822200	-11.424000	23.197352	0.000515	20.865606
319.089242	-2.997600	3.823000	-11.458000	23.217078	0.000514	20.876364
320.085362	-2.997900	3.822000	-11.457000	23.244126	0.000515	20.851315
321.085859	-3.010300	3.822200	-11.505000	23.242736	0.000518	20.873154
322.085875	-3.021400	3.820200	-11.542000	23.267192	0.000515	20.863525
323.085506	-3.019400	3.820500	-11.535000	23.272228	0.000517	20.867149
324.085599	-3.009400	3.821700	-11.500000	23.272458	0.000517	20.862639
325.090165	-3.002700	3.821400	-11.474000	23.286878	0.000516	20.863339
326.086699	-3.006500	3.821300	-11.487000	23.277864	0.000517	20.855254
327.087447	-3.000300	3.822000	-11.466000	23.283223	0.000518	20.879589
328.092270	-3.008700	3.819300	-11.490000	23.299786	0.000516	20.881016
329.087452	-3.010400	3.819400	-11.498000	23.273567	0.000518	20.869439
330.095963	-3.005000	3.819800	-11.477000	23.275464	0.000518	20.873711
331.087881	-3.004200	3.819700	-11.474000	23.246180	0.000517	20.871864
332.086756	-3.012400	3.820200	-11.507000	23.288966	0.000517	20.890086
333.088500	-3.001300	3.820400	-11.466000	23.297687	0.000520	20.876542
334.088284	-2.997500	3.819000	-11.447000	23.311014	0.000519	20.888475
335.089671	-2.996100	3.819400	-11.443000	23.328225	0.000518	20.865423
336.089360	-3.005200	3.819100	-11.475000	23.338035	0.000519	20.875254
337.088666	-2.993400	3.819400	-11.432000	23.325964	0.000520	20.881174
338.090237	-3.006000	3.818500	-11.478000	23.299328	0.000518	20.902366
339.089448	-2.988700	3.818600	-11.412000	23.311905	0.000521	20.887471
340.089762	-2.997900	3.816800	-11.441000	23.316866	0.000521	20.890073
341.090237	-2.979100	3.817800	-11.372000	23.340701	0.000522	20.883615
342.089575	-2.971800	3.817000	-11.342000	23.356589	0.000521	20.886263
343.090496	-2.999800	3.815700	-11.445000	23.367503	0.000523	20.867331
344.091527	-2.997100	3.816000	-11.436000	23.359164	0.000522	20.883153
345.091535	-2.993900	3.817000	-11.426000	23.351054	0.000521	20.899680
346.092440	-2.964600	3.817300	-11.316000	23.332880	0.000521	20.901379
347.091778	-2.975200	3.816200	-11.353000	23.318615	0.000526	20.879973
348.093119	-2.994900	3.814700	-11.424000	23.358062	0.000523	20.897221
349.093745	-2.996100	3.814000	-11.426000	23.381071	0.000523	20.889463
350.092970	-3.000300	3.816000	-11.448000	23.357643	0.000523	20.888742
351.097797	-2.994500	3.816100	-11.426000	23.375499	0.000522	20.891465
352.098058	-3.003600	3.814600	-11.457000	23.389771	0.000523	20.884433
353.095033	-3.008800	3.814100	-11.474000	23.414973	0.000524	20.894993
354.096800	-2.992700	3.815400	-11.417000	23.435591	0.000523	20.887210
355.098898	-2.992000	3.814300	-11.411000	23.424564	0.000525	20.893701
356.096890	-2.980000	3.815400	-11.367000	23.411402	0.000525	20.892362
357.098936	-2.959000	3.814200	-11.286000	23.456020	0.000525	20.899151
358.096935	-3.011100	3.813000	-11.481000	23.401949	0.000526	20.895215
359.096706	-2.998700	3.812000	-11.431000	23.401476	0.000523	20.908491
360.100283	-3.012600	3.812300	-11.483000	23.432108	0.000525	20.901735
361.097383	-2.994300	3.813100	-11.417000	23.430391	0.000526	20.890533
362.101344	-3.008900	3.812200	-11.469000	23.435226	0.000526	20.887319
363.096036	-3.020100	3.811700	-11.510000	23.418598	0.000525	20.901945
364.097291	-3.017000	3.812500	-11.502000	23.430404	0.000527	20.912355
365.097710	-3.009000	3.810700	-11.465000	23.470119	0.000528	20.879146
366.095891	-3.004200	3.810900	-11.448000	23.480254	0.000528	20.907320
367.098652	-2.998000	3.811300	-11.425000	23.509489	0.000528	20.901538
368.100201	-2.984700	3.811500	-11.374000	23.489869	0.000527	20.894674
369.096247	-2.993100	3.811700	-11.408000	23.515467	0.000530	20.908478
370.099008	-3.000700	3.810500	-11.433000	23.494411	0.000528	20.890218
371.099247	-3.001400	3.809600	-11.433000	23.489614	0.000527	20.900582
372.098262	-2.999500	3.809400	-11.426000	23.470542	0.000527	20.910387
373.100159	-2.997700	3.809600	-11.418000	23.495240	0.000530	20.901954
374.098029	-3.005000	3.808200	-11.443000	23.532939	0.000529	20.906552
375.098423	-2.999000	3.810300	-11.426000	23.561274	0.000528	20.921678
376.098974	-2.997400	3.807900	-11.413000	23.571437	0.000528	20.919538
377.097712	-2.971400	3.809500	-11.318000	23.544576	0.000527	20.901623
378.099358	-2.994300	3.808400	-11.403000	23.535845	0.000528	20.909464
379.100839	-3.008100	3.807600	-11.452000	23.546477	0.000531	20.933396
380.100811	-3.001300	3.807000	-11.425000	23.560550	0.000530	20.912418
381.099907	-3.006500	3.807200	-11.445000	23.547230	0.000529	20.911395
382.101612	-2.991300	3.808600	-11.391000	23.550345	0.000530	20.921154
383.101127	-3.010200	3.807000	-11.458000	23.559985	0.000532	20.913274
384.102941	-2.967600	3.807200	-11.297000	23.555828	0.000531	20.920961
385.101514	-2.990900	3.807400	-11.387000	23.585606	0.000533	20.937533
386.101177	-3.005700	3.806300	-11.440000	23.570747	0.000530	20.919795
387.103497	-2.990600	3.806400	-11.382000	23.544510	0.000531	20.920995
388.103524	-2.982600	3.806500	-11.352000	23.568889	0.000532	20.898019
389.107201	-3.008100	3.804200	-11.442000	23.573573	0.000532	20.924049
390.102316	-2.984700	3.805600	-11.358000	23.625203	0.000533	20.926021
391.106047	-2.990300	3.805700	-11.379000	23.633273	0.000535	20.930792
392.114743	-3.000200	3.804800	-11.413000	23.647743	0.000535	20.923962
393.103927	-3.003200	3.805400	-11.428000	23.632285	0.000532	20.927905
394.104694	-3.011700	3.804100	-11.456000	23.642691	0.000533	20.917949
395.109358	-2.990400	3.804800	-11.377000	23.664326	0.000532	20.927784
396.104161	-3.002700	3.804900	-11.424000	23.688752	0.000533	20.933780
397.105835	-2.994000	3.804200	-11.389000	23.718627	0.000535	20.940971
398.110469	-3.002700	3.804300	-11.421000	23.698839	0.000534	20.913549
399.108099	-3.022000	3.802000	-11.488000	23.691523	0.000534	20.901948
400.111084	-3.006800	3.803100	-11.434000	23.686747	0.000532	20.939356
401.108518	-3.004100	3.802800	-11.423000	23.675200	0.000534	20.955752
402.109392	-2.974600	3.802900	-11.311000	23.675079	0.000534	20.940459
403.108513	-2.999500	3.801800	-11.403000	23.713915	0.000535	20.934825
404.108355	-2.997400	3.802800	-11.397000	23.692315	0.000536	20.933084
405.109943	-2.996800	3.802200	-11.393000	23.743839	0.000538	20.921681
406.110799	-2.992900	3.802500	-11.380000	23.744065	0.000535	20.927596
407.108574	-2.994500	3.801900	-11.384000	23.769385	0.000539	20.940653
408.109114	-3.001000	3.802100	-11.409000	23.769959	0.000535	20.931272
409.108571	-3.004300	3.800800	-11.418000	23.751816	0.000537	20.949590
410.109104	-3.023100	3.800700	-11.488000	23.742781	0.000538	20.950962
411.110947	-2.986700	3.801400	-11.352000	23.742463	0.000538	20.925990
412.109046	-3.006500	3.800300	-11.425000	23.738261	0.000536	20.950698
413.109130	-3.027800	3.799100	-11.502000	23.761539	0.000539	20.934210
414.110044	-2.989300	3.800000	-11.359000	23.729305	0.000537	20.934608
415.109977	-2.985400	3.799800	-11.343000	23.738023	0.000536	20.939081
416.114493	-2.990100	3.799300	-11.359000	23.763963	0.000537	20.952285
417.109288	-3.001400	3.798100	-11.399000	23.749005	0.000537	20.951987
418.109590	-2.992300	3.798400	-11.365000	23.731265	0.000537	20.949373
419.109595	-2.991900	3.799000	-11.364000	23.752023	0.000538	20.943634
420.112409	-2.981400	3.798600	-11.325000	23.774183	0.000538	20.951627
421.123614	-2.977500	3.799000	-11.311000	23.774364	0.000539	20.955126
422.114375	-2.971100	3.797400	-11.281000	23.798034	0.000540	20.963211
423.114320	-2.991300	3.798600	-11.362000	23.836518	0.000540	20.966236
424.114602	-3.003000	3.796700	-11.401000	23.823161	0.000538	20.940992
425.116667	-2.995600	3.796100	-11.371000	23.808551	0.000538	20.949102
426.115973	-2.978200	3.796600	-11.305000	23.839319	0.000540	20.969518
427.119272	-3.008400	3.797400	-11.423000	23.838775	0.000538	20.966128
428.116278	-2.992400	3.797400	-11.363000	23.831887	0.000539	20.952585
429.115338	-2.986600	3.796300	-11.337000	23.824919	0.000538	20.966460
430.116590	-2.987400	3.795800	-11.339000	23.806456	0.000538	20.969284
431.116457	-2.992700	3.795400	-11.357000	23.794286	0.000540	20.957083
432.118436	-2.985700	3.796000	-11.333000	23.818559	0.000539	20.970987
433.115665	-2.981000	3.795700	-11.314000	23.867320	0.000538	20.987635
434.116294	-2.993200	3.794500	-11.357000	23.865982	0.000540	20.972070
435.116636	-2.990500	3.793900	-11.345000	23.855457	0.000540	20.959149
436.117129	-2.988300	3.795300	-11.341000	23.847247	0.000541	20.973674
437.118132	-2.987900	3.795200	-11.338000	23.841824	0.000540	20.964918
438.120011	-2.981700	3.794200	-11.312000	23.836556	0.000539	20.976229
439.118789	-2.997200	3.794200	-11.371000	23.828416	0.000541	20.984188
440.122243	-3.032200	3.792200	-11.496000	23.832058	0.000540	20.982624
441.119858	-3.004400	3.793400	-11.396000	23.826433	0.000540	20.969400
442.118771	-3.001600	3.791100	-11.378000	23.818001	0.000539	20.964739
443.121766	-2.982500	3.792500	-11.310000	23.825170	0.000541	20.975244
444.119404	-3.006500	3.791000	-11.396000	23.892276	0.000541	20.976625
445.118824	-3.008700	3.790800	-11.403000	23.899943	0.000541	20.966770
446.119578	-2.986000	3.791700	-11.321000	23.909656	0.000544	20.969871
447.119867	-3.023500	3.789600	-11.457000	23.892210	0.000541	20.959018
448.123390	-3.021100	3.791200	-11.452000	23.926356	0.000542	20.973341
449.122225	-3.004900	3.790800	-11.390000	23.905610	0.000544	20.985727
450.120822	-3.003400	3.790200	-11.383000	23.896701	0.000543	20.979165
451.121162	-3.003400	3.791200	-11.386000	23.930721	0.000543	20.976769
452.121460	-3.001800	3.790400	-11.377000	23.921767	0.000543	20.989125
453.121347	-3.002300	3.789800	-11.378000	23.941530	0.000544	21.002777
454.122847	-3.006100	3.790500	-11.393000	23.923295	0.000543	20.980228
455.121733	-3.004800	3.789200	-11.385000	23.938556	0.000541	20.994581
456.121611	-2.994300	3.789500	-11.346000	23.915462	0.000543	20.983752
457.124755	-2.995000	3.788200	-11.344000	23.953244	0.000544	20.999351
458.121088	-3.002400	3.787100	-11.370000	23.970320	0.000547	20.990399
459.124962	-2.991800	3.788400	-11.333000	24.003493	0.000544	20.988578
460.120405	-2.998000	3.786700	-11.351000	24.024472	0.000545	20.991125
461.121240	-2.979100	3.787200	-11.281000	24.028883	0.000546	20.983695
462.122385	-2.991300	3.786400	-11.325000	24.012268	0.000543	21.013021
463.122215	-2.999100	3.786400	-11.355000	24.035758	0.000544	21.001018
464.121246	-2.997100	3.785800	-11.345000	24.053105	0.000544	20.998502
465.126115	-3.005700	3.784100	-11.374000	24.047612	0.000546	20.998682
466.121876	-2.995300	3.786900	-11.342000	24.046248	0.000544	20.984515
467.122283	-3.000600	3.786000	-11.359000	24.037215	0.000544	21.012435
468.127408	-3.032400	3.784400	-11.475000	24.036375	0.000547	21.011592
469.124088	-3.025500	3.784400	-11.449000	24.036078	0.000546	21.008450
470.125635	-2.999900	3.784300	-11.351000	24.066190	0.000545	21.002141
471.123215	-2.985100	3.784500	-11.296000	24.052564	0.000546	20.991796
472.124227	-2.991400	3.784000	-11.319000	24.039401	0.000546	21.032641
473.124238	-2.979100	3.784800	-11.274000	24.033029	0.000548	21.001601
474.124215	-3.001200	3.784100	-11.355000	24.070267	0.000546	20.990585
475.128748	-2.988300	3.784700	-11.309000	24.084722	0.000546	21.023568
476.126080	-2.998800	3.783900	-11.346000	24.072193	0.000544	21.004842
477.124310	-2.984400	3.783700	-11.291000	24.075648	0.000545	20.970855
478.125491	-2.995700	3.782700	-11.331000	24.074682	0.000546	21.004493
479.125667	-2.973800	3.783100	-11.249000	24.076754	0.000546	20.992349
480.126989	-3.013700	3.781500	-11.396000	24.093904	0.000545	21.013338
481.126561	-2.996500	3.781300	-11.330000	24.111100	0.000547	21.004033
482.127496	-2.991500	3.782000	-11.313000	24.116204	0.000545	20.975019
483.127925	-2.973800	3.782600	-11.248000	24.088663	0.000546	21.006660
484.127835	-2.989700	3.781300	-11.304000	24.071527	0.000544	21.002277
485.126251	-2.991800	3.780500	-11.309000	24.065234	0.000546	21.004027
486.128313	-2.990800	3.780500	-11.306000	24.084895	0.000546	20.993401
487.127419	-2.986800	3.780600	-11.291000	24.091146	0.000547	21.003936
488.126093	-3.004200	3.779800	-11.354000	24.053646	0.000547	21.001888
489.128667	-2.997800	3.779700	-11.330000	24.056939	0.000548	20.988598
490.130624	-2.979300	3.780700	-11.263000	24.085261	0.000549	21.000405
491.132126	-2.988100	3.780400	-11.295000	24.064136	0.000547	20.990600
492.128659	-2.965500	3.779100	-11.206000	24.095646	0.000548	20.973367
493.128177	-2.984600	3.780100	-11.281000	24.117323	0.000547	20.974718
494.127790	-2.984300	3.778900	-11.276000	24.119565	0.000547	20.981708
495.128888	-2.994300	3.779400	-11.315000	24.152441	0.000548	20.986705
496.128998	-2.982100	3.778700	-11.268000	24.167665	0.000547	20.988698
497.131615	-3.023300	3.777400	-11.419000	24.197080	0.000547	20.968418
498.130711	-3.039900	3.776000	-11.477000	24.155212	0.000547	20.984743
499.129858	-3.004900	3.776800	-11.348000	24.132696	0.000546	20.972119
500.131474	-3.010700	3.776600	-11.369000	24.137624	0.000547	20.979432
501.130022	-2.991500	3.776600	-11.297000	24.126439	0.000546	20.979593
502.132856	-3.015800	3.776000	-11.387000	24.143458	0.000548	20.989074
503.131574	-3.016000	3.776500	-11.389000	24.171380	0.000547	20.959711
504.133542	-3.010300	3.775100	-11.362000	24.165938	0.000550	20.982699
505.132441	-2.988800	3.775700	-11.284000	24.176046	0.000547	20.985725
506.132730	-3.016500	3.775300	-11.387000	24.129872	0.000548	20.965969
507.133931	-2.971000	3.776700	-11.219000	24.122384	0.000548	20.981216
508.135095	-2.991700	3.774600	-11.291000	24.150703	0.000547	20.985437
509.135221	-2.990900	3.774600	-11.288000	24.112616	0.000548	20.970473
510.132983	-2.985400	3.773400	-11.263000	24.154721	0.000547	20.949643
511.134485	-2.983800	3.774700	-11.261000	24.195427	0.000550	20.955856
512.134417	-3.005100	3.774600	-11.342000	24.234028	0.000549	20.967547
513.135457	-2.987700	3.774000	-11.275000	24.261722	0.000548	20.980150
514.134251	-3.007000	3.772100	-11.342000	24.266152	0.000550	20.948089
515.136116	-3.008300	3.773800	-11.351000	24.281434	0.000548	20.968630
516.137091	-2.979600	3.774100	-11.243000	24.287629	0.000550	20.959199
517.136803	-3.012600	3.772600	-11.364000	24.295252	0.000550	20.972060
518.139811	-3.008300	3.773200	-11.350000	24.278984	0.000550	20.950055
519.137423	-3.004500	3.772300	-11.332000	24.255827	0.000548	20.943896
520.136424	-2.997400	3.771800	-11.305000	24.280512	0.000548	20.975292
521.136795	-2.997000	3.772300	-11.305000	24.258522	0.000551	20.977889
522.136533	-2.979400	3.770900	-11.234000	24.253051	0.000548	20.948223
523.138069	-3.019200	3.770200	-11.382000	24.267981	0.000548	20.961301
524.138767	-3.001700	3.769800	-11.315000	24.255871	0.000548	20.961483
525.138946	-2.998200	3.770800	-11.305000	24.291002	0.000548	20.964952
526.142381	-3.012400	3.769500	-11.354000	24.279888	0.000549	20.971821
527.138675	-3.009500	3.769700	-11.344000	24.292078	0.000549	20.931897
528.139328	-2.970800	3.769700	-11.197000	24.302260	0.000549	20.943532
529.139854	-2.998000	3.768800	-11.298000	24.309949	0.000549	20.981585
530.139776	-2.996800	3.769200	-11.295000	24.307766	0.000548	20.952847
531.140567	-3.011800	3.768800	-11.350000	24.264877	0.000549	20.943492
532.143451	-3.006300	3.769100	-11.330000	24.224003	0.000547	20.949433
533.140990	-3.002800	3.768500	-11.315000	24.256826	0.000548	20.944899
534.145446	-3.013300	3.767900	-11.353000	24.236927	0.000547	20.949594
535.144026	-2.988300	3.768400	-11.260000	24.224662	0.000550	20.953886
536.141066	-2.992500	3.766900	-11.271000	24.229942	0.000548	20.960604
537.140638	-2.983300	3.768600	-11.241000	24.260693	0.000548	20.945458
538.151782	-3.002500	3.767500	-11.311000	24.242212	0.000551	20.942094
539.140928	-3.001900	3.765200	-11.302000	24.267969	0.000549	20.948963
540.145631	-3.000600	3.766300	-11.301000	24.301082	0.000549	20.949937
541.143171	-3.000300	3.766800	-11.301000	24.292448	0.000550	20.966878
542.142462	-2.998000	3.765100	-11.287000	24.312135	0.000552	20.945851
543.147012	-3.017000	3.766100	-11.360000	24.321171	0.000546	20.954440
544.143415	-2.994200	3.766900	-11.278000	24.312472	0.000548	20.958515
545.146235	-3.005100	3.765900	-11.315000	24.345931	0.000549	20.939925
546.143979	-3.012900	3.765400	-11.343000	24.378670	0.000548	20.940999
547.144448	-2.987400	3.765200	-11.247000	24.375316	0.000548	20.932894
548.144022	-2.997500	3.765200	-11.285000	24.331489	0.000548	20.946774
549.150146	-3.013400	3.763400	-11.339000	24.339901	0.000550	20.930085
550.148884	-3.012200	3.762900	-11.333000	24.350727	0.000548	20.945210
551.145685	-2.997400	3.762900	-11.279000	24.337070	0.000548	20.955691
552.146514	-3.003100	3.763100	-11.300000	24.349541	0.000547	20.928849
553.147346	-3.008900	3.762500	-11.320000	24.330463	0.000549	20.939107
554.145875	-2.991100	3.762200	-11.252000	24.364123	0.000548	20.959120
555.145620	-2.998600	3.762400	-11.281000	24.385543	0.000547	20.945049
556.146724	-2.992800	3.762500	-11.260000	24.393759	0.000548	20.940015
557.145853	-2.989000	3.762300	-11.244000	24.367693	0.000549	20.945160
558.145196	-2.971500	3.762800	-11.180000	24.378468	0.000549	20.937478
559.148131	-3.003800	3.761100	-11.296000	24.358546	0.000550	20.938830
560.145556	-2.988700	3.761000	-11.239000	24.314417	0.000549	20.942925
561.154066	-3.009100	3.760000	-11.313000	24.317178	0.000548	20.936212
562.147596	-2.984900	3.760200	-11.222000	24.348776	0.000550	20.949890
563.147737	-2.993300	3.760200	-11.254000	24.412488	0.000551	20.931779
564.148617	-2.982000	3.760400	-11.213000	24.447864	0.000550	20.933131
565.150486	-2.999600	3.761100	-11.281000	24.459041	0.000548	20.926327
566.152061	-3.012300	3.760400	-11.326000	24.457508	0.000549	20.926685
567.152955	-3.005900	3.758800	-11.298000	24.480565	0.000549	20.938436
568.149200	-2.987900	3.759400	-11.232000	24.444948	0.000549	20.933998
569.149732	-2.985800	3.759500	-11.224000	24.442364	0.000549	20.918131
570.151411	-2.988900	3.760000	-11.237000	24.474783	0.000549	20.939748
571.148632	-2.960900	3.757500	-11.124000	24.436904	0.000551	20.917395
572.155391	-3.013700	3.758200	-11.325000	24.430413	0.000547	20.911831
573.150229	-2.990400	3.758500	-11.239000	24.458333	0.000549	20.929883
574.151774	-2.983900	3.756500	-11.208000	24.473054	0.000550	20.926635
575.152056	-2.990000	3.757000	-11.233000	24.482069	0.000548	20.935204
576.153972	-3.015100	3.756400	-11.326000	24.467071	0.000547	20.941967
577.151288	-2.982400	3.756300	-11.201000	24.472672	0.000549	20.933363
578.153534	-3.003300	3.757200	-11.283000	24.475784	0.000547	20.918469
579.153114	-3.020600	3.756400	-11.346000	24.453330	0.000546	20.922020
580.154524	-2.987400	3.755800	-11.219000	24.423882	0.000547	20.932778
581.153118	-2.993700	3.756200	-11.244000	24.420629	0.000548	20.931885
582.156870	-3.003700	3.755700	-11.281000	24.418844	0.000547	20.931517
583.154314	-3.011500	3.754500	-11.305000	24.440912	0.000549	20.897235
584.155355	-3.008200	3.755500	-11.296000	24.485166	0.000547	20.921718
585.157290	-2.994000	3.755100	-11.242000	24.475594	0.000548	20.933449
586.156433	-2.999300	3.755300	-11.262000	24.514523	0.000549	20.937419
587.158677	-3.014200	3.755700	-11.319000	24.543305	0.000549	20.925521
588.159353	-2.993400	3.753100	-11.234000	24.543536	0.000549	20.941872
589.158330	-3.001700	3.753000	-11.264000	24.489460	0.000549	20.912276
590.158062	-2.987900	3.753500	-11.215000	24.481034	0.000547	20.922313
591.157881	-3.018200	3.752700	-11.325000	24.485790	0.000550	20.926610
592.161126	-2.985400	3.753300	-11.204000	24.493005	0.000546	20.922944
593.160360	-3.011900	3.751700	-11.298000	24.515991	0.000547	20.915187
594.159308	-2.993100	3.752600	-11.230000	24.537237	0.000547	20.923701
595.159822	-2.995000	3.752800	-11.239000	24.546045	0.000548	20.935382
596.161037	-3.009900	3.751400	-11.290000	24.525428	0.000549	20.916594
597.159389	-3.024200	3.751100	-11.343000	24.513246	0.000546	20.929975
598.162667	-3.022200	3.751800	-11.338000	24.476364	0.000549	20.907198
599.160417	-3.004600	3.751600	-11.271000	24.452386	0.000547	20.922021
600.161413	-2.983800	3.750800	-11.190000	24.466746	0.000549	20.929789
601.160623	-2.988300	3.750000	-11.205000	24.485997	0.000548	20.903587
602.162686	-3.005300	3.750000	-11.270000	24.508516	0.000547	20.918118
603.165804	-2.986600	3.751000	-11.202000	24.514911	0.000547	20.920741
604.160584	-3.004500	3.749100	-11.263000	24.528591	0.000547	20.920716
605.161651	-3.002300	3.747400	-11.250000	24.521281	0.000548	20.921442
606.159373	-2.997300	3.748900	-11.236000	24.549686	0.000547	20.908217
607.160499	-2.987400	3.747900	-11.195000	24.565135	0.000547	20.907123
608.160741	-2.996900	3.748200	-11.231000	24.570666	0.000548	20.888492
609.163994	-3.008400	3.747800	-11.274000	24.567131	0.000549	20.918608
610.170575	-3.008400	3.747800	-11.274000	24.538335	0.000548	20.914371
611.163159	-3.011200	3.747900	-11.285000	24.521599	0.000547	20.926975
612.167819	-3.008100	3.747600	-11.272000	24.521005	0.000545	20.900779
613.162510	-3.000200	3.747300	-11.241000	24.533524	0.000546	20.909071
614.166510	-2.998100	3.747900	-11.236000	24.505093	0.000548	20.910418
615.161558	-2.994900	3.747600	-11.223000	24.495124	0.000547	20.912269
616.165790	-3.009100	3.747100	-11.274000	24.544947	0.000546	20.902988
617.162760	-3.002900	3.745900	-11.248000	24.573452	0.000547	20.899347
618.163061	-3.006200	3.745200	-11.257000	24.595924	0.000547	20.903403
619.163418	-2.997200	3.746900	-11.229000	24.613011	0.000547	20.893048
620.164655	-2.993600	3.746700	-11.216000	24.599312	0.000547	20.910595
621.163018	-2.988300	3.746400	-11.195000	24.572522	0.000547	20.910741
622.163857	-2.990200	3.746500	-11.202000	24.536864	0.000545	20.893931
623.163577	-3.004400	3.745500	-11.251000	24.521299	0.000546	20.904392
624.165275	-3.004800	3.744200	-11.250000	24.565676	0.000546	20.929948
625.166333	-3.004900	3.743700	-11.249000	24.581502	0.000547	20.901734
626.164389	-2.991300	3.743800	-11.198000	24.611876	0.000544	20.917511
627.165166	-3.012200	3.744100	-11.278000	24.597323	0.000545	20.890109
628.166615	-3.013900	3.744400	-11.284000	24.615984	0.000544	20.906935
629.165044	-2.990700	3.743000	-11.193000	24.632201	0.000545	20.902819
630.169654	-3.007500	3.742000	-11.253000	24.646533	0.000544	20.897761
631.164859	-3.004900	3.742100	-11.243000	24.594383	0.000545	20.918450
632.165014	-3.023600	3.740900	-11.310000	24.601225	0.000544	20.911091
633.168947	-3.007000	3.742400	-11.252000	24.628065	0.000546	20.908625
634.166946	-2.988200	3.741600	-11.180000	24.663560	0.000544	20.894932
635.165834	-2.975700	3.742300	-11.135000	24.652566	0.000545	20.910925
636.168824	-3.015200	3.741300	-11.280000	24.607057	0.000543	20.896082
637.165804	-2.979100	3.740800	-11.143000	24.577191	0.000544	20.895038
638.165845	-2.978400	3.741000	-11.142000	24.575281	0.000544	20.877002
639.168899	-3.002500	3.741000	-11.231000	24.610722	0.000545	20.915879
640.166575	-2.984200	3.740500	-11.162000	24.650144	0.000544	20.901858
641.171146	-3.005100	3.739800	-11.238000	24.613890	0.000542	20.900567
642.168235	-3.008000	3.739800	-11.248000	24.604821	0.000545	20.892891
643.166645	-2.993000	3.740500	-11.194000	24.635612	0.000544	20.890596
644.168274	-3.015900	3.739000	-11.274000	24.673590	0.000543	20.894565
645.168527	-3.001300	3.739200	-11.220000	24.662356	0.000542	20.892775
646.169534	-3.006500	3.739200	-11.241000	24.644128	0.000542	20.894400
647.169792	-2.989600	3.739200	-11.179000	24.617445	0.000543	20.894652
648.169671	-3.002600	3.737600	-11.222000	24.660823	0.000542	20.905461
649.171002	-3.031800	3.737100	-11.329000	24.658717	0.000542	20.891969
650.171310	-3.014300	3.737700	-11.266000	24.692317	0.000544	20.872107
651.174141	-2.991200	3.739100	-11.184000	24.666087	0.000542	20.889408
652.171075	-3.016400	3.736700	-11.270000	24.649851	0.000543	20.875487
653.172434	-2.991300	3.737700	-11.180000	24.637917	0.000542	20.890538
654.173134	-2.990700	3.737400	-11.177000	24.604165	0.000544	20.873742
655.172377	-2.976300	3.738100	-11.125000	24.641482	0.000541	20.923035
656.173260	-2.979500	3.736800	-11.133000	24.625636	0.000540	20.875846
657.172616	-2.998900	3.736100	-11.203000	24.657251	0.000541	20.893817
658.171774	-2.985900	3.736200	-11.156000	24.691731	0.000540	20.890484
659.172016	-2.998800	3.735200	-11.200000	24.693822	0.000545	20.864609
660.172082	-2.996900	3.734400	-11.191000	24.640578	0.000542	20.888941
661.173238	-3.008700	3.736300	-11.240000	24.595364	0.000541	20.906160
662.172768	-2.991000	3.735800	-11.173000	24.597657	0.000541	20.882384
663.174083	-2.997600	3.734800	-11.195000	24.579630	0.000540	20.885633
664.173552	-3.010700	3.735200	-11.245000	24.584034	0.000543	20.885310
665.173482	-3.006300	3.735500	-11.230000	24.596155	0.000541	20.877084
666.173644	-3.013100	3.734200	-11.250000	24.649577	0.000540	20.892755
667.176098	-2.980700	3.734500	-11.129000	24.644631	0.000543	20.881155
668.173107	-3.011400	3.733900	-11.243000	24.687927	0.000539	20.878133
669.172470	-2.997800	3.733000	-11.190000	24.680006	0.000537	20.886779
670.176084	-3.014000	3.733800	-11.252000	24.680976	0.000540	20.892494
671.175222	-2.997700	3.733600	-11.191000	24.710769	0.000540	20.877821
672.178319	-3.017000	3.731400	-11.256000	24.721497	0.000539	20.890482
673.176223	-2.987100	3.732000	-11.147000	24.716722	0.000540	20.857717
674.177014	-3.011900	3.732000	-11.239000	24.699521	0.000542	20.896404
675.175910	-3.003600	3.730800	-11.205000	24.659925	0.000541	20.875164
676.174726	-3.011400	3.730900	-11.234000	24.630834	0.000538	20.873475
677.178045	-2.996200	3.732200	-11.180000	24.682636	0.000537	20.886574
678.180369	-2.996500	3.731200	-11.180000	24.727384	0.000540	20.862727
679.179145	-2.999000	3.731700	-11.191000	24.746857	0.000538	20.864251
680.180034	-2.984500	3.733000	-11.141000	24.732738	0.000538	20.849134
681.182832	-3.003000	3.730600	-11.202000	24.760761	0.000538	20.871564
682.179554	-2.999500	3.730800	-11.190000	24.789492	0.000539	20.871948
683.181775	-2.991500	3.730200	-11.158000	24.736630	0.000540	20.880064
684.180970	-2.999300	3.728900	-11.183000	24.728225	0.000538	20.892492
685.180364	-2.981800	3.731600	-11.126000	24.741581	0.000538	20.877447
686.183494	-3.031600	3.727600	-11.300000	24.759988	0.000538	20.857988
687.181890	-3.010200	3.727600	-11.220000	24.738108	0.000538	20.853575
688.185843	-3.008400	3.728000	-11.214000	24.752580	0.000538	20.859562
689.182823	-2.979500	3.728800	-11.109000	24.778602	0.000538	20.871451
690.184043	-2.992900	3.728400	-11.158000	24.761517	0.000538	20.869005
691.183199	-2.986600	3.728700	-11.135000	24.742995	0.000538	20.867961
692.183228	-3.025000	3.726900	-11.272000	24.775250	0.000535	20.856234
693.183573	-3.016700	3.727500	-11.244000	24.794822	0.000536	20.849324
694.186983	-2.996800	3.725700	-11.165000	24.750043	0.000535	20.880723
695.184375	-2.987400	3.727700	-11.135000	24.735648	0.000535	20.861062
696.184566	-3.001800	3.727100	-11.187000	24.733632	0.000535	20.861410
697.187592	-3.024700	3.725700	-11.268000	24.708128	0.000537	20.863318
698.186584	-2.995700	3.727600	-11.166000	24.700618	0.000536	20.860998
699.189197	-2.982200	3.725800	-11.110000	24.696069	0.000536	20.851692
700.184025	-2.988500	3.724500	-11.130000	24.763194	0.000534	20.883963
701.184871	-2.994200	3.726400	-11.157000	24.752699	0.000534	20.868216
702.185848	-2.994400	3.726400	-11.157000	24.736987	0.000536	20.848656
703.187461	-3.008700	3.723600	-11.202000	24.738952	0.000536	20.851102
704.190838	-2.988000	3.726100	-11.132000	24.745371	0.000534	20.856596
705.188918	-3.015500	3.723900	-11.228000	24.771836	0.000532	20.850912
706.188447	-2.992300	3.724200	-11.143000	24.718293	0.000534	20.856450
707.187772	-2.984000	3.724500	-11.113000	24.720264	0.000534	20.836143
708.189828	-2.984800	3.723100	-11.112000	24.715514	0.000534	20.857928
709.189617	-2.991300	3.723300	-11.137000	24.739888	0.000536	20.876222
710.190544	-2.984400	3.724000	-11.114000	24.756576	0.000533	20.843659
711.188922	-2.995000	3.722700	-11.148000	24.804699	0.000533	20.870140
712.189622	-3.008500	3.722800	-11.199000	24.804679	0.000534	20.853052
713.191284	-3.002800	3.722900	-11.178000	24.792099	0.000533	20.839479
714.189497	-3.008900	3.722400	-11.200000	24.818758	0.000535	20.848689
715.192839	-3.001100	3.722300	-11.170000	24.807525	0.000530	20.841210
716.191593	-3.006900	3.720200	-11.185000	24.854946	0.000534	20.838068
717.191571	-3.000000	3.721800	-11.165000	24.849529	0.000535	20.833579
718.192915	-2.985400	3.721300	-11.108000	24.803782	0.000535	20.839824
719.193449	-3.005100	3.720300	-11.179000	24.791693	0.000532	20.861830
720.191444	-2.998300	3.721000	-11.155000	24.810276	0.000531	20.842074
721.196146	-3.019000	3.719600	-11.228000	24.786457	0.000533	20.838558
722.190834	-3.013700	3.720200	-11.210000	24.823661	0.000532	20.843653
723.191825	-3.016100	3.719300	-11.217000	24.820007	0.000533	20.852314
724.195654	-3.008600	3.718800	-11.188000	24.783709	0.000532	20.837697
725.193035	-3.030700	3.720000	-11.272000	24.775551	0.000533	20.837571
726.195022	-2.977600	3.721400	-11.080000	24.763895	0.000530	20.848159
727.193010	-2.995800	3.720100	-11.144000	24.808106	0.000531	20.856965
728.192844	-3.001800	3.720100	-11.165000	24.840535	0.000531	20.852527
729.194884	-3.014900	3.718300	-11.209000	24.831670	0.000529	20.848846
730.195640	-3.011900	3.719000	-11.201000	24.812331	0.000529	20.851722
731.195783	-2.999000	3.719100	-11.153000	24.806636	0.000531	20.837947
732.193714	-2.994400	3.719900	-11.138000	24.818403	0.000530	20.835531
733.197520	-2.992100	3.718500	-11.125000	24.865200	0.000531	20.832237
734.194147	-2.997500	3.718200	-11.144000	24.848223	0.000531	20.856923
735.194095	-2.997200	3.716900	-11.139000	24.900568	0.000530	20.836440
736.195282	-2.995400	3.717600	-11.135000	24.922305	0.000532	20.845454
737.194111	-2.995600	3.716700	-11.133000	24.928944	0.000530	20.849273
738.194340	-2.986900	3.716900	-11.101000	24.917310	0.000528	20.838544
739.198055	-2.977400	3.717500	-11.067000	24.866816	0.000530	20.842868
740.195323	-2.988000	3.716000	-11.102000	24.903651	0.000529	20.861345
741.194554	-2.973600	3.715400	-11.046000	24.886739	0.000529	20.856225
742.198270	-3.019500	3.714900	-11.217000	24.830424	0.000528	20.847595
743.194457	-3.027300	3.714700	-11.245000	24.814095	0.000528	20.861079
744.197309	-2.992500	3.715200	-11.116000	24.793010	0.000528	20.847031
745.197867	-2.981200	3.715600	-11.077000	24.810145	0.000528	20.851425
746.195962	-2.998600	3.714700	-11.137000	24.845257	0.000528	20.835456
747.198475	-2.967200	3.715200	-11.022000	24.893476	0.000529	20.855874
748.195156	-3.008300	3.715000	-11.176000	24.853174	0.000528	20.856677
749.195514	-2.971200	3.714300	-11.034000	24.860689	0.000526	20.843830
750.196430	-3.023600	3.713100	-11.226000	24.848455	0.000526	20.844355
751.196594	-3.008700	3.713000	-11.170000	24.878023	0.000527	20.848426
752.198723	-2.978000	3.713000	-11.057000	24.869500	0.000526	20.842243
753.199073	-3.021900	3.711600	-11.215000	24.889840	0.000527	20.846061
754.198292	-3.006300	3.712900	-11.161000	24.865153	0.000525	20.843096
755.196422	-2.999600	3.712700	-11.136000	24.871924	0.000525	20.853210
756.198808	-2.976300	3.712100	-11.047000	24.881543	0.000526	20.824458
757.198872	-3.006500	3.711200	-11.156000	24.907406	0.000526	20.835717
758.199948	-2.990100	3.712400	-11.100000	24.936702	0.000528	20.843309
759.197984	-3.004600	3.711800	-11.152000	24.918434	0.000526	20.854371
760.199056	-3.026000	3.710700	-11.227000	24.892180	0.000526	20.829444
761.203053	-3.012000	3.710300	-11.175000	24.902176	0.000525	20.827623
762.200486	-3.005500	3.710800	-11.152000	24.863443	0.000525	20.848965
763.206519	-2.988400	3.710200	-11.087000	24.860564	0.000524	20.839438
764.200742	-2.992900	3.710000	-11.103000	24.873244	0.000525	20.853586
765.201025	-2.982200	3.711300	-11.067000	24.858674	0.000524	20.829007
766.201717	-2.982000	3.710600	-11.064000	24.821658	0.000525	20.835005
767.203057	-2.989700	3.709300	-11.088000	24.836083	0.000523	20.843792
768.202276	-2.987200	3.710000	-11.081000	24.859183	0.000525	20.839949
769.206666	-2.979500	3.710700	-11.055000	24.854937	0.000523	20.835213
770.201679	-2.972300	3.708800	-11.023000	24.843056	0.000523	20.831824
771.201171	-2.994900	3.707800	-11.104000	24.915092	0.000525	20.838215
772.204092	-2.978200	3.708900	-11.045000	24.919223	0.000523	20.848051
773.201735	-3.025900	3.707200	-11.217000	24.955473	0.000522	20.842236
774.205676	-3.022600	3.707200	-11.204000	24.945161	0.000522	20.842791
775.202227	-3.008000	3.707900	-11.153000	24.940286	0.000520	20.836476
776.203092	-2.998300	3.708000	-11.117000	24.969133	0.000522	20.848360
777.208339	-3.013700	3.706700	-11.170000	24.997085	0.000521	20.850338
778.202237	-3.026600	3.707500	-11.220000	24.984653	0.000523	20.844497
779.204271	-3.004500	3.706400	-11.135000	24.993804	0.000521	20.847519
780.206323	-3.025100	3.706000	-11.211000	24.982322	0.000522	20.837416
781.204304	-2.996500	3.706300	-11.106000	24.980879	0.000520	20.834546
782.207220	-2.992400	3.705900	-11.089000	24.941632	0.000519	20.852998
783.206090	-2.994100	3.706500	-11.097000	24.917754	0.000520	20.836145
784.204898	-3.009700	3.705200	-11.151000	24.926389	0.000521	20.868518
785.207288	-3.011300	3.705600	-11.158000	24.945366	0.000521	20.859117
786.204203	-3.009900	3.705400	-11.152000	24.950663	0.000520	20.838831
787.203996	-3.007400	3.704600	-11.141000	24.942758	0.000518	20.849862
788.208657	-2.999600	3.704700	-11.112000	24.964791	0.000520	20.872449
789.205601	-3.000700	3.704600	-11.116000	24.970163	0.000517	20.851764
790.209190	-3.028600	3.705000	-11.219000	24.974918	0.000519	20.850373
791.205823	-3.000300	3.705400	-11.117000	24.997025	0.000519	20.859286
792.204884	-2.988600	3.703900	-11.068000	24.993713	0.000519	20.852643
793.206087	-3.009900	3.704600	-11.149000	24.969255	0.000517	20.857491
794.207739	-3.006900	3.703400	-11.135000	24.985744	0.000518	20.855075
795.209579	-2.996300	3.701600	-11.090000	24.975553	0.000518	20.856700
796.212785	-3.001500	3.702700	-11.113000	24.967648	0.000517	20.857775
797.209963	-2.985900	3.702600	-11.054000	24.988143	0.000518	20.857483
798.211144	-2.991500	3.702200	-11.074000	24.986178	0.000518	20.864993
799.212708	-2.976800	3.703400	-11.024000	24.998642	0.000518	20.883193
800.212023	-2.963400	3.702100	-10.970000	24.968213	0.000516	20.853601
801.215227	-3.021100	3.700900	-11.180000	24.949765	0.000517	20.873015
802.212967	-3.000600	3.701400	-11.105000	24.916330	0.000517	20.873121
803.212518	-3.004200	3.701600	-11.119000	24.952857	0.000516	20.855256
804.212385	-2.980100	3.701300	-11.030000	24.988342	0.000514	20.870010
805.213140	-2.992000	3.700900	-11.072000	25.019715	0.000517	20.886801
806.215786	-2.958500	3.701600	-10.949000	24.986263	0.000516	20.859863
807.216823	-3.007000	3.701000	-11.128000	24.979127	0.000514	20.867399
808.213401	-2.979500	3.699300	-11.021000	24.948301	0.000515	20.871546
809.212780	-2.981200	3.699900	-11.030000	24.905091	0.000513	20.880806
810.221981	-2.984200	3.700200	-11.041000	24.940201	0.000513	20.857252
811.214247	-2.972900	3.700900	-11.001000	24.920522	0.000514	20.864527
812.219292	-3.003800	3.700200	-11.113000	24.951720	0.000515	20.860753
813.215062	-2.960800	3.699800	-10.954000	24.978085	0.000515	20.868250
814.214101	-2.989200	3.700400	-11.061000	24.988629	0.000515	20.875514
815.213964	-2.981200	3.699100	-11.027000	25.004525	0.000512	20.883409
816.214279	-3.021000	3.697900	-11.171000	25.024913	0.000511	20.895337
817.216488	-3.011500	3.697200	-11.133000	25.040683	0.000515	20.872288
818.215719	-3.005400	3.697900	-11.112000	25.007673	0.000512	20.861440
819.213898	-2.999300	3.697800	-11.090000	25.009594	0.000511	20.889918
820.216430	-2.996000	3.696700	-11.074000	25.005885	0.000512	20.879083
821.227083	-3.017300	3.696400	-11.153000	25.013971	0.000511	20.874873
822.215575	-3.006500	3.697600	-11.116000	25.053580	0.000511	20.855364
823.217778	-3.020000	3.697000	-11.164000	25.039365	0.000512	20.885663
824.217255	-3.016200	3.695400	-11.146000	25.025773	0.000508	20.866331
825.215849	-2.996400	3.695100	-11.071000	24.972866	0.000511	20.885296
826.217604	-3.013700	3.695300	-11.135000	24.984153	0.000512	20.876237
827.216379	-2.997700	3.696300	-11.079000	25.025728	0.000512	20.866286
828.218105	-3.012400	3.695000	-11.130000	25.024664	0.000511	20.906466
829.216805	-3.000900	3.695100	-11.088000	25.054353	0.000511	20.875579
830.216887	-2.996900	3.694800	-11.072000	25.049906	0.000512	20.882494
831.217682	-3.003800	3.694000	-11.095000	25.087177	0.000510	20.881027
832.220798	-3.001700	3.693700	-11.086000	25.087901	0.000510	20.882702
833.219352	-3.008400	3.693700	-11.112000	25.087510	0.000511	20.892266
834.219009	-2.992400	3.694900	-11.054000	25.055649	0.000508	20.872138
835.218395	-3.024700	3.692800	-11.169000	25.102109	0.000509	20.882739
836.214583	-2.998300	3.695200	-11.078000	25.092246	0.000508	20.884218
837.216588	-2.981600	3.693500	-11.012000	25.097914	0.000508	20.889433
838.219353	-2.998300	3.694000	-11.075000	25.161141	0.000507	20.877991
839.221437	-2.998200	3.691900	-11.068000	25.163307	0.000509	20.879691
840.218755	-2.994400	3.693100	-11.058000	25.093359	0.000507	20.886758
841.218292	-2.991100	3.691900	-11.041000	25.027060	0.000506	20.888958
842.222863	-2.994500	3.692100	-11.055000	25.028483	0.000508	20.900343
843.219798	-2.994700	3.691900	-11.055000	25.011975	0.000506	20.888989
844.220691	-2.995500	3.691400	-11.057000	25.021107	0.000509	20.903844
845.219949	-3.003700	3.692200	-11.089000	25.055992	0.000505	20.913257
846.222098	-3.010300	3.690600	-11.109000	25.045273	0.000506	20.902972
847.222183	-2.999400	3.691400	-11.071000	25.020666	0.000505	20.906246
848.222679	-2.985200	3.691400	-11.019000	25.007174	0.000505	20.909299
849.221331	-3.017900	3.690200	-11.136000	25.076813	0.000505	20.900493
850.224854	-3.009200	3.689600	-11.102000	25.049422	0.000506	20.908085
851.222858	-3.020100	3.689500	-11.142000	24.993487	0.000506	20.898880
852.223054	-3.011700	3.689000	-11.109000	25.007765	0.000505	20.903255
853.225721	-2.980300	3.690700	-10.999000	25.001448	0.000502	20.902129
854.223121	-2.999600	3.690800	-11.071000	25.016079	0.000504	20.899272
855.226735	-2.994600	3.688700	-11.045000	25.028285	0.000504	20.906782
856.222771	-3.005400	3.688900	-11.085000	24.984883	0.000502	20.910157
857.223105	-2.995800	3.689100	-11.052000	25.014447	0.000505	20.911857
858.223871	-3.010200	3.688400	-11.102000	25.023945	0.000504	20.905744
859.223331	-2.994900	3.687500	-11.042000	25.055473	0.000503	20.887608
860.226016	-3.000600	3.689900	-11.071000	25.100327	0.000502	20.915561
861.224500	-3.012800	3.687700	-11.110000	25.148856	0.000502	20.913070
862.223572	-3.011800	3.687300	-11.104000	25.155771	0.000503	20.905788
863.223623	-3.014100	3.688000	-11.114000	25.188914	0.000501	20.921041
864.224942	-2.975300	3.687500	-10.970000	25.119956	0.000503	20.914403
865.223750	-3.006900	3.686900	-11.086000	25.070940	0.000503	20.910718
866.226410	-2.987100	3.687300	-11.013000	25.084688	0.000503	20.912191
867.224091	-3.010900	3.685900	-11.097000	25.101963	0.000501	20.916730
868.225632	-3.000300	3.686400	-11.059000	25.136348	0.000502	20.906678
869.224873	-3.004800	3.686100	-11.075000	25.113607	0.000500	20.924150
870.228723	-2.981900	3.685800	-10.990000	25.072268	0.000501	20.907784
871.225035	-2.982300	3.686000	-10.992000	25.031003	0.000501	20.918992
872.224198	-2.997000	3.685100	-11.043000	25.042031	0.000498	20.900191
873.226540	-2.990900	3.685800	-11.023000	25.042648	0.000498	20.909345
874.225710	-2.987600	3.684300	-11.006000	25.083774	0.000499	20.922177
875.229117	-2.999800	3.684200	-11.051000	25.109462	0.000499	20.929472
876.230233	-2.990100	3.684500	-11.017000	25.081569	0.000499	20.909060
877.225967	-2.985300	3.684100	-10.997000	25.095815	0.000500	20.920040
878.226758	-2.991900	3.684700	-11.022000	25.129256	0.000498	20.932272
879.227851	-2.992900	3.684600	-11.026000	25.122845	0.000497	20.922044
880.227639	-2.985300	3.682600	-10.992000	25.152185	0.000501	20.941539
881.231024	-3.027400	3.682600	-11.148000	25.160642	0.000498	20.924427
882.231366	-3.004700	3.681800	-11.061000	25.167853	0.000497	20.931664
883.229354	-3.013300	3.681300	-11.092000	25.175315	0.000498	20.938681
884.232004	-3.008800	3.683100	-11.081000	25.160824	0.000498	20.931247
885.229464	-2.987000	3.681500	-10.996000	25.191977	0.000496	20.940710
886.230640	-3.002400	3.680600	-11.050000	25.195365	0.000497	20.938421
887.230278	-2.992100	3.681200	-11.014000	25.142939	0.000497	20.939369
888.230089	-2.963900	3.682700	-10.915000	25.155647	0.000498	20.944540
889.229172	-2.982300	3.682400	-10.981000	25.145313	0.000495	20.942226
890.233812	-3.005400	3.679700	-11.058000	25.176983	0.000496	20.939881
891.232067	-2.995800	3.680200	-11.024000	25.177556	0.000495	20.947094
892.229997	-3.007200	3.679800	-11.065000	25.154526	0.000494	20.947681
893.230242	-3.004100	3.680300	-11.055000	25.123850	0.000494	20.939647
894.230803	-3.010800	3.679000	-11.076000	25.101411	0.000493	20.937984
895.232854	-3.011600	3.679800	-11.081000	25.091574	0.000494	20.945177
896.231035	-3.001700	3.679200	-11.043000	25.095945	0.000493	20.945772
897.233542	-3.013000	3.679200	-11.084000	25.089533	0.000492	20.951189
898.231940	-2.996600	3.678800	-11.023000	25.115077	0.000494	20.943167
899.232909	-2.956600	3.680900	-10.882000	25.121047	0.000492	20.953426
900.236518	-3.000800	3.678600	-11.038000	25.148095	0.000492	20.938382
901.233639	-3.010700	3.678300	-11.073000	25.183002	0.000492	20.951138
902.236361	-2.999800	3.678000	-11.033000	25.212882	0.000494	20.930404
903.236046	-3.009400	3.677800	-11.066000	25.210697	0.000492	20.952863
904.235216	-3.007400	3.678400	-11.061000	25.232377	0.000492	20.942863
905.234075	-3.012100	3.678400	-11.078000	25.226962	0.000492	20.964450
906.234411	-2.987300	3.677200	-10.983000	25.187271	0.000491	20.948312
907.235461	-2.992100	3.677600	-11.003000	25.180558	0.000490	20.969545
908.234192	-2.972800	3.677400	-10.932000	25.153712	0.000489	20.955398
909.236782	-2.996500	3.676800	-11.016000	25.163234	0.000489	20.974437
910.235390	-2.998200	3.676800	-11.023000	25.168681	0.000489	20.951460
911.235393	-2.963500	3.676300	-10.893000	25.153794	0.000488	20.977288
912.236502	-3.017000	3.677100	-11.093000	25.158945	0.000490	20.967762
913.236706	-2.991600	3.675000	-10.993000	25.151835	0.000488	20.953040
914.235568	-3.021500	3.675200	-11.104000	25.166779	0.000489	20.949551
915.236473	-2.986500	3.675400	-10.976000	25.222566	0.000489	20.977104
916.237596	-3.019500	3.674000	-11.093000	25.213120	0.000487	20.955296
917.236426	-2.988300	3.675400	-10.982000	25.226401	0.000492	20.979057
918.239649	-3.000900	3.673400	-11.023000	25.205022	0.000489	20.966605
919.238094	-2.984600	3.673800	-10.964000	25.140121	0.000488	20.958823
920.237643	-2.995100	3.674200	-11.004000	25.129535	0.000488	20.955309
921.237828	-2.984800	3.674100	-10.966000	25.128269	0.000487	20.981061
922.240226	-2.984900	3.672900	-10.962000	25.171974	0.000487	20.959032
923.242785	-2.991100	3.673000	-10.985000	25.202824	0.000486	20.968191
924.240594	-3.000800	3.672500	-11.020000	25.178945	0.000485	20.987363
925.237395	-2.994000	3.673100	-10.996000	25.200670	0.000485	20.973141
926.237642	-3.003000	3.671100	-11.024000	25.208630	0.000486	20.962641
927.238695	-3.010200	3.671400	-11.050000	25.218573	0.000486	20.987793
928.237670	-3.001200	3.671500	-11.017000	25.208888	0.000485	20.967641
929.240175	-3.006000	3.670100	-11.032000	25.180179	0.000486	20.991446
930.238179	-2.973200	3.670800	-10.913000	25.207944	0.000485	20.984234
931.239470	-3.020300	3.670600	-11.085000	25.240090	0.000484	20.966724
932.241681	-3.013900	3.670800	-11.062000	25.279943	0.000486	20.984923
933.239884	-3.027600	3.669400	-11.108000	25.279716	0.000483	20.988488
934.242881	-3.016700	3.671200	-11.073000	25.217206	0.000486	20.987369
935.239301	-3.001300	3.670700	-11.015000	25.195765	0.000482	20.972957
936.239573	-3.000800	3.669200	-11.009000	25.198076	0.000483	20.999455
937.238942	-3.014400	3.669600	-11.061000	25.200764	0.000483	20.975131
938.240359	-2.984500	3.670000	-10.952000	25.170241	0.000483	20.962982
939.239984	-3.015200	3.668900	-11.061000	25.175915	0.000483	21.002337
940.244704	-3.008100	3.668500	-11.034000	25.206092	0.000483	20.979531
941.240382	-3.019100	3.667500	-11.072000	25.222527	0.000482	20.999821
942.242728	-3.022900	3.666600	-11.083000	25.238912	0.000481	20.981661
943.241174	-3.000600	3.668500	-11.007000	25.259402	0.000482	20.992748
944.241441	-2.989300	3.667400	-10.963000	25.284212	0.000482	20.988260
945.243638	-2.987800	3.667000	-10.955000	25.309814	0.000481	20.988835
946.246055	-2.991800	3.667000	-10.970000	25.258049	0.000481	20.984278
947.243441	-2.998000	3.665800	-10.990000	25.199933	0.000479	21.014119
948.242871	-2.983600	3.666400	-10.938000	25.231904	0.000480	20.998329
949.242650	-2.987700	3.665900	-10.952000	25.285717	0.000480	21.003519
950.243447	-3.009600	3.666500	-11.033000	25.298845	0.000479	21.000105
951.244618	-2.977100	3.666600	-10.915000	25.275459	0.000477	20.998437
952.245085	-3.002100	3.664400	-11.000000	25.261864	0.000478	21.006123
953.244067	-2.990000	3.666000	-10.961000	25.246236	0.000479	20.999916
954.243860	-3.019900	3.665300	-11.068000	25.246015	0.000478	21.008228
955.245021	-3.000400	3.664600	-10.995000	25.289640	0.000478	21.014568
956.245891	-3.001800	3.663800	-10.996000	25.266952	0.000476	20.990371
957.245801	-3.009200	3.664000	-11.025000	25.272323	0.000477	20.990548
958.245487	-3.001600	3.664000	-10.997000	25.282298	0.000476	21.019523
959.247189	-3.004100	3.663700	-11.005000	25.231538	0.000478	21.000807
960.248858	-3.010600	3.664200	-11.031000	25.263558	0.000475	20.998816
961.249032	-3.007300	3.662200	-11.012000	25.240871	0.000477	21.001641
962.246619	-3.010600	3.662800	-11.026000	25.261776	0.000476	21.009827
963.244871	-3.004900	3.661900	-11.003000	25.273363	0.000475	21.021931
964.244709	-3.020500	3.662200	-11.061000	25.257010	0.000476	20.987975
965.247417	-3.005400	3.661400	-11.003000	25.229624	0.000476	21.039181
966.246849	-2.984300	3.662700	-10.930000	25.235940	0.000474	21.011862
967.251849	-3.002900	3.662400	-10.997000	25.259617	0.000474	20.981111
968.246723	-3.003600	3.661500	-10.997000	25.320707	0.000474	21.012096
969.246969	-3.007800	3.661400	-11.012000	25.350244	0.000475	20.988178
970.250500	-3.018200	3.661300	-11.049000	25.383079	0.000473	20.997438
971.249237	-3.028700	3.660200	-11.084000	25.363995	0.000472	20.988235
972.249176	-3.023000	3.659100	-11.060000	25.353883	0.000472	20.997046
973.248348	-3.000000	3.659100	-10.976000	25.369448	0.000472	21.002716
974.248386	-2.995600	3.660100	-10.963000	25.328465	0.000470	21.000921
975.246975	-2.997500	3.660500	-10.972000	25.326903	0.000469	20.984183
976.248239	-3.006800	3.660000	-11.004000	25.340006	0.000472	20.993545
977.251519	-2.996400	3.659200	-10.964000	25.308203	0.000469	20.984373
978.250022	-3.004900	3.657500	-10.989000	25.315985	0.000471	20.971801
979.258261	-3.004300	3.658100	-10.989000	25.339925	0.000470	20.977344
980.250382	-3.025200	3.658500	-11.067000	25.342833	0.000470	20.966990
981.251567	-2.999000	3.658700	-10.971000	25.298248	0.000471	20.974854
982.249590	-2.990900	3.658100	-10.940000	25.325972	0.000471	20.966655
983.251872	-3.015500	3.656300	-11.024000	25.275668	0.000470	20.976365
984.252169	-3.023400	3.656300	-11.054000	25.235060	0.000471	20.973053
985.251467	-3.011900	3.656900	-11.013000	25.238693	0.000470	20.970063
986.254580	-2.996400	3.657700	-10.960000	25.247194	0.000470	20.969589
987.251585	-2.988700	3.656800	-10.928000	25.272904	0.000467	20.983072
988.255625	-3.023600	3.656300	-11.054000	25.283798	0.000468	20.950392
989.252050	-3.022200	3.655400	-11.046000	25.330651	0.000469	20.967086
990.252048	-2.995400	3.655600	-10.949000	25.311239	0.000466	20.962769
991.251314	-3.008800	3.655500	-10.998000	25.257931	0.000467	20.985581
992.250876	-3.006000	3.655000	-10.986000	25.277495	0.000466	20.969665
993.251819	-2.998200	3.655100	-10.958000	25.308569	0.000468	20.976682
994.252681	-3.037100	3.653800	-11.096000	25.247780	0.000464	20.970651
995.253167	-3.000400	3.654400	-10.964000	25.242459	0.000465	20.967680
996.254282	-3.020500	3.654800	-11.038000	25.252604	0.000465	20.965538
997.253276	-3.012600	3.653800	-11.007000	25.268296	0.000464	20.945259
998.255870	-3.019900	3.653900	-11.034000	25.302002	0.000466	20.952548
999.255051	-3.010400	3.652200	-10.994000	25.306756	0.000464	20.950209
1000.252867	-2.994900	3.654200	-10.943000	25.290775	0.000464	20.965456
1001.252842	-3.012200	3.653300	-11.004000	25.312606	0.000463	20.950867
1002.252982	-2.991800	3.653200	-10.928000	25.323940	0.000463	20.939015
1003.253158	-3.002600	3.651700	-10.964000	25.313633	0.000461	20.957112
1004.253874	-2.999700	3.652400	-10.955000	25.325942	0.000463	20.942921
1005.253927	-2.985700	3.653300	-10.907000	25.339140	0.000463	20.951904
1006.254190	-3.020900	3.650800	-11.028000	25.349680	0.000461	20.957271
1007.257750	-3.021200	3.651500	-11.031000	25.364999	0.000462	20.970754
1008.257068	-2.983900	3.651400	-10.895000	25.383019	0.000461	20.952340
1009.265288	-3.004000	3.650100	-10.964000	25.386853	0.000460	20.945760
1010.258951	-2.994900	3.651400	-10.934000	25.376364	0.000459	20.936651
1011.258744	-3.000100	3.650500	-10.952000	25.427520	0.000462	20.936810
1012.258908	-2.994000	3.651700	-10.932000	25.431990	0.000462	20.953624
1013.259894	-3.029600	3.649100	-11.054000	25.417087	0.000461	20.935343
1014.263783	-3.017200	3.649700	-11.010000	25.396342	0.000462	20.947227
1015.259295	-3.007200	3.650200	-10.975000	25.353994	0.000458	20.943586
1016.259248	-3.006600	3.650000	-10.973000	25.331850	0.000459	20.950748
1017.259218	-3.000400	3.649900	-10.950000	25.352584	0.000459	20.949756
1018.258747	-3.008400	3.648300	-10.974000	25.378984	0.000457	20.943549
1019.260249	-3.016700	3.647700	-11.002000	25.358282	0.000459	20.936987
1020.259831	-2.994200	3.648100	-10.923000	25.351350	0.000457	20.945199
1021.260585	-3.026200	3.646100	-11.033000	25.312709	0.000455	20.948126
1022.259350	-3.009100	3.646700	-10.973000	25.302603	0.000456	20.945566
1023.261331	-3.005800	3.647300	-10.961000	25.277744	0.000455	20.937677
1024.262665	-3.006700	3.646000	-10.962000	25.283814	0.000457	20.944245
1025.263266	-2.993500	3.646800	-10.917000	25.286553	0.000455	20.960269
1026.262472	-2.980700	3.647600	-10.872000	25.353341	0.000455	20.929182
1027.261294	-2.990100	3.646900	-10.903000	25.402187	0.000456	20.930339
1028.267164	-3.004200	3.646000	-10.952000	25.408647	0.000456	20.933032
1029.262694	-2.987100	3.644800	-10.887000	25.352183	0.000454	20.950776
1030.266781	-3.027100	3.643400	-11.027000	25.303581	0.000456	20.911464
1031.262462	-2.990000	3.646400	-10.901000	25.312503	0.000452	20.925162
1032.262785	-3.000500	3.644900	-10.935000	25.301522	0.000453	20.925516
1033.264593	-2.998300	3.644600	-10.926000	25.343425	0.000455	20.933450
1034.262463	-3.022200	3.643900	-11.012000	25.372785	0.000453	20.921205
1035.266795	-3.014600	3.643300	-10.981000	25.421655	0.000454	20.942300
1036.262712	-3.008600	3.643800	-10.961000	25.453563	0.000453	20.923608
1037.263749	-3.011600	3.643400	-10.972000	25.452921	0.000453	20.940979
1038.265220	-3.007300	3.643000	-10.954000	25.464505	0.000451	20.929854
1039.265340	-2.995500	3.643900	-10.914000	25.419509	0.000450	20.918811
1040.266792	-2.990800	3.643100	-10.895000	25.408227	0.000450	20.958685
1041.265615	-2.988000	3.642400	-10.883000	25.439914	0.000450	20.933135
1042.266015	-2.970500	3.643200	-10.821000	25.434777	0.000450	20.916599
1043.267189	-2.989400	3.642000	-10.887000	25.369512	0.000451	20.929298
1044.270233	-3.008900	3.640900	-10.953000	25.335046	0.000451	20.930727
1045.267020	-2.997500	3.641500	-10.915000	25.352450	0.000450	20.933028
1046.269858	-3.007500	3.640000	-10.947000	25.354641	0.000450	20.939969
1047.267436	-3.006900	3.640200	-10.945000	25.290222	0.000448	20.923180
1048.266295	-2.981600	3.641000	-10.855000	25.310315	0.000450	20.927707
1049.268968	-3.012000	3.639800	-10.962000	25.296601	0.000447	20.922947
1050.267107	-2.995800	3.640600	-10.905000	25.362336	0.000450	20.920671
1051.268816	-2.999100	3.640300	-10.917000	25.398602	0.000447	20.927214
1052.267402	-2.984400	3.640600	-10.864000	25.403796	0.000447	20.936696
1053.266909	-2.984200	3.640300	-10.863000	25.396922	0.000446	20.925527
1054.266568	-2.992300	3.639500	-10.890000	25.372662	0.000446	20.940046
1055.268065	-3.006700	3.638600	-10.939000	25.389096	0.000444	20.949434
1056.269342	-2.998000	3.638700	-10.907000	25.416811	0.000446	20.921791
1057.268603	-3.015400	3.638100	-10.970000	25.359183	0.000447	20.917031
1058.267793	-3.005000	3.637100	-10.928000	25.384935	0.000448	20.908276
1059.267281	-2.983900	3.636800	-10.851000	25.390778	0.000445	20.926469
1060.273349	-3.021300	3.635800	-10.984000	25.397420	0.000446	20.910856
1061.271805	-3.005000	3.635900	-10.925000	25.417228	0.000446	20.923157
1062.269612	-2.988700	3.637000	-10.870000	25.410598	0.000443	20.914131
1063.269357	-3.022500	3.635400	-10.987000	25.371859	0.000443	20.915534
1064.268930	-3.009100	3.636000	-10.940000	25.363391	0.000442	20.918411
1065.270734	-2.990300	3.635800	-10.872000	25.354173	0.000443	20.921958
1066.268111	-3.003300	3.635800	-10.919000	25.381468	0.000442	20.921863
1067.270831	-3.015300	3.634900	-10.959000	25.380970	0.000442	20.910459
1068.270234	-3.020600	3.635000	-10.979000	25.370739	0.000442	20.906825
1069.271605	-2.979900	3.635200	-10.832000	25.369845	0.000440	20.911142
1070.271204	-3.001100	3.633600	-10.904000	25.405859	0.000441	20.914588
1071.270589	-2.997800	3.633500	-10.892000	25.362101	0.000444	20.929917
1072.273069	-3.004100	3.632800	-10.913000	25.384667	0.000441	20.893784
1073.270887	-2.993200	3.633400	-10.875000	25.398166	0.000439	20.916820
1074.270474	-3.011500	3.633800	-10.942000	25.408013	0.000439	20.930025
1075.270571	-3.001100	3.634200	-10.906000	25.412811	0.000440	20.898810
1076.270796	-3.007600	3.632000	-10.923000	25.464758	0.000440	20.918256
1077.273343	-3.014200	3.630900	-10.943000	25.457203	0.000441	20.927263
1078.275487	-3.024000	3.631700	-10.981000	25.426468	0.000440	20.931961
1079.272819	-3.024500	3.630800	-10.981000	25.414417	0.000438	20.896156
1080.271899	-3.000500	3.631000	-10.894000	25.389794	0.000439	20.905569
1081.277582	-2.995000	3.632400	-10.879000	25.347817	0.000438	20.907516
1082.273245	-2.992900	3.630600	-10.865000	25.347622	0.000435	20.913484
1083.274652	-3.023400	3.630600	-10.976000	25.315737	0.000435	20.902807
1084.273383	-3.018400	3.630600	-10.958000	25.285942	0.000437	20.907979
1085.272120	-3.008100	3.629000	-10.916000	25.326353	0.000436	20.916310
1086.274964	-3.004100	3.628800	-10.899000	25.349719	0.000434	20.915590
1087.273929	-3.004100	3.628800	-10.900000	25.362577	0.000438	20.921861
1088.276113	-3.011300	3.627100	-10.921000	25.366776	0.000434	20.906165
1089.274135	-2.995100	3.628000	-10.866000	25.381869	0.000436	20.903302
1090.273223	-3.000600	3.628200	-10.886000	25.402206	0.000435	20.904756
1091.273637	-2.977200	3.628500	-10.801000	25.412223	0.000434	20.930459
1092.273283	-2.991200	3.628200	-10.852000	25.445730	0.000435	20.904365
1093.274747	-3.024400	3.626700	-10.967000	25.444414	0.000434	20.911103
1094.278463	-2.986800	3.627500	-10.833000	25.426572	0.000431	20.885128
1095.277189	-2.986700	3.627700	-10.834000	25.415195	0.000433	20.884136
1096.274470	-2.999500	3.625000	-10.873000	25.428046	0.000432	20.900358
1097.277970	-3.025400	3.624900	-10.965000	25.423003	0.000430	20.925163
1098.275467	-2.984200	3.626000	-10.819000	25.469850	0.000430	20.883068
1099.281916	-2.978000	3.625800	-10.797000	25.450655	0.000431	20.909784
1100.275778	-3.018600	3.625300	-10.943000	25.492250	0.000432	20.882804
1101.275587	-2.999600	3.623800	-10.869000	25.470329	0.000430	20.879756
1102.275003	-3.008800	3.623800	-10.902000	25.442527	0.000430	20.876021
1103.276073	-3.002100	3.623100	-10.876000	25.431454	0.000433	20.877703
1104.278543	-3.018800	3.622500	-10.935000	25.447357	0.000429	20.908369
1105.277855	-3.020500	3.622700	-10.941000	25.404117	0.000428	20.870168
1106.276508	-3.014900	3.624000	-10.925000	25.405464	0.000431	20.896175
1107.277458	-2.989500	3.624500	-10.834000	25.400962	0.000429	20.909197
1108.276114	-2.990800	3.623100	-10.835000	25.459225	0.000428	20.883779
1109.275935	-2.996100	3.621500	-10.850000	25.470759	0.000430	20.911006
1110.278035	-2.991600	3.622700	-10.836000	25.479661	0.000427	20.891024
1111.278279	-2.986300	3.622800	-10.818000	25.473775	0.000427	20.888432
1112.277328	-2.996200	3.620900	-10.848000	25.457400	0.000426	20.899963
1113.278944	-2.990600	3.622300	-10.832000	25.417189	0.000425	20.896568
1114.277702	-2.982400	3.621000	-10.798000	25.427786	0.000427	20.911475
1115.279584	-2.998300	3.619500	-10.852000	25.420306	0.000426	20.892587
1116.279017	-3.005600	3.620000	-10.879000	25.409452	0.000425	20.897335
1117.279043	-3.009600	3.619800	-10.893000	25.406172	0.000424	20.880292
1118.279102	-2.992100	3.620000	-10.830000	25.432477	0.000425	20.888688
1119.280669	-3.014200	3.619600	-10.909000	25.446203	0.000423	20.922856
1120.281170	-3.028400	3.618300	-10.957000	25.431641	0.000424	20.887373
1121.282892	-3.000100	3.618200	-10.854000	25.423671	0.000424	20.875578
1122.280148	-2.998000	3.619900	-10.851000	25.395238	0.000421	20.880218
1123.280232	-3.022700	3.617700	-10.934000	25.372705	0.000423	20.892678
1124.285125	-2.991500	3.617300	-10.821000	25.419586	0.000422	20.886648
1125.279862	-2.969500	3.617500	-10.741000	25.445632	0.000421	20.904740
1126.287875	-2.989400	3.617700	-10.813000	25.486888	0.000422	20.882160
1127.282101	-2.990400	3.617500	-10.817000	25.543553	0.000422	20.895916
1128.283092	-2.986600	3.616300	-10.799000	25.522879	0.000420	20.893173
1129.282027	-2.990900	3.617200	-10.817000	25.548162	0.000422	20.875416
1130.285109	-3.016200	3.616100	-10.905000	25.573116	0.000420	20.883882
1131.283437	-3.015900	3.615100	-10.902000	25.546727	0.000419	20.883458
1132.283453	-2.989700	3.616700	-10.812000	25.525758	0.000422	20.881366
1133.282283	-3.013100	3.614500	-10.890000	25.507722	0.000420	20.889332
1134.283266	-2.989100	3.614500	-10.803000	25.494256	0.000419	20.890982
1135.283212	-3.000300	3.615200	-10.845000	25.455268	0.000420	20.896400
1136.284098	-2.975400	3.614800	-10.754000	25.429456	0.000417	20.875697
1137.285459	-3.009100	3.612800	-10.871000	25.415762	0.000416	20.887550
1138.283590	-2.982100	3.615100	-10.780000	25.394426	0.000417	20.873713
1139.283070	-3.014800	3.613100	-10.891000	25.438139	0.000415	20.897691
1140.289065	-2.983900	3.614200	-10.784000	25.435860	0.000414	20.881179
1141.285092	-3.007800	3.613300	-10.867000	25.477217	0.000417	20.865812
1142.288271	-2.992600	3.613100	-10.812000	25.495934	0.000415	20.864693
1143.287294	-3.006300	3.612000	-10.857000	25.517030	0.000414	20.893937
1144.284794	-3.004600	3.612500	-10.853000	25.536521	0.000414	20.880321
1145.286550	-3.019600	3.610900	-10.902000	25.527129	0.000415	20.867096
1146.287018	-3.003600	3.611300	-10.846000	25.508073	0.000415	20.876882
1147.286913	-2.996600	3.611900	-10.823000	25.501985	0.000413	20.871244
1148.288406	-2.991000	3.610900	-10.800000	25.530076	0.000414	20.864841
1149.287408	-3.002700	3.611500	-10.843000	25.470414	0.000413	20.865619
1150.287261	-2.998800	3.610200	-10.826000	25.487960	0.000411	20.880867
1151.289663	-2.970900	3.610800	-10.727000	25.471221	0.000412	20.872118
1152.286937	-3.018900	3.608700	-10.894000	25.479720	0.000412	20.886816
1153.289884	-2.993300	3.608800	-10.802000	25.522398	0.000412	20.880363
1154.289059	-2.979400	3.609200	-10.753000	25.546427	0.000411	20.859925
1155.287937	-3.007000	3.608400	-10.850000	25.556248	0.000412	20.878795
1156.288363	-3.017000	3.609200	-10.887000	25.561820	0.000411	20.877279
1157.290342	-3.010900	3.608800	-10.865000	25.536255	0.000410	20.850184
1158.287965	-3.030800	3.607400	-10.933000	25.534745	0.000409	20.860047
1159.289748	-2.981100	3.608100	-10.755000	25.505421	0.000410	20.857626
1160.291493	-2.994800	3.606700	-10.800000	25.500649	0.000410	20.860420
1161.289839	-3.005900	3.607800	-10.844000	25.466170	0.000409	20.870365
1162.291300	-3.004200	3.607200	-10.836000	25.477451	0.000409	20.862254
1163.291676	-3.025700	3.606200	-10.910000	25.539084	0.000408	20.866775
1164.293154	-2.994200	3.606100	-10.795000	25.508873	0.000407	20.849239
1165.295366	-2.968500	3.605600	-10.702000	25.514961	0.000408	20.854878
1166.292018	-2.994400	3.605000	-10.793000	25.526325	0.000405	20.865341
1167.291832	-2.995600	3.604400	-10.796000	25.547553	0.000405	20.842564
1168.290849	-3.003500	3.604600	-10.825000	25.528945	0.000406	20.854222
1169.292364	-2.976400	3.606000	-10.731000	25.518583	0.000408	20.863730
1170.291554	-3.008200	3.603800	-10.840000	25.517966	0.000404	20.846990
1171.291625	-3.010400	3.603500	-10.847000	25.477021	0.000405	20.872727
1172.291481	-3.015800	3.604000	-10.868000	25.529726	0.000404	20.869705
1173.291147	-3.019800	3.603500	-10.881000	25.480665	0.000405	20.876860
1174.293728	-3.004100	3.602800	-10.823000	25.463612	0.000403	20.853573
1175.291561	-3.011800	3.602100	-10.847000	25.474321	0.000404	20.879498
1176.294118	-2.994900	3.602600	-10.789000	25.523804	0.000404	20.870396
1177.292082	-3.004100	3.602000	-10.820000	25.483198	0.000405	20.844319
1178.291379	-3.006800	3.602000	-10.829000	25.463551	0.000403	20.830279
1179.291856	-3.020300	3.602100	-10.879000	25.512266	0.000402	20.872085
1180.293863	-3.019800	3.601000	-10.873000	25.518177	0.000402	20.872806
1181.293435	-2.990800	3.601600	-10.771000	25.510800	0.000401	20.839794
1182.292527	-2.999100	3.600400	-10.796000	25.496465	0.000404	20.852899
1183.292666	-3.011100	3.599600	-10.838000	25.478649	0.000402	20.862509
1184.293704	-2.985800	3.601400	-10.752000	25.482131	0.000402	20.863634
1185.296922	-3.002800	3.600900	-10.812000	25.503234	0.000402	20.837886
1186.302442	-2.980900	3.599500	-10.728000	25.532255	0.000402	20.850909
1187.296628	-2.995200	3.600100	-10.782000	25.477095	0.000398	20.851466
1188.294860	-3.007200	3.599200	-10.822000	25.472355	0.000397	20.854766
1189.295802	-2.989500	3.599200	-10.759000	25.445593	0.000399	20.850651
1190.295005	-2.994400	3.598600	-10.775000	25.431535	0.000397	20.854078
1191.299730	-3.004700	3.597200	-10.808000	25.470531	0.000397	20.845348
1192.295959	-2.994900	3.598100	-10.774000	25.502285	0.000398	20.843571
1193.295281	-3.003200	3.596800	-10.801000	25.541481	0.000398	20.841682
1194.296650	-2.985000	3.597900	-10.739000	25.542350	0.000399	20.864364
1195.295734	-3.025500	3.597100	-10.882000	25.545139	0.000396	20.853890
1196.295734	-3.005400	3.597000	-10.809000	25.506026	0.000396	20.865345
1197.295799	-3.007200	3.595700	-10.812000	25.452628	0.000398	20.828319
1198.295371	-3.017100	3.595700	-10.848000	25.467543	0.000396	20.831442
1199.294797	-2.999300	3.594600	-10.780000	25.439320	0.000396	20.845301
1200.296226	-3.012000	3.595300	-10.828000	25.436241	0.000396	20.872080
1201.295910	-3.009100	3.595000	-10.817000	25.443526	0.000395	20.859481
1202.295377	-2.990300	3.593700	-10.746000	25.518557	0.000395	20.861808
1203.294936	-2.987600	3.594400	-10.737000	25.526786	0.000396	20.856795
1204.296290	-2.997900	3.593700	-10.773000	25.531979	0.000395	20.847787
1205.296768	-2.991200	3.595000	-10.752000	25.532610	0.000394	20.863592
1206.297217	-2.989700	3.593000	-10.741000	25.557828	0.000395	20.858572
1207.300329	-3.002800	3.593200	-10.789000	25.569098	0.000393	20.846183
1208.298316	-3.011800	3.592800	-10.820000	25.550086	0.000391	20.873082
1209.300026	-3.007800	3.591900	-10.803000	25.590300	0.000394	20.849459
1210.299396	-2.988800	3.591800	-10.735000	25.624570	0.000394	20.838832
1211.299706	-2.987500	3.592700	-10.733000	25.607177	0.000394	20.843175
1212.302791	-2.993400	3.591800	-10.750000	25.604326	0.000391	20.868286
1213.302895	-2.983300	3.591000	-10.712000	25.593821	0.000391	20.856313
1214.299983	-2.996300	3.591400	-10.760000	25.581924	0.000389	20.842943
1215.298577	-3.000500	3.590900	-10.773000	25.580136	0.000390	20.858691
1216.301803	-2.984000	3.591100	-10.715000	25.535082	0.000390	20.850428
1217.303432	-3.023800	3.589400	-10.853000	25.532238	0.000388	20.857055
1218.303212	-2.998500	3.590800	-10.766000	25.523047	0.000390	20.836920
1219.297626	-2.998300	3.589500	-10.761000	25.483555	0.000389	20.863642
1220.300447	-3.008200	3.588000	-10.793000	25.432718	0.000390	20.857163
1221.303353	-3.014400	3.589000	-10.818000	25.461925	0.000388	20.865629
1222.300032	-3.019200	3.587300	-10.830000	25.423011	0.000388	20.851209
1223.301544	-3.019100	3.587300	-10.830000	25.459892	0.000385	20.848415
1224.300407	-3.008200	3.587300	-10.791000	25.483350	0.000387	20.865332
1225.299668	-2.998500	3.586600	-10.753000	25.520279	0.000387	20.867804
1226.299889	-3.010900	3.586600	-10.798000	25.515860	0.000388	20.871427
1227.299256	-3.025400	3.587000	-10.852000	25.486813	0.000389	20.866439
1228.299100	-2.996900	3.587000	-10.749000	25.522225	0.000386	20.861224
1229.300618	-2.984100	3.585800	-10.699000	25.537694	0.000386	20.871068
1230.302052	-2.982700	3.586800	-10.697000	25.524921	0.000383	20.875784
1231.300520	-2.998500	3.586900	-10.754000	25.539507	0.000382	20.865303
1232.303008	-3.012800	3.584700	-10.799000	25.514206	0.000385	20.845585
1233.301286	-3.001300	3.585200	-10.759000	25.515604	0.000383	20.850308
1234.304854	-3.029400	3.583600	-10.855000	25.573061	0.000383	20.865335
1235.302593	-3.042400	3.583500	-10.902000	25.647586	0.000385	20.874749
1236.305348	-3.002400	3.583800	-10.759000	25.611058	0.000384	20.862719
1237.305231	-3.006500	3.584100	-10.775000	25.569291	0.000382	20.856808
1238.304447	-2.986200	3.584000	-10.700000	25.583732	0.000382	20.867043
1239.307104	-3.014500	3.583600	-10.801000	25.580107	0.000382	20.854868
1240.304164	-3.020300	3.582600	-10.820000	25.572773	0.000380	20.843710
1241.303902	-2.982900	3.583100	-10.687000	25.598199	0.000382	20.864029
1242.303581	-2.993700	3.582100	-10.723000	25.628370	0.000380	20.869200
1243.305818	-3.021300	3.581600	-10.820000	25.636075	0.000381	20.861292
1244.304865	-3.004200	3.581500	-10.759000	25.613591	0.000379	20.896080
1245.305846	-3.010000	3.581300	-10.779000	25.608340	0.000379	20.863308
1246.305692	-3.001600	3.581600	-10.750000	25.571724	0.000379	20.871578
1247.305755	-2.997900	3.581700	-10.736000	25.610142	0.000379	20.855635
1248.305718	-2.999700	3.579200	-10.736000	25.651071	0.000378	20.868292
1249.305368	-2.979100	3.579600	-10.664000	25.630652	0.000380	20.889034
1250.308602	-3.012400	3.578900	-10.780000	25.620190	0.000378	20.873312
1251.306686	-3.005300	3.580500	-10.760000	25.626428	0.000379	20.881473
1252.306639	-3.001300	3.578000	-10.738000	25.638187	0.000377	20.885697
1253.308007	-3.005300	3.579700	-10.757000	25.640396	0.000376	20.866580
1254.307435	-3.006400	3.578300	-10.757000	25.631434	0.000377	20.872277
1255.310815	-2.998900	3.578400	-10.731000	25.652854	0.000374	20.867713
1256.307590	-3.008400	3.578100	-10.764000	25.666891	0.000375	20.895559
1257.308236	-2.997300	3.578400	-10.724000	25.664689	0.000375	20.862530
1258.311554	-3.018100	3.576900	-10.794000	25.653063	0.000372	20.885939
1259.308004	-3.005100	3.576900	-10.748000	25.636464	0.000373	20.861683
1260.311158	-2.996800	3.576800	-10.719000	25.653518	0.000375	20.862689
1261.311806	-2.980100	3.576200	-10.656000	25.647953	0.000373	20.884126
1262.309786	-2.987100	3.577100	-10.685000	25.635679	0.000374	20.887919
1263.309329	-3.005600	3.576700	-10.749000	25.631228	0.000374	20.873967
1264.311230	-2.973400	3.575700	-10.630000	25.641333	0.000373	20.903554
1265.309673	-3.013900	3.574400	-10.771000	25.661280	0.000374	20.860054
1266.312885	-2.983400	3.575600	-10.666000	25.646148	0.000372	20.870934
1267.308979	-2.981600	3.574900	-10.658000	25.617753	0.000373	20.885563
1268.308791	-3.001300	3.573400	-10.724000	25.634057	0.000372	20.891505
1269.310517	-2.993600	3.574000	-10.699000	25.648523	0.000372	20.875689
1270.310261	-3.024600	3.573600	-10.808000	25.633862	0.000369	20.878035
1271.311559	-2.991400	3.573200	-10.688000	25.587595	0.000370	20.891784
1272.311406	-3.017400	3.572200	-10.778000	25.583599	0.000369	20.885874
1273.310527	-3.015800	3.572100	-10.772000	25.518400	0.000370	20.879193
1274.312648	-2.997300	3.572200	-10.706000	25.527270	0.000368	20.892841
1275.312265	-3.018800	3.572100	-10.783000	25.534976	0.000367	20.881140
1276.319334	-3.015900	3.570500	-10.768000	25.537319	0.000367	20.874010
1277.314053	-3.010000	3.572000	-10.751000	25.489260	0.000369	20.909670
1278.315799	-2.991100	3.571400	-10.681000	25.512918	0.000366	20.872266
1279.315372	-2.998800	3.571500	-10.709000	25.552182	0.000367	20.889410
1280.313607	-2.985700	3.570100	-10.659000	25.514620	0.000367	20.891991
1281.317899	-2.986900	3.570800	-10.664000	25.561682	0.000368	20.881408
1282.317997	-3.008400	3.569400	-10.738000	25.567946	0.000366	20.883905
1283.315742	-3.001200	3.570600	-10.715000	25.619660	0.000366	20.886055
1284.315997	-2.986500	3.568700	-10.656000	25.620907	0.000366	20.900108
1285.318978	-2.995500	3.569300	-10.691000	25.652638	0.000365	20.879349
1286.315617	-3.002100	3.569200	-10.715000	25.615047	0.000365	20.884741
1287.318926	-3.020100	3.568400	-10.776000	25.637437	0.000365	20.901538
1288.316749	-3.000000	3.567500	-10.701000	25.595200	0.000364	20.898947
1289.316289	-3.010900	3.567000	-10.739000	25.615104	0.000362	20.916091
1290.319175	-3.024100	3.566500	-10.784000	25.660804	0.000364	20.902247
1291.318138	-3.011100	3.567600	-10.741000	25.676982	0.000364	20.893366
1292.321032	-2.964600	3.566800	-10.574000	25.609572	0.000363	20.910535
1293.316606	-2.995300	3.566900	-10.683000	25.601283	0.000365	20.913116
1294.317231	-3.012400	3.565200	-10.739000	25.590814	0.000361	20.924885
1295.316867	-2.999400	3.566000	-10.695000	25.601107	0.000362	20.903456
1296.317719	-3.006000	3.565300	-10.716000	25.622334	0.000362	20.912920
1297.318088	-3.005300	3.565500	-10.714000	25.658365	0.000360	20.906435
1298.323063	-3.004600	3.564200	-10.708000	25.662023	0.000362	20.879291
1299.319335	-3.016900	3.563000	-10.748000	25.637153	0.000361	20.883710
1300.319674	-3.009300	3.564200	-10.724000	25.633200	0.000361	20.902971
1301.323662	-3.008200	3.563300	-10.718000	25.628907	0.000359	20.916677
1302.318490	-3.016200	3.563600	-10.747000	25.607115	0.000358	20.925135
1303.321506	-3.004600	3.564000	-10.708000	25.641863	0.000360	20.899819
1304.319511	-2.998400	3.563600	-10.684000	25.651608	0.000360	20.911976
1305.318796	-3.003000	3.562800	-10.698000	25.607331	0.000359	20.910655
1306.320574	-3.012300	3.561800	-10.728000	25.600156	0.000358	20.919095
1307.320098	-2.984100	3.562600	-10.630000	25.576726	0.000356	20.931599
1308.320946	-3.027200	3.561100	-10.780000	25.576449	0.000357	20.904296
1309.320230	-2.997800	3.562800	-10.679000	25.545987	0.000357	20.927755
1310.321533	-2.971200	3.561900	-10.582000	25.534638	0.000357	20.905454
1311.320942	-3.007800	3.560300	-10.707000	25.589110	0.000358	20.909425
1312.321863	-3.005800	3.560800	-10.703000	25.620345	0.000356	20.901441
1313.322262	-3.029000	3.558700	-10.778000	25.675984	0.000357	20.913699
1314.323171	-3.029900	3.559700	-10.784000	25.636826	0.000354	20.933637
1315.321704	-3.024300	3.559000	-10.762000	25.650953	0.000355	20.920800
1316.322161	-3.022400	3.558400	-10.754000	25.627600	0.000354	20.927691
1317.324791	-3.007000	3.560000	-10.704000	25.632379	0.000355	20.924904
1318.324244	-3.003800	3.559000	-10.690000	25.691584	0.000354	20.925099
1319.328581	-2.991800	3.558300	-10.645000	25.634350	0.000355	20.927358
1320.323425	-3.000600	3.559200	-10.679000	25.649912	0.000354	20.930185
1321.323857	-3.009500	3.558200	-10.708000	25.599472	0.000352	20.917934
1322.323261	-3.011700	3.556700	-10.711000	25.644701	0.000353	20.932063
1323.324934	-3.008300	3.555700	-10.696000	25.641126	0.000354	20.927999
1324.324634	-2.989300	3.556300	-10.629000	25.637753	0.000352	20.923189
1325.326346	-2.999700	3.556400	-10.667000	25.611340	0.000350	20.929378
1326.324938	-3.002600	3.556100	-10.677000	25.662140	0.000352	20.949576
1327.327552	-2.999100	3.554900	-10.661000	25.644074	0.000352	20.935701
1328.330151	-2.981800	3.556100	-10.603000	25.640499	0.000352	20.931162
1329.325973	-2.968000	3.556800	-10.555000	25.655040	0.000351	20.952403
1330.331447	-2.982100	3.555400	-10.601000	25.676342	0.000352	20.921644
1331.329021	-2.987400	3.556000	-10.622000	25.687005	0.000348	20.932353
1332.329074	-2.999200	3.554000	-10.658000	25.725438	0.000348	20.935393
1333.328039	-2.979400	3.555000	-10.591000	25.694541	0.000350	20.944188
1334.330906	-2.988100	3.554200	-10.620000	25.682537	0.000348	20.943037
1335.331189	-3.001800	3.552900	-10.665000	25.718389	0.000348	20.959605
1336.330317	-3.005800	3.552700	-10.678000	25.690890	0.000348	20.941944
1337.329591	-2.983800	3.552900	-10.600000	25.677561	0.000348	20.936143
1338.329760	-3.007400	3.552000	-10.681000	25.636463	0.000346	20.934221
1339.330238	-3.015700	3.551400	-10.709000	25.644918	0.000345	20.948401
1340.331462	-2.995800	3.552300	-10.641000	25.645077	0.000347	20.937656
1341.332033	-2.993200	3.550600	-10.627000	25.670865	0.000348	20.929893
1342.330366	-2.998400	3.551100	-10.647000	25.687532	0.000348	20.949950
1343.331154	-2.991600	3.551200	-10.623000	25.689190	0.000347	20.956356
1344.333032	-2.992300	3.551200	-10.625000	25.718206	0.000346	20.930027
1345.330774	-3.014600	3.550500	-10.703000	25.742163	0.000346	20.938916
1346.333384	-3.010000	3.549400	-10.683000	25.739929	0.000346	20.955162
1347.330014	-2.989700	3.548600	-10.609000	25.788582	0.000344	20.964676
1348.330852	-2.987700	3.548400	-10.601000	25.771866	0.000344	20.949310
1349.330326	-3.003200	3.547400	-10.652000	25.765510	0.000345	20.958571
1350.334281	-3.013200	3.547800	-10.690000	25.757063	0.000344	20.956726
1351.331049	-3.007600	3.547800	-10.669000	25.738131	0.000343	20.955727
1352.335624	-2.992500	3.547400	-10.614000	25.724135	0.000345	20.967746
1353.333207	-3.008400	3.547200	-10.670000	25.704485	0.000340	20.962708
1354.332380	-3.007800	3.546600	-10.667000	25.716118	0.000342	20.969650
1355.335634	-2.987500	3.546800	-10.596000	25.756765	0.000341	20.972071
1356.336884	-3.021000	3.545800	-10.711000	25.746935	0.000342	20.954139
1357.335563	-3.020800	3.545800	-10.711000	25.700875	0.000343	20.949127
1358.333988	-2.997500	3.546900	-10.631000	25.699257	0.000341	20.959828
1359.333882	-3.002600	3.545200	-10.644000	25.698969	0.000341	20.972339
1360.335118	-3.005400	3.544500	-10.652000	25.665080	0.000339	20.969122
1361.334084	-3.010800	3.543800	-10.669000	25.664464	0.000341	20.991259
1362.335955	-3.021200	3.544000	-10.706000	25.686922	0.000337	20.964982
1363.334856	-3.001900	3.544200	-10.638000	25.741545	0.000339	20.990445
1364.334598	-2.999500	3.542400	-10.624000	25.784804	0.000339	20.969890
1365.334724	-2.980300	3.544300	-10.562000	25.728201	0.000340	20.953340
1366.335291	-2.998800	3.542800	-10.623000	25.715387	0.000338	20.949953
1367.335062	-2.997100	3.543200	-10.618000	25.654067	0.000338	20.983189
1368.335235	-2.985300	3.543300	-10.577000	25.694152	0.000338	20.995472
1369.336335	-3.007200	3.542000	-10.651000	25.741906	0.000338	20.965207
1370.336524	-3.020800	3.541800	-10.698000	25.737539	0.000338	20.968406
1371.338844	-2.995100	3.542200	-10.609000	25.756615	0.000338	20.977609
1372.337704	-2.962900	3.542900	-10.497000	25.771872	0.000336	20.972546
1373.341661	-2.950500	3.542100	-10.450000	25.772647	0.000338	20.980436
1374.338606	-2.988700	3.540700	-10.581000	25.743211	0.000334	20.971258
1375.338534	-2.996800	3.539700	-10.607000	25.737200	0.000333	20.975652
1376.341292	-2.983100	3.540400	-10.560000	25.775663	0.000335	20.960235
1377.340819	-3.030600	3.537500	-10.720000	25.753636	0.000334	20.982677
1378.340543	-3.009500	3.539200	-10.651000	25.743748	0.000333	20.966583
1379.344854	-3.011100	3.537300	-10.651000	25.745914	0.000335	20.998151
1380.342558	-3.002600	3.538500	-10.623000	25.734686	0.000336	20.983556
1381.341299	-3.002000	3.538700	-10.623000	25.692427	0.000333	20.984733
1382.345675	-3.003600	3.537800	-10.625000	25.710787	0.000335	20.999852
1383.340744	-2.983500	3.537500	-10.553000	25.745702	0.000334	20.980871
1384.344809	-3.014900	3.536800	-10.663000	25.695173	0.000333	20.996972
1385.350431	-2.989500	3.538000	-10.576000	25.696117	0.000332	20.986542
1386.342777	-3.016100	3.536700	-10.665000	25.685310	0.000332	21.004134
1387.346632	-3.005300	3.536000	-10.626000	25.715505	0.000331	20.974723
1388.342612	-2.995400	3.537400	-10.595000	25.730366	0.000333	20.977322
1389.345894	-3.001900	3.535200	-10.611000	25.785376	0.000331	21.009338
1390.344759	-2.986600	3.537000	-10.563000	25.783834	0.000329	21.002101
1391.345058	-3.016200	3.534800	-10.661000	25.772959	0.000330	20.981698
1392.344732	-2.980700	3.535800	-10.538000	25.729033	0.000332	20.995894
1393.345542	-2.993400	3.534100	-10.579000	25.692288	0.000330	21.001659
1394.344277	-3.001600	3.534600	-10.608000	25.656687	0.000331	21.020901
1395.347019	-2.992000	3.534200	-10.574000	25.640812	0.000330	20.979360
1396.345646	-2.996500	3.534400	-10.590000	25.671077	0.000327	20.988892
1397.343958	-2.988500	3.533400	-10.558000	25.676699	0.000327	21.010182
1398.346485	-2.992400	3.534100	-10.575000	25.691013	0.000329	21.006068
1399.345889	-2.990800	3.532700	-10.565000	25.719665	0.000325	20.984116
1400.349042	-2.999900	3.532500	-10.597000	25.782498	0.000329	20.988907
1401.347700	-2.995600	3.532800	-10.582000	25.769804	0.000330	21.002706
1402.347458	-3.019400	3.532700	-10.666000	25.788523	0.000327	20.978366
1403.348371	-2.997500	3.531800	-10.586000	25.721939	0.000326	21.022429
1404.348464	-3.010200	3.532500	-10.632000	25.717900	0.000327	20.990877
1405.350506	-3.017900	3.531100	-10.656000	25.736134	0.000326	21.016299
1406.350775	-3.007900	3.529500	-10.616000	25.747193	0.000327	21.021243
1407.353342	-3.019900	3.529200	-10.657000	25.736048	0.000326	21.019057
1408.348321	-3.017900	3.529400	-10.651000	25.751752	0.000326	21.004962
1409.350998	-2.974900	3.530000	-10.501000	25.761514	0.000325	21.008603
1410.348327	-3.009400	3.528800	-10.618000	25.756682	0.000327	21.008017
1411.352285	-2.987000	3.528100	-10.537000	25.767034	0.000323	21.012725
1412.349609	-2.985800	3.529300	-10.537000	25.734791	0.000326	21.008314
1413.348461	-3.008300	3.527200	-10.609000	25.720089	0.000324	21.014408
1414.349975	-2.995000	3.526400	-10.560000	25.709830	0.000325	21.035868
1415.349374	-2.983900	3.527400	-10.525000	25.712897	0.000323	21.022830
1416.354005	-2.979600	3.527600	-10.510000	25.739822	0.000322	21.020951
1417.350879	-2.986700	3.526300	-10.532000	25.727185	0.000323	21.020586
1418.348520	-2.973300	3.526400	-10.483000	25.745653	0.000321	21.022541
1419.349165	-2.989100	3.525500	-10.537000	25.756763	0.000322	21.024216
1420.350571	-2.975600	3.526200	-10.491000	25.715719	0.000324	21.019975
1421.351006	-3.002600	3.525400	-10.584000	25.743182	0.000322	21.030014
1422.353118	-3.014300	3.524600	-10.623000	25.772466	0.000320	21.016284
1423.350731	-3.035400	3.524200	-10.697000	25.744429	0.000319	21.031266
1424.350783	-2.999100	3.524900	-10.570000	25.714967	0.000320	21.014953
1425.352803	-3.011900	3.524600	-10.614000	25.704008	0.000320	21.017222
1426.350990	-3.017300	3.522100	-10.626000	25.711915	0.000319	21.019473
1427.352254	-2.997000	3.523500	-10.559000	25.770180	0.000322	21.008298
1428.354467	-2.984900	3.522200	-10.513000	25.824337	0.000319	21.021445
1429.351390	-3.003800	3.522000	-10.579000	25.815156	0.000319	21.028343
1430.351344	-2.977300	3.523600	-10.490000	25.871798	0.000319	21.003692
1431.353107	-2.983900	3.524000	-10.514000	25.868746	0.000317	20.997783
1432.352809	-2.990400	3.523300	-10.535000	25.884254	0.000317	21.018573
1433.352718	-2.999100	3.521400	-10.560000	25.859238	0.000318	21.010040
1434.353177	-2.997500	3.522400	-10.557000	25.871593	0.000318	21.009650
1435.353369	-3.010800	3.521000	-10.600000	25.821416	0.000316	21.011876
1436.354165	-2.994100	3.521300	-10.542000	25.786933	0.000318	21.021332
1437.353678	-2.987800	3.521000	-10.519000	25.757126	0.000315	21.011782
1438.354512	-3.005400	3.519300	-10.576000	25.725971	0.000315	20.998508
1439.353444	-3.010500	3.520300	-10.597000	25.721081	0.000316	20.997864
1440.354006	-2.980900	3.519700	-10.491000	25.685921	0.000316	20.996214
1441.357090	-3.020000	3.518700	-10.626000	25.736785	0.000315	21.004628
1442.353910	-3.021400	3.519200	-10.631000	25.746580	0.000314	21.001664
1443.360343	-2.975800	3.518300	-10.469000	25.754410	0.000314	20.976817
1444.353578	-2.996600	3.517900	-10.540000	25.761330	0.000314	21.016003
1445.354989	-2.998400	3.518000	-10.548000	25.719933	0.000313	20.984859
1446.355232	-2.993700	3.517800	-10.531000	25.681028	0.000314	20.988930
1447.354556	-2.982800	3.516800	-10.489000	25.701335	0.000312	20.988938
1448.355456	-2.992700	3.515800	-10.520000	25.746931	0.000312	20.976891
1449.358839	-2.985000	3.516900	-10.497000	25.719357	0.000313	21.001822
1450.356912	-2.988900	3.514300	-10.503000	25.679653	0.000314	21.003193
1451.357820	-2.999600	3.515400	-10.544000	25.714435	0.000313	20.995456
1452.362055	-2.967700	3.517500	-10.438000	25.685848	0.000311	20.986659
1453.357737	-3.006600	3.514300	-10.565000	25.739343	0.000309	20.985389
1454.360447	-2.985400	3.514800	-10.492000	25.761007	0.000312	21.000983
1455.358811	-3.003600	3.513300	-10.551000	25.780891	0.000312	20.981604
1456.359742	-3.008700	3.514000	-10.571000	25.830378	0.000309	20.991958
1457.359979	-3.007400	3.512900	-10.564000	25.832594	0.000309	20.985650
1458.360729	-3.030600	3.511600	-10.642000	25.829981	0.000310	20.984923
1459.361216	-3.022300	3.512700	-10.616000	25.803059	0.000310	20.981586
1460.362170	-3.012000	3.512100	-10.578000	25.782920	0.000309	20.983643
1461.360679	-3.009700	3.512400	-10.571000	25.740260	0.000309	20.989628
1462.360858	-2.988400	3.511800	-10.493000	25.741136	0.000307	20.994300
1463.360425	-3.015200	3.511500	-10.587000	25.762479	0.000309	20.988713
1464.361374	-3.016200	3.511100	-10.589000	25.810576	0.000309	20.994351
1465.364649	-3.014200	3.510300	-10.579000	25.826473	0.000306	20.976184
1466.363469	-3.018200	3.509300	-10.591000	25.832743	0.000309	20.976793
1467.362995	-3.002100	3.510300	-10.537000	25.793767	0.000307	20.962773
1468.363437	-2.988200	3.510300	-10.489000	25.810574	0.000306	20.965904
1469.361382	-3.022500	3.508500	-10.603000	25.877220	0.000305	20.952249
1470.367799	-3.017900	3.509000	-10.589000	25.893993	0.000306	20.964355
1471.362567	-3.006500	3.508100	-10.546000	25.935181	0.000306	20.976334
1472.362707	-3.011400	3.509500	-10.568000	25.923626	0.000305	20.960935
1473.362672	-3.009800	3.508000	-10.557000	25.893579	0.000305	20.967732
1474.363047	-3.005100	3.507900	-10.541000	25.831376	0.000305	20.955033
1475.363176	-2.989000	3.508800	-10.487000	25.843522	0.000304	20.968181
1476.366407	-3.000600	3.505800	-10.519000	25.816751	0.000305	20.955515
1477.366892	-3.013900	3.506600	-10.568000	25.845501	0.000303	20.967798
1478.363876	-3.014700	3.507600	-10.573000	25.858861	0.000302	20.968417
1479.365170	-3.015600	3.504700	-10.568000	25.833372	0.000305	20.983587
1480.363956	-3.008900	3.505800	-10.547000	25.849327	0.000304	20.976857
1481.367203	-3.008900	3.505500	-10.547000	25.828271	0.000300	20.970405
1482.365332	-2.977800	3.505700	-10.439000	25.859610	0.000302	20.960162
1483.363856	-3.005500	3.503900	-10.530000	25.850380	0.000301	20.954210
1484.363900	-3.019300	3.503900	-10.578000	25.814085	0.000302	20.984128
1485.364681	-3.010200	3.503000	-10.544000	25.782265	0.000301	20.958332
1486.364721	-3.029300	3.502400	-10.609000	25.799536	0.000298	20.954818
1487.365109	-3.020100	3.502900	-10.577000	25.802646	0.000300	20.961260
1488.366187	-3.006200	3.503100	-10.531000	25.783613	0.000303	20.969168
1489.363718	-3.015300	3.502700	-10.561000	25.762876	0.000298	20.966830
1490.363895	-3.018900	3.503000	-10.574000	25.787549	0.000300	20.962216
1491.363732	-2.999400	3.502600	-10.505000	25.827966	0.000301	20.991906
1492.365815	-2.994800	3.501800	-10.486000	25.825690	0.000298	20.960700
1493.364251	-2.986000	3.501500	-10.454000	25.811410	0.000300	20.984286
1494.364253	-2.994300	3.502200	-10.486000	25.853326	0.000301	20.955273
1495.365659	-2.989500	3.502700	-10.470000	25.853377	0.000298	20.940627
1496.364837	-2.990900	3.500000	-10.467000	25.845378	0.000298	20.972890
1497.369067	-2.997100	3.500700	-10.491000	25.831157	0.000298	20.956711
1498.367089	-3.005700	3.497700	-10.512000	25.811805	0.000298	20.983259
1499.367309	-3.017700	3.498900	-10.557000	25.848082	0.000296	20.963280
1500.367051	-3.004400	3.499500	-10.513000	25.863507	0.000297	20.965498
1501.368362	-2.988100	3.499100	-10.454000	25.869406	0.000294	20.948193
1502.373435	-2.984900	3.498800	-10.443000	25.855347	0.000296	20.955405
1503.373219	-3.010600	3.498300	-10.531000	25.854453	0.000294	20.966834
1504.370869	-2.983900	3.498100	-10.437000	25.860589	0.000295	20.963042
1505.370279	-2.991600	3.497500	-10.462000	25.819633	0.000295	20.985433
1506.371145	-3.001900	3.496000	-10.493000	25.834838	0.000297	20.967045
1507.371057	-2.987900	3.496700	-10.446000	25.887592	0.000292	20.967408
1508.373836	-2.993600	3.496900	-10.467000	25.876509	0.000294	20.938734
1509.371236	-3.002500	3.495700	-10.494000	25.908157	0.000293	20.957723
1510.371894	-2.994900	3.496500	-10.470000	25.915119	0.000295	20.954286
1511.374516	-2.985700	3.495700	-10.436000	25.933533	0.000294	20.965671
1512.372132	-3.005500	3.495500	-10.506000	25.907279	0.000292	20.955893
1513.375299	-2.999700	3.495100	-10.483000	25.877890	0.000293	20.960033
1514.371169	-3.002700	3.494100	-10.491000	25.839741	0.000292	20.934516
1515.372026	-3.008900	3.494200	-10.513000	25.871509	0.000292	20.948883
1516.372608	-3.018500	3.493300	-10.544000	25.902567	0.000291	20.956375
1517.372130	-2.992400	3.492600	-10.449000	25.896220	0.000290	20.957585
1518.374236	-3.006000	3.491700	-10.495000	25.876295	0.000289	20.950372
1519.374246	-2.998500	3.493300	-10.474000	25.863037	0.000289	20.951751
1520.372231	-3.019300	3.491300	-10.540000	25.863905	0.000291	20.971587
1521.373160	-3.033300	3.490900	-10.588000	25.816686	0.000291	20.949761
1522.374863	-3.041200	3.492000	-10.619000	25.800468	0.000289	20.952436
1523.374757	-2.992300	3.491800	-10.447000	25.803553	0.000289	20.963120
1524.375940	-3.013900	3.489700	-10.516000	25.845992	0.000290	20.953595
1525.375628	-2.989500	3.491500	-10.437000	25.827490	0.000290	20.966302
1526.376143	-3.010400	3.490000	-10.505000	25.823646	0.000289	20.950115
1527.376630	-3.001600	3.490200	-10.475000	25.806459	0.000288	20.957979
1528.383114	-2.968900	3.490400	-10.362000	25.797541	0.000289	20.967511
1529.379439	-3.007300	3.489300	-10.491000	25.855935	0.000289	20.948886
1530.380419	-2.961200	3.489000	-10.331000	25.917918	0.000288	20.966579
1531.379535	-2.986800	3.489400	-10.420000	25.906775	0.000289	20.951594
1532.380867	-3.008000	3.488500	-10.493000	25.934528	0.000287	20.950552
1533.380159	-2.981500	3.489100	-10.401000	25.962147	0.000286	20.929938
1534.379247	-2.985500	3.488900	-10.415000	25.952918	0.000288	20.945794
1535.381555	-2.983500	3.487200	-10.403000	25.909656	0.000285	20.944531
1536.382336	-3.002000	3.486700	-10.466000	25.897308	0.000285	20.957256
1537.382423	-3.011600	3.487600	-10.502000	25.896271	0.000284	20.939147
1538.383191	-3.013200	3.487300	-10.507000	25.880257	0.000286	20.933491
1539.381181	-2.979500	3.486900	-10.388000	25.841275	0.000284	20.963554
1540.385571	-2.996400	3.485400	-10.443000	25.810450	0.000282	20.943972
1541.383636	-2.991400	3.485400	-10.425000	25.810930	0.000284	20.949669
1542.384214	-3.000600	3.484400	-10.455000	25.796870	0.000284	20.958778
1543.384313	-2.999800	3.484300	-10.451000	25.795555	0.000284	20.973576
1544.383599	-3.004200	3.482800	-10.462000	25.798243	0.000282	20.956839
1545.384104	-2.968600	3.485700	-10.347000	25.843835	0.000282	20.947636
1546.385638	-3.002000	3.482500	-10.454000	25.854540	0.000282	20.943217
1547.385761	-3.011000	3.482700	-10.484000	25.861224	0.000283	20.946137
1548.384548	-2.996800	3.483100	-10.437000	25.889879	0.000282	20.966861
1549.389667	-2.982100	3.483400	-10.386000	25.869356	0.000283	20.949566
1550.385026	-3.038800	3.482700	-10.582000	25.835405	0.000281	20.945332
1551.389280	-3.010100	3.480900	-10.476000	25.824178	0.000282	20.974827
1552.385837	-3.000500	3.482700	-10.448000	25.837099	0.000282	20.943241
1553.386371	-3.020100	3.480800	-10.511000	25.894986	0.000280	20.943071
1554.385547	-2.995500	3.480600	-10.425000	25.919858	0.000282	20.950512
1555.385754	-2.996500	3.481700	-10.432000	25.902225	0.000281	20.944653
1556.387173	-2.982600	3.480900	-10.381000	25.836196	0.000279	20.927163
1557.384890	-3.018000	3.479500	-10.500000	25.823308	0.000278	20.913269
1558.386402	-3.007000	3.480100	-10.463000	25.830472	0.000280	20.941325
1559.387176	-2.993600	3.479800	-10.416000	25.824707	0.000278	20.931268
1560.386880	-3.029900	3.477100	-10.534000	25.824142	0.000278	20.937337
1561.387518	-2.972400	3.479400	-10.341000	25.805193	0.000279	20.951492
1562.390174	-2.983600	3.478700	-10.378000	25.861261	0.000279	20.924841
1563.388411	-3.010200	3.477800	-10.468000	25.886217	0.000276	20.919566
1564.389275	-3.001900	3.479300	-10.443000	25.855335	0.000279	20.926000
1565.390283	-3.025500	3.476600	-10.518000	25.818223	0.000277	20.935186
1566.391455	-3.036800	3.476300	-10.556000	25.807965	0.000276	20.944795
1567.394631	-3.027700	3.475600	-10.522000	25.873144	0.000274	20.940569
1568.391186	-2.999000	3.477300	-10.428000	25.902483	0.000276	20.966246
1569.392804	-3.000600	3.476700	-10.431000	25.942770	0.000275	20.934652
1570.391738	-3.010700	3.475000	-10.461000	25.916095	0.000276	20.922553
1571.394644	-3.013500	3.475100	-10.472000	25.934088	0.000276	20.931620
1572.395210	-3.003500	3.474600	-10.435000	25.916279	0.000276	20.930325
1573.396196	-2.990100	3.475900	-10.393000	25.846146	0.000275	20.933838
1574.395220	-3.012700	3.475400	-10.470000	25.785837	0.000273	20.943904
1575.392725	-3.001500	3.474000	-10.426000	25.839107	0.000274	20.937672
1576.397430	-2.984700	3.475400	-10.372000	25.886063	0.000272	20.935056
1577.392411	-2.989800	3.473600	-10.384000	25.911702	0.000276	20.928097
1578.396378	-3.013500	3.473000	-10.465000	25.910185	0.000273	20.932736
1579.392501	-3.004500	3.474100	-10.437000	25.854674	0.000271	20.948093
1580.393050	-3.026800	3.472300	-10.509000	25.872459	0.000274	20.922814
1581.396703	-3.000000	3.471900	-10.414000	25.858880	0.000273	20.934776
1582.396123	-2.999400	3.472400	-10.414000	25.799583	0.000273	20.938272
1583.396834	-2.987400	3.473300	-10.376000	25.774295	0.000272	20.947957
1584.395165	-2.981600	3.472000	-10.350000	25.832135	0.000272	20.936358
1585.397934	-2.970400	3.472600	-10.314000	25.876014	0.000271	20.929229
1586.396586	-2.988800	3.471300	-10.374000	25.869348	0.000272	20.945764
1587.395767	-2.988400	3.471300	-10.373000	25.864888	0.000270	20.936544
1588.399873	-2.996000	3.470300	-10.396000	25.874732	0.000271	20.945009
1589.396794	-2.980800	3.470800	-10.345000	25.840672	0.000269	20.921703
1590.397559	-3.005900	3.469200	-10.427000	25.841751	0.000271	20.920889
1591.401531	-3.008300	3.467600	-10.430000	25.846032	0.000270	20.923767
1592.398230	-3.005800	3.469100	-10.427000	25.877909	0.000270	20.915487
1593.401258	-3.012900	3.468600	-10.450000	25.847305	0.000269	20.932631
1594.399589	-2.984800	3.468800	-10.352000	25.861599	0.000267	20.927077
1595.400282	-3.010900	3.468700	-10.443000	25.857604	0.000267	20.904099
1596.400499	-3.006600	3.468500	-10.428000	25.806760	0.000269	20.911346
1597.402217	-2.995500	3.466500	-10.384000	25.802260	0.000268	20.940960
1598.402892	-3.013100	3.465900	-10.442000	25.872496	0.000267	20.906732
1599.402721	-2.998200	3.466400	-10.392000	25.851736	0.000267	20.909584
1600.403179	-3.001800	3.464900	-10.399000	25.828548	0.000264	20.920429
1601.402563	-3.015600	3.465400	-10.450000	25.817775	0.000264	20.918143
1602.402142	-3.015000	3.466000	-10.449000	25.857323	0.000265	20.898128
1603.404033	-2.979700	3.465900	-10.326000	25.898665	0.000266	20.919742
1604.405882	-3.004800	3.465000	-10.410000	25.936305	0.000264	20.918201
1605.404255	-2.993700	3.463600	-10.368000	25.948458	0.000264	20.902911
1606.403620	-3.000100	3.465200	-10.395000	25.946923	0.000264	20.919386
1607.407915	-2.969200	3.464700	-10.286000	25.968043	0.000265	20.901251
1608.406624	-2.983200	3.464800	-10.335000	25.962388	0.000264	20.916905
1609.411697	-3.009400	3.463200	-10.420000	25.931736	0.000264	20.931153
1610.409724	-3.033100	3.462100	-10.500000	25.868480	0.000264	20.914551
1611.409518	-3.002100	3.463600	-10.397000	25.882809	0.000262	20.913772
1612.409471	-3.011600	3.462000	-10.425000	25.904436	0.000264	20.942133
1613.409871	-3.004000	3.462400	-10.400000	25.936454	0.000262	20.908395
1614.411164	-3.009200	3.461400	-10.414000	25.929459	0.000262	20.900894
1615.416272	-2.974200	3.460700	-10.292000	25.913116	0.000261	20.910554
1616.414530	-3.007200	3.461100	-10.407000	25.915350	0.000262	20.928443
1617.411185	-2.995300	3.460800	-10.365000	25.907191	0.000261	20.895119
1618.416717	-3.020100	3.459400	-10.447000	25.915139	0.000260	20.896465
1619.412930	-3.015900	3.459900	-10.434000	25.956655	0.000259	20.898819
1620.413634	-3.030100	3.459500	-10.482000	25.960784	0.000259	20.911501
1621.412603	-2.970800	3.459800	-10.277000	25.936343	0.000260	20.893586
1622.412634	-2.981300	3.460200	-10.316000	25.957683	0.000258	20.897007
1623.412731	-2.995100	3.458800	-10.359000	25.900102	0.000259	20.915971
1624.412992	-2.991800	3.458100	-10.345000	25.836171	0.000259	20.914336
1625.412602	-3.001500	3.457800	-10.377000	25.809097	0.000256	20.898047
1626.413279	-2.984600	3.458400	-10.321000	25.839357	0.000257	20.896202
1627.413454	-3.001600	3.456400	-10.374000	25.887509	0.000256	20.907114
1628.420231	-3.001500	3.456500	-10.374000	25.923927	0.000256	20.883011
1629.414393	-3.021700	3.457200	-10.446000	25.885773	0.000257	20.905844
1630.415707	-3.008000	3.456700	-10.396000	25.851839	0.000258	20.905421
1631.417476	-2.991200	3.456900	-10.339000	25.806138	0.000258	20.922099
1632.415414	-2.983300	3.456400	-10.310000	25.833245	0.000255	20.902389
1633.415721	-2.997500	3.456000	-10.359000	25.826114	0.000256	20.901390
1634.417702	-2.999800	3.456100	-10.367000	25.799916	0.000255	20.897834
1635.416542	-2.985300	3.456100	-10.316000	25.822793	0.000258	20.899951
1636.423111	-3.011200	3.454000	-10.400000	25.878919	0.000255	20.898012
1637.416336	-2.994800	3.454800	-10.346000	25.876011	0.000255	20.887979
1638.416412	-3.019400	3.454500	-10.430000	25.872867	0.000258	20.889088
1639.416636	-3.014400	3.452900	-10.407000	25.850607	0.000254	20.901813
1640.418702	-3.001100	3.454100	-10.365000	25.828482	0.000254	20.883381
1641.418096	-3.004700	3.453000	-10.374000	25.823668	0.000253	20.893719
1642.422058	-3.005900	3.453400	-10.379000	25.775327	0.000252	20.893524
1643.416812	-3.011400	3.452500	-10.396000	25.824974	0.000255	20.912098
1644.415630	-3.004100	3.452200	-10.370000	25.859347	0.000253	20.911540
1645.421609	-3.002300	3.452000	-10.362000	25.867531	0.000253	20.885624
1646.418585	-2.984500	3.452100	-10.301000	25.857147	0.000251	20.899848
1647.420003	-2.978200	3.453300	-10.283000	25.895657	0.000251	20.903920
1648.416208	-3.005800	3.451600	-10.374000	25.906167	0.000251	20.906891
1649.417472	-3.004900	3.450700	-10.368000	25.891493	0.000252	20.899263
1650.417121	-3.019900	3.449500	-10.417000	25.882373	0.000251	20.893421
1651.419995	-3.017900	3.450400	-10.412000	25.854036	0.000250	20.893404
1652.419379	-3.010800	3.449400	-10.385000	25.902407	0.000250	20.885099
1653.420422	-3.017200	3.448500	-10.404000	25.898008	0.000249	20.894903
1654.421364	-2.983900	3.450000	-10.293000	25.841603	0.000252	20.861951
1655.420454	-3.001500	3.449700	-10.354000	25.819689	0.000250	20.894462
1656.421964	-2.995100	3.448000	-10.326000	25.821956	0.000249	20.875404
1657.421644	-3.016900	3.447800	-10.401000	25.844520	0.000248	20.896172
1658.421799	-2.985200	3.450100	-10.298000	25.874374	0.000249	20.875904
1659.422634	-3.015900	3.447000	-10.394000	25.932360	0.000247	20.860190
1660.422295	-2.999200	3.448400	-10.342000	25.930481	0.000248	20.888645
1661.423238	-2.979000	3.447600	-10.270000	25.911796	0.000248	20.862289
1662.424013	-3.000100	3.445900	-10.337000	25.890480	0.000247	20.882600
1663.421162	-2.977100	3.446800	-10.261000	25.899515	0.000247	20.885987
1664.424995	-3.001500	3.445400	-10.340000	25.888786	0.000247	20.893225
1665.423103	-2.985700	3.446100	-10.288000	25.952106	0.000246	20.857742
1666.421868	-3.011000	3.444600	-10.371000	25.971532	0.000248	20.863982
1667.424835	-2.998300	3.445000	-10.327000	25.983609	0.000247	20.856675
1668.424458	-3.009000	3.443800	-10.362000	26.004299	0.000245	20.876512
1669.423145	-2.994300	3.444900	-10.314000	25.968810	0.000246	20.884953
1670.429223	-3.027600	3.444000	-10.426000	25.939178	0.000242	20.857082
1671.425025	-2.998600	3.444500	-10.328000	25.928550	0.000244	20.869163
1672.425172	-3.011800	3.442300	-10.366000	25.884360	0.000244	20.860807
1673.428201	-3.015700	3.442600	-10.381000	25.839697	0.000244	20.866674
1674.425682	-2.997200	3.443800	-10.321000	25.810508	0.000242	20.872440
1675.424180	-2.992200	3.443200	-10.302000	25.787429	0.000242	20.871068
1676.425755	-2.979300	3.442800	-10.256000	25.807886	0.000245	20.861746
1677.423318	-2.979900	3.443000	-10.259000	25.775796	0.000244	20.864599
1678.429204	-2.988400	3.442000	-10.286000	25.805408	0.000243	20.863998
1679.430179	-2.985500	3.440900	-10.272000	25.848007	0.000240	20.862220
1680.427068	-2.990800	3.441000	-10.290000	25.872240	0.000241	20.856691
1681.426543	-2.991600	3.440600	-10.293000	25.894153	0.000242	20.867799
1682.427372	-2.994100	3.441600	-10.304000	25.948211	0.000241	20.852881
1683.425989	-2.999400	3.440200	-10.318000	26.014933	0.000243	20.843102
1684.431911	-3.008600	3.439200	-10.346000	26.002562	0.000241	20.869552
1685.428179	-2.987400	3.440200	-10.276000	26.009649	0.000242	20.858655
1686.428082	-2.982100	3.438800	-10.254000	25.976714	0.000241	20.836947
1687.433719	-2.986100	3.438800	-10.268000	25.938241	0.000240	20.872735
1688.428898	-2.995100	3.438400	-10.297000	25.907495	0.000239	20.853228
1689.431059	-2.998300	3.439100	-10.310000	25.904815	0.000239	20.876138
1690.429479	-2.983000	3.438500	-10.256000	25.967308	0.000238	20.841722
1691.429607	-3.014400	3.437000	-10.359000	25.960735	0.000240	20.846022
1692.430556	-3.004700	3.436100	-10.323000	25.923003	0.000240	20.853160
1693.431123	-2.976800	3.437600	-10.231000	25.889593	0.000239	20.867485
1694.431231	-3.026000	3.435800	-10.396000	25.861054	0.000235	20.844507
1695.430231	-3.015200	3.436100	-10.359000	25.846624	0.000238	20.876951
1696.431726	-3.011700	3.435500	-10.346000	25.847770	0.000238	20.852499
1697.431268	-3.013700	3.436000	-10.354000	25.882850	0.000238	20.848858
1698.434598	-2.998000	3.435200	-10.298000	25.879596	0.000238	20.845116
1699.431675	-2.988800	3.436200	-10.269000	25.870114	0.000234	20.831324
1700.434183	-2.998900	3.434400	-10.299000	25.875635	0.000233	20.857257
1701.432743	-3.007600	3.433500	-10.327000	25.906424	0.000238	20.844091
1702.432627	-2.984500	3.435900	-10.253000	25.947924	0.000235	20.847851
1703.432102	-3.002400	3.432800	-10.305000	25.950519	0.000234	20.834338
1704.432536	-2.988500	3.432900	-10.259000	25.977800	0.000235	20.853210
1705.438427	-2.980500	3.433700	-10.233000	25.982789	0.000237	20.840679
1706.443741	-2.993200	3.432600	-10.273000	25.953915	0.000234	20.840594
1707.435368	-2.984500	3.432400	-10.242000	25.983429	0.000234	20.851279
1708.433903	-3.001400	3.432500	-10.301000	25.982511	0.000234	20.835184
1709.437308	-2.986800	3.432400	-10.251000	25.945605	0.000232	20.831298
1710.434958	-3.036400	3.430900	-10.417000	25.928648	0.000234	20.827064
1711.440573	-2.989300	3.431000	-10.255000	25.932070	0.000233	20.845200
1712.436234	-3.007900	3.431000	-10.319000	25.883868	0.000232	20.835184
1713.436731	-2.987200	3.431900	-10.251000	25.832218	0.000232	20.832136
1714.442658	-2.998400	3.431000	-10.287000	25.838455	0.000232	20.835082
1715.437254	-3.004000	3.429200	-10.300000	25.854689	0.000231	20.839061
1716.439297	-2.994800	3.428800	-10.267000	25.849328	0.000232	20.840788
1717.436073	-3.003500	3.429000	-10.298000	25.869026	0.000231	20.835446
1718.437435	-3.014000	3.428200	-10.332000	25.891597	0.000230	20.832516
1719.438204	-3.020300	3.428600	-10.354000	25.911471	0.000229	20.840627
1720.436665	-2.997200	3.428200	-10.274000	25.942124	0.000231	20.847714
1721.439049	-3.007100	3.426900	-10.304000	25.983546	0.000229	20.836224
1722.438029	-3.000900	3.426900	-10.282000	25.982206	0.000230	20.827766
1723.440804	-2.981200	3.428100	-10.218000	25.928428	0.000230	20.820679
1724.442642	-2.996900	3.428300	-10.273000	25.942865	0.000230	20.847036
1725.441542	-3.003600	3.427900	-10.295000	25.907973	0.000228	20.833320
1726.441051	-3.002600	3.426600	-10.288000	25.915373	0.000228	20.828426
1727.443061	-3.005700	3.425000	-10.293000	25.902705	0.000228	20.815227
1728.442246	-2.983600	3.426400	-10.222000	25.959131	0.000230	20.823075
1729.442243	-3.003600	3.424600	-10.285000	25.985611	0.000229	20.827868
1730.442919	-2.989100	3.424300	-10.234000	26.012613	0.000227	20.819435
1731.442886	-2.987100	3.424200	-10.228000	26.001185	0.000228	20.836876
1732.446690	-2.989400	3.424700	-10.237000	25.971233	0.000227	20.820535
1733.442475	-3.011600	3.424300	-10.312000	25.997645	0.000227	20.839010
1734.443468	-3.005000	3.424900	-10.291000	25.962949	0.000226	20.848721
1735.448006	-3.019700	3.422900	-10.334000	25.955279	0.000226	20.825844
1736.443879	-2.984500	3.423800	-10.217000	25.998446	0.000225	20.824167
1737.445615	-3.008300	3.423100	-10.296000	26.064255	0.000225	20.821534
1738.443127	-2.994100	3.423100	-10.248000	26.017087	0.000224	20.805913
1739.444141	-2.979600	3.422600	-10.197000	26.040541	0.000225	20.831847
1740.445706	-2.970800	3.422100	-10.166000	26.034431	0.000225	20.825234
1741.445567	-2.983800	3.422500	-10.211000	26.025473	0.000225	20.809122
1742.446791	-2.995300	3.421400	-10.247000	26.029551	0.000224	20.826021
1743.446108	-2.999300	3.421100	-10.259000	26.040406	0.000223	20.826021
1744.448582	-3.009200	3.420300	-10.292000	26.009654	0.000223	20.823100
1745.446575	-3.002300	3.419800	-10.266000	26.015924	0.000224	20.821813
1746.446785	-2.974000	3.422200	-10.177000	26.007531	0.000225	20.836613
1747.467288	-2.976500	3.420200	-10.179000	25.998623	0.000221	20.823397
1748.447131	-2.995700	3.420300	-10.245000	25.965713	0.000220	20.813567
1749.447862	-3.005300	3.418800	-10.274000	25.974334	0.000222	20.834556
1750.449564	-2.995600	3.418300	-10.239000	25.975202	0.000222	20.847281
1751.450718	-2.993700	3.417000	-10.229000	26.001117	0.000221	20.819265
1752.455764	-2.999200	3.418100	-10.250000	25.975194	0.000220	20.833049
1753.454344	-2.997400	3.417800	-10.243000	25.995167	0.000222	20.827037
1754.451412	-2.989200	3.417000	-10.213000	25.962679	0.000220	20.836122
1755.452791	-3.000800	3.415500	-10.249000	25.998648	0.000220	20.824844
1756.452743	-2.968700	3.417500	-10.145000	26.034203	0.000220	20.808884
1757.453322	-2.992400	3.416300	-10.222000	26.027048	0.000218	20.832515
1758.455626	-2.969900	3.416800	-10.147000	26.030478	0.000219	20.847815
1759.452114	-3.005200	3.415900	-10.263000	26.076709	0.000219	20.827884
1760.455003	-3.005500	3.414700	-10.262000	26.124101	0.000220	20.827139
1761.454663	-2.998900	3.415500	-10.242000	26.122989	0.000218	20.826495
1762.452927	-3.012800	3.413200	-10.283000	26.126722	0.000217	20.811281
1763.455517	-3.011500	3.414300	-10.281000	26.115001	0.000219	20.822736
1764.452435	-3.004700	3.414200	-10.257000	26.098535	0.000219	20.820416
1765.453683	-2.993600	3.415900	-10.225000	26.041923	0.000217	20.822804
1766.453616	-2.973300	3.413400	-10.148000	26.090125	0.000216	20.811018
1767.455166	-2.982600	3.414100	-10.182000	26.141325	0.000218	20.822161
1768.455678	-3.000600	3.412700	-10.240000	26.113020	0.000218	20.826436
1769.458600	-3.006000	3.412600	-10.257000	26.110939	0.000217	20.822923
1770.454911	-2.990800	3.412400	-10.205000	26.079305	0.000216	20.809155
1771.454205	-3.005600	3.411600	-10.253000	26.057816	0.000216	20.830238
1772.458875	-2.975800	3.411400	-10.151000	26.038451	0.000216	20.827376
1773.454628	-3.017600	3.410300	-10.290000	26.047046	0.000213	20.836012
1774.456993	-2.996500	3.410700	-10.219000	26.030664	0.000214	20.850372
1775.455626	-2.995100	3.412100	-10.218000	26.053367	0.000214	20.843785
1776.456142	-2.999500	3.410600	-10.230000	26.066951	0.000216	20.827563
1777.455111	-3.004900	3.410400	-10.247000	26.057977	0.000212	20.824709
1778.456383	-3.009100	3.409300	-10.258000	26.011408	0.000212	20.816327
1779.455220	-2.990200	3.408800	-10.193000	26.012975	0.000212	20.851092
1780.456909	-2.984000	3.408000	-10.168000	25.969657	0.000211	20.828909
1781.455708	-2.986000	3.410800	-10.184000	26.007447	0.000213	20.834158
1782.456718	-2.998200	3.408400	-10.218000	26.003823	0.000212	20.848535
1783.456033	-2.992700	3.408600	-10.200000	26.031102	0.000213	20.860295
1784.455103	-2.989900	3.407400	-10.187000	26.058103	0.000210	20.839061
1785.458286	-3.003100	3.406100	-10.228000	26.028768	0.000209	20.816700
1786.456583	-3.011400	3.408200	-10.262000	26.058027	0.000210	20.841355
1787.457013	-3.009600	3.407400	-10.253000	26.089300	0.000211	20.845749
1788.457967	-3.018700	3.405000	-10.278000	26.069033	0.000211	20.829654
1789.457200	-3.023100	3.405800	-10.295000	26.051362	0.000208	20.827546
1790.462327	-3.004100	3.406100	-10.232000	26.053224	0.000208	20.835581
1791.457536	-3.008700	3.405500	-10.245000	26.038030	0.000211	20.844971
1792.456959	-3.011400	3.403900	-10.249000	26.071511	0.000208	20.833566
1793.455623	-3.004400	3.405000	-10.229000	26.113367	0.000209	20.856181
1794.456914	-3.009300	3.403600	-10.242000	26.143239	0.000210	20.866281
1795.456624	-2.999300	3.404600	-10.211000	26.171433	0.000210	20.852413
1796.463668	-2.999600	3.402700	-10.206000	26.129394	0.000207	20.836250
1797.457291	-3.004500	3.404300	-10.227000	26.116105	0.000207	20.847079
1798.458164	-3.022700	3.403900	-10.288000	26.115364	0.000207	20.859136
1799.460630	-3.001800	3.403300	-10.215000	26.081792	0.000208	20.850059
1800.459723	-3.020600	3.402800	-10.277000	26.062654	0.000208	20.839366
1801.461243	-3.022400	3.403300	-10.286000	26.018690	0.000208	20.866789
1802.461159	-3.003700	3.401800	-10.217000	25.994402	0.000207	20.835277
1803.459406	-2.968200	3.402400	-10.098000	25.966843	0.000208	20.858797
1804.460770	-2.991800	3.400900	-10.174000	25.921518	0.000206	20.848350
1805.460360	-2.983600	3.401900	-10.149000	25.954556	0.000207	20.866841
1806.463453	-2.994200	3.400600	-10.181000	25.942757	0.000205	20.866841
1807.463657	-2.987900	3.400300	-10.158000	25.962284	0.000205	20.864648
1808.462775	-3.010700	3.400000	-10.235000	25.999492	0.000207	20.862675
1809.464614	-2.966100	3.400200	-10.083000	26.008274	0.000205	20.845420
1810.462726	-2.982200	3.399000	-10.135000	26.074352	0.000204	20.853963
1811.467564	-3.013700	3.398600	-10.241000	26.051523	0.000205	20.854734
1812.462746	-3.013800	3.398800	-10.242000	26.071394	0.000205	20.869008
1813.464462	-3.008300	3.399400	-10.225000	26.083242	0.000202	20.842982
1814.463590	-3.018100	3.396900	-10.251000	26.101613	0.000203	20.863810
1815.464952	-2.996100	3.397800	-10.179000	26.112349	0.000205	20.858951
1816.463837	-2.988100	3.397800	-10.152000	26.070029	0.000203	20.882809
1817.467875	-3.024100	3.397100	-10.272000	26.063903	0.000201	20.857689
1818.465341	-2.997900	3.397700	-10.185000	26.054372	0.000201	20.863286
1819.465031	-2.994000	3.396800	-10.169000	26.058080	0.000202	20.839986
1820.468146	-3.031600	3.395500	-10.292000	26.054979	0.000201	20.853939
1821.466602	-3.002700	3.395600	-10.195000	26.089159	0.000202	20.856513
1822.469035	-2.993200	3.397300	-10.168000	26.076662	0.000200	20.865767
1823.466627	-3.004000	3.395500	-10.199000	26.090111	0.000201	20.864582
1824.467593	-2.995900	3.395400	-10.171000	26.070291	0.000199	20.859840
1825.467615	-2.996900	3.395400	-10.174000	26.055569	0.000200	20.881083
1826.468014	-3.003700	3.395600	-10.199000	26.073207	0.000201	20.869882
1827.469390	-2.985600	3.395200	-10.136000	26.092505	0.000198	20.876943
1828.469842	-3.019900	3.393700	-10.247000	26.056724	0.000198	20.877028
1829.469487	-3.007400	3.392300	-10.201000	26.037030	0.000197	20.861035
1830.468978	-2.989600	3.393300	-10.143000	25.968447	0.000197	20.858986
1831.470646	-2.979800	3.394500	-10.114000	25.983558	0.000198	20.863736
1832.470939	-2.981200	3.393600	-10.116000	26.024575	0.000197	20.870331
1833.473063	-3.001900	3.391900	-10.181000	26.014715	0.000199	20.878916
1834.471515	-3.016100	3.392100	-10.230000	25.969408	0.000196	20.881287
1835.472279	-3.005100	3.391300	-10.190000	26.030465	0.000200	20.881465
1836.472779	-2.987700	3.391200	-10.131000	26.056202	0.000197	20.873659
1837.472060	-3.005000	3.390800	-10.188000	26.067680	0.000196	20.886138
1838.475442	-2.979600	3.391400	-10.104000	26.173332	0.000195	20.856692
1839.472670	-3.009900	3.390100	-10.203000	26.195914	0.000197	20.897399
1840.473236	-3.005500	3.389200	-10.185000	26.175363	0.000196	20.881017
1841.473058	-3.029600	3.389500	-10.268000	26.153876	0.000195	20.868909
1842.473752	-2.984800	3.390200	-10.118000	26.167991	0.000195	20.887358
1843.475199	-2.996900	3.389900	-10.159000	26.177799	0.000194	20.883937
1844.476619	-2.984400	3.389500	-10.115000	26.144229	0.000194	20.874388
1845.473363	-2.993500	3.390100	-10.147000	26.153540	0.000194	20.880898
1846.473434	-2.985100	3.388700	-10.114000	26.138044	0.000195	20.882871
1847.476267	-3.014000	3.387800	-10.209000	26.155427	0.000194	20.857666
1848.473104	-2.994600	3.389200	-10.148000	26.177310	0.000195	20.894351
1849.475302	-3.014800	3.385600	-10.206000	26.212935	0.000191	20.896959
1850.473966	-2.986200	3.388700	-10.118000	26.236157	0.000193	20.902750
1851.474917	-3.008400	3.386800	-10.188000	26.246537	0.000193	20.882837
1852.481323	-3.004500	3.386700	-10.174000	26.222777	0.000191	20.905426
1853.473383	-3.001800	3.387300	-10.167000	26.230032	0.000191	20.881898
1854.478227	-3.018200	3.386000	-10.219000	26.239991	0.000192	20.883845
1855.475512	-2.998400	3.385100	-10.148000	26.200710	0.000190	20.906010
1856.475646	-3.023800	3.385200	-10.235000	26.182956	0.000192	20.892913
1857.475705	-3.034900	3.384600	-10.271000	26.144297	0.000188	20.884413
1858.475833	-2.993700	3.384200	-10.131000	26.069721	0.000191	20.882500
1859.482770	-3.001400	3.384500	-10.158000	26.102502	0.000191	20.883668
1860.477596	-3.013100	3.383000	-10.192000	26.134177	0.000189	20.882305
1861.477553	-3.002700	3.383600	-10.159000	26.077246	0.000187	20.891957
1862.476358	-3.002900	3.381800	-10.153000	26.136149	0.000188	20.907992
1863.477475	-2.977700	3.384200	-10.076000	26.133276	0.000190	20.885667
1864.476366	-2.984100	3.383100	-10.095000	26.163577	0.000187	20.894303
1865.480015	-2.990000	3.381100	-10.109000	26.190499	0.000187	20.889113
1866.476407	-3.029400	3.380900	-10.241000	26.232493	0.000188	20.895276
1867.476870	-3.011100	3.381300	-10.181000	26.256819	0.000188	20.910711
1868.478151	-3.020800	3.380800	-10.211000	26.236732	0.000188	20.903802
1869.477537	-3.017300	3.380400	-10.199000	26.234474	0.000187	20.893948
1870.481473	-3.018200	3.380400	-10.201000	26.212896	0.000186	20.883170
1871.479765	-2.981900	3.380600	-10.080000	26.164876	0.000187	20.897978
1872.479384	-2.992800	3.379900	-10.114000	26.136437	0.000186	20.903540
1873.480760	-3.017600	3.379600	-10.197000	26.114284	0.000187	20.899299
1874.479534	-3.018700	3.378600	-10.198000	26.096436	0.000186	20.895117
1875.480945	-2.999900	3.379500	-10.136000	26.050113	0.000186	20.902626
1876.479774	-3.036100	3.378000	-10.254000	26.069496	0.000184	20.892704
1877.481383	-3.001900	3.379300	-10.142000	26.068679	0.000184	20.889512
1878.484853	-3.024100	3.377700	-10.213000	26.069109	0.000183	20.905590
1879.480471	-2.988400	3.378400	-10.095000	26.072960	0.000183	20.905192
1880.482670	-3.013700	3.378100	-10.179000	26.151775	0.000183	20.925113
1881.487749	-2.995200	3.378500	-10.118000	26.166133	0.000183	20.925791
1882.481114	-2.987600	3.377900	-10.092000	26.120243	0.000184	20.919035
1883.482956	-2.996500	3.377600	-10.120000	26.115347	0.000182	20.893729
1884.483699	-2.994700	3.376900	-10.112000	26.111454	0.000183	20.924428
1885.487785	-2.994600	3.376400	-10.110000	26.148657	0.000184	20.932886
1886.485806	-3.011000	3.376800	-10.167000	26.142439	0.000182	20.904830
1887.483507	-2.981500	3.376600	-10.066000	26.163943	0.000181	20.923116
1888.482829	-3.003800	3.375300	-10.139000	26.209554	0.000181	20.933860
1889.485312	-2.978800	3.375100	-10.052000	26.194800	0.000180	20.920933
1890.483671	-3.006500	3.373800	-10.142000	26.199359	0.000180	20.914135
1891.489453	-2.990800	3.373900	-10.089000	26.179979	0.000181	20.913152
1892.485056	-2.988900	3.375500	-10.088000	26.270084	0.000179	20.939211
1893.485412	-2.971100	3.374800	-10.026000	26.256410	0.000182	20.924049
1894.485614	-2.990800	3.373600	-10.089000	26.306945	0.000179	20.937374
1895.486673	-2.989200	3.374700	-10.087000	26.293667	0.000178	20.941574
1896.489486	-2.980100	3.373700	-10.053000	26.276732	0.000180	20.930721
1897.487861	-2.986200	3.372900	-10.072000	26.296751	0.000179	20.919545
1898.487558	-2.999600	3.372100	-10.114000	26.247631	0.000179	20.924710
1899.487178	-2.989900	3.371700	-10.080000	26.272545	0.000179	20.918928
1900.489135	-2.999400	3.371600	-10.113000	26.276202	0.000178	20.928766
1901.489290	-3.010700	3.371900	-10.151000	26.263219	0.000174	20.949854
1902.490577	-2.986100	3.371700	-10.067000	26.241489	0.000176	20.943192
1903.489845	-3.001500	3.370800	-10.117000	26.258256	0.000177	20.935386
1904.489502	-2.988700	3.370400	-10.072000	26.282522	0.000177	20.928478
1905.489168	-2.999600	3.371100	-10.110000	26.296229	0.000176	20.912858
1906.489175	-3.005700	3.369100	-10.126000	26.304393	0.000176	20.936233
1907.491679	-2.992700	3.369600	-10.084000	26.342668	0.000176	20.942930
1908.500643	-3.003800	3.369600	-10.120000	26.358297	0.000175	20.942041
1909.491218	-2.992100	3.368900	-10.079000	26.314689	0.000176	20.939467
1910.491672	-3.037600	3.367300	-10.227000	26.288091	0.000173	20.950194
1911.492246	-3.018900	3.369100	-10.170000	26.325128	0.000173	20.944742
1912.493552	-3.016700	3.367900	-10.159000	26.305363	0.000174	20.958068
1913.494728	-3.009900	3.366100	-10.131000	26.332930	0.000173	20.938833
1914.491300	-3.001500	3.368100	-10.108000	26.274182	0.000174	20.943329
1915.490661	-2.982600	3.367400	-10.042000	26.272969	0.000173	20.949695
1916.493483	-2.995800	3.366500	-10.085000	26.224278	0.000172	20.945810
1917.491629	-2.999100	3.366500	-10.096000	26.232897	0.000172	20.952574
1918.491479	-3.022100	3.365000	-10.168000	26.256447	0.000172	20.943524
1919.494206	-3.016600	3.366000	-10.153000	26.273753	0.000173	20.940053
1920.492057	-3.003200	3.366000	-10.108000	26.319308	0.000169	20.951695
1921.492842	-3.016000	3.366300	-10.152000	26.314093	0.000172	20.965418
1922.492391	-3.017300	3.364800	-10.151000	26.333909	0.000172	20.953091
1923.495353	-2.986800	3.366100	-10.053000	26.358400	0.000169	20.956842
1924.492608	-3.025900	3.363300	-10.176000	26.302779	0.000170	20.955471
1925.493258	-3.003100	3.363900	-10.102000	26.298010	0.000170	20.956368
1926.494204	-3.005100	3.362500	-10.104000	26.330523	0.000169	20.968652
1927.493698	-2.977700	3.363200	-10.014000	26.330228	0.000169	20.960297
1928.496647	-3.002400	3.361900	-10.092000	26.324541	0.000168	20.959323
1929.493365	-2.989200	3.362500	-10.050000	26.337954	0.000171	20.973275
1930.493806	-2.985600	3.360700	-10.032000	26.308449	0.000168	20.956428
1931.493085	-3.010500	3.362100	-10.121000	26.265405	0.000169	20.951103
1932.493773	-3.023400	3.360200	-10.158000	26.244695	0.000168	20.950206
1933.496547	-2.972100	3.361600	-9.989800	26.245151	0.000167	20.961568
1934.496727	-3.017300	3.359500	-10.135000	26.278616	0.000169	20.963904
1935.493876	-3.016300	3.359600	-10.133000	26.267444	0.000167	20.952204
1936.493814	-3.005000	3.359800	-10.095000	26.248951	0.000167	20.963964
1937.495023	-2.997500	3.360100	-10.071000	26.262903	0.000167	20.959019
1938.494690	-3.012300	3.358800	-10.117000	26.307035	0.000165	20.960222
1939.496767	-3.020000	3.359600	-10.145000	26.309302	0.000166	20.967240
1940.497594	-3.008500	3.360000	-10.108000	26.281440	0.000165	20.966741
1941.497039	-3.002500	3.359000	-10.084000	26.257529	0.000167	20.957411
1942.500105	-3.007400	3.358800	-10.100000	26.330238	0.000166	20.964574
1943.496996	-3.008200	3.356900	-10.098000	26.362649	0.000165	20.964430
1944.500670	-2.995400	3.357900	-10.058000	26.313136	0.000165	20.946914
1945.496383	-3.001100	3.358500	-10.078000	26.272543	0.000164	20.973921
1946.497077	-3.016500	3.357000	-10.126000	26.318689	0.000166	20.969087
1947.497863	-2.980100	3.356700	-10.003000	26.358328	0.000166	20.983318
1948.497731	-3.000800	3.355600	-10.068000	26.386601	0.000164	20.971906
1949.496861	-2.993600	3.356100	-10.046000	26.376500	0.000166	20.969815
1950.499475	-2.987800	3.355500	-10.025000	26.295031	0.000163	20.981820
1951.496927	-3.011000	3.355600	-10.103000	26.284753	0.000162	20.985714
1952.497414	-3.016600	3.355500	-10.120000	26.326996	0.000161	20.951360
1953.498288	-2.998100	3.355800	-10.059000	26.380704	0.000161	20.971670
1954.499296	-2.992500	3.355900	-10.042000	26.378674	0.000160	20.971526
1955.501978	-3.022400	3.354800	-10.139000	26.356551	0.000160	20.969206
1956.498734	-2.996400	3.353200	-10.047000	26.375742	0.000160	20.985647
1957.498060	-3.028800	3.353700	-10.155000	26.382347	0.000161	20.989439
1958.501005	-3.024400	3.353700	-10.141000	26.438664	0.000160	20.982980
1959.499277	-3.022900	3.353900	-10.137000	26.462900	0.000161	20.970832
1960.502911	-2.999100	3.353600	-10.057000	26.493562	0.000160	21.000225
1961.500666	-3.005500	3.351600	-10.073000	26.507900	0.000160	20.995671
1962.501050	-2.993400	3.353300	-10.037000	26.514057	0.000160	20.985741
1963.505438	-3.018900	3.351000	-10.115000	26.479369	0.000159	20.996864
1964.502822	-2.983800	3.352300	-10.002000	26.487388	0.000160	21.005398
1965.506590	-2.999100	3.350900	-10.049000	26.492358	0.000158	20.990008
1966.504991	-3.011000	3.350700	-10.088000	26.487869	0.000157	20.989762
1967.504184	-2.988700	3.351500	-10.015000	26.472950	0.000157	20.982829
1968.504429	-3.018200	3.349600	-10.109000	26.516770	0.000160	21.004112
1969.503592	-3.037400	3.347900	-10.168000	26.479159	0.000157	20.993809
1970.505961	-2.984800	3.349800	-9.997500	26.454410	0.000156	20.995960
1971.507736	-2.998100	3.350400	-10.044000	26.428429	0.000158	20.978384
1972.504134	-3.005000	3.349100	-10.063000	26.432355	0.000157	21.008404
1973.504162	-3.009100	3.349100	-10.077000	26.390520	0.000157	20.999549
1974.508525	-3.015000	3.348400	-10.094000	26.396434	0.000155	20.994114
1975.504924	-2.997600	3.347700	-10.034000	26.356662	0.000156	21.004400
1976.508062	-3.003100	3.348500	-10.055000	26.362796	0.000156	20.987334
1977.505542	-3.013600	3.348500	-10.089000	26.418363	0.000153	20.991024
1978.505094	-3.012400	3.347700	-10.083000	26.408802	0.000153	21.008912
1979.505116	-3.003800	3.347900	-10.055000	26.364422	0.000154	20.993709
1980.505920	-3.011300	3.347800	-10.080000	26.395180	0.000153	20.998542
1981.509200	-3.014000	3.346600	-10.086000	26.391482	0.000154	21.016159
1982.508763	-3.002500	3.345400	-10.043000	26.369907	0.000154	21.005383
1983.514425	-3.008400	3.345000	-10.062000	26.400008	0.000152	21.022356
1984.508946	-2.999500	3.346100	-10.035000	26.400226	0.000153	20.996028
1985.509137	-2.998100	3.345500	-10.029000	26.434598	0.000154	21.014450
1986.510487	-2.991700	3.345000	-10.006000	26.498459	0.000154	21.018894
1987.510490	-2.992800	3.344900	-10.010000	26.534494	0.000152	20.999643
1988.518689	-3.005800	3.344100	-10.051000	26.548654	0.000149	21.009133
1989.510229	-2.987800	3.344100	-9.990800	26.506242	0.000153	21.017234
1990.511358	-3.015000	3.343500	-10.079000	26.464764	0.000152	21.016795
1991.509907	-2.994700	3.343900	-10.013000	26.456846	0.000151	21.019267
1992.515860	-2.993200	3.342900	-10.005000	26.496968	0.000151	21.033514
1993.511640	-3.009600	3.343000	-10.060000	26.528674	0.000149	21.025556
1994.514802	-3.018100	3.342300	-10.086000	26.535632	0.000149	21.007898
1995.514512	-2.998500	3.342900	-10.021000	26.520015	0.000149	21.012588
1996.513487	-2.999700	3.341600	-10.023000	26.550407	0.000149	21.014687
1997.517568	-2.990000	3.341200	-9.988600	26.547349	0.000149	21.000237
1998.512793	-2.976400	3.342200	-9.946900	26.573250	0.000148	20.997824
1999.512897	-3.021600	3.341800	-10.097000	26.617614	0.000150	20.994057
2000.513130	-2.998700	3.341900	-10.020000	26.630425	0.000148	21.006459
2001.514370	-3.018400	3.340800	-10.083000	26.628218	0.000149	20.988597
2002.514428	-2.995700	3.340500	-10.007000	26.575542	0.000148	20.990172
2003.513036	-3.006700	3.340100	-10.042000	26.546828	0.000147	21.003032
2004.512888	-3.017900	3.339400	-10.077000	26.489102	0.000146	21.016128
2005.513773	-3.015900	3.339500	-10.071000	26.545682	0.000147	20.977702
2006.515026	-2.985100	3.339400	-9.967800	26.533915	0.000145	21.000483
2007.516008	-3.011500	3.337600	-10.051000	26.530723	0.000143	21.010549
2008.516667	-2.996200	3.338000	-10.000000	26.506337	0.000144	20.981775
2009.515892	-3.017900	3.338100	-10.072000	26.544732	0.000144	21.001399
2010.515321	-3.006800	3.338100	-10.036000	26.578921	0.000147	20.976501
2011.515551	-2.994100	3.337200	-9.991300	26.560921	0.000143	20.983536
2012.515724	-3.014700	3.337100	-10.060000	26.548489	0.000145	20.999012
2013.519929	-3.005200	3.337000	-10.028000	26.563263	0.000143	20.981150
2014.516671	-3.030100	3.336100	-10.108000	26.570364	0.000142	20.983545
2015.520859	-3.023200	3.335600	-10.083000	26.573640	0.000142	20.975935
2016.516796	-3.034600	3.334800	-10.119000	26.571661	0.000143	20.989116
2017.517590	-3.008800	3.335500	-10.035000	26.601016	0.000142	20.988279
2018.520921	-3.018200	3.334300	-10.063000	26.615166	0.000143	20.984960
2019.517699	-3.008800	3.334500	-10.032000	26.576792	0.000143	20.958717
2020.518836	-3.004200	3.334800	-10.018000	26.530018	0.000143	20.990878
2021.518128	-3.008300	3.334200	-10.029000	26.545349	0.000142	20.969308
2022.518494	-3.021300	3.333900	-10.072000	26.617457	0.000141	20.963085
2023.520432	-3.007900	3.334600	-10.030000	26.667066	0.000141	20.957481
2024.518613	-2.992500	3.333300	-9.974000	26.675439	0.000140	20.977749
2025.518144	-3.018400	3.332000	-10.056000	26.657095	0.000142	20.954570
2026.518446	-3.014200	3.331400	-10.041000	26.670250	0.000139	20.968267
2027.519426	-3.006000	3.331900	-10.014000	26.680408	0.000138	20.973736
2028.521866	-3.019700	3.332500	-10.063000	26.687913	0.000138	20.973220
2029.521466	-3.022700	3.331400	-10.069000	26.700773	0.000139	20.962918
2030.519547	-2.983200	3.330800	-9.935400	26.734233	0.000137	20.973796
2031.519466	-2.999600	3.331500	-9.991800	26.773259	0.000139	20.965619
2032.521246	-2.991100	3.330500	-9.960700	26.740820	0.000137	20.966195
2033.519836	-2.998100	3.331200	-9.986100	26.710012	0.000140	20.967464
2034.524830	-3.011400	3.328500	-10.023000	26.700016	0.000135	20.959786
2035.521755	-2.987000	3.330300	-9.946600	26.649129	0.000137	20.957941
2036.521531	-2.990600	3.329900	-9.957100	26.651690	0.000135	20.916424
2037.522892	-2.995900	3.328800	-9.972100	26.624510	0.000135	20.957374
2038.523542	-2.998700	3.329700	-9.983800	26.615372	0.000137	20.967626
2039.525335	-3.013200	3.328900	-10.029000	26.597255	0.000136	20.964113
2040.528132	-3.017600	3.327200	-10.039000	26.613873	0.000136	20.954268
2041.527883	-2.998800	3.328200	-9.980300	26.675138	0.000138	20.938098
2042.526633	-3.006900	3.326100	-10.001000	26.682238	0.000136	20.961828
2043.529165	-3.003900	3.327100	-9.993600	26.678550	0.000136	20.920193
2044.528897	-3.008500	3.327300	-10.010000	26.667778	0.000134	20.937811
2045.531456	-3.021700	3.327000	-10.052000	26.703167	0.000133	20.950628
2046.528835	-2.998700	3.325400	-9.970500	26.736139	0.000134	20.938733
2047.529863	-3.014200	3.325600	-10.022000	26.761296	0.000133	20.942688
2048.531494	-3.002500	3.325400	-9.983500	26.774501	0.000133	20.954540
2049.530718	-3.018700	3.324900	-10.036000	26.805264	0.000132	20.950384
2050.530639	-3.012100	3.324700	-10.014000	26.741649	0.000134	20.932419
2051.532801	-3.008900	3.322500	-9.996300	26.670053	0.000133	20.930616
2052.531963	-2.990400	3.324500	-9.940100	26.624362	0.000133	20.940632
2053.532857	-3.024900	3.322800	-10.050000	26.628708	0.000133	20.926510
2054.533324	-3.002400	3.324300	-9.979400	26.687724	0.000130	20.933208
2055.533814	-2.998200	3.324000	-9.965200	26.736454	0.000131	20.952324
2056.535562	-2.984200	3.322800	-9.915100	26.758300	0.000130	20.921660
2057.535278	-3.002800	3.322900	-9.977600	26.734130	0.000130	20.937662
2058.534141	-3.010100	3.322200	-9.998900	26.702312	0.000130	20.936020
2059.538779	-2.986900	3.322200	-9.922200	26.660008	0.000130	20.939956
2060.533323	-2.983200	3.322900	-9.911700	26.654930	0.000131	20.935800
2061.535174	-2.997600	3.320200	-9.951700	26.678908	0.000130	20.948050
2062.533545	-2.976500	3.320900	-9.883600	26.709396	0.000128	20.928917
2063.533561	-3.011400	3.319400	-9.995000	26.742587	0.000129	20.924354
2064.533653	-3.004800	3.319600	-9.974200	26.764559	0.000128	20.948813
2065.533131	-2.990800	3.320000	-9.927400	26.757519	0.000127	20.912816
2066.535035	-2.998500	3.319700	-9.953100	26.739759	0.000127	20.930519
2067.534451	-2.974900	3.319900	-9.875600	26.769116	0.000126	20.934430
2068.534887	-3.007800	3.317800	-9.978200	26.778649	0.000128	20.930265
2069.536014	-2.998400	3.318700	-9.949900	26.685724	0.000127	20.938782
2070.535219	-3.013300	3.317100	-9.994800	26.647226	0.000126	20.933271
2071.536005	-3.012800	3.316800	-9.992200	26.673723	0.000126	20.918185
2072.539667	-3.007100	3.317800	-9.975100	26.749225	0.000127	20.934821
2073.535779	-2.999000	3.317300	-9.947300	26.775568	0.000127	20.943761
2074.535412	-3.001300	3.317000	-9.954700	26.797170	0.000126	20.932765
2075.539250	-3.009100	3.317200	-9.980800	26.799705	0.000126	20.940054
2076.536694	-3.003100	3.316000	-9.958000	26.809061	0.000126	20.940452
2077.538444	-2.984600	3.316900	-9.898300	26.785996	0.000127	20.944762
2078.537672	-3.004100	3.314200	-9.955100	26.818485	0.000123	20.953719
2079.538292	-2.999700	3.315200	-9.943000	26.824296	0.000125	20.929219
2080.537678	-3.010900	3.315300	-9.981500	26.846612	0.000124	20.931268
2081.540190	-2.998300	3.314900	-9.938000	26.859581	0.000126	20.931032
2082.539502	-3.009000	3.314100	-9.971700	26.799985	0.000123	20.936543
2083.542340	-2.996300	3.313600	-9.927600	26.794629	0.000125	20.914091
2084.539806	-3.002300	3.313600	-9.947700	26.785071	0.000120	20.952840
2085.539879	-2.991900	3.313200	-9.912000	26.757458	0.000122	20.920814
2086.545418	-3.016800	3.312400	-9.992000	26.724723	0.000121	20.924413
2087.541304	-2.996800	3.313000	-9.927600	26.717101	0.000121	20.918173
2088.543445	-2.999700	3.313000	-9.936900	26.730585	0.000122	20.915134
2089.540060	-3.000200	3.311500	-9.933400	26.775641	0.000120	20.922500
2090.542104	-2.973900	3.311600	-9.847400	26.830329	0.000120	20.922484
2091.540396	-3.000800	3.310900	-9.934600	26.871608	0.000121	20.929850
2092.541465	-2.992600	3.311400	-9.908900	26.848242	0.000119	20.949026
2093.541656	-2.991600	3.312000	-9.907400	26.828781	0.000117	20.919505
2094.542946	-3.001300	3.309400	-9.931900	26.854271	0.000119	20.931383
2095.542461	-2.972100	3.310200	-9.837500	26.820900	0.000120	20.932916
2096.542644	-3.004000	3.308800	-9.938800	26.800967	0.000119	20.915721
2097.543032	-3.026600	3.307400	-10.010000	26.752923	0.000119	20.927634
2098.542908	-3.021300	3.308200	-9.993800	26.805919	0.000118	20.922597
2099.544550	-2.988300	3.308300	-9.885100	26.829448	0.000117	20.937717
2100.543820	-3.008000	3.307700	-9.948600	26.837474	0.000118	20.931089
2101.543797	-2.979900	3.309100	-9.859300	26.867385	0.000118	20.913751
2102.543974	-3.016800	3.307100	-9.976100	26.894811	0.000119	20.923309
2103.542130	-3.021800	3.306700	-9.991300	26.936534	0.000116	20.926383
2104.545492	-2.979200	3.306700	-9.850700	26.854905	0.000116	20.913531
2105.542986	-3.002200	3.306700	-9.926000	26.817518	0.000116	20.913871
2106.543157	-2.985100	3.305100	-9.865300	26.847682	0.000115	20.926181
2107.543332	-2.990000	3.305100	-9.881200	26.806149	0.000115	20.930888
2108.543757	-2.989100	3.305700	-9.880500	26.774637	0.000116	20.925758
2109.550953	-3.009800	3.304600	-9.945600	26.755361	0.000115	20.904483
2110.547436	-3.022700	3.303500	-9.985300	26.732243	0.000113	20.929602
2111.544543	-2.998400	3.304700	-9.907200	26.715249	0.000113	20.904932
2112.546097	-3.016200	3.303100	-9.961600	26.740792	0.000112	20.917335
2113.547964	-3.014600	3.302500	-9.954600	26.750250	0.000115	20.906930
2114.546028	-3.000600	3.302300	-9.908200	26.752414	0.000115	20.919537
2115.550011	-3.011600	3.304000	-9.949700	26.786243	0.000114	20.914194
2116.546440	-3.001100	3.302600	-9.910700	26.824663	0.000112	20.910149
2117.546703	-3.012100	3.301600	-9.944400	26.839003	0.000112	20.915559
2118.548470	-3.028600	3.302800	-10.002000	26.837639	0.000114	20.915610
2119.547463	-2.988500	3.302600	-9.869200	26.884846	0.000110	20.910920
2120.550675	-3.019900	3.300500	-9.966600	26.900214	0.000110	20.908829
2121.547054	-2.984900	3.301300	-9.852600	26.959054	0.000111	20.911098
2122.548843	-2.980100	3.301500	-9.838200	27.007847	0.000112	20.906585
2123.550530	-2.997200	3.300300	-9.889900	26.956218	0.000108	20.905401
2124.548758	-2.991600	3.299400	-9.869900	26.904197	0.000109	20.928480
2125.552158	-3.010300	3.299200	-9.930900	26.891450	0.000111	20.889113
2126.547858	-3.017000	3.299300	-9.952800	26.884478	0.000111	20.911972
2127.548811	-3.001000	3.300300	-9.903600	26.876487	0.000108	20.914842
2128.548038	-2.972100	3.299600	-9.805300	26.861489	0.000110	20.898341
2129.548276	-2.987200	3.298200	-9.851600	26.822265	0.000109	20.906791
2130.548539	-2.993600	3.296800	-9.868400	26.805111	0.000108	20.895235
2131.551558	-2.985400	3.297400	-9.843500	26.856640	0.000106	20.913852
2132.549926	-3.001400	3.297600	-9.896500	26.847208	0.000107	20.911481
2133.548948	-3.003900	3.296800	-9.902300	26.884689	0.000106	20.893694
2134.553635	-3.016100	3.295600	-9.939500	26.892664	0.000105	20.904083
2135.549509	-3.004400	3.296000	-9.902200	26.901877	0.000108	20.899596
2136.552613	-2.994700	3.295900	-9.869400	26.907064	0.000106	20.903389
2137.550519	-2.984900	3.295900	-9.837400	26.952710	0.000107	20.897133
2138.551902	-2.992600	3.295100	-9.860600	26.996459	0.000106	20.896557
2139.552197	-3.017800	3.294000	-9.939600	27.016709	0.000107	20.906014
2140.552283	-3.007200	3.294400	-9.905500	26.954201	0.000105	20.917122
2141.552168	-3.019100	3.293900	-9.943400	26.926010	0.000104	20.905845
2142.551120	-3.003500	3.292900	-9.888800	26.948298	0.000104	20.896964
2143.550646	-2.989900	3.293500	-9.847000	26.991931	0.000106	20.911916
2144.553518	-3.022100	3.291700	-9.946400	27.023723	0.000107	20.902164
2145.551945	-2.991200	3.292500	-9.847500	27.010328	0.000106	20.891065
2146.551199	-3.012700	3.290400	-9.912000	26.928975	0.000103	20.889388
2147.553783	-3.003800	3.292100	-9.886700	26.927940	0.000105	20.900674
2148.551394	-2.969400	3.292200	-9.774900	26.895413	0.000103	20.903054
2149.552223	-2.990400	3.292200	-9.843700	26.951491	0.000103	20.912027
2150.553438	-3.004700	3.291200	-9.888600	26.969595	0.000103	20.906525
2151.552484	-2.994700	3.291200	-9.854900	26.990383	0.000102	20.891870
2152.552575	-3.008100	3.288500	-9.891300	27.041323	0.000102	20.920335
2153.551193	-3.019800	3.288300	-9.929000	27.085018	0.000102	20.890787
2154.552076	-2.996500	3.289800	-9.857400	27.038393	0.000102	20.906010
2155.550996	-3.014100	3.287600	-9.907600	27.076145	0.000103	20.890399
2156.551190	-3.013100	3.288400	-9.907400	27.092200	0.000101	20.906070
2157.551621	-3.014500	3.289500	-9.914800	27.103768	0.000102	20.896368
2158.556112	-3.018300	3.288800	-9.925300	27.026178	9.994783E-5	20.885193
2159.552811	-2.976200	3.288400	-9.785800	27.033899	0.000100	20.908128
2160.552815	-2.984900	3.287500	-9.811800	27.088488	0.000100	20.882424
2161.559052	-2.992600	3.286400	-9.834000	27.103727	9.968381E-5	20.884948
2162.553651	-3.014500	3.288200	-9.911600	27.107356	9.899076E-5	20.903295
2163.560230	-3.004400	3.286600	-9.873400	27.116221	9.981582E-5	20.897987
2164.554336	-3.016900	3.284800	-9.908700	27.048179	9.958480E-5	20.887878
2165.555532	-2.999500	3.286600	-9.858000	27.013887	9.951880E-5	20.899858
2166.555053	-3.015400	3.285200	-9.904300	27.025262	9.793468E-5	20.889014
2167.554265	-2.976900	3.284400	-9.776100	26.972581	9.773667E-5	20.885822
2168.556540	-2.993800	3.283800	-9.830300	26.940467	9.813270E-5	20.892883
2169.556206	-3.015700	3.285300	-9.906100	26.938043	9.826471E-5	20.893764
2170.554935	-3.023800	3.282300	-9.923700	27.008323	9.776967E-5	20.880040
2171.554138	-2.979700	3.284000	-9.784300	27.058848	9.572352E-5	20.899555
2172.555212	-2.988500	3.284000	-9.813600	26.992469	9.730764E-5	20.885908
2173.554824	-3.008500	3.281700	-9.872600	26.998127	9.889175E-5	20.873106
2174.555255	-3.001700	3.281000	-9.847800	26.977045	9.522848E-5	20.899793
2175.554010	-3.009600	3.282200	-9.877200	27.035865	9.539350E-5	20.887349
2176.553705	-3.007700	3.282700	-9.872200	27.096432	9.575652E-5	20.859121
2177.557054	-3.010200	3.280300	-9.873600	27.058471	9.694461E-5	20.870729
2178.555329	-2.985400	3.280200	-9.790500	27.013268	9.668059E-5	20.871737
2179.560633	-3.004900	3.278700	-9.851300	27.061385	9.671359E-5	20.877926
2180.553998	-3.004300	3.278700	-9.849400	27.084436	9.410640E-5	20.867445
2181.554814	-2.980000	3.280500	-9.775400	27.051367	9.374338E-5	20.888713
2182.554013	-2.984300	3.279300	-9.785600	27.074149	9.512948E-5	20.870375
2183.554194	-3.009000	3.277200	-9.860800	27.122415	9.361137E-5	20.877191
2184.554316	-2.993800	3.279000	-9.815900	27.101975	9.453543E-5	20.872281
2185.559032	-2.997700	3.277800	-9.824300	27.076171	9.219226E-5	20.867667
2186.555016	-2.983300	3.278000	-9.778400	27.046949	9.278631E-5	20.878107
2187.555415	-2.975300	3.277000	-9.749300	27.083413	9.133420E-5	20.889648
2188.559906	-2.994400	3.277800	-9.814300	27.042917	9.202725E-5	20.866941
2189.556088	-3.006700	3.275400	-9.847500	27.021928	8.984909E-5	20.881868
2190.558766	-3.011700	3.275800	-9.865200	27.090789	9.024512E-5	20.876678
2191.556223	-3.009600	3.274800	-9.854500	27.165008	9.179623E-5	20.868347
2192.557666	-3.003900	3.275500	-9.838800	27.164328	9.054214E-5	20.861025
2193.557754	-2.977800	3.275900	-9.753600	27.125787	8.925505E-5	20.863988
2194.559548	-2.980400	3.274200	-9.757300	27.137405	8.955207E-5	20.876146
2195.558507	-3.011500	3.273800	-9.858000	27.138105	8.856200E-5	20.860255
2196.557639	-3.003400	3.273600	-9.831000	27.174658	8.909004E-5	20.880897
2197.560420	-3.002500	3.272400	-9.825000	27.192388	9.113618E-5	20.868385
2198.559183	-3.000600	3.272800	-9.819100	27.230369	8.826497E-5	20.867707
2199.560184	-2.981900	3.273600	-9.760100	27.196833	8.869401E-5	20.890398
2200.559759	-2.995200	3.273700	-9.803900	27.234251	8.727490E-5	20.861655
2201.561908	-2.990700	3.272100	-9.784500	27.256264	8.909004E-5	20.863882
2202.559839	-2.992800	3.271400	-9.790200	27.309909	8.740691E-5	20.861893
2203.559763	-2.977900	3.271300	-9.740800	27.321617	8.866100E-5	20.863713
2204.565570	-2.994200	3.270200	-9.790700	27.317856	8.532776E-5	20.858981
2205.559497	-2.986800	3.269800	-9.765100	27.327678	8.800096E-5	20.877870
2206.563452	-3.033300	3.269200	-9.915500	27.359461	8.549277E-5	20.864324
2207.560230	-2.988000	3.268100	-9.763800	27.390341	8.595481E-5	20.865992
2208.561680	-2.980100	3.268600	-9.738800	27.402412	8.681287E-5	20.860591
2209.561394	-2.982400	3.270000	-9.751900	27.353890	8.519575E-5	20.862513
2210.562410	-2.976900	3.267700	-9.727100	27.272000	8.466771E-5	20.863589
2211.563572	-3.009700	3.266300	-9.829900	27.287042	8.450270E-5	20.854539
2212.563190	-3.007400	3.267200	-9.825000	27.284644	8.542677E-5	20.831265
2213.563646	-3.025000	3.265800	-9.878000	27.181864	8.476672E-5	20.864438
2214.563907	-2.980700	3.266200	-9.734700	27.158141	8.443669E-5	20.860967
2215.565742	-2.979600	3.266600	-9.732400	27.210133	8.196151E-5	20.869163
2216.564850	-3.003200	3.266000	-9.807700	27.254596	8.328161E-5	20.866471
2217.564340	-3.022000	3.265500	-9.867500	27.248721	8.582280E-5	20.850131
2218.566599	-3.026300	3.265000	-9.879300	27.197145	8.268757E-5	20.869850
2219.563220	-3.015900	3.265500	-9.847000	27.192810	8.341362E-5	20.867862
2220.564341	-3.003100	3.264400	-9.801700	27.202299	8.341362E-5	20.857965
2221.564816	-2.990900	3.264200	-9.762600	27.176599	8.159849E-5	20.844445
2222.571046	-2.994200	3.263200	-9.769700	27.148658	8.305059E-5	20.851903
2223.566542	-2.990500	3.262500	-9.755800	27.241460	8.163149E-5	20.844250
2224.566913	-2.983800	3.262600	-9.734500	27.225249	8.166449E-5	20.849281
2225.570230	-2.999500	3.261700	-9.782700	27.204406	8.206052E-5	20.842541
2226.571612	-3.017200	3.260800	-9.837400	27.230013	7.945333E-5	20.855970
2227.569449	-3.023100	3.260200	-9.854900	27.314476	8.133447E-5	20.859849
2228.574048	-2.995300	3.261700	-9.768800	27.363607	8.110345E-5	20.872761
2229.576850	-3.000400	3.259800	-9.780100	27.358270	7.948633E-5	20.832308
2230.572069	-3.018000	3.259100	-9.834800	27.339502	8.001437E-5	20.866531
2231.574925	-3.012400	3.258900	-9.815800	27.333972	7.984936E-5	20.856227
2232.578076	-3.004600	3.261300	-9.798100	27.374314	8.107045E-5	20.840387
2233.572780	-3.003100	3.260100	-9.789100	27.375754	8.008038E-5	20.860800
2234.573843	-2.997600	3.259800	-9.770900	27.343839	8.031139E-5	20.867100
2235.575325	-2.985500	3.258200	-9.726100	27.298664	7.866127E-5	20.863858
2236.571844	-3.007200	3.259000	-9.799200	27.272175	8.070742E-5	20.832947
2237.574498	-2.999700	3.258300	-9.773100	27.235087	7.862827E-5	20.838789
2238.576571	-2.994100	3.258200	-9.754600	27.261890	7.763820E-5	20.866696
2239.572313	-2.985500	3.256700	-9.722000	27.298423	7.869428E-5	20.849392
2240.578140	-3.003900	3.256600	-9.780700	27.327556	7.691214E-5	20.855463
2241.576195	-2.993100	3.256500	-9.746400	27.301530	7.932132E-5	20.873852
2242.573693	-2.981500	3.256700	-9.709200	27.292710	7.816624E-5	20.844593
2243.576947	-3.005700	3.254700	-9.782000	27.248881	7.707716E-5	20.844603
2244.575840	-3.007200	3.254900	-9.786800	27.268512	7.711016E-5	20.842538
2245.576252	-3.006200	3.253900	-9.780800	27.272738	7.678014E-5	20.868125
2246.578303	-2.976400	3.255500	-9.688600	27.326651	7.813323E-5	20.867355
2247.578443	-2.992200	3.254100	-9.735800	27.355195	7.598808E-5	20.862403
2248.576294	-2.996400	3.253600	-9.748100	27.391605	7.641711E-5	20.860150
2249.576519	-3.024300	3.251600	-9.832700	27.454359	7.691214E-5	20.856902
2250.578939	-3.015000	3.252100	-9.804300	27.475172	7.932132E-5	20.861245
2251.577548	-3.023100	3.252200	-9.830800	27.482301	7.730817E-5	20.849926
2252.577545	-3.021100	3.252200	-9.824500	27.493065	7.747319E-5	20.854591
2253.580238	-3.011800	3.250800	-9.789700	27.503914	7.592207E-5	20.871195
2254.575564	-3.003800	3.251200	-9.765000	27.517707	7.579006E-5	20.849987
2255.575181	-3.010400	3.248600	-9.778900	27.458066	7.427195E-5	20.850200
2256.583807	-3.010700	3.249100	-9.781300	27.435342	7.608708E-5	20.874753
2257.577562	-3.026600	3.249100	-9.832800	27.414589	7.592207E-5	20.859091
2258.578529	-2.993800	3.248100	-9.723500	27.383096	7.321587E-5	20.867237
2259.579275	-2.998900	3.249200	-9.743200	27.353123	7.338089E-5	20.866009
2260.576512	-3.011000	3.248600	-9.780600	27.356751	7.513001E-5	20.833625
2261.579699	-3.008300	3.247400	-9.767800	27.353654	7.331488E-5	20.856587
2262.581978	-3.017900	3.245600	-9.794600	27.387666	7.440396E-5	20.855715
2263.579838	-3.017100	3.247200	-9.796300	27.402009	7.173077E-5	20.853548
2264.581819	-2.989800	3.247200	-9.707500	27.384680	7.275384E-5	20.860771
2265.583918	-2.977300	3.247000	-9.666300	27.423689	7.176377E-5	20.850229
2266.581611	-2.989400	3.246400	-9.704000	27.457120	7.377692E-5	20.860628
2267.583268	-3.042000	3.245000	-9.870300	27.509383	7.430495E-5	20.845405
2268.584275	-2.993300	3.244400	-9.710400	27.498973	7.288585E-5	20.851053
2269.581157	-2.995000	3.245000	-9.717900	27.390944	7.285285E-5	20.867072
2270.585901	-3.007500	3.244100	-9.755300	27.428978	7.179677E-5	20.868351
2271.581738	-2.984800	3.243500	-9.680600	27.436032	7.156575E-5	20.868335
2272.585373	-2.989700	3.243900	-9.697300	27.420311	7.143374E-5	20.871011
2273.582122	-2.978600	3.243600	-9.660200	27.410885	7.034466E-5	20.872908
2274.581836	-3.003100	3.242000	-9.735200	27.443187	7.163176E-5	20.883119
2275.587515	-2.985700	3.243200	-9.682100	27.464203	7.268784E-5	20.855425
2276.582695	-2.995500	3.241700	-9.709100	27.446486	7.189578E-5	20.862257
2277.582736	-2.992500	3.241300	-9.699300	27.501678	7.050968E-5	20.849507
2278.583219	-2.996400	3.239500	-9.705500	27.521405	7.107072E-5	20.873620
2279.583148	-2.975800	3.242300	-9.647800	27.519327	6.988263E-5	20.882435
2280.583376	-3.017100	3.240100	-9.774400	27.538339	7.245682E-5	20.857469
2281.584705	-2.988300	3.241400	-9.685300	27.485699	7.011365E-5	20.869465
2282.586017	-3.013800	3.238800	-9.760300	27.526608	7.060868E-5	20.846140
2283.589092	-3.028500	3.237900	-9.804800	27.511973	7.163176E-5	20.879304
2284.586674	-3.016600	3.237800	-9.766200	27.495185	6.816650E-5	20.861939
2285.588169	-3.009300	3.238300	-9.743600	27.510813	6.793549E-5	20.865335
2286.589043	-3.023500	3.237800	-9.789100	27.444067	7.011365E-5	20.882107
2287.588134	-3.010400	3.238500	-9.748100	27.428220	6.879355E-5	20.869958
2288.588030	-3.009600	3.235500	-9.737100	27.380565	6.813350E-5	20.880338
2289.589500	-3.021100	3.236500	-9.776500	27.382932	6.740745E-5	20.867072
2290.591307	-3.021100	3.234900	-9.771500	27.431898	6.836452E-5	20.867495
2291.588889	-2.992600	3.236800	-9.685700	27.500271	6.777048E-5	20.877013
2292.589853	-2.997300	3.236400	-9.699000	27.517566	6.645038E-5	20.875922
2293.595341	-3.010500	3.233700	-9.734400	27.549779	6.793549E-5	20.862341
2294.591689	-2.997700	3.233400	-9.692100	27.511844	6.717643E-5	20.874907
2295.590392	-3.001600	3.233700	-9.704800	27.488676	6.569132E-5	20.887157
2296.591980	-2.993000	3.234300	-9.677500	27.497899	6.678040E-5	20.875101
2297.593801	-2.985300	3.232800	-9.649300	27.567402	6.730844E-5	20.879123
2298.591550	-2.999300	3.231600	-9.691800	27.655785	6.803450E-5	20.869430
2299.594410	-2.982200	3.231700	-9.636300	27.605877	6.618636E-5	20.876584
2300.594415	-3.005300	3.231800	-9.711300	27.605096	6.539430E-5	20.897133
2301.592103	-3.005300	3.230200	-9.706800	27.582426	6.565832E-5	20.862945
2302.597284	-3.025200	3.231300	-9.773900	27.589352	6.443723E-5	20.887931
2303.590757	-3.010900	3.228300	-9.719300	27.563383	6.288612E-5	20.881716
2304.592866	-3.016800	3.230300	-9.743300	27.577824	6.480026E-5	20.893401
2305.597864	-3.005400	3.230200	-9.707400	27.629853	6.420621E-5	20.898336
2306.592410	-2.993500	3.231000	-9.671600	27.630855	6.278711E-5	20.866156
2307.591465	-3.028700	3.228800	-9.777400	27.610820	6.516328E-5	20.881083
2308.595258	-3.012100	3.227300	-9.720200	27.579921	6.229207E-5	20.885080
2309.592706	-3.011100	3.227400	-9.717100	27.595102	6.381019E-5	20.907939
2310.591895	-2.995300	3.227000	-9.664900	27.629704	6.305113E-5	20.896290
2311.596780	-2.979000	3.229000	-9.618200	27.617209	6.328215E-5	20.881822
2312.590686	-3.000600	3.225800	-9.678300	27.636048	6.328215E-5	20.886553
2313.593617	-2.999400	3.225800	-9.674400	27.653097	6.456924E-5	20.870045
2314.598255	-2.997800	3.225200	-9.667700	27.652996	6.239108E-5	20.878952
2315.593081	-2.985900	3.226900	-9.635000	27.573115	6.219307E-5	20.886293
2316.592957	-2.971900	3.224600	-9.582500	27.566518	6.275411E-5	20.890085
2317.601381	-2.996600	3.224600	-9.662200	27.599144	6.100498E-5	20.894938
2318.594601	-3.019100	3.222800	-9.729100	27.663610	6.239108E-5	20.890105
2319.601163	-2.977600	3.225000	-9.601900	27.703510	6.050994E-5	20.900857
2320.599017	-2.992500	3.223800	-9.646700	27.716789	6.011392E-5	20.890986
2321.597082	-2.997600	3.223300	-9.661700	27.751722	6.150002E-5	20.911914
2322.600383	-2.998400	3.221900	-9.660000	27.738883	5.991590E-5	20.887617
2323.598150	-3.001800	3.221900	-9.670300	27.702871	6.067496E-5	20.880301
2324.597302	-2.995400	3.221100	-9.647700	27.697672	5.925585E-5	20.896879
2325.600482	-2.988900	3.220600	-9.625200	27.713642	6.133500E-5	20.920534
2326.599617	-3.001000	3.220500	-9.663900	27.723319	6.024592E-5	20.911306
2327.597653	-2.961000	3.220700	-9.535400	27.666482	6.047694E-5	20.906269
2328.600235	-2.984500	3.219100	-9.607300	27.636182	5.839779E-5	20.895696
2329.604466	-2.984900	3.219000	-9.607600	27.615179	5.701169E-5	20.904434
2330.597539	-2.987100	3.219100	-9.614800	27.601235	5.602162E-5	20.910317
2331.603388	-2.990600	3.216400	-9.618300	27.584473	5.704469E-5	20.916684
2332.604186	-2.982900	3.218400	-9.599300	27.642115	6.021292E-5	20.895976
2333.600057	-2.982900	3.217500	-9.596800	27.612478	5.958588E-5	20.907880
2334.603738	-2.999600	3.216900	-9.648800	27.621432	5.889283E-5	20.898872
2335.605497	-2.997000	3.215900	-9.637500	27.649892	5.994890E-5	20.908068
2336.600071	-2.988700	3.215000	-9.608000	27.694134	5.882682E-5	20.903276
2337.601722	-2.994900	3.217700	-9.636100	27.730861	5.961888E-5	20.904198
2338.602308	-2.997100	3.214200	-9.632600	27.709785	5.879382E-5	20.908593
2339.600067	-2.996700	3.213900	-9.630100	27.717729	6.017992E-5	20.924172
2340.608222	-2.994200	3.213800	-9.621900	27.692857	5.701169E-5	20.921429
2341.604270	-2.999600	3.213200	-9.637100	27.692866	5.684668E-5	20.913853
2342.599701	-3.003700	3.214300	-9.653700	27.647925	5.654965E-5	20.913200
2343.600248	-3.018200	3.210800	-9.689000	27.615598	5.658266E-5	20.933775
2344.600589	-2.996700	3.212200	-9.625600	27.668703	5.645065E-5	20.919409
2345.599456	-2.978500	3.211600	-9.565400	27.751186	5.707769E-5	20.883876
2346.601867	-3.012200	3.210800	-9.670700	27.762200	5.932186E-5	20.919138
2347.602274	-3.013200	3.209300	-9.669000	27.775863	5.608762E-5	20.923405
2348.602721	-3.017000	3.209100	-9.681300	27.758045	5.489953E-5	20.923017
2349.602777	-2.980800	3.210500	-9.568200	27.692064	5.651665E-5	20.911623
2350.605422	-2.983900	3.209100	-9.575300	27.694183	5.536157E-5	20.922289
2351.603907	-2.993600	3.208300	-9.602900	27.737029	5.572459E-5	20.909456
2352.604768	-2.995700	3.209300	-9.614100	27.819380	5.651665E-5	20.926422
2353.604244	-2.988600	3.208900	-9.589700	27.838696	5.734171E-5	20.946334
2354.605459	-2.993700	3.207100	-9.600100	27.866275	5.476752E-5	20.941374
2355.610003	-2.961700	3.206000	-9.495000	27.834071	5.503154E-5	20.937887
2356.605123	-2.992300	3.207900	-9.598400	27.820316	5.658266E-5	20.939691
2357.605686	-2.959700	3.206600	-9.488600	27.806764	5.301840E-5	20.926528
2358.605785	-3.016600	3.204800	-9.667000	27.773338	5.499854E-5	20.931768
2359.606946	-2.986200	3.205400	-9.571500	27.726515	5.569159E-5	20.914523
2360.605819	-2.974500	3.204000	-9.529800	27.695097	5.321641E-5	20.940277
2361.607604	-2.997200	3.204300	-9.603000	27.737488	5.516355E-5	20.935520
2362.607798	-2.980700	3.203300	-9.547400	27.738076	5.169830E-5	20.931371
2363.607899	-2.988500	3.204400	-9.576100	27.759962	5.450350E-5	20.940592
2364.609219	-2.996400	3.201600	-9.592500	27.754040	5.202832E-5	20.956915
2365.608283	-2.988700	3.200900	-9.566100	27.806667	5.169830E-5	20.937334
2366.609695	-3.032800	3.199900	-9.702900	27.883688	5.509755E-5	20.930452
2367.607738	-3.017000	3.201500	-9.657700	27.922688	5.361244E-5	20.934143
2368.608604	-2.995000	3.200200	-9.583000	27.943233	5.565859E-5	20.933010
2369.608658	-2.991600	3.200000	-9.571600	27.860076	5.387646E-5	20.948411
2370.608653	-2.989900	3.201700	-9.572000	27.800242	5.235835E-5	20.936084
2371.610066	-2.986000	3.200300	-9.555600	27.776517	5.087324E-5	20.942553
2372.609303	-2.984200	3.198200	-9.543500	27.799999	5.354643E-5	20.949114
2373.609798	-3.004300	3.198200	-9.607700	27.827107	5.430549E-5	20.939413
2374.609875	-2.993300	3.196400	-9.567200	27.791360	5.097225E-5	20.931414
2375.609762	-2.984500	3.196900	-9.540400	27.791158	5.126927E-5	20.934055
2376.609354	-3.004800	3.195600	-9.601800	27.826873	4.952014E-5	20.946763
2377.607841	-3.014000	3.195100	-9.629400	27.829172	5.176430E-5	20.957136
2378.614518	-2.973100	3.197000	-9.504000	27.831174	5.070823E-5	20.947298
2379.610400	-2.994400	3.194600	-9.565500	27.872541	5.219333E-5	20.946258
2380.610612	-2.994700	3.194300	-9.565500	27.863261	5.262237E-5	20.944978
2381.611645	-2.991400	3.192300	-9.548800	27.913006	5.136827E-5	20.967541
2382.611905	-3.005800	3.192800	-9.596600	27.832025	5.024619E-5	20.962851
2383.610618	-3.004400	3.192100	-9.589300	27.803564	5.090624E-5	20.956494
2384.613184	-3.000500	3.191400	-9.575000	27.776566	5.070823E-5	20.951610
2385.612977	-3.006000	3.191000	-9.592000	27.714153	4.965215E-5	20.941909
2386.611857	-3.004100	3.190500	-9.584300	27.750383	5.034520E-5	20.954184
2387.611882	-2.986700	3.190400	-9.528200	27.701735	4.770501E-5	20.952170
2388.613755	-2.997200	3.189700	-9.558700	27.715662	4.942113E-5	20.969976
2389.614210	-2.997000	3.190000	-9.559900	27.757176	5.087324E-5	20.959123
2390.614507	-3.002600	3.188900	-9.574800	27.838922	4.915711E-5	20.972636
2391.612475	-3.023900	3.188600	-9.641100	27.846856	4.971815E-5	20.957863
2392.614126	-2.998800	3.187500	-9.556700	27.840118	4.942113E-5	20.970521
2393.613935	-3.008500	3.186200	-9.584600	27.881677	5.021319E-5	20.973467
2394.614110	-3.016700	3.186900	-9.612700	27.939926	4.862907E-5	20.968558
2395.613917	-3.004000	3.185700	-9.567900	27.919259	4.704496E-5	20.962930
2396.615099	-3.005400	3.185100	-9.571000	27.862113	4.912411E-5	20.937660
2397.612891	-2.997900	3.186100	-9.550600	27.821469	4.876108E-5	20.953177
2398.615774	-3.008800	3.184600	-9.581000	27.796651	4.803503E-5	20.972768
2399.617502	-3.004000	3.183800	-9.563400	27.859245	4.707796E-5	20.956108
2400.615164	-3.005700	3.183200	-9.566300	27.924957	4.592287E-5	20.973405
2401.615828	-2.972600	3.183100	-9.461300	27.963291	4.575786E-5	20.974531
2402.616819	-3.003600	3.183800	-9.562000	28.002668	4.757300E-5	20.991878
2403.616199	-3.016600	3.180300	-9.593000	27.934221	4.704496E-5	20.964713
2404.617806	-3.001200	3.181300	-9.546700	27.896878	4.631890E-5	20.965533
2405.616895	-3.014400	3.179900	-9.583700	27.871017	4.661593E-5	20.983125
2406.616461	-2.987300	3.179400	-9.497000	27.899597	4.691295E-5	20.976804
2407.615927	-2.999400	3.179200	-9.535000	27.938430	4.496580E-5	20.994548
2408.616855	-2.980300	3.178400	-9.471400	27.902054	4.433876E-5	20.990180
2409.616236	-2.999000	3.177200	-9.526700	27.938085	4.552685E-5	20.996572
2410.616065	-2.988200	3.177300	-9.493800	27.912378	4.770501E-5	20.986346
2411.616458	-3.012800	3.175400	-9.565900	27.885307	4.460278E-5	20.987075
2412.616416	-2.975300	3.176400	-9.449300	27.900078	4.506481E-5	20.991510
2413.617923	-2.996800	3.175700	-9.515600	27.931803	4.417375E-5	21.000680
2414.619331	-2.991600	3.174200	-9.494800	27.988079	4.734198E-5	20.984307
2415.617936	-2.980600	3.174100	-9.459600	27.954223	4.641791E-5	20.985316
2416.618615	-2.990000	3.172900	-9.486200	27.988332	4.503181E-5	20.998784
2417.619238	-3.004400	3.172300	-9.530200	27.934143	4.414074E-5	20.981702
2418.617987	-2.991200	3.171800	-9.486100	27.940470	4.344769E-5	20.980483
2419.617108	-3.012700	3.171600	-9.553900	27.933454	4.394273E-5	20.992860
2420.618027	-3.028100	3.169200	-9.595700	27.904601	4.410774E-5	20.999854
2421.618030	-2.995300	3.169800	-9.493300	27.950230	4.447077E-5	20.992202
2422.617669	-3.010300	3.169100	-9.539200	28.021564	4.324968E-5	20.994302
2423.620152	-2.997800	3.169400	-9.500500	28.015769	4.315067E-5	20.989418
2424.620159	-2.986600	3.169400	-9.464800	28.021832	4.506481E-5	20.992202
2425.619239	-2.963100	3.168200	-9.386600	28.017678	4.390973E-5	20.983281
2426.619532	-3.001900	3.166200	-9.504100	27.965021	4.324968E-5	20.988598
2427.618548	-3.017100	3.165000	-9.548200	27.956668	4.324968E-5	21.000577
2428.619617	-3.011000	3.164700	-9.528200	27.977253	4.252363E-5	21.002804
2429.620507	-3.018100	3.164400	-9.549600	27.970760	4.331568E-5	20.991528
2430.620481	-2.990000	3.164800	-9.462000	28.034732	4.232561E-5	21.015140
2431.620689	-2.989300	3.163400	-9.455400	28.008378	4.387672E-5	21.012795
2432.623377	-2.996000	3.163600	-9.477200	27.999185	4.057648E-5	20.990269
2433.620231	-3.003600	3.160900	-9.492700	28.033202	4.100551E-5	21.007911
2434.622024	-3.007300	3.161000	-9.505100	27.950893	4.202859E-5	20.999980
2435.622202	-3.029900	3.158800	-9.569800	28.000203	4.199559E-5	21.011204
2436.621427	-3.001300	3.159000	-9.479200	27.994955	4.153355E-5	21.013982
2437.620991	-3.009300	3.157900	-9.501700	27.993324	4.041147E-5	21.022296
2438.622854	-3.014000	3.158700	-9.519400	27.983761	3.942140E-5	21.015516
2439.619486	-3.028900	3.156500	-9.558500	28.036965	3.866234E-5	21.025446
2440.620147	-3.015500	3.156700	-9.517800	28.103850	3.882735E-5	21.025920
2441.622949	-3.003400	3.155400	-9.475600	28.155316	3.942140E-5	21.019885
2442.620295	-3.006300	3.155500	-9.485200	28.212456	4.054348E-5	21.022882
2443.620839	-2.988800	3.155000	-9.429000	28.142726	3.919038E-5	21.014323
2444.620776	-2.999100	3.153400	-9.456700	28.152718	3.796929E-5	21.032440
2445.620233	-3.019500	3.151400	-9.515200	28.148707	3.882735E-5	20.997588
2446.622735	-2.993500	3.153500	-9.439300	28.148413	3.948740E-5	20.996818
2447.623758	-2.993400	3.153000	-9.437600	28.097210	3.757326E-5	21.023503
2448.623168	-2.999900	3.149800	-9.448700	28.102928	3.928939E-5	21.018355
2449.625294	-3.002200	3.149800	-9.455300	28.138952	3.618716E-5	21.010999
2450.625836	-3.016200	3.148900	-9.497100	28.084315	3.790329E-5	21.020955
2451.624841	-3.016600	3.149400	-9.499600	28.057239	3.730924E-5	21.014089
2452.624837	-2.992400	3.146900	-9.416000	28.081221	3.747425E-5	21.003144
2453.629159	-2.987500	3.149000	-9.406100	28.138339	3.668220E-5	21.013227
2454.627011	-2.991500	3.146600	-9.412400	28.138911	3.909137E-5	20.993892
2455.626892	-3.029900	3.143300	-9.523100	28.161058	3.694622E-5	21.018553
2456.627938	-2.995000	3.144900	-9.418100	28.138526	3.846433E-5	21.001089
2457.627174	-3.010300	3.144400	-9.464700	28.191064	3.727624E-5	21.011305
2458.626539	-3.005900	3.142500	-9.444600	28.172042	3.803530E-5	20.986944
2459.627653	-3.025600	3.141400	-9.503500	28.176560	3.678120E-5	20.999076
2460.626318	-2.980100	3.142000	-9.362700	28.176003	3.595614E-5	20.998041
2461.626685	-3.025400	3.140900	-9.501000	28.188562	3.787028E-5	20.991720
2462.627456	-3.015400	3.140500	-9.468600	28.199090	3.463605E-5	20.997577
2463.626662	-2.995100	3.139400	-9.402200	28.215979	3.754026E-5	21.006992
2464.627410	-2.991200	3.138900	-9.388500	28.248409	3.655019E-5	20.996496
2465.630842	-2.988400	3.138200	-9.377200	28.239107	3.625317E-5	20.996613
2466.626448	-2.986900	3.137300	-9.370300	28.235719	3.450404E-5	20.985144
2467.629011	-3.011900	3.134400	-9.439400	28.183533	3.414101E-5	20.984287
2468.629799	-2.968700	3.135900	-9.308900	28.096829	3.384399E-5	20.982824
2469.627596	-2.986600	3.135300	-9.363000	28.071916	3.367898E-5	20.980505
2470.626528	-2.996300	3.134300	-9.390400	28.064825	3.476806E-5	20.992331
2471.629627	-3.002500	3.132600	-9.404700	28.100187	3.265590E-5	21.005167
2472.628796	-3.004900	3.131500	-9.409200	28.198421	3.295292E-5	20.981733
2473.627539	-2.982600	3.131500	-9.338200	28.253179	3.476806E-5	21.002720
2474.630354	-3.012000	3.129800	-9.425500	28.247730	3.222687E-5	20.996761
2475.629738	-2.983500	3.130000	-9.336800	28.277339	3.298593E-5	20.961618
2476.628468	-3.006100	3.130100	-9.407600	28.340983	3.262290E-5	20.987289
2477.633559	-3.032400	3.126500	-9.480100	28.360088	3.199585E-5	20.969070
2478.633124	-3.008900	3.126400	-9.406500	28.335626	3.417401E-5	20.975733
2479.632234	-3.014900	3.124200	-9.418100	28.337216	3.229287E-5	20.971645
2480.635887	-3.013800	3.124600	-9.415500	28.322400	3.354697E-5	20.997026
2481.632004	-3.012300	3.124400	-9.410700	28.301335	3.199585E-5	20.971553
2482.633505	-3.008900	3.123400	-9.396900	28.284357	3.037873E-5	20.983379
2483.637267	-3.007500	3.122000	-9.388600	28.277865	3.301893E-5	20.980163
2484.633162	-3.006500	3.122000	-9.385700	28.259432	3.453704E-5	20.982467
2485.637100	-3.002600	3.120300	-9.368000	28.295912	3.381099E-5	20.982212
2486.636791	-2.999300	3.120100	-9.357800	28.293542	3.212786E-5	20.982196
2487.636660	-3.002000	3.117800	-9.358400	28.307862	3.153382E-5	20.975279
2488.640067	-3.002900	3.118600	-9.364400	28.330501	3.311794E-5	20.979107
2489.641058	-3.005800	3.116500	-9.367100	28.338279	3.390999E-5	20.954699
2490.635974	-3.001700	3.116500	-9.353400	28.273191	3.018072E-5	20.964079
2491.638663	-2.994600	3.115900	-9.330000	28.331595	2.961968E-5	20.967882
2492.643059	-3.010800	3.115000	-9.377300	28.389338	3.070876E-5	20.978608
2493.635746	-2.990100	3.112700	-9.306500	28.424563	3.298593E-5	20.960975
2494.639518	-3.000700	3.111600	-9.336100	28.412715	2.988370E-5	20.966113
2495.642228	-3.008600	3.112200	-9.362400	28.391652	3.338195E-5	20.951070
2496.636547	-2.994200	3.111500	-9.315300	28.399885	3.090677E-5	20.972633
2497.639619	-3.003000	3.109900	-9.337000	28.375490	3.047774E-5	20.947598
2498.637539	-2.997900	3.108800	-9.318800	28.431332	2.998270E-5	20.951671
2499.638178	-2.978100	3.109100	-9.257300	28.427818	3.014772E-5	20.975156
2500.638774	-3.009100	3.107500	-9.350000	28.498547	3.186384E-5	20.978102
2501.643267	-3.014900	3.105400	-9.361100	28.464829	2.915764E-5	20.959323
2502.637275	-3.009900	3.106100	-9.348100	28.402685	3.113779E-5	20.945584
2503.638489	-2.987000	3.104500	-9.272800	28.389080	2.816757E-5	20.951324
2504.639829	-3.004400	3.103100	-9.322500	28.435772	2.991670E-5	20.952823
2505.643062	-3.003500	3.102500	-9.317400	28.483926	2.994970E-5	20.960062
2506.641711	-3.012900	3.099300	-9.337500	28.426851	2.889362E-5	20.968493
2507.644947	-2.968600	3.101900	-9.206900	28.415266	3.008171E-5	20.972475
2508.645823	-2.997300	3.100200	-9.291700	28.390831	2.635244E-5	20.958777
2509.642220	-3.012900	3.098200	-9.333200	28.312586	2.707849E-5	20.955382
2510.644196	-2.994300	3.096800	-9.271400	28.342026	2.711149E-5	20.950886
2511.642787	-3.002900	3.095400	-9.294300	28.287845	2.810157E-5	20.955601
2512.644127	-2.985700	3.095700	-9.241500	28.306692	2.843159E-5	20.959878
2513.646161	-3.006500	3.093700	-9.300700	28.363545	3.064275E-5	20.942209
2514.644302	-2.980200	3.093700	-9.219100	28.352319	2.721050E-5	20.961249
2515.643409	-3.010600	3.091800	-9.306600	28.385333	2.704549E-5	20.957508
2516.649321	-2.979100	3.091600	-9.208900	28.378674	2.750752E-5	20.956019
2517.643987	-2.984400	3.090900	-9.223700	28.344010	2.704549E-5	20.950988
2518.644699	-2.990700	3.089400	-9.238500	28.323923	2.628643E-5	20.958262
2519.644376	-2.985600	3.088600	-9.220400	28.359469	2.750752E-5	20.946639
2520.644195	-2.988600	3.087900	-9.227300	28.348689	2.886062E-5	20.951431
2521.646440	-3.002200	3.085700	-9.262600	28.404725	2.612142E-5	20.959016
2522.648376	-2.977900	3.085000	-9.186200	28.485419	2.532936E-5	20.951609
2523.647140	-2.973500	3.085500	-9.174000	28.515309	2.668246E-5	20.942357
2524.647906	-2.980800	3.083300	-9.189900	28.550494	2.661646E-5	20.943652
2525.649079	-3.016800	3.081700	-9.296000	28.544449	2.780454E-5	20.947995
2526.648747	-2.987200	3.080400	-9.201000	28.514813	2.575839E-5	20.941857
2527.647022	-3.011500	3.079100	-9.271800	28.443371	2.615442E-5	20.934399
2528.649218	-2.991800	3.079400	-9.212200	28.438116	2.391026E-5	20.926263
2529.646216	-3.002700	3.077800	-9.241300	28.428035	2.661646E-5	20.936499
2530.646238	-2.997600	3.076400	-9.220200	28.374076	2.681447E-5	20.927211
2531.651263	-3.008700	3.076300	-9.254700	28.373555	2.490033E-5	20.946124
2532.647550	-3.012200	3.073700	-9.258000	28.389995	2.539537E-5	20.949402
2533.651874	-3.028000	3.071300	-9.299400	28.432172	2.608842E-5	20.934975
2534.656197	-2.978400	3.071800	-9.148100	28.423048	2.651745E-5	20.938115
2535.650344	-2.997600	3.069800	-9.201100	28.425195	2.648445E-5	20.920839
2536.652195	-3.014800	3.069900	-9.254200	28.440202	2.595641E-5	20.940216
2537.654246	-3.004800	3.067900	-9.217900	28.391484	2.466931E-5	20.928144
2538.651378	-2.995400	3.068300	-9.189500	28.348607	2.542837E-5	20.930963
2539.653922	-2.999600	3.066200	-9.197000	28.330956	2.513135E-5	20.947327
2540.654841	-3.029100	3.065400	-9.283900	28.381798	2.486733E-5	20.939252
2541.652952	-2.994200	3.064500	-9.175400	28.449897	2.381125E-5	20.941918
2542.656219	-2.997300	3.063500	-9.181000	28.534025	2.625343E-5	20.952669
2543.655420	-3.008500	3.061100	-9.207900	28.548529	2.546137E-5	20.940725
2544.653573	-2.976800	3.061400	-9.112500	28.502212	2.612142E-5	20.932487
2545.657048	-2.999500	3.060300	-9.178400	28.475779	2.631944E-5	20.935739
2546.662210	-3.005900	3.058700	-9.193200	28.449310	2.473532E-5	20.929000
2547.656611	-2.975100	3.057600	-9.095600	28.426668	2.615442E-5	20.926589
2548.656828	-3.012200	3.055600	-9.203600	28.444434	2.559338E-5	20.939736
2549.654914	-2.998000	3.054300	-9.156300	28.516432	2.556038E-5	20.942540
2550.655263	-3.008700	3.052500	-9.183400	28.512706	2.341522E-5	20.934995
2551.654108	-3.005600	3.053100	-9.175000	28.537442	2.486733E-5	20.941887
2552.654562	-3.002400	3.051700	-9.161300	28.551810	2.430629E-5	20.919849
2553.655148	-2.994800	3.049200	-9.130300	28.530836	2.443830E-5	20.924330
2554.654472	-2.993900	3.049800	-9.129400	28.537402	2.103905E-5	20.935683
2555.656524	-3.017100	3.048100	-9.195900	28.528289	2.549438E-5	20.926033
2556.654991	-3.010500	3.045300	-9.167500	28.518594	2.308520E-5	20.943294
2557.655313	-2.998500	3.044200	-9.127400	28.490916	2.334922E-5	20.926329
2558.655406	-3.015700	3.044500	-9.180300	28.450727	2.420728E-5	20.941331
2559.656148	-3.000700	3.042600	-9.128700	28.435837	2.239215E-5	20.927761
2560.656753	-2.988600	3.042200	-9.091200	28.474229	2.539537E-5	20.932757
2561.656427	-3.001300	3.038400	-9.118100	28.502910	2.529636E-5	20.926553
2562.658248	-2.990900	3.037800	-9.084700	28.532354	2.282118E-5	20.937712
2563.661162	-2.992200	3.037100	-9.086900	28.499295	2.361324E-5	20.911060
2564.660436	-2.981600	3.036500	-9.053100	28.457364	2.437229E-5	20.910560
2565.664343	-2.989700	3.034900	-9.072400	28.423422	2.278818E-5	20.942284
2566.662009	-2.990100	3.032900	-9.067900	28.405245	2.305220E-5	20.930146
2567.661874	-3.009000	3.032400	-9.122900	28.349275	2.523036E-5	20.924998
2568.662259	-2.975200	3.032800	-9.022300	28.382885	2.222714E-5	20.940821
2569.662927	-2.990800	3.030900	-9.063300	28.510589	2.219413E-5	20.925752
2570.663313	-2.992600	3.030100	-9.066700	28.534905	2.394326E-5	20.929851
2571.661925	-2.998100	3.026800	-9.074100	28.549890	2.371224E-5	20.931665
2572.662243	-3.016500	3.025200	-9.125400	28.571563	2.331622E-5	20.950644
2573.666464	-3.010700	3.023800	-9.102600	28.576205	2.417428E-5	20.941096
2574.662532	-3.016800	3.024400	-9.123400	28.549814	2.420728E-5	20.935381
2575.667653	-3.005800	3.023600	-9.087500	28.624772	2.387726E-5	20.934061
2576.661603	-3.017300	3.019700	-9.109900	28.650204	2.331622E-5	20.937390
2577.663809	-3.005900	3.020400	-9.078100	28.698666	2.163309E-5	20.915556
2578.665123	-3.015700	3.017300	-9.098000	28.630482	2.235914E-5	20.920847
2579.665040	-3.033900	3.015400	-9.147800	28.637923	2.262316E-5	20.913170
2580.665185	-3.015800	3.016200	-9.095300	28.673777	2.265617E-5	20.928418
2581.666597	-3.001900	3.015300	-9.050700	28.741842	2.120406E-5	20.943395
2582.665359	-3.010500	3.013500	-9.071200	28.798915	2.311820E-5	20.916489
2583.666732	-3.011400	3.011800	-9.069200	28.742465	2.127006E-5	20.929799
2584.666589	-3.006100	3.010100	-9.047600	28.724856	2.556038E-5	20.918227
2585.665771	-3.020600	3.007900	-9.084100	28.604239	2.107205E-5	20.926185
2586.667109	-3.026500	3.007800	-9.102200	28.630360	2.331622E-5	20.935896
2587.666127	-3.016800	3.005800	-9.067300	28.714920	2.110505E-5	20.920072
2588.666457	-3.006200	3.004600	-9.031900	28.753747	2.219413E-5	20.913664
2589.667113	-3.028900	3.002100	-9.092300	28.763506	2.704549E-5	20.937242
2590.666532	-3.030000	3.003000	-9.097500	28.755235	2.463631E-5	20.936023
2591.667993	-3.028200	3.000500	-9.085600	28.746570	2.358023E-5	20.902642
2592.668242	-2.970100	2.999200	-8.906700	28.732230	2.509835E-5	20.905268
2593.669342	-2.995900	2.997800	-8.980300	28.681633	2.341522E-5	20.914995
2594.669915	-2.999100	2.996700	-8.986000	28.751555	2.265617E-5	20.901975
2595.669748	-2.959100	2.997400	-8.868500	28.714165	2.381125E-5	20.918364
2596.669898	-2.983600	2.994200	-8.932700	28.666872	2.087404E-5	20.934265
2597.673773	-2.993400	2.993000	-8.957700	28.641157	2.206212E-5	20.912634
2598.671692	-2.997600	2.990400	-8.962900	28.620722	2.519735E-5	20.925715
2599.672819	-2.986000	2.990900	-8.929400	28.680919	2.318421E-5	20.912379
2600.673815	-2.995900	2.988700	-8.953300	28.661679	2.325021E-5	20.902958
2601.672335	-2.986500	2.987400	-8.921200	28.715177	2.136907E-5	20.920332
2602.673634	-3.024200	2.985400	-9.027200	28.778826	2.183111E-5	20.889617
2603.673087	-3.015900	2.984900	-9.001000	28.844699	2.166609E-5	20.902867
2604.675879	-3.028400	2.982800	-9.032000	28.852558	2.397626E-5	20.900827
2605.674254	-3.001000	2.981800	-8.946800	28.878177	2.493333E-5	20.908617
2606.675641	-3.012900	2.980200	-8.977900	28.903249	2.140207E-5	20.898314
2607.675184	-3.021400	2.977300	-8.995200	28.913310	2.117106E-5	20.915560
2608.675853	-3.003200	2.978200	-8.943300	28.823133	2.166609E-5	20.910065
2609.676006	-3.008400	2.975500	-8.951000	28.821554	2.163309E-5	20.918430
2610.675955	-3.030500	2.972600	-9.008400	28.789506	2.130307E-5	20.916019
2611.676551	-2.980100	2.973200	-8.858900	28.750983	2.301919E-5	20.912777
2612.677865	-2.998000	2.970800	-8.905300	28.785624	2.001597E-5	20.903575
2613.679164	-2.984200	2.970200	-8.862700	28.829601	2.163309E-5	20.886237
2614.679747	-2.978100	2.970100	-8.844200	28.754061	2.262316E-5	20.906868
2615.681581	-3.014600	2.965800	-8.939800	28.771310	1.905890E-5	20.892477
2616.680590	-3.001800	2.965300	-8.900200	28.774068	2.275517E-5	20.890040
2617.681710	-2.984100	2.965200	-8.847700	28.833604	2.367924E-5	20.897381
2618.681698	-3.017900	2.963000	-8.940400	28.906827	2.262316E-5	20.912348
2619.682071	-2.979900	2.962700	-8.826800	28.927393	2.202912E-5	20.907465
2620.680012	-2.992600	2.959900	-8.857200	28.931270	2.067602E-5	20.913266
2621.681838	-3.028900	2.956800	-8.954700	28.845483	1.994997E-5	20.909820
2622.682074	-3.002400	2.956100	-8.874200	28.809594	2.136907E-5	20.897850
2623.681686	-2.993200	2.954600	-8.843100	28.824297	2.120406E-5	20.901281
2624.682714	-3.020200	2.952200	-8.914300	28.893957	2.295319E-5	20.890850
2625.683157	-3.020800	2.951600	-8.914600	28.883997	1.905890E-5	20.901204
2626.685050	-3.002800	2.949800	-8.856500	28.884721	2.014798E-5	20.902881
2627.682971	-2.996100	2.948700	-8.833700	28.916229	2.011498E-5	20.906649
2628.683646	-2.996800	2.948800	-8.836800	28.952049	2.150108E-5	20.888209
2629.683083	-3.011700	2.947000	-8.874200	28.929124	2.285418E-5	20.894036
2630.683510	-3.016000	2.942700	-8.874300	28.886117	2.186411E-5	20.896703
2631.686222	-3.011400	2.942700	-8.860400	28.885060	1.912491E-5	20.894215
2632.683154	-2.987500	2.943000	-8.790400	28.823948	2.186411E-5	20.907566
2633.684097	-2.984800	2.940000	-8.774000	28.762797	1.978496E-5	20.889117
2634.683873	-2.986300	2.937600	-8.771300	28.758762	2.057701E-5	20.900700
2635.687211	-3.011200	2.936200	-8.840600	28.806021	2.226014E-5	20.871493
2636.684248	-2.987500	2.935200	-8.767700	28.776559	2.229314E-5	20.909142
2637.684977	-3.021600	2.932600	-8.859900	28.785745	2.057701E-5	20.878095
2638.685003	-3.035500	2.929400	-8.891400	28.783250	2.097304E-5	20.888857
2639.685151	-3.018200	2.929500	-8.841300	28.805029	2.094004E-5	20.883769
2640.686619	-3.015900	2.927400	-8.827900	28.819251	2.219413E-5	20.888612
2641.685814	-2.989500	2.927200	-8.749100	28.828766	2.103905E-5	20.905308
2642.687022	-3.006000	2.924800	-8.791300	28.788007	2.064302E-5	20.884167
2643.686940	-3.004500	2.923600	-8.782800	28.828563	2.037900E-5	20.876183
2644.687118	-3.001900	2.920200	-8.765400	28.818755	2.199612E-5	20.890957
2645.687671	-3.036500	2.918600	-8.861500	28.774964	2.011498E-5	20.880985
2646.688793	-2.998700	2.919500	-8.753200	28.829069	1.978496E-5	20.885701
2647.689908	-3.017200	2.917100	-8.801100	28.849182	2.080803E-5	20.875617
2648.688792	-2.983800	2.914400	-8.695200	28.849486	1.988396E-5	20.898681
2649.693092	-3.007800	2.913600	-8.761600	28.870186	2.163309E-5	20.879706
2650.688875	-3.032300	2.910600	-8.825300	28.957357	2.120406E-5	20.880756
2651.689075	-3.012400	2.910900	-8.768300	28.952367	2.193011E-5	20.872411
2652.690863	-3.019900	2.907900	-8.781100	28.967620	2.037900E-5	20.887776
2653.690140	-2.989500	2.905800	-8.686000	29.002775	2.110505E-5	20.898064
2654.691563	-2.991200	2.904700	-8.688100	28.926482	2.130307E-5	20.886160
2655.692535	-3.025800	2.901300	-8.778000	28.915936	2.183111E-5	20.873165
2656.689559	-3.003800	2.901500	-8.715200	28.972605	1.909190E-5	20.874307
2657.692177	-2.998800	2.898700	-8.690700	29.031659	2.034600E-5	20.864106
2658.694053	-3.002400	2.896200	-8.694800	29.001677	2.051101E-5	20.870881
2659.693043	-2.977900	2.895200	-8.620800	29.041946	2.061002E-5	20.885849
2660.693118	-2.997000	2.893700	-8.671900	29.043677	2.024699E-5	20.878584
2661.694915	-2.962200	2.893500	-8.569900	29.018988	2.110505E-5	20.865564
2662.692358	-2.999100	2.890300	-8.667200	29.033536	2.143508E-5	20.864101
2663.692358	-2.963900	2.889900	-8.564400	29.064939	2.074203E-5	20.853068
2664.693666	-3.009800	2.886300	-8.686100	29.011610	2.351423E-5	20.893690
2665.692488	-3.005100	2.886300	-8.672500	29.050310	2.136907E-5	20.860614
2666.694266	-2.982600	2.884500	-8.602800	29.081192	1.938893E-5	20.863754
2667.692193	-2.997500	2.882000	-8.637800	29.108788	2.364624E-5	20.852681
2668.693604	-2.991300	2.878900	-8.610900	29.012126	2.321721E-5	20.857702
2669.695520	-3.017300	2.878200	-8.683200	29.014454	2.011498E-5	20.870004
2670.698112	-3.011200	2.875300	-8.657300	29.048504	2.041200E-5	20.866854
2671.694619	-3.002800	2.873300	-8.627700	29.080782	2.394326E-5	20.869979
2672.697966	-2.989800	2.872700	-8.587700	29.112234	2.027999E-5	20.870376
2673.696638	-2.991600	2.871200	-8.588100	29.044152	2.090704E-5	20.853935
2674.694724	-2.994100	2.868700	-8.587700	28.982589	2.084103E-5	20.863504
2675.700289	-3.008800	2.866800	-8.625000	29.010942	2.123706E-5	20.866940
2676.699780	-2.994500	2.865300	-8.579800	29.053119	1.945493E-5	20.853012
2677.696850	-2.996500	2.861700	-8.575100	29.070834	2.077503E-5	20.852370
2678.695140	-3.027900	2.860200	-8.659200	29.083271	2.364624E-5	20.861582
2679.699932	-2.989300	2.859700	-8.547800	29.158789	2.166609E-5	20.860389
2680.697070	-3.001600	2.857100	-8.575100	29.143630	2.160009E-5	20.846063
2681.706085	-3.014700	2.854200	-8.603600	29.048256	2.136907E-5	20.838630
2682.703926	-2.994300	2.852400	-8.540000	29.057374	2.377825E-5	20.870101
2683.698248	-2.987000	2.852100	-8.518200	29.132514	2.004897E-5	20.859043
2684.703505	-3.001200	2.848500	-8.547600	29.109315	2.070902E-5	20.845151
2685.703166	-3.030800	2.846100	-8.624800	29.169353	1.958694E-5	20.838793
2686.698660	-3.020300	2.844000	-8.588800	29.151918	2.067602E-5	20.845880
2687.701569	-3.007300	2.843000	-8.549200	29.186176	1.955394E-5	20.842943
2688.704361	-3.003400	2.840600	-8.530800	29.174387	2.163309E-5	20.854771
2689.699664	-3.024900	2.838800	-8.586500	29.111840	2.064302E-5	20.847695
2690.704146	-2.992400	2.838500	-8.492800	29.152677	2.222714E-5	20.856127
2691.702666	-3.019000	2.834800	-8.557300	29.173471	2.051101E-5	20.859538
2692.700398	-2.999800	2.831800	-8.493900	29.174817	2.054401E-5	20.841929
2693.702078	-3.015400	2.830400	-8.534100	29.246043	1.991697E-5	20.847323
2694.702497	-3.043500	2.827100	-8.603300	29.311719	2.113806E-5	20.837646
2695.699506	-2.981900	2.825500	-8.423700	29.274283	2.021399E-5	20.856816
2696.708845	-3.020900	2.823600	-8.529100	29.285104	2.282118E-5	20.837850
2697.704278	-2.982000	2.819700	-8.407200	29.353727	2.084103E-5	20.858646
2698.700264	-2.983500	2.817900	-8.405600	29.374376	2.110505E-5	20.856224
2699.701635	-3.002900	2.816200	-8.455900	29.366960	2.077503E-5	20.850173
2700.702289	-2.988700	2.814300	-8.410300	29.343706	2.044500E-5	20.850443
2701.700160	-2.996400	2.810500	-8.420600	29.329309	2.047801E-5	20.843994
2702.702150	-3.017500	2.809100	-8.475500	29.313388	2.183111E-5	20.847863
2703.701612	-3.017100	2.805100	-8.462500	29.264332	2.146808E-5	20.848210
2704.701013	-3.029200	2.802000	-8.486900	29.300888	2.140207E-5	20.828154
2705.702607	-3.032500	2.799400	-8.487400	29.283774	2.054401E-5	20.846941
2706.704679	-3.019800	2.796400	-8.443700	29.310576	2.219413E-5	20.814210
2707.702224	-3.030700	2.794700	-8.469100	29.290254	2.278818E-5	20.836403
2708.701589	-3.024200	2.793300	-8.446700	29.254775	2.130307E-5	20.852330
2709.705129	-3.009400	2.790500	-8.397200	29.276226	2.004897E-5	20.810886
2710.702302	-3.007800	2.787600	-8.384100	29.306908	2.077503E-5	20.825686
2711.705520	-3.003700	2.785400	-8.365100	29.285292	2.133607E-5	20.837565
2712.705342	-3.024100	2.781000	-8.409800	29.241242	1.955394E-5	20.823520
2713.703260	-3.010100	2.779300	-8.365500	29.184168	2.130307E-5	20.835705
2714.704687	-2.999200	2.776600	-8.327000	29.217357	2.348123E-5	20.817942
2715.707692	-2.987800	2.774400	-8.288700	29.266963	2.311820E-5	20.843276
2716.704221	-3.021900	2.770700	-8.371600	29.351583	2.222714E-5	20.832304
2717.703306	-3.024900	2.768100	-8.372600	29.413145	2.226014E-5	20.819436
2718.703506	-2.992100	2.765400	-8.273200	29.426125	2.004897E-5	20.812130
2719.703610	-2.992000	2.760500	-8.258300	29.559054	2.318421E-5	20.828532
2720.702925	-3.020700	2.757800	-8.329900	29.467213	2.107205E-5	20.833630
2721.702894	-3.008400	2.756500	-8.291500	29.460652	2.047801E-5	20.815638
2722.702968	-2.964200	2.753600	-8.161000	29.443475	2.189711E-5	20.820609
2723.703207	-2.991200	2.749900	-8.225200	29.413990	2.018098E-5	20.825029
2724.704510	-3.012300	2.746300	-8.272200	29.398324	2.146808E-5	20.822990
2725.704657	-3.021100	2.742100	-8.283100	29.332765	1.968595E-5	20.827563
2726.704101	-3.005800	2.739400	-8.233500	29.262127	2.298619E-5	20.824652
2727.705655	-2.985600	2.736500	-8.169600	29.186870	1.915791E-5	20.813298
2728.709417	-2.980200	2.733600	-8.145800	29.188140	1.932292E-5	20.832596
2729.705351	-2.968200	2.730900	-8.105000	29.259760	2.206212E-5	20.830801
2730.706395	-3.019500	2.725600	-8.229500	29.374196	2.179810E-5	20.814792
2731.709969	-2.998400	2.723700	-8.165100	29.358595	2.133607E-5	20.811871
2732.706497	-3.017100	2.719300	-8.203200	29.340080	2.222714E-5	20.815022
2733.710678	-3.000800	2.715600	-8.148000	29.389948	2.272217E-5	20.833039
2734.709473	-3.006900	2.711400	-8.152500	29.445317	2.268917E-5	20.813931
2735.707835	-3.004700	2.709300	-8.140000	29.371257	2.202912E-5	20.819891
2736.708031	-2.981200	2.705100	-8.063800	29.308594	2.229314E-5	20.823118
2737.707641	-2.960700	2.702100	-7.999800	29.310780	2.292019E-5	20.834804
2738.707775	-3.013700	2.697100	-8.126900	29.335968	2.113806E-5	20.820360
2739.708355	-2.985500	2.693400	-8.041000	29.417264	2.341522E-5	20.835915
2740.708442	-2.992600	2.690500	-8.050700	29.466986	2.067602E-5	20.830557
2741.709172	-3.044000	2.683900	-8.168200	29.537990	2.077503E-5	20.845230
2742.706876	-2.963200	2.681400	-7.944700	29.593973	2.153408E-5	20.831490
2743.708848	-2.991300	2.677100	-8.007200	29.646281	2.318421E-5	20.820687
2744.710950	-2.977000	2.673700	-7.958800	29.631635	2.183111E-5	20.836268
2745.710147	-2.963000	2.669000	-7.907500	29.550634	2.298619E-5	20.837114
2746.710366	-3.012600	2.664700	-8.027200	29.625380	2.133607E-5	20.853194
2747.709953	-2.998800	2.659700	-7.975400	29.653053	2.061002E-5	20.818979
2748.710799	-3.002800	2.655300	-7.972900	29.671330	1.968595E-5	20.831241
2749.711705	-2.987500	2.651900	-7.921600	29.654727	2.130307E-5	20.830624
2750.717637	-2.995300	2.647200	-7.928300	29.687750	1.958694E-5	20.820295
2751.715270	-3.014600	2.641600	-7.962500	29.684787	2.183111E-5	20.842911
2752.712300	-2.974800	2.637200	-7.844000	29.750638	2.193011E-5	20.819214
2753.715631	-2.996900	2.632000	-7.887200	29.797589	2.239215E-5	20.829569
2754.718370	-2.986200	2.627800	-7.846600	29.772155	2.133607E-5	20.837589
2755.717053	-2.942500	2.622800	-7.716700	29.690821	2.338222E-5	20.833821
2756.715835	-2.954200	2.618200	-7.733200	29.654465	2.169910E-5	20.815187
2757.714939	-2.982400	2.612100	-7.789100	29.676990	2.255716E-5	20.826516
2758.714443	-2.995100	2.607600	-7.809300	29.714103	2.183111E-5	20.815570
2759.718738	-2.996300	2.602000	-7.795600	29.659446	2.265617E-5	20.837278
2760.716919	-3.049100	2.594400	-7.909300	29.697820	2.021399E-5	20.845619
2761.713962	-2.993800	2.591600	-7.757700	29.646288	2.186411E-5	20.827332
2762.713810	-2.976500	2.586500	-7.697800	29.668160	2.044500E-5	20.819037
2763.716212	-3.026600	2.580300	-7.808500	29.590632	2.519735E-5	20.829545
2764.716433	-3.016600	2.575200	-7.767400	29.541309	2.295319E-5	20.847154
2765.714599	-2.982000	2.569400	-7.661100	29.583435	2.156709E-5	20.832247
2766.713816	-2.977400	2.565000	-7.636300	29.709760	2.381125E-5	20.843433
2767.718465	-2.995200	2.557600	-7.659700	29.747383	2.285418E-5	20.846277
2768.716474	-3.027500	2.549400	-7.717700	29.844064	2.318421E-5	20.839920
2769.720984	-3.014300	2.545000	-7.670000	29.809034	2.094004E-5	20.832574
2770.724106	-2.985600	2.538800	-7.578900	29.791533	2.427329E-5	20.847170
2771.720939	-2.964100	2.534700	-7.512400	29.776105	2.298619E-5	20.842994
2772.721267	-2.990900	2.527400	-7.558100	29.753022	2.381125E-5	20.845799
2773.724808	-3.048700	2.519800	-7.680700	29.817701	2.136907E-5	20.824243
2774.719874	-2.994400	2.515100	-7.530100	29.802309	2.430629E-5	20.829586
2775.720545	-2.991900	2.509500	-7.507100	29.809348	2.447130E-5	20.821985
2776.721767	-2.955300	2.503900	-7.398800	29.816427	2.453730E-5	20.857571
2777.720861	-2.956400	2.497600	-7.383100	29.918784	2.344822E-5	20.837978
