LabVIEW Measurement	
Writer_Version	2
Reader_Version	2
Separator	Tab
Decimal_Separator	.
Multi_Headings	No
X_Columns	One
Time_Pref	Absolute
Operator	admin
Description	Clolumns are: time, Current, Voltage, Power, Battery Temp, and Chamber Temp
Date	2024/08/16
Time	13:07:17.8513970375061035156
***End_of_Header***	
	
Channels	6						
Samples	1	1	1	1	1	1	
Date	2024/09/12	2024/09/12	2024/09/12	2024/09/12	2024/09/12	2024/09/12	
Time	22:45:24.4250898361206054688	22:45:24.4300847053527832031	22:45:24.4375143051147460938	22:45:24.3978686332702636719	22:45:24.3978686332702636719	22:45:24.3978686332702636719	
X_Dimension	Time	Time	Time	Time	Time	Time	
X0	0.0000000000000000E+0	0.0000000000000000E+0	0.0000000000000000E+0	0.0000000000000000E+0	0.0000000000000000E+0	0.0000000000000000E+0	
Delta_X	1.000000	1.000000	1.000000	1.000000	1.000000	1.000000	
***End_of_Header***							
X_Value	Untitled	Untitled 1	Untitled 2	Untitled 3	Untitled 4	Untitled 5	Comment
0.000000	0.004476	4.089600	0.018394	20.810815	0.000468	20.905166
1.001349	-3.004300	3.918000	-11.769000	20.802253	0.000465	20.922207
1.994904	-3.002600	3.912200	-11.746000	20.802655	0.000464	20.896533
2.993717	-3.004600	3.907500	-11.740000	20.813809	0.000465	20.908634
3.999099	-2.976600	3.903900	-11.620000	20.823842	0.000463	20.910607
5.008815	-3.011700	3.900400	-11.746000	20.814508	0.000463	20.903645
6.005116	-2.990900	3.897800	-11.657000	20.826437	0.000463	20.907986
7.009850	-3.023800	3.895200	-11.777000	20.833499	0.000462	20.902247
7.998578	-3.024800	3.895000	-11.781000	20.866788	0.000461	20.909932
9.001318	-3.011100	3.893700	-11.722000	20.845402	0.000459	20.894237
10.002468	-2.984100	3.891500	-11.611000	20.846551	0.000461	20.915773
11.002823	-2.980600	3.889900	-11.593000	20.875548	0.000460	20.890719
12.004530	-3.009600	3.888000	-11.701000	20.889895	0.000459	20.913601
12.994894	-2.982800	3.886700	-11.593000	20.882411	0.000460	20.904694
13.994593	-3.007300	3.885600	-11.684000	20.882659	0.000457	20.898779
15.002799	-3.015900	3.885400	-11.717000	20.893616	0.000457	20.895512
16.020078	-3.002900	3.884800	-11.665000	20.893040	0.000456	20.912005
17.004101	-2.997300	3.882000	-11.635000	20.890997	0.000457	20.920866
18.013690	-2.976700	3.882200	-11.555000	20.913903	0.000457	20.924808
19.001977	-2.990100	3.880700	-11.602000	20.930224	0.000456	20.907941
20.006917	-3.010500	3.879600	-11.679000	20.915303	0.000456	20.907717
21.013595	-2.992900	3.880400	-11.613000	20.926232	0.000457	20.903949
22.010800	-3.012500	3.878800	-11.684000	20.939956	0.000457	20.890175
22.997674	-3.000200	3.878700	-11.636000	20.965557	0.000454	20.913406
24.011721	-2.977000	3.877100	-11.541000	20.944476	0.000455	20.894221
25.011441	-3.004700	3.877400	-11.650000	20.957348	0.000453	20.883388
26.000116	-3.006400	3.876500	-11.653000	20.981578	0.000455	20.889604
27.001921	-3.011800	3.875400	-11.670000	20.985071	0.000453	20.905897
28.003537	-3.017500	3.875600	-11.694000	21.007524	0.000455	20.901328
28.992499	-2.995600	3.874300	-11.605000	21.003609	0.000452	20.879871
30.010784	-3.021200	3.873300	-11.701000	21.010447	0.000451	20.878175
30.998946	-2.998600	3.873700	-11.615000	21.019305	0.000451	20.887983
32.005756	-2.983100	3.873800	-11.556000	21.029261	0.000450	20.880397
33.000586	-2.985000	3.873600	-11.562000	21.034001	0.000451	20.904577
34.005730	-2.999900	3.871600	-11.613000	21.042807	0.000451	20.894893
35.008666	-3.019800	3.871600	-11.690000	21.063192	0.000450	20.895842
36.004136	-2.977200	3.872600	-11.528000	21.062618	0.000450	20.874407
37.009452	-2.973200	3.872600	-11.512000	21.063216	0.000450	20.879272
38.007155	-3.001200	3.871200	-11.618000	21.076239	0.000450	20.888030
39.013318	-3.020900	3.869300	-11.688000	21.079359	0.000450	20.892573
40.014581	-2.993300	3.870600	-11.585000	21.086070	0.000451	20.870838
41.006124	-2.998100	3.869600	-11.600000	21.107900	0.000450	20.882715
42.010213	-2.989600	3.869800	-11.568000	21.115733	0.000449	20.880593
43.002897	-3.000000	3.868200	-11.604000	21.122295	0.000450	20.867243
44.010170	-2.988800	3.869100	-11.563000	21.127409	0.000450	20.858136
45.008601	-3.020200	3.867600	-11.680000	21.145171	0.000449	20.881591
46.010899	-3.011300	3.868200	-11.647000	21.145596	0.000450	20.876800
47.029595	-2.988900	3.868900	-11.562000	21.117854	0.000449	20.870388
48.010778	-2.995200	3.868400	-11.585000	21.160514	0.000448	20.859007
49.010694	-2.995800	3.868200	-11.588000	21.177253	0.000448	20.874328
50.016544	-2.998500	3.867100	-11.595000	21.187805	0.000448	20.874927
51.017289	-3.015400	3.865500	-11.655000	21.201052	0.000448	20.867316
52.017173	-3.000400	3.865600	-11.598000	21.189100	0.000445	20.861051
53.014008	-2.987700	3.867100	-11.553000	21.204042	0.000448	20.866514
54.017126	-2.995900	3.865500	-11.580000	21.219910	0.000447	20.869585
55.008999	-2.999700	3.866200	-11.596000	21.229339	0.000445	20.876173
56.011428	-3.002200	3.864500	-11.601000	21.240986	0.000447	20.858901
57.014609	-3.003800	3.864500	-11.607000	21.245628	0.000448	20.865442
58.015354	-2.987200	3.864300	-11.543000	21.269399	0.000445	20.872626
59.018258	-3.018600	3.864000	-11.663000	21.256227	0.000447	20.851390
60.023892	-2.996600	3.864600	-11.579000	21.282543	0.000446	20.870603
61.017341	-3.005500	3.865100	-11.616000	21.289802	0.000447	20.876442
62.014506	-3.011900	3.864900	-11.640000	21.291745	0.000450	20.866533
63.013981	-3.006500	3.863400	-11.614000	21.305214	0.000448	20.837809
64.017768	-3.009300	3.863300	-11.625000	21.305889	0.000449	20.868355
65.027932	-2.997100	3.864200	-11.580000	21.339561	0.000447	20.849412
66.028498	-2.990700	3.863400	-11.553000	21.330532	0.000448	20.865508
67.024294	-2.997900	3.864400	-11.584000	21.353529	0.000449	20.861963
68.032672	-2.998700	3.861800	-11.579000	21.340884	0.000448	20.864011
69.023547	-2.990000	3.862900	-11.549000	21.366422	0.000448	20.851155
70.017941	-3.011900	3.862800	-11.633000	21.364901	0.000445	20.878081
71.025968	-2.999100	3.862700	-11.584000	21.359288	0.000448	20.857294
72.024500	-3.021100	3.861700	-11.666000	21.380788	0.000448	20.850830
73.021563	-2.990500	3.861600	-11.547000	21.382533	0.000448	20.847834
74.017952	-3.022000	3.861100	-11.667000	21.393754	0.000448	20.841517
75.018705	-3.005600	3.861900	-11.607000	21.408747	0.000448	20.879750
76.025021	-2.998300	3.861200	-11.576000	21.409167	0.000448	20.868791
77.034285	-3.020100	3.860700	-11.658000	21.420816	0.000446	20.859584
78.024739	-3.020200	3.860400	-11.657000	21.437804	0.000447	20.855719
79.023428	-2.974200	3.861600	-11.484000	21.450994	0.000447	20.844735
80.021784	-2.998100	3.860700	-11.574000	21.454808	0.000447	20.862300
81.027293	-3.013700	3.859200	-11.629000	21.475458	0.000447	20.862574
82.042316	-2.978500	3.859500	-11.495000	21.470893	0.000448	20.854213
83.017123	-3.005000	3.859700	-11.598000	21.482588	0.000448	20.848847
84.028708	-2.980000	3.860500	-11.503000	21.490967	0.000448	20.858178
85.043897	-3.004300	3.859500	-11.594000	21.503863	0.000448	20.848797
86.028163	-2.991800	3.859900	-11.546000	21.497403	0.000451	20.868884
87.041558	-2.993500	3.860000	-11.553000	21.511169	0.000450	20.840461
88.034384	-2.981100	3.859400	-11.504000	21.533563	0.000450	20.849592
89.038709	-2.993200	3.859300	-11.551000	21.504281	0.000450	20.829301
90.028823	-2.990400	3.860000	-11.542000	21.532389	0.000449	20.848892
91.033942	-2.990900	3.858900	-11.540000	21.538423	0.000449	20.842128
92.040630	-2.989200	3.859200	-11.535000	21.536553	0.000452	20.862540
93.031552	-2.974900	3.860700	-11.484000	21.579873	0.000448	20.866534
94.025218	-3.014300	3.857600	-11.626000	21.568749	0.000451	20.855404
95.027814	-3.018600	3.857100	-11.642000	21.584260	0.000450	20.841053
96.035369	-3.011900	3.856400	-11.614000	21.596480	0.000451	20.848540
97.023227	-3.001600	3.857300	-11.577000	21.587177	0.000451	20.850611
98.033628	-3.002300	3.857400	-11.581000	21.592089	0.000451	20.851259
99.030704	-2.992400	3.857400	-11.541000	21.601739	0.000449	20.834364
100.036420	-3.018100	3.856400	-11.639000	21.620295	0.000453	20.836811
101.025301	-2.999200	3.856800	-11.566000	21.612712	0.000451	20.854826
102.043581	-3.010500	3.857100	-11.610000	21.635881	0.000451	20.837710
103.038712	-3.015400	3.857200	-11.630000	21.653635	0.000450	20.820390
104.036784	-2.997900	3.857500	-11.563000	21.643733	0.000451	20.849360
105.035690	-2.992000	3.857400	-11.540000	21.655529	0.000452	20.836509
106.036032	-2.997400	3.856600	-11.559000	21.683582	0.000453	20.826177
107.041636	-2.997100	3.856400	-11.557000	21.674031	0.000451	20.844594
108.030425	-2.981300	3.856700	-11.496000	21.676574	0.000452	20.836233
109.047880	-2.988600	3.855500	-11.522000	21.690140	0.000452	20.833215
110.037068	-2.997900	3.855300	-11.557000	21.715524	0.000454	20.857669
111.034268	-2.988600	3.856400	-11.524000	21.716922	0.000455	20.837732
112.040928	-3.004200	3.856100	-11.584000	21.715323	0.000453	20.835184
113.036216	-3.000300	3.855100	-11.565000	21.734274	0.000453	20.836132
114.046018	-3.013600	3.855300	-11.617000	21.772502	0.000453	20.832192
115.038631	-3.007800	3.853600	-11.590000	21.779606	0.000453	20.834560
116.037384	-2.986100	3.854800	-11.511000	21.779430	0.000454	20.815419
117.043095	-2.996200	3.853800	-11.546000	21.765044	0.000452	20.846538
118.038322	-2.987100	3.854900	-11.514000	21.794340	0.000453	20.834608
119.046054	-2.997000	3.853500	-11.548000	21.795513	0.000453	20.842894
120.037157	-2.994800	3.855700	-11.546000	21.779381	0.000453	20.831490
121.046173	-2.997700	3.853300	-11.548000	21.800449	0.000454	20.841196
122.042618	-3.001500	3.852900	-11.564000	21.816630	0.000452	20.841745
123.042907	-3.014000	3.853300	-11.613000	21.839444	0.000452	20.822854
124.039042	-2.994100	3.852900	-11.535000	21.818701	0.000456	20.837180
125.044270	-3.004100	3.852300	-11.571000	21.826057	0.000456	20.845490
126.040564	-2.983900	3.853700	-11.497000	21.834558	0.000454	20.837403
127.039324	-2.998800	3.852900	-11.553000	21.841390	0.000454	20.821009
128.035619	-3.001500	3.853500	-11.565000	21.852061	0.000455	20.823628
129.039548	-2.999300	3.852100	-11.553000	21.869040	0.000454	20.811226
130.047328	-3.012400	3.852400	-11.603000	21.886021	0.000455	20.831542
131.037936	-3.005100	3.852100	-11.576000	21.887641	0.000455	20.797602
132.034187	-3.019000	3.851100	-11.625000	21.889637	0.000456	20.824256
133.035675	-3.014600	3.851700	-11.610000	21.881284	0.000454	20.834861
134.039120	-2.970900	3.851800	-11.443000	21.915144	0.000455	20.813278
135.044580	-3.008300	3.851400	-11.585000	21.930999	0.000455	20.803544
136.045424	-2.990600	3.851600	-11.518000	21.951244	0.000458	20.831869
137.042808	-3.008700	3.850700	-11.585000	21.962837	0.000456	20.822612
138.042442	-2.991100	3.850200	-11.516000	21.952292	0.000457	20.821539
139.042667	-2.990200	3.850900	-11.514000	21.959526	0.000457	20.824038
140.049664	-2.989900	3.851100	-11.514000	21.967903	0.000458	20.814880
141.039408	-3.010400	3.850100	-11.590000	21.974458	0.000459	20.805321
142.047323	-2.996700	3.851000	-11.539000	21.975380	0.000457	20.822365
143.054436	-2.988900	3.850300	-11.507000	21.958330	0.000458	20.823790
144.048239	-3.014900	3.848700	-11.603000	22.002981	0.000460	20.814433
145.047785	-2.981500	3.849200	-11.475000	21.986453	0.000461	20.812586
146.046010	-3.000300	3.850100	-11.549000	21.986227	0.000460	20.830852
147.046194	-2.993100	3.848500	-11.518000	21.999665	0.000459	20.815856
148.045323	-2.998800	3.849900	-11.544000	22.029855	0.000460	20.829482
149.047516	-3.013200	3.849000	-11.597000	22.000615	0.000462	20.812539
150.050152	-2.996300	3.849500	-11.533000	22.016496	0.000462	20.806151
151.054538	-3.000900	3.848200	-11.547000	22.019687	0.000464	20.826889
152.045785	-2.994000	3.849500	-11.525000	22.023452	0.000462	20.799838
153.044324	-2.996000	3.848500	-11.529000	22.039231	0.000460	20.819902
154.051844	-2.992200	3.848900	-11.516000	22.053417	0.000463	20.814189
155.050324	-3.000600	3.848200	-11.546000	22.043243	0.000462	20.816332
156.046138	-3.002400	3.847700	-11.551000	22.059647	0.000462	20.804304
157.047850	-2.999600	3.847800	-11.541000	22.085599	0.000462	20.792827
158.043721	-3.018600	3.846600	-11.609000	22.103671	0.000462	20.803807
159.059177	-2.998300	3.847400	-11.535000	22.109605	0.000463	20.797894
160.050788	-3.006300	3.845700	-11.561000	22.104819	0.000464	20.802112
161.055717	-3.025100	3.846200	-11.634000	22.109206	0.000463	20.796546
162.050829	-3.020900	3.845800	-11.617000	22.124810	0.000464	20.793202
163.054123	-3.013900	3.845500	-11.589000	22.120024	0.000464	20.810696
164.054655	-2.979200	3.848200	-11.463000	22.132812	0.000464	20.785566
165.050020	-2.986000	3.845400	-11.482000	22.135928	0.000464	20.804333
166.053544	-2.972200	3.845800	-11.428000	22.128874	0.000464	20.802486
167.063181	-2.964800	3.848100	-11.408000	22.145175	0.000466	20.796995
168.046484	-3.003100	3.844900	-11.545000	22.162100	0.000467	20.782172
169.052389	-3.012400	3.844400	-11.579000	22.195350	0.000467	20.785591
170.057735	-3.026200	3.844900	-11.635000	22.193731	0.000468	20.812419
171.049372	-3.001700	3.843700	-11.537000	22.233035	0.000467	20.801037
172.061000	-3.004400	3.844400	-11.549000	22.210705	0.000465	20.809974
173.064920	-2.986800	3.844600	-11.482000	22.230022	0.000467	20.806081
174.057350	-2.989300	3.845700	-11.494000	22.226108	0.000464	20.815912
175.059862	-3.008400	3.844100	-11.563000	22.210381	0.000467	20.792579
176.064284	-3.000800	3.844100	-11.534000	22.216886	0.000468	20.799093
177.056984	-2.994700	3.843100	-11.508000	22.213797	0.000467	20.799319
178.059915	-3.031800	3.843100	-11.651000	22.223519	0.000468	20.805733
179.056288	-3.000000	3.844000	-11.531000	22.224912	0.000470	20.798120
180.055130	-3.012300	3.844200	-11.579000	22.230570	0.000468	20.822276
181.061489	-2.998600	3.843300	-11.524000	22.258136	0.000470	20.789185
182.059010	-2.990800	3.843400	-11.495000	22.265214	0.000471	20.806230
183.071736	-3.013800	3.842300	-11.579000	22.261678	0.000470	20.780878
184.060052	-2.999700	3.842500	-11.526000	22.272319	0.000472	20.798172
185.055738	-2.986900	3.842800	-11.477000	22.285004	0.000470	20.774836
186.055749	-2.987800	3.842400	-11.480000	22.305492	0.000473	20.788239
187.066305	-3.012500	3.841900	-11.573000	22.322415	0.000472	20.803288
188.069605	-2.988700	3.841600	-11.480000	22.314390	0.000472	20.791459
189.053324	-2.999500	3.841600	-11.521000	22.334052	0.000473	20.769422
190.065593	-2.998300	3.842000	-11.518000	22.361243	0.000474	20.791434
191.060957	-3.010300	3.839900	-11.559000	22.328147	0.000472	20.792432
192.057176	-2.997300	3.841000	-11.512000	22.333405	0.000475	20.779205
193.062979	-3.011000	3.840000	-11.561000	22.349879	0.000471	20.793331
194.066419	-2.997500	3.841700	-11.514000	22.355460	0.000475	20.784220
195.059025	-3.004300	3.840100	-11.536000	22.383223	0.000475	20.787840
196.068236	-3.019600	3.839700	-11.593000	22.390747	0.000474	20.767399
197.062746	-3.000400	3.838500	-11.517000	22.399369	0.000474	20.793577
198.078610	-3.003800	3.840400	-11.535000	22.413971	0.000476	20.794449
199.069393	-2.994200	3.840000	-11.497000	22.426484	0.000476	20.788013
200.072180	-3.000500	3.838400	-11.516000	22.404627	0.000476	20.772289
201.063401	-2.998100	3.840000	-11.512000	22.438567	0.000476	20.756017
202.065049	-3.008600	3.838500	-11.547000	22.426904	0.000478	20.762829
203.068646	-3.001500	3.839300	-11.523000	22.425456	0.000478	20.786510
204.082333	-2.998400	3.839300	-11.511000	22.414841	0.000477	20.779199
205.064862	-3.017100	3.837500	-11.576000	22.421670	0.000477	20.778926
206.060551	-2.972700	3.838500	-11.410000	22.425655	0.000477	20.774381
207.064367	-3.002200	3.837600	-11.519000	22.433578	0.000476	20.755288
208.064335	-3.010900	3.837700	-11.554000	22.453461	0.000477	20.760027
209.065708	-2.991500	3.837700	-11.480000	22.463082	0.000480	20.784835
210.062965	-2.977300	3.837600	-11.425000	22.460313	0.000480	20.777795
211.061414	-3.011200	3.837000	-11.552000	22.478778	0.000480	20.771157
212.072608	-3.021400	3.836300	-11.590000	22.493005	0.000480	20.779240
213.076599	-2.983500	3.836800	-11.446000	22.530704	0.000480	20.789496
214.068003	-2.981200	3.835600	-11.433000	22.519664	0.000478	20.782232
215.073426	-2.999900	3.836200	-11.508000	22.499257	0.000482	20.761319
216.063006	-3.007900	3.836500	-11.539000	22.516524	0.000480	20.771975
217.075458	-3.014300	3.836600	-11.563000	22.548918	0.000481	20.792564
218.066946	-3.022800	3.835500	-11.592000	22.557810	0.000481	20.776814
219.080952	-2.983300	3.836400	-11.444000	22.560777	0.000483	20.766982
220.067655	-2.992900	3.835000	-11.477000	22.561448	0.000480	20.796105
221.059877	-3.002200	3.833700	-11.509000	22.562346	0.000482	20.784201
222.066448	-3.031700	3.832500	-11.617000	22.572287	0.000483	20.776615
223.067182	-3.009400	3.834600	-11.539000	22.606797	0.000484	20.774668
224.060263	-2.977500	3.834400	-11.416000	22.605449	0.000483	20.787543
225.081955	-2.980200	3.835000	-11.428000	22.612228	0.000483	20.795755
226.066744	-3.031400	3.834900	-11.624000	22.639284	0.000483	20.762162
227.073452	-3.011900	3.834100	-11.547000	22.610979	0.000485	20.780754
228.071288	-3.003700	3.833600	-11.514000	22.641053	0.000484	20.772944
229.070494	-3.005500	3.834200	-11.523000	22.619351	0.000484	20.784872
230.067281	-3.006500	3.834000	-11.526000	22.618853	0.000483	20.778683
231.069813	-3.011800	3.834100	-11.547000	22.659166	0.000485	20.782551
232.062918	-3.016200	3.832600	-11.559000	22.637987	0.000484	20.786943
233.069321	-2.982700	3.832700	-11.431000	22.643492	0.000486	20.762584
234.084683	-2.999000	3.833000	-11.495000	22.647577	0.000486	20.775211
235.073469	-3.003000	3.832100	-11.508000	22.643093	0.000485	20.769772
236.081053	-2.998300	3.832800	-11.491000	22.643887	0.000488	20.776731
237.079431	-2.989500	3.831000	-11.452000	22.685621	0.000487	20.760212
238.066410	-2.999800	3.831700	-11.493000	22.693817	0.000488	20.772689
239.076674	-3.002800	3.832100	-11.506000	22.689681	0.000488	20.766649
240.074835	-3.009500	3.831500	-11.529000	22.706123	0.000488	20.797343
241.069883	-2.995000	3.831700	-11.474000	22.720598	0.000487	20.777704
242.064104	-3.001500	3.831200	-11.498000	22.715114	0.000488	20.784065
243.074671	-2.989900	3.831100	-11.454000	22.690076	0.000487	20.768467
244.078148	-3.022300	3.829000	-11.571000	22.711900	0.000489	20.786061
245.068879	-2.992400	3.830600	-11.461000	22.717802	0.000489	20.778222
246.075713	-3.002600	3.829900	-11.499000	22.682649	0.000489	20.781417
247.082603	-2.996200	3.830700	-11.477000	22.714089	0.000491	20.773080
248.081960	-2.983800	3.828500	-11.422000	22.713415	0.000490	20.790423
249.079593	-3.009800	3.831200	-11.530000	22.747522	0.000489	20.794242
250.077227	-3.003400	3.829900	-11.501000	22.764760	0.000491	20.785906
251.070926	-3.018600	3.828100	-11.554000	22.795576	0.000490	20.790223
252.095123	-3.006200	3.830300	-11.514000	22.806014	0.000489	20.784083
253.085511	-3.010100	3.828600	-11.523000	22.813337	0.000488	20.780988
254.080588	-3.004100	3.827900	-11.499000	22.794008	0.000494	20.772056
255.073981	-2.992700	3.829200	-11.460000	22.814584	0.000491	20.780814
256.073740	-3.025700	3.827900	-11.580000	22.824048	0.000490	20.783657
257.079881	-2.984300	3.828400	-11.423000	22.809051	0.000493	20.776694
258.074901	-2.988400	3.826300	-11.433000	22.810471	0.000493	20.777168
259.074259	-2.998300	3.828100	-11.477000	22.813062	0.000492	20.791618
260.077757	-3.005300	3.825700	-11.497000	22.827758	0.000493	20.783580
261.075845	-2.998600	3.826400	-11.473000	22.807232	0.000494	20.769182
262.062829	-2.991000	3.826900	-11.446000	22.824569	0.000495	20.802197
263.059583	-3.011100	3.826200	-11.519000	22.859920	0.000493	20.797308
264.066114	-3.005300	3.826000	-11.497000	22.858250	0.000494	20.798006
265.057173	-3.014900	3.826300	-11.534000	22.853839	0.000494	20.796432
266.060297	-3.033600	3.825200	-11.603000	22.843578	0.000495	20.794213
267.059101	-2.989200	3.825100	-11.433000	22.904682	0.000496	20.775770
268.066206	-3.008500	3.824400	-11.505000	22.895415	0.000496	20.791142
269.071357	-2.981400	3.825900	-11.405000	22.921445	0.000496	20.777391
270.062045	-2.986700	3.825700	-11.425000	22.890607	0.000495	20.771153
271.061592	-2.992200	3.824700	-11.444000	22.898752	0.000496	20.797805
272.073611	-3.019000	3.823700	-11.543000	22.934845	0.000497	20.784653
273.062608	-3.006200	3.825700	-11.499000	22.947724	0.000497	20.782858
274.068668	-3.014600	3.824200	-11.527000	22.943039	0.000498	20.792389
275.092705	-2.988200	3.825100	-11.429000	22.936790	0.000497	20.794188
276.096107	-2.985100	3.823000	-11.411000	22.951759	0.000498	20.795908
277.099046	-3.011100	3.823200	-11.511000	22.974450	0.000499	20.807263
278.089550	-3.005300	3.823000	-11.488000	22.948245	0.000499	20.799027
279.086536	-2.997600	3.822800	-11.458000	22.980052	0.000498	20.788221
280.096785	-2.996600	3.823000	-11.455000	22.995446	0.000498	20.785152
281.095825	-2.985000	3.823800	-11.414000	23.014599	0.000498	20.792962
282.091981	-2.992600	3.822000	-11.437000	23.010637	0.000501	20.792312
283.098278	-2.988100	3.823000	-11.422000	23.004760	0.000498	20.799700
284.087686	-2.996300	3.821000	-11.447000	22.997583	0.000499	20.787767
285.087403	-2.994100	3.822300	-11.444000	23.013524	0.000502	20.799946
286.091200	-3.022300	3.821000	-11.547000	23.018058	0.000501	20.791687
287.088389	-2.970600	3.821600	-11.351000	23.040298	0.000500	20.796900
288.089105	-2.984400	3.821400	-11.404000	23.017211	0.000502	20.797950
289.094508	-3.016400	3.820300	-11.522000	23.026275	0.000501	20.802764
290.092271	-2.955100	3.821800	-11.293000	23.016114	0.000500	20.802541
291.095100	-2.995300	3.820800	-11.443000	23.015488	0.000503	20.808551
292.095787	-3.005300	3.819800	-11.479000	23.024454	0.000502	20.812320
293.090128	-2.991300	3.819100	-11.423000	23.041986	0.000503	20.805705
294.086020	-2.999800	3.819600	-11.457000	23.046694	0.000503	20.794300
295.088432	-3.014500	3.819000	-11.512000	23.054164	0.000505	20.802733
296.095798	-2.993500	3.818900	-11.431000	23.076355	0.000504	20.789407
297.088183	-3.008900	3.819000	-11.490000	23.067637	0.000504	20.801535
298.087812	-3.014000	3.818300	-11.507000	23.106537	0.000503	20.795468
299.086235	-2.994800	3.818800	-11.436000	23.102427	0.000504	20.810790
300.099904	-3.009500	3.818500	-11.491000	23.142921	0.000504	20.823391
301.100765	-2.992400	3.817700	-11.423000	23.101780	0.000506	20.811564
302.089587	-3.018600	3.816400	-11.520000	23.077469	0.000505	20.818024
303.086971	-3.018500	3.817000	-11.520000	23.105190	0.000504	20.813084
304.073974	-3.002800	3.818300	-11.465000	23.103047	0.000505	20.824213
305.090423	-2.981600	3.817400	-11.381000	23.114678	0.000506	20.809790
306.095136	-3.000500	3.817000	-11.452000	23.137863	0.000505	20.818797
307.090431	-3.007500	3.815700	-11.474000	23.178605	0.000507	20.809838
308.097908	-3.004300	3.815400	-11.461000	23.154397	0.000507	20.818296
309.086054	-3.001000	3.816500	-11.453000	23.157038	0.000508	20.802450
310.101457	-2.986400	3.816600	-11.397000	23.157684	0.000509	20.827280
311.082910	-2.989700	3.815100	-11.405000	23.163261	0.000508	20.793514
312.077312	-2.991900	3.815500	-11.415000	23.176485	0.000508	20.804869
313.097392	-3.010200	3.815700	-11.485000	23.215806	0.000508	20.823410
314.094244	-2.997400	3.815800	-11.437000	23.254278	0.000512	20.806014
315.100531	-2.999500	3.816700	-11.447000	23.257267	0.000511	20.828450
316.097625	-2.992400	3.814100	-11.413000	23.249100	0.000512	20.835912
317.115929	-2.993700	3.814000	-11.417000	23.237146	0.000512	20.810182
318.072096	-2.999900	3.814600	-11.442000	23.219716	0.000510	20.822586
319.078083	-2.989900	3.814900	-11.405000	23.209730	0.000514	20.809260
320.079249	-3.026900	3.813200	-11.542000	23.206019	0.000511	20.824982
321.079213	-3.000100	3.814000	-11.441000	23.217400	0.000510	20.825955
322.087257	-2.991900	3.814800	-11.413000	23.215631	0.000514	20.836984
323.080650	-2.990600	3.813300	-11.403000	23.208482	0.000513	20.822234
324.078796	-3.000900	3.812700	-11.441000	23.235776	0.000512	20.821137
325.077398	-2.991300	3.813700	-11.407000	23.262246	0.000513	20.825379
326.091187	-2.999200	3.811700	-11.431000	23.279777	0.000512	20.825878
327.082606	-3.004000	3.811000	-11.447000	23.222429	0.000513	20.834313
328.104278	-2.994900	3.812700	-11.417000	23.255348	0.000514	20.817043
329.093819	-2.998900	3.811800	-11.430000	23.269494	0.000514	20.847341
330.108876	-2.977800	3.812400	-11.352000	23.290361	0.000514	20.822735
331.096110	-2.992000	3.812400	-11.406000	23.327461	0.000514	20.825305
332.086496	-2.980800	3.812100	-11.363000	23.308761	0.000514	20.844494
333.086007	-3.006300	3.810000	-11.453000	23.313316	0.000515	20.831990
334.101257	-2.993400	3.810900	-11.407000	23.319367	0.000518	20.802968
335.101175	-3.010300	3.808700	-11.464000	23.336149	0.000517	20.831166
336.092468	-3.016200	3.809100	-11.488000	23.312519	0.000515	20.830243
337.112848	-3.002200	3.809700	-11.437000	23.334380	0.000515	20.826075
338.099087	-3.020100	3.808800	-11.502000	23.295235	0.000516	20.832835
339.107353	-2.973400	3.811100	-11.330000	23.320760	0.000516	20.860786
340.079297	-3.017100	3.809000	-11.491000	23.318366	0.000516	20.832310
341.103357	-2.999000	3.807800	-11.418000	23.361167	0.000517	20.836326
342.109534	-2.975200	3.809600	-11.333000	23.354943	0.000515	20.840993
343.107601	-2.985800	3.808900	-11.372000	23.349115	0.000518	20.856014
344.104944	-3.012200	3.808000	-11.470000	23.370604	0.000519	20.848155
345.113099	-3.017800	3.807800	-11.490000	23.380935	0.000516	20.843811
346.107841	-3.013500	3.808200	-11.475000	23.380041	0.000518	20.847656
347.108174	-3.007200	3.806600	-11.446000	23.413203	0.000518	20.838695
348.106924	-2.970800	3.807700	-11.311000	23.433097	0.000520	20.840142
349.097729	-3.002800	3.807300	-11.432000	23.432797	0.000519	20.845058
350.102225	-3.023300	3.806800	-11.508000	23.455105	0.000520	20.848925
351.117492	-3.021400	3.805700	-11.498000	23.458691	0.000521	20.849201
352.106838	-3.012100	3.807100	-11.466000	23.435386	0.000518	20.828212
353.118382	-2.989700	3.806000	-11.378000	23.412505	0.000521	20.853642
354.111176	-2.990500	3.804800	-11.377000	23.451494	0.000522	20.856211
355.109984	-2.996200	3.805600	-11.400000	23.467974	0.000521	20.848075
356.109198	-3.003100	3.804500	-11.425000	23.467827	0.000519	20.839393
357.103615	-3.002400	3.804500	-11.421000	23.454657	0.000518	20.836623
358.105336	-2.986800	3.805100	-11.364000	23.437055	0.000522	20.832730
359.113755	-3.001200	3.803600	-11.414000	23.438598	0.000521	20.852768
360.121198	-2.995100	3.804400	-11.394000	23.436007	0.000521	20.845430
361.108776	-2.981700	3.803200	-11.339000	23.479552	0.000520	20.843085
362.092451	-3.005900	3.803000	-11.430000	23.480325	0.000523	20.855238
363.090606	-2.999400	3.803300	-11.407000	23.482839	0.000522	20.844956
364.088485	-3.018500	3.803700	-11.480000	23.461453	0.000522	20.843435
365.098461	-3.008900	3.802800	-11.441000	23.459835	0.000522	20.849399
366.091761	-3.009200	3.802800	-11.441000	23.446563	0.000522	20.853166
367.090304	-3.010900	3.803900	-11.452000	23.450475	0.000524	20.865147
368.093350	-2.986800	3.802100	-11.355000	23.465935	0.000522	20.849350
369.101669	-3.013800	3.800700	-11.454000	23.501636	0.000524	20.848625
370.092926	-3.019300	3.801800	-11.478000	23.493968	0.000525	20.877922
371.092041	-3.005200	3.802300	-11.426000	23.500341	0.000526	20.858706
372.099164	-3.022200	3.801200	-11.487000	23.490033	0.000524	20.849323
373.098027	-2.999100	3.801100	-11.399000	23.530539	0.000526	20.862425
374.100216	-3.010300	3.800100	-11.439000	23.507137	0.000525	20.849872
375.096669	-2.984700	3.800600	-11.343000	23.520007	0.000526	20.856609
376.113369	-3.012400	3.800500	-11.447000	23.535790	0.000526	20.876222
377.104330	-3.015000	3.799500	-11.454000	23.567031	0.000525	20.850642
378.101536	-3.002700	3.800000	-11.410000	23.576617	0.000529	20.868785
379.099856	-2.983900	3.800600	-11.339000	23.556627	0.000527	20.866290
380.103427	-3.003700	3.799500	-11.411000	23.559713	0.000525	20.852789
381.100274	-2.998500	3.799000	-11.390000	23.584881	0.000525	20.867112
382.097928	-2.988000	3.800400	-11.355000	23.611118	0.000524	20.850742
383.102371	-2.993900	3.798800	-11.373000	23.615699	0.000528	20.872402
384.099316	-2.984700	3.798100	-11.335000	23.643008	0.000527	20.881286
385.103669	-3.005600	3.798800	-11.417000	23.634193	0.000527	20.872924
386.118084	-3.017200	3.796700	-11.455000	23.642434	0.000528	20.874073
387.129219	-2.986000	3.798500	-11.342000	23.680171	0.000528	20.853586
388.123364	-2.996500	3.797700	-11.378000	23.693909	0.000528	20.879686
389.127399	-2.985300	3.797900	-11.337000	23.677083	0.000528	20.881783
390.113946	-3.015000	3.796400	-11.446000	23.662820	0.000528	20.881235
391.121403	-2.999300	3.797500	-11.388000	23.648184	0.000530	20.879837
392.119261	-2.992400	3.796600	-11.360000	23.640616	0.000529	20.863717
393.111496	-3.008800	3.795500	-11.419000	23.630461	0.000530	20.880562
394.119908	-2.985700	3.797300	-11.336000	23.662697	0.000527	20.884903
395.096287	-3.012900	3.795700	-11.435000	23.673723	0.000528	20.885052
396.118353	-3.016300	3.795500	-11.448000	23.689479	0.000529	20.901796
397.116067	-3.027200	3.794700	-11.486000	23.717732	0.000530	20.890767
398.121212	-2.995500	3.794800	-11.366000	23.732842	0.000531	20.862771
399.120135	-3.004700	3.794300	-11.400000	23.755541	0.000530	20.882682
400.107491	-2.976300	3.795200	-11.295000	23.748348	0.000529	20.889220
401.104338	-2.987000	3.795200	-11.336000	23.724898	0.000529	20.900322
402.105983	-3.010900	3.794000	-11.422000	23.725173	0.000530	20.868831
403.099390	-3.019100	3.794200	-11.454000	23.749391	0.000532	20.871301
404.105358	-2.992400	3.794400	-11.353000	23.748348	0.000530	20.893961
405.112790	-2.988800	3.792700	-11.335000	23.729702	0.000531	20.862941
406.108479	-2.997800	3.793200	-11.370000	23.749118	0.000530	20.878139
407.103029	-2.999800	3.792500	-11.374000	23.750686	0.000531	20.884926
408.105437	-2.994800	3.793600	-11.360000	23.725695	0.000532	20.861295
409.106873	-3.011400	3.791500	-11.417000	23.741153	0.000531	20.885800
410.111973	-2.998100	3.793300	-11.372000	23.758802	0.000533	20.884529
411.111980	-3.011400	3.792100	-11.419000	23.794666	0.000530	20.892038
412.106261	-2.957100	3.793600	-11.217000	23.787723	0.000534	20.876543
413.107720	-2.992500	3.792700	-11.349000	23.804176	0.000531	20.889719
414.113666	-3.002300	3.792000	-11.384000	23.814779	0.000531	20.888497
415.107163	-2.998800	3.791400	-11.368000	23.815453	0.000531	20.874000
416.110886	-3.020200	3.791100	-11.449000	23.826876	0.000530	20.906315
417.108808	-2.995800	3.791500	-11.357000	23.803205	0.000533	20.897754
418.112817	-2.966700	3.789900	-11.243000	23.832650	0.000530	20.890294
419.111782	-2.986700	3.790100	-11.319000	23.816698	0.000533	20.898955
420.141793	-2.972700	3.790200	-11.266000	23.820830	0.000532	20.876073
421.112064	-2.978900	3.789900	-11.289000	23.852761	0.000534	20.897183
422.127029	-2.994800	3.789700	-11.349000	23.879169	0.000535	20.884783
423.128416	-2.996500	3.786900	-11.347000	23.882328	0.000536	20.886528
424.113169	-2.991900	3.789000	-11.335000	23.902017	0.000538	20.895364
425.117866	-3.010400	3.786800	-11.399000	23.844228	0.000534	20.893843
426.143648	-3.015300	3.787700	-11.420000	23.876309	0.000534	20.896613
427.119640	-2.994200	3.786900	-11.338000	23.867473	0.000535	20.896762
428.117694	-2.990000	3.786200	-11.320000	23.879569	0.000535	20.906519
429.116765	-3.034200	3.785500	-11.485000	23.902989	0.000536	20.909140
430.150907	-3.009400	3.786900	-11.395000	23.864537	0.000536	20.896663
431.139377	-2.990900	3.786400	-11.323000	23.860332	0.000536	20.908093
432.133363	-3.012100	3.786000	-11.403000	23.853712	0.000535	20.888180
433.144188	-2.989900	3.786400	-11.320000	23.888678	0.000535	20.890524
434.133065	-2.993600	3.786000	-11.332000	23.937309	0.000535	20.903726
435.138680	-3.015700	3.785000	-11.414000	23.958413	0.000534	20.920146
436.133357	-2.975000	3.786800	-11.265000	23.934920	0.000534	20.917925
437.121644	-3.010500	3.784100	-11.390000	23.960925	0.000536	20.892797
438.140565	-3.006000	3.784800	-11.376000	23.982826	0.000536	20.892948
439.143503	-2.996700	3.784400	-11.340000	23.983325	0.000535	20.906250
440.141425	-2.979100	3.784400	-11.274000	23.955827	0.000534	20.913761
441.138284	-3.001600	3.784000	-11.357000	23.965583	0.000537	20.907898
442.147086	-3.005400	3.783900	-11.371000	23.969839	0.000533	20.906950
443.145821	-2.994000	3.784100	-11.328000	23.984645	0.000536	20.902358
444.144415	-3.010400	3.782500	-11.385000	23.934700	0.000537	20.912490
445.153464	-2.981600	3.784800	-11.284000	23.919547	0.000537	20.900614
446.152080	-3.010500	3.782700	-11.386000	23.953864	0.000535	20.907525
447.139632	-3.003600	3.782700	-11.361000	23.939579	0.000538	20.907426
448.148337	-2.986400	3.782200	-11.294000	23.948689	0.000538	20.917508
449.141304	-3.021700	3.782000	-11.427000	23.947867	0.000538	20.920951
450.126787	-3.010500	3.782600	-11.386000	23.946872	0.000534	20.923746
451.140929	-3.017600	3.781900	-11.411000	23.982237	0.000536	20.921752
452.147048	-2.998200	3.780800	-11.335000	24.020931	0.000536	20.924994
453.151734	-2.997400	3.781300	-11.333000	24.076398	0.000536	20.900492
454.138211	-2.984000	3.781200	-11.282000	24.062388	0.000535	20.930535
455.149181	-3.001000	3.780700	-11.345000	24.095458	0.000538	20.920554
456.134826	-3.004300	3.779800	-11.354000	24.054551	0.000539	20.936899
457.145899	-2.990200	3.780100	-11.302000	24.020758	0.000537	20.912494
458.156135	-2.994800	3.779700	-11.318000	24.028671	0.000538	20.909051
459.143437	-2.987600	3.779500	-11.290000	24.033201	0.000539	20.936824
460.153696	-3.008000	3.779300	-11.367000	24.024342	0.000536	20.936000
461.151213	-2.991000	3.778300	-11.300000	24.027627	0.000537	20.936449
462.145915	-3.005000	3.778400	-11.354000	24.005481	0.000538	20.936052
463.146527	-3.016300	3.778200	-11.395000	24.048231	0.000539	20.930087
464.142451	-2.998400	3.777400	-11.324000	24.046590	0.000538	20.932708
465.143026	-3.018200	3.777000	-11.399000	24.042482	0.000538	20.933804
466.127378	-3.035900	3.775900	-11.462000	24.057289	0.000540	20.917361
467.142925	-3.007500	3.776300	-11.356000	24.082967	0.000538	20.929837
468.148334	-2.975900	3.778300	-11.243000	24.111086	0.000536	20.942389
469.131052	-2.997100	3.777400	-11.320000	24.134026	0.000539	20.917036
470.151954	-2.992800	3.774700	-11.296000	24.091031	0.000537	20.914218
471.150116	-3.006600	3.776100	-11.352000	24.102551	0.000540	20.911548
472.157804	-2.989600	3.776000	-11.288000	24.087821	0.000540	20.931859
473.156795	-3.013600	3.775900	-11.378000	24.100858	0.000537	20.924073
474.151971	-2.993900	3.775300	-11.301000	24.146790	0.000539	20.923199
475.152675	-3.004800	3.775500	-11.343000	24.120387	0.000541	20.896246
476.149889	-2.997600	3.776300	-11.318000	24.096053	0.000541	20.934899
477.133971	-2.995000	3.775600	-11.306000	24.065475	0.000540	20.909450
478.146984	-3.017200	3.774800	-11.389000	24.075847	0.000538	20.913689
479.152003	-3.004500	3.774800	-11.341000	24.068233	0.000540	20.914587
480.146354	-3.013300	3.774500	-11.372000	24.104090	0.000540	20.908823
481.144889	-2.989400	3.774400	-11.283000	24.115037	0.000541	20.919328
482.144456	-2.980100	3.774500	-11.247000	24.157011	0.000539	20.899314
483.150011	-2.992600	3.773900	-11.293000	24.147084	0.000541	20.912115
484.151936	-3.011400	3.772700	-11.360000	24.176493	0.000540	20.901310
485.153158	-3.007400	3.773200	-11.346000	24.165296	0.000541	20.908571
486.144893	-3.004000	3.773400	-11.335000	24.132179	0.000539	20.916606
487.158853	-3.013500	3.771300	-11.364000	24.134617	0.000540	20.908146
488.150221	-3.017100	3.771900	-11.380000	24.140713	0.000542	20.895296
489.145866	-3.014600	3.770500	-11.364000	24.175521	0.000541	20.906499
490.158937	-2.990500	3.771600	-11.279000	24.186841	0.000539	20.897940
491.148209	-2.979200	3.772100	-11.237000	24.238017	0.000542	20.892847
492.157314	-2.993300	3.771300	-11.287000	24.253693	0.000541	20.877751
493.147850	-2.994000	3.770000	-11.286000	24.217666	0.000542	20.904201
494.147410	-3.000600	3.770300	-11.313000	24.223437	0.000539	20.911412
495.151772	-3.001400	3.771000	-11.318000	24.171960	0.000543	20.898660
496.138163	-3.028900	3.770000	-11.418000	24.205425	0.000543	20.889079
497.165437	-2.999900	3.770400	-11.310000	24.198307	0.000540	20.895689
498.152421	-2.992200	3.771000	-11.282000	24.165565	0.000540	20.908840
499.157362	-2.995500	3.769200	-11.290000	24.166783	0.000542	20.898683
500.155662	-3.017200	3.768200	-11.369000	24.202236	0.000540	20.895363
501.176476	-3.018600	3.768200	-11.374000	24.213308	0.000539	20.892719
502.158973	-2.985800	3.769300	-11.253000	24.242990	0.000540	20.903050
503.159064	-3.013700	3.768700	-11.357000	24.266898	0.000541	20.898582
504.166495	-3.009600	3.767200	-11.337000	24.253639	0.000540	20.892396
505.171474	-3.020800	3.767800	-11.381000	24.258340	0.000542	20.894739
506.137955	-3.001600	3.766500	-11.304000	24.228710	0.000539	20.899157
507.153805	-2.990500	3.768200	-11.268000	24.233160	0.000542	20.896510
508.163591	-3.016700	3.766200	-11.361000	24.252966	0.000542	20.900729
509.139940	-2.987600	3.767500	-11.255000	24.264957	0.000541	20.892369
510.162197	-3.007500	3.766200	-11.326000	24.254038	0.000539	20.879994
511.141973	-2.995700	3.765800	-11.281000	24.236248	0.000541	20.897710
512.142982	-2.992200	3.765500	-11.266000	24.232217	0.000540	20.893667
513.140526	-2.997900	3.764700	-11.286000	24.238909	0.000541	20.877147
514.138847	-3.003800	3.764800	-11.308000	24.265931	0.000542	20.868692
515.145101	-2.974600	3.765200	-11.199000	24.239086	0.000540	20.854093
516.141155	-3.029000	3.763600	-11.399000	24.238789	0.000539	20.880346
517.138973	-3.012500	3.764500	-11.339000	24.258294	0.000541	20.887108
518.141962	-2.996600	3.764800	-11.280000	24.239313	0.000540	20.878027
519.144292	-2.998600	3.765000	-11.289000	24.233591	0.000539	20.861857
520.148750	-3.013700	3.763900	-11.343000	24.258595	0.000540	20.889306
521.149624	-2.988900	3.762200	-11.244000	24.258374	0.000540	20.881024
522.139735	-3.011000	3.761900	-11.327000	24.254097	0.000541	20.879579
523.144341	-2.991700	3.762700	-11.256000	24.295271	0.000541	20.866828
524.141401	-3.003800	3.762800	-11.300000	24.316219	0.000540	20.857496
525.142737	-3.028000	3.762100	-11.391000	24.261538	0.000541	20.888939
526.155240	-2.969600	3.761700	-11.169000	24.277436	0.000542	20.883550
527.164392	-2.995000	3.761800	-11.266000	24.302914	0.000543	20.890140
528.144965	-2.984100	3.762300	-11.225000	24.337245	0.000543	20.880958
529.147703	-2.995700	3.762700	-11.271000	24.380009	0.000544	20.865063
530.148638	-3.006300	3.760600	-11.305000	24.377248	0.000543	20.872724
531.148917	-2.998000	3.761900	-11.278000	24.334436	0.000543	20.869606
532.152090	-2.983700	3.760600	-11.220000	24.321703	0.000541	20.856833
533.146128	-3.002300	3.760600	-11.290000	24.344015	0.000542	20.875896
534.177062	-2.993700	3.759300	-11.253000	24.341479	0.000541	20.857231
535.150396	-2.993300	3.759500	-11.253000	24.342203	0.000543	20.871233
536.163713	-3.000200	3.759500	-11.278000	24.336430	0.000543	20.865442
537.147986	-2.991500	3.759000	-11.245000	24.319513	0.000540	20.881187
538.147098	-3.020500	3.757900	-11.349000	24.354121	0.000540	20.862326
539.145849	-3.008500	3.757300	-11.303000	24.344566	0.000543	20.878819
540.149818	-2.988900	3.759100	-11.235000	24.372728	0.000543	20.864870
541.155521	-2.995400	3.757700	-11.254000	24.374294	0.000542	20.868812
542.150278	-3.006200	3.756800	-11.292000	24.390191	0.000543	20.859630
543.147760	-3.035400	3.757600	-11.404000	24.408300	0.000541	20.860727
544.148963	-3.014500	3.757400	-11.326000	24.402679	0.000541	20.874529
545.148909	-3.010700	3.756800	-11.310000	24.392133	0.000541	20.841191
546.149686	-2.990800	3.756600	-11.234000	24.362878	0.000543	20.864947
547.151976	-2.987200	3.757000	-11.222000	24.402207	0.000542	20.852719
548.150449	-3.001900	3.756300	-11.275000	24.421510	0.000544	20.855015
549.157506	-3.010700	3.756000	-11.306000	24.409944	0.000542	20.877075
550.149749	-3.019700	3.755500	-11.339000	24.448178	0.000544	20.851423
551.168156	-2.998200	3.756700	-11.262000	24.456162	0.000540	20.851847
552.152065	-2.992000	3.755200	-11.235000	24.452282	0.000544	20.868342
553.157201	-3.021200	3.754900	-11.342000	24.447831	0.000544	20.858661
554.154058	-3.011400	3.754600	-11.306000	24.455913	0.000544	20.872932
555.156317	-3.000700	3.755400	-11.268000	24.466312	0.000542	20.845909
556.150280	-3.043200	3.753100	-11.420000	24.493897	0.000540	20.883065
557.151926	-2.991000	3.754600	-11.229000	24.517576	0.000543	20.846133
558.151492	-2.980400	3.752500	-11.183000	24.499046	0.000541	20.848878
559.168322	-2.976300	3.753300	-11.170000	24.466038	0.000542	20.853694
560.158484	-2.964600	3.754400	-11.130000	24.403478	0.000546	20.852098
561.150213	-3.015600	3.751300	-11.311000	24.440865	0.000541	20.845510
562.153937	-3.006400	3.752300	-11.280000	24.410367	0.000543	20.843363
563.152485	-2.995800	3.752700	-11.241000	24.442260	0.000540	20.837901
564.162448	-2.992700	3.752700	-11.229000	24.455814	0.000542	20.858135
565.153587	-2.997800	3.751300	-11.245000	24.471063	0.000541	20.859684
566.158776	-3.017000	3.751600	-11.318000	24.469199	0.000544	20.847383
567.176913	-3.011400	3.751500	-11.296000	24.474396	0.000543	20.843588
568.159700	-3.027200	3.751500	-11.356000	24.485342	0.000543	20.859785
569.161443	-2.982100	3.751400	-11.187000	24.481636	0.000542	20.852274
570.154198	-3.003700	3.751700	-11.267000	24.479747	0.000543	20.842793
571.161895	-2.995700	3.751100	-11.236000	24.506287	0.000543	20.873686
572.154432	-2.986100	3.750300	-11.198000	24.552999	0.000544	20.843741
573.161402	-2.994000	3.750100	-11.226000	24.571132	0.000543	20.833486
574.155958	-2.974900	3.749700	-11.154000	24.580830	0.000545	20.851752
575.159137	-2.995500	3.749600	-11.231000	24.599658	0.000543	20.839824
576.155230	-2.985400	3.750300	-11.196000	24.587498	0.000542	20.828097
577.152740	-3.002200	3.749000	-11.255000	24.575634	0.000542	20.838478
578.158988	-2.991900	3.749100	-11.216000	24.563275	0.000543	20.866853
579.159832	-3.008500	3.747800	-11.273000	24.549695	0.000543	20.813400
580.191741	-2.982600	3.748500	-11.179000	24.604361	0.000541	20.835534
581.155816	-3.002700	3.747500	-11.252000	24.594361	0.000543	20.831190
582.158969	-2.995300	3.748200	-11.225000	24.538799	0.000542	20.845141
583.159721	-2.972300	3.747800	-11.139000	24.492710	0.000541	20.847263
584.161048	-2.993400	3.747500	-11.217000	24.465026	0.000541	20.846516
585.163508	-2.980500	3.748300	-11.171000	24.453659	0.000541	20.843172
586.158620	-3.005800	3.746900	-11.262000	24.489748	0.000543	20.855671
587.177893	-2.999200	3.746500	-11.236000	24.519994	0.000543	20.828171
588.175004	-2.999600	3.745800	-11.236000	24.555811	0.000541	20.842770
589.175393	-3.025400	3.744000	-11.327000	24.559592	0.000542	20.826175
590.178888	-3.014100	3.745100	-11.288000	24.589861	0.000542	20.848959
591.178360	-3.003300	3.745100	-11.246000	24.612392	0.000541	20.850704
592.191073	-2.991600	3.745400	-11.204000	24.638830	0.000540	20.817964
593.185326	-2.998000	3.745600	-11.229000	24.606449	0.000542	20.831940
594.176823	-2.994100	3.744000	-11.209000	24.615426	0.000542	20.826248
595.190724	-2.988900	3.745900	-11.195000	24.608763	0.000540	20.837105
596.176456	-2.991100	3.744700	-11.200000	24.583069	0.000542	20.837404
597.177307	-2.983100	3.744000	-11.168000	24.563445	0.000541	20.861808
598.188457	-2.987100	3.743800	-11.182000	24.562675	0.000539	20.849182
599.162552	-3.005800	3.743300	-11.251000	24.600480	0.000540	20.833536
600.164931	-2.997700	3.743500	-11.221000	24.576006	0.000541	20.826523
601.183024	-3.019500	3.742100	-11.298000	24.586326	0.000540	20.836878
602.183441	-2.986200	3.743700	-11.179000	24.626022	0.000539	20.841147
603.170228	-3.013000	3.741000	-11.270000	24.680214	0.000539	20.826774
604.188212	-3.000600	3.741600	-11.227000	24.655742	0.000539	20.841097
605.197777	-2.993400	3.743400	-11.204000	24.659349	0.000541	20.842820
606.185261	-2.992100	3.742100	-11.195000	24.636667	0.000539	20.817216
607.184709	-3.016500	3.740100	-11.281000	24.630646	0.000536	20.832985
608.182296	-3.000400	3.740600	-11.223000	24.616621	0.000542	20.827921
609.173792	-3.015800	3.740300	-11.279000	24.647061	0.000538	20.827645
610.169138	-3.008400	3.740100	-11.251000	24.684814	0.000538	20.831389
611.170379	-3.016800	3.738500	-11.277000	24.711350	0.000539	20.825302
612.167413	-3.007100	3.741000	-11.249000	24.698393	0.000540	20.826523
613.171959	-3.018200	3.740900	-11.290000	24.689986	0.000540	20.827097
614.169966	-3.011800	3.740200	-11.264000	24.679193	0.000542	20.835232
615.186304	-3.007800	3.739500	-11.246000	24.640122	0.000540	20.837751
616.187959	-2.987100	3.738800	-11.166000	24.649050	0.000539	20.830590
617.190685	-2.986100	3.739900	-11.167000	24.634899	0.000539	20.830140
618.189103	-2.994500	3.738400	-11.194000	24.615597	0.000538	20.812670
619.196699	-2.984800	3.739600	-11.161000	24.595228	0.000539	20.835853
620.184782	-3.019100	3.737700	-11.284000	24.628255	0.000539	20.841965
621.191127	-3.008700	3.737100	-11.243000	24.571598	0.000538	20.836325
622.201300	-2.969000	3.738000	-11.096000	24.577865	0.000537	20.820329
623.201280	-3.005000	3.736700	-11.228000	24.542148	0.000539	20.818157
624.197436	-2.998100	3.738500	-11.208000	24.550333	0.000539	20.795074
625.174122	-2.972100	3.736700	-11.105000	24.548938	0.000538	20.834926
626.173390	-2.989000	3.736500	-11.168000	24.610470	0.000539	20.838344
627.175028	-3.022500	3.735200	-11.288000	24.639515	0.000538	20.811539
628.196409	-3.018100	3.735400	-11.273000	24.639565	0.000537	20.827710
629.191398	-3.006500	3.735200	-11.229000	24.694027	0.000539	20.832574
630.175921	-2.999600	3.735300	-11.203000	24.683234	0.000539	20.821269
631.175696	-3.003300	3.734100	-11.214000	24.682014	0.000537	20.834744
632.178113	-3.003200	3.735900	-11.218000	24.714044	0.000536	20.812832
633.178892	-2.986700	3.734000	-11.151000	24.710687	0.000536	20.816101
634.181364	-2.980800	3.735300	-11.133000	24.670919	0.000536	20.812705
635.201374	-2.997200	3.733700	-11.189000	24.665346	0.000535	20.804742
636.203390	-2.988300	3.733600	-11.156000	24.690788	0.000536	20.815099
637.194926	-3.000300	3.733000	-11.199000	24.703271	0.000536	20.822884
638.179227	-3.012500	3.732500	-11.243000	24.691308	0.000537	20.831268
639.201756	-2.992100	3.733000	-11.169000	24.733658	0.000537	20.824454
640.199681	-3.011800	3.731500	-11.237000	24.726321	0.000536	20.828471
641.181849	-3.019100	3.732700	-11.269000	24.738804	0.000535	20.819187
642.183166	-2.972700	3.731900	-11.093000	24.743754	0.000535	20.819412
643.183374	-3.004100	3.732600	-11.212000	24.727588	0.000536	20.802716
644.184681	-2.996200	3.732600	-11.182000	24.753051	0.000535	20.806931
645.181973	-3.001000	3.731200	-11.197000	24.719729	0.000534	20.807157
646.180922	-3.031500	3.729200	-11.304000	24.729899	0.000536	20.811199
647.182313	-2.984100	3.732300	-11.137000	24.677795	0.000534	20.814864
648.184854	-3.035100	3.729500	-11.317000	24.663347	0.000536	20.801788
649.186929	-3.020200	3.729600	-11.263000	24.616965	0.000535	20.807404
650.207383	-2.983200	3.731100	-11.130000	24.649894	0.000534	20.787814
651.204052	-2.996800	3.729600	-11.177000	24.691350	0.000534	20.799068
652.184213	-2.996200	3.730300	-11.176000	24.741014	0.000535	20.791059
653.213490	-2.970900	3.729800	-11.080000	24.689806	0.000534	20.797519
654.212594	-3.006700	3.729100	-11.211000	24.672573	0.000534	20.806778
655.206204	-3.009100	3.728700	-11.219000	24.700998	0.000533	20.794051
656.206536	-3.015300	3.729600	-11.245000	24.671601	0.000536	20.781147
657.183270	-3.005700	3.728400	-11.206000	24.699529	0.000536	20.808224
658.213840	-2.974300	3.729800	-11.092000	24.695078	0.000535	20.794749
659.189368	-2.991900	3.728800	-11.154000	24.686400	0.000534	20.798368
660.191129	-2.993100	3.728000	-11.158000	24.699851	0.000535	20.794796
661.195284	-3.004300	3.729000	-11.202000	24.730836	0.000534	20.816407
662.187897	-2.992000	3.727900	-11.153000	24.747274	0.000533	20.815359
663.187061	-3.011900	3.726400	-11.223000	24.738543	0.000533	20.787631
664.185201	-3.001200	3.727900	-11.186000	24.733347	0.000534	20.799012
665.194401	-2.994900	3.726600	-11.160000	24.775995	0.000535	20.783015
666.187249	-3.027900	3.725600	-11.280000	24.777286	0.000534	20.799484
667.191373	-3.023000	3.726000	-11.263000	24.760127	0.000533	20.783212
668.189232	-3.017100	3.724100	-11.236000	24.788723	0.000534	20.801479
669.207040	-3.035300	3.724500	-11.303000	24.782430	0.000533	20.787103
670.201794	-2.992600	3.725000	-11.146000	24.771264	0.000532	20.808614
671.206080	-2.983700	3.725700	-11.116000	24.783821	0.000533	20.800827
672.208453	-3.014600	3.723800	-11.225000	24.807991	0.000533	20.807065
673.188560	-3.005500	3.725800	-11.197000	24.808563	0.000533	20.791992
674.187680	-2.982600	3.725000	-11.110000	24.785835	0.000532	20.798106
675.203925	-2.988600	3.724500	-11.129000	24.747935	0.000532	20.794686
676.211209	-3.004800	3.724100	-11.190000	24.759822	0.000533	20.796183
677.206247	-2.998500	3.723900	-11.165000	24.777850	0.000532	20.790093
678.193088	-3.016600	3.724500	-11.235000	24.740052	0.000532	20.808111
679.188296	-3.003900	3.724200	-11.186000	24.754003	0.000531	20.782283
680.209365	-2.996700	3.723500	-11.157000	24.779416	0.000532	20.785501
681.210149	-3.007400	3.722500	-11.195000	24.804257	0.000530	20.798102
682.210556	-3.014600	3.721900	-11.220000	24.838697	0.000531	20.806587
683.209617	-3.023700	3.720600	-11.249000	24.862445	0.000533	20.785376
684.192451	-3.015600	3.720300	-11.218000	24.881590	0.000529	20.787048
685.194406	-2.985500	3.722900	-11.114000	24.877786	0.000534	20.797454
686.191999	-3.010600	3.722000	-11.204000	24.829597	0.000532	20.808360
687.210309	-2.978000	3.721800	-11.082000	24.783890	0.000533	20.792361
688.215327	-3.008700	3.721300	-11.195000	24.744203	0.000532	20.793311
689.215332	-2.998800	3.722600	-11.163000	24.790529	0.000531	20.789541
690.222064	-3.005800	3.721700	-11.186000	24.772177	0.000533	20.763536
691.216418	-3.016100	3.720800	-11.222000	24.823403	0.000531	20.781755
692.224901	-2.994900	3.721200	-11.144000	24.837276	0.000532	20.791411
693.214338	-3.011000	3.719900	-11.200000	24.856097	0.000530	20.809826
694.228854	-3.017600	3.719800	-11.224000	24.816587	0.000529	20.800045
695.215230	-2.992300	3.719700	-11.129000	24.782219	0.000529	20.797796
696.217939	-3.000600	3.720800	-11.163000	24.776776	0.000532	20.788067
697.194392	-2.996500	3.720500	-11.148000	24.776999	0.000529	20.776910
698.228571	-3.001000	3.718100	-11.157000	24.803183	0.000530	20.783273
699.214669	-3.004900	3.717900	-11.171000	24.821957	0.000528	20.782201
700.213576	-2.981700	3.719300	-11.089000	24.835556	0.000528	20.793003
701.230121	-3.002000	3.717800	-11.159000	24.798853	0.000530	20.790782
702.216018	-3.008300	3.718200	-11.184000	24.815764	0.000529	20.796374
703.223091	-3.005400	3.716500	-11.168000	24.839135	0.000530	20.793751
704.218321	-3.003800	3.716600	-11.163000	24.853109	0.000529	20.783119
705.215116	-2.979900	3.718000	-11.079000	24.843534	0.000529	20.783941
706.230114	-3.013500	3.717500	-11.202000	24.844429	0.000526	20.784365
707.222652	-2.991100	3.716800	-11.117000	24.805888	0.000527	20.775083
708.220736	-2.985500	3.717200	-11.096000	24.859746	0.000528	20.789306
709.220049	-3.014600	3.716000	-11.202000	24.892814	0.000524	20.792149
710.214802	-2.990000	3.714900	-11.107000	24.931975	0.000527	20.780245
711.220185	-3.007400	3.714800	-11.171000	24.933737	0.000526	20.785333
712.218510	-3.008000	3.714700	-11.173000	24.936275	0.000525	20.803052
713.222062	-2.982600	3.715100	-11.080000	24.962977	0.000528	20.777222
714.228250	-3.032800	3.714000	-11.263000	24.979162	0.000527	20.801529
715.227722	-2.982400	3.715800	-11.081000	24.976575	0.000526	20.790872
716.218430	-2.982400	3.715300	-11.080000	24.929185	0.000528	20.787402
717.220958	-3.009600	3.713900	-11.176000	24.898329	0.000526	20.779666
718.203116	-2.999000	3.714800	-11.139000	24.858992	0.000528	20.798980
719.206230	-2.976900	3.714100	-11.055000	24.902829	0.000526	20.792243
720.219809	-2.978700	3.714100	-11.062000	24.913768	0.000527	20.790421
721.229917	-2.985000	3.715300	-11.090000	24.920058	0.000527	20.790570
722.208459	-2.992200	3.712500	-11.107000	24.911656	0.000526	20.768860
723.229141	-2.987200	3.714300	-11.094000	24.895569	0.000525	20.784008
724.226547	-3.022000	3.712700	-11.219000	24.854989	0.000526	20.793067
725.229095	-2.993600	3.713200	-11.114000	24.871698	0.000524	20.803198
726.229619	-2.992300	3.711700	-11.106000	24.879754	0.000524	20.791369
727.219416	-2.978000	3.712000	-11.054000	24.829302	0.000524	20.782459
728.222559	-3.015600	3.711900	-11.193000	24.838827	0.000523	20.801502
729.226896	-3.001600	3.710500	-11.136000	24.862773	0.000523	20.789973
730.205130	-2.979200	3.711700	-11.057000	24.875302	0.000524	20.793065
731.226402	-2.994900	3.710400	-11.111000	24.861156	0.000524	20.801626
732.222695	-3.032800	3.710000	-11.250000	24.841835	0.000522	20.793615
733.205052	-2.987500	3.712700	-11.091000	24.859439	0.000523	20.787102
734.226968	-2.987900	3.710600	-11.086000	24.887040	0.000523	20.787302
735.232505	-3.015100	3.709300	-11.183000	24.894822	0.000522	20.771879
736.229777	-3.006100	3.710000	-11.152000	24.929257	0.000521	20.813079
737.220294	-3.010800	3.710700	-11.172000	24.993429	0.000522	20.796409
738.234392	-3.010600	3.708900	-11.165000	24.993307	0.000524	20.800554
739.222553	-2.989900	3.710000	-11.092000	24.987910	0.000522	20.814103
740.226235	-2.973400	3.709600	-11.030000	24.975903	0.000521	20.811534
741.226334	-2.986100	3.710000	-11.078000	24.940795	0.000521	20.786727
742.226967	-3.006000	3.708900	-11.148000	24.897607	0.000523	20.797434
743.210618	-2.975100	3.708500	-11.032000	24.893875	0.000519	20.807439
744.226608	-2.996300	3.708400	-11.110000	24.879133	0.000522	20.806867
745.230753	-3.006500	3.707900	-11.146000	24.932316	0.000521	20.791019
746.235972	-2.996700	3.707800	-11.109000	24.958548	0.000522	20.803598
747.241219	-2.998200	3.706600	-11.112000	24.999570	0.000522	20.808737
748.224912	-3.007700	3.706100	-11.146000	25.015806	0.000520	20.816499
749.239934	-3.010100	3.706100	-11.154000	25.011802	0.000521	20.798256
750.216055	-3.005100	3.707400	-11.140000	24.979507	0.000521	20.783383
751.231686	-2.998200	3.706400	-11.111000	24.982539	0.000519	20.818195
752.232656	-3.007800	3.706900	-11.149000	24.948950	0.000520	20.786377
753.233996	-3.026200	3.705500	-11.213000	24.944473	0.000521	20.808437
754.239548	-3.001100	3.705000	-11.118000	24.925404	0.000520	20.777443
755.242032	-2.985200	3.706200	-11.062000	24.933583	0.000518	20.805093
756.213492	-3.015100	3.704000	-11.166000	24.880697	0.000517	20.783781
757.231493	-2.986900	3.705300	-11.066000	24.907052	0.000518	20.783679
758.238846	-3.005600	3.704400	-11.134000	24.925055	0.000517	20.790369
759.233678	-2.981700	3.703400	-11.041000	24.954318	0.000520	20.806464
760.230078	-2.999900	3.703200	-11.109000	25.000985	0.000520	20.811580
761.230384	-3.006100	3.703500	-11.132000	24.993874	0.000516	20.817719
762.216567	-3.007900	3.702500	-11.136000	25.013491	0.000516	20.802797
763.216581	-2.994000	3.702900	-11.085000	25.034123	0.000518	20.807385
764.248220	-2.988200	3.704000	-11.067000	25.015851	0.000515	20.789044
765.219668	-3.005400	3.703200	-11.129000	25.022937	0.000517	20.810381
766.236501	-2.986400	3.702100	-11.055000	24.989572	0.000517	20.798701
767.238320	-3.024100	3.702300	-11.195000	25.010332	0.000516	20.810530
768.216449	-2.996400	3.702700	-11.093000	25.008791	0.000517	20.824156
769.216338	-2.991800	3.703000	-11.077000	24.977389	0.000518	20.803542
770.229331	-2.995100	3.700400	-11.082000	24.994867	0.000514	20.795482
771.223444	-3.007100	3.701400	-11.130000	24.987012	0.000515	20.803244
772.219920	-3.005100	3.701100	-11.121000	25.047873	0.000515	20.824032
773.218973	-3.004500	3.700700	-11.118000	25.039544	0.000516	20.814249
774.223476	-2.988400	3.701500	-11.060000	24.990863	0.000516	20.795256
775.215236	-3.017200	3.701000	-11.166000	25.019032	0.000515	20.812626
776.221821	-3.027100	3.699500	-11.198000	25.018659	0.000515	20.824579
777.219857	-3.006200	3.699600	-11.120000	24.989817	0.000514	20.814121
778.246367	-2.994700	3.700000	-11.079000	24.946782	0.000513	20.804590
779.241184	-3.013600	3.699500	-11.147000	24.934749	0.000516	20.812901
780.238331	-2.992200	3.699900	-11.070000	24.949790	0.000516	20.831316
781.236211	-3.002200	3.699500	-11.106000	24.960705	0.000515	20.809081
782.234425	-2.997500	3.698800	-11.086000	24.952325	0.000513	20.820585
783.235373	-2.992000	3.699900	-11.069000	24.952400	0.000514	20.821608
784.233851	-2.980600	3.698400	-11.023000	24.964830	0.000514	20.808481
785.246962	-2.998400	3.697700	-11.086000	24.984846	0.000513	20.810079
786.236852	-2.972800	3.698000	-10.992000	25.012170	0.000514	20.811901
787.221793	-3.011400	3.697800	-11.134000	25.022436	0.000512	20.834060
788.222458	-2.989500	3.697800	-11.053000	25.068577	0.000513	20.822055
789.221474	-2.986800	3.696900	-11.040000	25.040038	0.000512	20.808106
790.220356	-2.979800	3.698500	-11.020000	25.092417	0.000512	20.811848
791.223073	-3.010200	3.696300	-11.126000	25.058734	0.000510	20.828770
792.220873	-3.003200	3.695800	-11.098000	25.035712	0.000510	20.830790
793.242193	-3.016400	3.695700	-11.146000	25.006075	0.000511	20.819534
794.257375	-3.011300	3.695100	-11.126000	25.025990	0.000510	20.819610
795.221268	-3.031600	3.694800	-11.200000	25.065295	0.000509	20.820658
796.240572	-3.011500	3.695200	-11.127000	25.088315	0.000511	20.826695
797.247742	-3.009100	3.695000	-11.117000	25.065269	0.000511	20.831536
798.246471	-2.969600	3.695300	-10.973000	25.032527	0.000511	20.846085
799.242105	-2.981500	3.695600	-11.018000	24.991056	0.000511	20.841442
800.225555	-2.986100	3.694200	-11.031000	25.033619	0.000510	20.819207
801.237809	-3.012000	3.692900	-11.121000	25.071706	0.000511	20.822352
802.246392	-3.003900	3.693500	-11.094000	25.127691	0.000511	20.825447
803.252380	-2.984900	3.694900	-11.028000	25.156651	0.000509	20.850251
804.251981	-3.021300	3.693100	-11.157000	25.155804	0.000510	20.829013
805.244320	-2.997900	3.693400	-11.072000	25.113345	0.000511	20.863674
806.246368	-2.998700	3.693600	-11.075000	25.128510	0.000507	20.821054
807.230359	-2.987200	3.692800	-11.029000	25.117942	0.000508	20.824669
808.244982	-2.999600	3.693800	-11.079000	25.079112	0.000509	20.835475
809.253435	-2.982200	3.692500	-11.011000	25.038937	0.000508	20.845881
810.244571	-2.983400	3.693900	-11.019000	24.996273	0.000507	20.837196
811.226336	-3.000300	3.692500	-11.078000	25.034112	0.000507	20.862374
812.245201	-3.005000	3.691700	-11.092000	25.072522	0.000508	20.842610
813.226532	-2.981400	3.692200	-11.007000	25.107425	0.000507	20.838767
814.232600	-2.992300	3.692900	-11.049000	25.072844	0.000507	20.826338
815.229480	-2.970200	3.692900	-10.967000	25.052733	0.000508	20.834599
816.245669	-3.012700	3.690700	-11.118000	25.049998	0.000508	20.832802
817.245944	-3.000600	3.690800	-11.074000	25.100440	0.000506	20.829858
818.245832	-2.986400	3.690800	-11.021000	25.099047	0.000506	20.841262
819.226766	-2.997700	3.690700	-11.062000	25.087264	0.000505	20.834649
820.231184	-3.003500	3.690700	-11.084000	25.077792	0.000506	20.831779
821.253532	-3.004600	3.690600	-11.088000	25.066779	0.000506	20.842535
822.256567	-3.008900	3.689700	-11.101000	25.038288	0.000503	20.863720
823.232523	-2.994700	3.690000	-11.050000	25.011711	0.000504	20.823769
824.256744	-3.019300	3.688300	-11.135000	25.033315	0.000502	20.826488
825.256170	-2.984700	3.689200	-11.010000	25.054496	0.000505	20.852965
826.263071	-2.995100	3.687500	-11.044000	25.086616	0.000503	20.849646
827.256118	-3.010700	3.688200	-11.103000	25.050320	0.000504	20.845927
828.260667	-2.995100	3.688200	-11.046000	25.054373	0.000501	20.843832
829.235062	-2.994500	3.688300	-11.044000	25.043708	0.000504	20.833127
830.253098	-3.016100	3.688200	-11.123000	25.070059	0.000502	20.841086
831.261721	-2.995000	3.687400	-11.042000	25.095442	0.000501	20.850919
832.248376	-3.000800	3.686900	-11.063000	25.084304	0.000501	20.840687
833.256063	-3.006500	3.688000	-11.086000	25.137580	0.000501	20.851494
834.255620	-2.999800	3.687400	-11.061000	25.059296	0.000501	20.833601
835.254473	-2.973700	3.687200	-10.964000	25.050967	0.000501	20.840887
836.235615	-2.993000	3.687200	-11.035000	25.053529	0.000500	20.860053
837.234529	-3.002300	3.686300	-11.067000	25.096139	0.000501	20.869161
838.239562	-3.012700	3.685600	-11.102000	25.128158	0.000499	20.857683
839.234993	-2.976400	3.685700	-10.969000	25.091591	0.000500	20.852268
840.236823	-2.987400	3.686500	-11.013000	25.086966	0.000499	20.849523
841.259726	-2.991400	3.685300	-11.024000	25.109416	0.000499	20.855937
842.237361	-2.980400	3.684400	-10.979000	25.124629	0.000498	20.861252
843.258771	-3.012300	3.683800	-11.096000	25.125128	0.000499	20.866020
844.238369	-2.995700	3.685900	-11.041000	25.138454	0.000496	20.843363
845.235881	-3.006500	3.683700	-11.074000	25.114143	0.000497	20.852148
846.239694	-2.965600	3.685100	-10.928000	25.144594	0.000499	20.829613
847.237973	-2.980000	3.684100	-10.978000	25.170447	0.000497	20.871686
848.238740	-2.998900	3.683200	-11.044000	25.137389	0.000497	20.885914
849.256632	-2.980700	3.682600	-10.975000	25.135376	0.000497	20.863980
850.256354	-2.998000	3.682000	-11.038000	25.095030	0.000497	20.854298
851.260709	-2.982000	3.681500	-10.977000	25.057417	0.000496	20.856371
852.247178	-3.002600	3.682100	-11.053000	25.076738	0.000497	20.878134
853.258842	-3.005900	3.682100	-11.067000	25.056874	0.000496	20.858196
854.258099	-3.007500	3.682000	-11.073000	25.107615	0.000496	20.860768
855.243537	-2.968100	3.682100	-10.928000	25.124769	0.000495	20.866608
856.262017	-3.007900	3.681100	-11.071000	25.108636	0.000494	20.885973
857.270967	-2.970600	3.681700	-10.936000	25.108141	0.000494	20.865088
858.263725	-3.008900	3.679900	-11.070000	25.133275	0.000496	20.864715
859.262912	-3.013600	3.680200	-11.089000	25.136457	0.000495	20.859376
860.268409	-3.024900	3.679200	-11.128000	25.181228	0.000494	20.860699
861.261763	-2.996900	3.679500	-11.026000	25.176505	0.000495	20.855483
862.245081	-3.000700	3.679700	-11.041000	25.175609	0.000495	20.859326
863.269751	-2.976000	3.680100	-10.950000	25.149509	0.000495	20.860624
864.269885	-3.003100	3.678400	-11.046000	25.171583	0.000496	20.875198
865.247392	-3.006000	3.678700	-11.057000	25.147248	0.000494	20.869260
866.267910	-3.010800	3.678100	-11.073000	25.153190	0.000495	20.885655
867.267488	-2.992300	3.678400	-11.005000	25.160225	0.000494	20.866166
868.266341	-2.998000	3.679100	-11.029000	25.166714	0.000493	20.887852
869.249677	-3.011000	3.677500	-11.072000	25.161916	0.000492	20.888725
870.248465	-3.008600	3.677000	-11.062000	25.192890	0.000493	20.889949
871.247077	-3.008200	3.677600	-11.062000	25.214490	0.000492	20.881288
872.249382	-3.003600	3.676700	-11.041000	25.229553	0.000493	20.881713
873.250462	-2.987400	3.677200	-10.984000	25.204524	0.000492	20.881715
874.255970	-2.995300	3.676200	-11.011000	25.201367	0.000494	20.879967
875.249546	-2.999200	3.675400	-11.022000	25.157690	0.000491	20.871682
876.264196	-2.995100	3.677000	-11.012000	25.148842	0.000491	20.900255
877.271778	-2.992900	3.675800	-11.001000	25.132955	0.000492	20.881462
878.285053	-2.994300	3.675300	-11.004000	25.092237	0.000492	20.868089
879.270660	-2.988800	3.677200	-10.989000	25.074212	0.000492	20.866591
880.252724	-2.997800	3.674400	-11.014000	25.065536	0.000490	20.879692
881.252694	-2.991900	3.674700	-10.994000	25.089154	0.000491	20.889649
882.253414	-3.013200	3.674700	-11.072000	25.138449	0.000492	20.881763
883.275592	-3.001900	3.675300	-11.033000	25.160623	0.000488	20.877945
884.276384	-3.017500	3.673300	-11.083000	25.187421	0.000490	20.885406
885.254662	-3.009700	3.673400	-11.055000	25.254186	0.000492	20.879417
886.272930	-2.994500	3.674200	-11.002000	25.218938	0.000489	20.897607
887.254302	-2.990600	3.674300	-10.987000	25.172926	0.000490	20.877494
888.257429	-3.005400	3.672200	-11.036000	25.171808	0.000489	20.884906
889.275806	-3.006500	3.673200	-11.042000	25.220751	0.000490	20.893264
890.272112	-2.977600	3.673400	-10.937000	25.248840	0.000489	20.903920
891.273310	-3.006200	3.672200	-11.038000	25.295546	0.000488	20.893442
892.271256	-3.021700	3.670700	-11.091000	25.299919	0.000489	20.882185
893.278641	-3.013300	3.671400	-11.062000	25.310483	0.000487	20.883309
894.285948	-2.991100	3.672900	-10.985000	25.309986	0.000488	20.888026
895.278725	-3.006100	3.671400	-11.036000	25.247574	0.000486	20.894589
896.260298	-3.002600	3.670900	-11.022000	25.213345	0.000488	20.885829
897.256305	-3.003900	3.671700	-11.029000	25.197263	0.000488	20.891019
898.259144	-3.001300	3.670000	-11.014000	25.191546	0.000487	20.891918
899.259883	-2.996800	3.671500	-11.002000	25.192266	0.000487	20.899752
900.256592	-3.005200	3.669600	-11.027000	25.227192	0.000486	20.899255
901.261077	-3.001500	3.670600	-11.016000	25.250830	0.000485	20.901176
902.257416	-3.030700	3.669200	-11.119000	25.243722	0.000485	20.905893
903.258176	-3.002200	3.669100	-11.015000	25.221498	0.000486	20.899228
904.258740	-3.009300	3.668900	-11.040000	25.237432	0.000483	20.909535
905.259760	-3.002000	3.668100	-11.010000	25.275487	0.000484	20.913603
906.262077	-2.995500	3.667800	-10.986000	25.298553	0.000484	20.913054
907.261661	-2.999500	3.667400	-11.000000	25.311826	0.000483	20.924482
908.274000	-2.993900	3.668800	-10.983000	25.341875	0.000482	20.900129
909.279294	-3.015700	3.668300	-11.062000	25.372943	0.000482	20.913304
910.277462	-3.001900	3.668000	-11.010000	25.371079	0.000483	20.925656
911.274576	-2.994600	3.667700	-10.982000	25.341133	0.000482	20.914555
912.258765	-3.011000	3.665400	-11.035000	25.318069	0.000482	20.889503
913.276856	-3.021800	3.666200	-11.077000	25.303357	0.000482	20.914084
914.287436	-2.988800	3.667400	-10.961000	25.323239	0.000482	20.910339
915.261987	-2.995600	3.665900	-10.980000	25.337260	0.000480	20.925837
916.264997	-2.981400	3.667700	-10.934000	25.307061	0.000483	20.904528
917.263683	-3.006700	3.666100	-11.022000	25.286356	0.000481	20.920722
918.262744	-3.011700	3.665400	-11.037000	25.281339	0.000480	20.924692
919.263243	-3.001900	3.666400	-11.005000	25.252281	0.000479	20.928235
920.263842	-3.008100	3.665200	-11.025000	25.238039	0.000480	20.913463
921.262881	-2.984700	3.664000	-10.935000	25.289346	0.000480	20.920878
922.267319	-2.972400	3.667400	-10.900000	25.272493	0.000479	20.919131
923.281769	-3.004300	3.665000	-11.010000	25.232202	0.000479	20.925145
924.271935	-2.985500	3.664000	-10.938000	25.235805	0.000479	20.908376
925.270734	-3.011700	3.664800	-11.037000	25.254646	0.000476	20.909748
926.282260	-2.993200	3.663300	-10.964000	25.276820	0.000479	20.911622
927.272331	-2.995400	3.664100	-10.975000	25.254275	0.000477	20.928814
928.272328	-2.996400	3.663600	-10.977000	25.245052	0.000477	20.918133
929.287453	-2.998900	3.662500	-10.982000	25.268119	0.000477	20.924222
930.290381	-3.013700	3.662000	-11.035000	25.250893	0.000477	20.911196
931.287126	-2.992700	3.663900	-10.964000	25.263296	0.000475	20.924595
932.290770	-2.998200	3.663000	-10.981000	25.263246	0.000476	20.910322
933.294336	-2.996500	3.662200	-10.973000	25.251093	0.000476	20.927042
934.273036	-3.015000	3.662100	-11.040000	25.243087	0.000473	20.923746
935.272436	-3.011700	3.660500	-11.024000	25.254399	0.000473	20.930360
936.280028	-3.005500	3.660800	-11.002000	25.247637	0.000474	20.926417
937.275625	-3.000700	3.660200	-10.981000	25.293819	0.000471	20.943385
938.273532	-2.998400	3.659900	-10.972000	25.312362	0.000473	20.920280
939.289598	-3.016800	3.659700	-11.039000	25.359311	0.000474	20.915738
940.293992	-3.004000	3.658700	-10.990000	25.355907	0.000474	20.954514
941.274208	-2.994400	3.659900	-10.958000	25.389634	0.000473	20.912994
942.278409	-3.013100	3.659800	-11.027000	25.362021	0.000471	20.924622
943.278368	-2.999300	3.659400	-10.975000	25.292876	0.000472	20.950498
944.277596	-2.988600	3.659300	-10.935000	25.308436	0.000472	20.949999
945.277270	-2.993400	3.657900	-10.949000	25.274908	0.000472	20.943364
946.282509	-3.014800	3.657500	-11.025000	25.322630	0.000471	20.941966
947.300426	-2.992900	3.658100	-10.948000	25.329119	0.000470	20.924776
948.281697	-2.993600	3.658200	-10.950000	25.324818	0.000472	20.928992
949.276995	-2.983800	3.656900	-10.911000	25.275582	0.000469	20.933136
950.280262	-2.973800	3.657200	-10.875000	25.280453	0.000472	20.933759
951.278337	-2.977200	3.658500	-10.891000	25.341199	0.000470	20.931689
952.278483	-2.995700	3.657300	-10.955000	25.356063	0.000470	20.931440
953.280791	-3.008100	3.656300	-10.997000	25.394265	0.000469	20.930919
954.279815	-2.989100	3.656900	-10.930000	25.403732	0.000469	20.929045
955.278635	-2.999400	3.656400	-10.966000	25.382482	0.000471	20.932838
956.296006	-2.995200	3.655400	-10.948000	25.363769	0.000469	20.933014
957.280912	-2.991400	3.655300	-10.933000	25.366130	0.000469	20.924954
958.280561	-3.011600	3.654700	-11.005000	25.281897	0.000470	20.938527
959.282702	-2.985700	3.656600	-10.916000	25.264848	0.000469	20.956021
960.281656	-3.009700	3.654100	-10.996000	25.260993	0.000468	20.927973
961.281030	-3.006500	3.653300	-10.982000	25.244365	0.000467	20.938303
962.282670	-3.002100	3.654000	-10.968000	25.257689	0.000467	20.918018
963.282201	-3.017300	3.654000	-11.024000	25.293581	0.000468	20.926078
964.283556	-3.002400	3.653800	-10.970000	25.358401	0.000468	20.931892
965.293869	-3.019700	3.653200	-11.030000	25.374009	0.000467	20.922434
966.303933	-2.985800	3.654600	-10.911000	25.340158	0.000466	20.914998
967.306284	-2.980700	3.653400	-10.889000	25.314981	0.000465	20.926701
968.303735	-3.000600	3.652300	-10.958000	25.316150	0.000464	20.937357
969.300054	-2.990000	3.652400	-10.919000	25.329669	0.000465	20.922484
970.306249	-2.989600	3.654100	-10.924000	25.330688	0.000464	20.903120
971.300996	-3.007000	3.653000	-10.984000	25.327880	0.000464	20.909309
972.303582	-3.005900	3.651800	-10.976000	25.340257	0.000465	20.909408
973.306468	-2.989600	3.652700	-10.919000	25.332528	0.000465	20.920613
974.308679	-3.004200	3.650100	-10.965000	25.322811	0.000467	20.893789
975.306545	-3.010000	3.650900	-10.988000	25.330067	0.000464	20.905342
976.304368	-3.020200	3.649700	-11.022000	25.290374	0.000465	20.940875
977.303414	-2.985200	3.650900	-10.898000	25.316820	0.000465	20.920488
978.291603	-2.993900	3.650300	-10.928000	25.354574	0.000462	20.908611
979.291676	-2.963600	3.652200	-10.822000	25.359222	0.000463	20.905218
980.287953	-3.005900	3.650200	-10.971000	25.368369	0.000463	20.917246
981.286607	-3.008500	3.649900	-10.980000	25.336978	0.000462	20.895686
982.290221	-3.000300	3.648900	-10.947000	25.334866	0.000462	20.907315
983.288836	-3.001100	3.649100	-10.951000	25.386388	0.000461	20.891245
984.312121	-3.005900	3.648700	-10.966000	25.438006	0.000463	20.885704
985.296365	-3.007000	3.648000	-10.969000	25.445882	0.000462	20.903096
986.312239	-3.021300	3.647800	-11.020000	25.406868	0.000461	20.937883
987.290987	-3.006700	3.648400	-10.968000	25.427096	0.000459	20.922635
988.313242	-2.997800	3.646100	-10.929000	25.382833	0.000460	20.903321
989.316827	-2.998100	3.646200	-10.931000	25.343713	0.000459	20.895810
990.314720	-3.017300	3.647100	-11.003000	25.376269	0.000461	20.874922
991.315977	-3.012000	3.646200	-10.982000	25.428162	0.000459	20.887673
992.309246	-2.988600	3.647500	-10.900000	25.443672	0.000458	20.898980
993.313763	-2.998400	3.644800	-10.927000	25.422671	0.000459	20.914400
994.310354	-3.003500	3.644700	-10.946000	25.432014	0.000457	20.903394
995.310763	-2.991000	3.645600	-10.903000	25.449510	0.000457	20.892514
996.311172	-3.017000	3.644200	-10.993000	25.438150	0.000457	20.876367
997.316693	-2.999700	3.645100	-10.933000	25.427688	0.000457	20.891939
998.294974	-3.008300	3.645700	-10.967000	25.374478	0.000455	20.894932
999.292232	-2.994900	3.644600	-10.914000	25.381909	0.000457	20.884378
1000.295553	-3.006000	3.645100	-10.956000	25.381660	0.000456	20.886024
1001.293365	-3.006900	3.644600	-10.956000	25.396197	0.000458	20.891612
1002.294774	-2.990400	3.644600	-10.898000	25.427859	0.000454	20.909653
1003.307525	-3.017800	3.643600	-10.995000	25.415358	0.000453	20.879558
1004.291392	-3.003200	3.643900	-10.943000	25.413766	0.000455	20.895028
1005.293689	-3.022100	3.642400	-11.006000	25.369953	0.000452	20.888968
1006.312318	-3.001500	3.642100	-10.931000	25.338436	0.000454	20.863013
1007.319184	-3.009800	3.641500	-10.959000	25.311047	0.000455	20.896202
1008.296515	-3.003900	3.642900	-10.942000	25.308910	0.000452	20.882678
1009.297352	-2.986700	3.641900	-10.876000	25.330285	0.000452	20.888018
1010.296968	-3.017900	3.642600	-10.992000	25.363637	0.000451	20.894005
1011.315567	-3.002400	3.641500	-10.932000	25.333491	0.000453	20.868479
1012.314192	-3.002100	3.641000	-10.930000	25.321064	0.000450	20.867856
1013.334729	-2.983700	3.640900	-10.862000	25.326309	0.000451	20.864587
1014.316215	-2.998100	3.639100	-10.910000	25.375791	0.000450	20.863537
1015.301637	-2.986800	3.640500	-10.872000	25.404647	0.000450	20.871649
1016.299357	-2.983900	3.639500	-10.858000	25.420851	0.000449	20.876539
1017.303345	-2.982000	3.640200	-10.854000	25.491927	0.000451	20.872523
1018.301159	-2.994900	3.638800	-10.897000	25.511982	0.000450	20.883179
1019.300334	-2.988800	3.640800	-10.880000	25.502585	0.000450	20.887966
1020.303258	-2.986700	3.639200	-10.868000	25.510539	0.000448	20.875092
1021.301897	-3.016600	3.637800	-10.973000	25.481193	0.000445	20.878338
1022.312086	-2.981700	3.638600	-10.847000	25.492449	0.000449	20.886796
1023.326198	-2.975900	3.637200	-10.823000	25.526493	0.000446	20.875941
1024.303320	-3.023300	3.635600	-10.990000	25.487428	0.000444	20.877488
1025.306768	-3.006400	3.637700	-10.935000	25.457360	0.000446	20.881906
1026.302950	-3.011600	3.636300	-10.950000	25.451941	0.000445	20.858922
1027.329374	-3.005100	3.636600	-10.927000	25.482360	0.000446	20.857226
1028.321422	-2.981700	3.636500	-10.841000	25.499531	0.000446	20.870202
1029.328965	-3.004500	3.635500	-10.922000	25.542324	0.000445	20.861968
1030.304641	-3.017700	3.635300	-10.969000	25.516801	0.000446	20.877587
1031.304225	-2.986000	3.636900	-10.859000	25.548460	0.000443	20.862914
1032.309938	-2.991900	3.635700	-10.876000	25.540159	0.000443	20.852682
1033.307680	-3.003000	3.634700	-10.914000	25.514663	0.000444	20.867854
1034.328017	-3.004500	3.634900	-10.920000	25.495453	0.000443	20.876537
1035.306651	-3.017600	3.634000	-10.965000	25.429820	0.000443	20.877960
1036.308166	-2.999000	3.635200	-10.901000	25.343233	0.000443	20.875889
1037.308992	-2.987300	3.633700	-10.854000	25.346986	0.000443	20.860693
1038.331149	-2.992700	3.633300	-10.872000	25.392368	0.000440	20.869751
1039.307890	-3.013700	3.632700	-10.947000	25.387844	0.000443	20.864260
1040.311252	-2.979900	3.633800	-10.826000	25.386351	0.000442	20.859442
1041.309650	-2.990500	3.632900	-10.864000	25.369898	0.000442	20.863310
1042.314964	-3.013100	3.630800	-10.939000	25.361274	0.000439	20.871246
1043.309695	-3.006800	3.631300	-10.918000	25.335001	0.000439	20.872366
1044.310549	-3.019700	3.630700	-10.963000	25.363360	0.000436	20.874761
1045.309940	-3.013700	3.630600	-10.941000	25.395841	0.000439	20.863755
1046.312416	-2.981400	3.630300	-10.823000	25.446465	0.000438	20.862906
1047.338112	-2.976000	3.631600	-10.807000	25.404217	0.000439	20.865053
1048.327426	-3.006100	3.629800	-10.910000	25.408492	0.000438	20.857018
1049.329784	-3.016500	3.629600	-10.948000	25.416394	0.000438	20.855944
1050.326906	-3.012900	3.628800	-10.932000	25.421041	0.000437	20.854447
1051.332358	-2.986000	3.630800	-10.841000	25.421266	0.000439	20.876482
1052.311592	-3.011400	3.629300	-10.929000	25.429914	0.000437	20.856718
1053.333680	-2.988500	3.629400	-10.846000	25.485979	0.000438	20.885989
1054.313814	-2.987400	3.628600	-10.839000	25.537246	0.000437	20.857817
1055.314580	-3.004700	3.627900	-10.899000	25.541022	0.000438	20.861608
1056.316869	-2.962800	3.629000	-10.751000	25.526212	0.000437	20.867598
1057.315738	-3.014200	3.627500	-10.932000	25.498975	0.000434	20.841196
1058.332083	-3.049500	3.625200	-11.054000	25.493658	0.000436	20.865726
1059.326313	-3.000700	3.628100	-10.886000	25.481954	0.000435	20.857767
1060.331695	-3.006300	3.627300	-10.903000	25.439906	0.000436	20.855846
1061.352267	-3.030400	3.626500	-10.989000	25.416915	0.000435	20.863579
1062.358742	-2.988600	3.628400	-10.843000	25.442914	0.000435	20.863134
1063.357405	-3.001400	3.625300	-10.880000	25.459562	0.000435	20.853300
1064.355094	-2.987900	3.625100	-10.829000	25.482750	0.000434	20.844817
1065.342298	-2.996600	3.625800	-10.864000	25.493932	0.000434	20.846562
1066.336380	-2.995800	3.626500	-10.863000	25.508021	0.000434	20.872089
1067.337012	-2.966100	3.626400	-10.755000	25.479146	0.000435	20.846887
1068.339638	-2.980900	3.625400	-10.806000	25.481309	0.000431	20.839102
1069.370965	-2.993900	3.624100	-10.849000	25.546341	0.000435	20.831864
1070.317554	-2.995100	3.624800	-10.856000	25.511352	0.000432	20.857892
1071.361718	-3.009200	3.623800	-10.904000	25.519453	0.000432	20.864130
1072.354011	-3.022700	3.623300	-10.951000	25.465552	0.000432	20.838452
1073.366595	-2.995200	3.623200	-10.851000	25.447185	0.000430	20.865052
1074.361032	-3.011100	3.621200	-10.903000	25.441993	0.000432	20.857467
1075.360131	-3.001300	3.622700	-10.871000	25.470944	0.000430	20.846237
1076.369383	-3.017100	3.621600	-10.926000	25.472235	0.000431	20.826672
1077.377580	-2.995400	3.620900	-10.845000	25.487889	0.000430	20.858037
1078.352443	-2.980500	3.622100	-10.793000	25.475961	0.000428	20.835154
1079.358458	-3.011500	3.620900	-10.904000	25.493705	0.000429	20.840645
1080.361114	-2.970100	3.623100	-10.760000	25.494947	0.000429	20.855642
1081.365189	-2.990700	3.621000	-10.829000	25.460303	0.000426	20.843138
1082.366259	-2.998200	3.620800	-10.855000	25.459905	0.000428	20.835627
1083.385684	-2.994100	3.620500	-10.839000	25.500959	0.000426	20.824223
1084.365952	-2.993800	3.619500	-10.835000	25.498225	0.000427	20.844236
1085.372133	-2.975800	3.621300	-10.775000	25.505483	0.000426	20.844886
1086.383763	-3.002200	3.619500	-10.866000	25.563307	0.000425	20.846058
1087.366993	-3.025500	3.618200	-10.946000	25.548523	0.000425	20.850176
1088.373411	-3.003400	3.618500	-10.867000	25.566115	0.000424	20.844610
1089.377017	-2.999900	3.617700	-10.852000	25.560351	0.000423	20.834080
1090.368253	-3.007400	3.618600	-10.882000	25.559703	0.000423	20.836275
1091.359474	-2.983300	3.618700	-10.795000	25.562462	0.000426	20.845683
1092.370950	-3.005900	3.617400	-10.872000	25.561965	0.000426	20.831434
1093.389794	-3.022800	3.617000	-10.932000	25.582514	0.000425	20.821252
1094.374995	-3.023300	3.616400	-10.932000	25.614616	0.000423	20.835474
1095.374169	-2.986100	3.618000	-10.803000	25.609947	0.000423	20.856387
1096.361648	-3.034800	3.616300	-10.974000	25.577492	0.000422	20.819527
1097.374769	-2.995900	3.615500	-10.831000	25.511640	0.000422	20.847276
1098.368560	-2.981800	3.616300	-10.782000	25.517058	0.000422	20.852717
1099.374307	-2.995500	3.615400	-10.830000	25.475757	0.000421	20.841114
1100.391269	-3.001700	3.615100	-10.850000	25.466512	0.000422	20.833252
1101.371067	-2.998800	3.614400	-10.839000	25.488257	0.000422	20.825691
1102.367405	-2.991800	3.614600	-10.813000	25.496381	0.000422	20.840487
1103.377996	-3.019400	3.613000	-10.908000	25.466360	0.000420	20.838789
1104.357313	-3.013200	3.613700	-10.887000	25.514595	0.000421	20.831277
1105.355899	-3.022700	3.612700	-10.920000	25.490762	0.000419	20.830104
1106.333265	-3.008400	3.613400	-10.870000	25.499261	0.000421	20.827259
1107.353516	-3.008600	3.612000	-10.865000	25.487133	0.000419	20.844477
1108.358311	-3.019000	3.611400	-10.902000	25.479651	0.000418	20.839808
1109.333701	-3.037100	3.612000	-10.969000	25.445182	0.000418	20.825584
1110.350256	-2.991500	3.612700	-10.806000	25.428132	0.000417	20.835964
1111.335248	-2.977600	3.612500	-10.756000	25.439840	0.000418	20.844875
1112.337505	-3.004000	3.612000	-10.849000	25.414240	0.000418	20.823911
1113.339190	-2.992700	3.610800	-10.805000	25.418068	0.000417	20.830599
1114.344504	-3.011100	3.609200	-10.867000	25.429301	0.000416	20.816275
1115.336992	-3.006500	3.610900	-10.856000	25.441576	0.000416	20.828127
1116.337813	-2.997600	3.610300	-10.821000	25.452212	0.000415	20.823160
1117.341907	-2.991100	3.610100	-10.797000	25.422911	0.000417	20.811281
1118.339623	-3.009800	3.610700	-10.867000	25.427335	0.000415	20.827576
1119.339572	-3.018000	3.608600	-10.890000	25.434195	0.000417	20.841103
1120.336365	-2.996800	3.610100	-10.818000	25.470676	0.000414	20.843124
1121.343016	-2.992400	3.609600	-10.801000	25.465580	0.000413	20.823307
1122.347434	-3.018100	3.607600	-10.887000	25.449375	0.000415	20.824579
1123.343497	-3.010300	3.609000	-10.864000	25.420349	0.000413	20.822458
1124.337968	-3.009400	3.608400	-10.858000	25.437024	0.000412	20.807909
1125.380094	-2.999100	3.607400	-10.818000	25.482700	0.000413	20.817266
1126.339110	-3.004400	3.608400	-10.839000	25.469157	0.000412	20.815994
1127.342578	-3.004700	3.607000	-10.837000	25.485059	0.000412	20.814893
1128.343877	-3.011300	3.607600	-10.862000	25.484587	0.000412	20.831962
1129.339729	-2.999700	3.606300	-10.817000	25.459908	0.000413	20.832785
1130.342254	-2.996300	3.606600	-10.805000	25.485904	0.000412	20.812423
1131.338760	-2.990900	3.607000	-10.787000	25.484585	0.000410	20.827693
1132.341737	-3.017400	3.605100	-10.878000	25.529415	0.000410	20.809651
1133.341595	-3.002000	3.606100	-10.824000	25.532570	0.000409	20.816138
1134.348678	-2.999400	3.605200	-10.812000	25.537912	0.000408	20.822451
1135.346205	-2.996300	3.604100	-10.798000	25.528815	0.000409	20.800988
1136.343934	-3.011800	3.602400	-10.849000	25.513234	0.000409	20.826592
1137.347885	-2.971500	3.603700	-10.707000	25.563529	0.000408	20.798866
1138.371388	-3.000600	3.603500	-10.812000	25.567182	0.000407	20.831458
1139.364507	-3.004800	3.603700	-10.827000	25.540219	0.000407	20.821450
1140.354254	-3.025200	3.600300	-10.891000	25.561987	0.000406	20.824818
1141.364459	-2.998500	3.602600	-10.801000	25.540219	0.000408	20.818605
1142.365297	-2.990900	3.601600	-10.770000	25.516387	0.000406	20.799887
1143.342555	-3.021500	3.601900	-10.883000	25.557911	0.000405	20.809820
1144.350773	-2.987800	3.602100	-10.762000	25.566385	0.000404	20.830183
1145.345474	-3.004900	3.601800	-10.822000	25.553390	0.000407	20.812865
1146.343145	-3.011900	3.601200	-10.846000	25.534874	0.000405	20.805176
1147.369664	-2.978300	3.601200	-10.725000	25.588327	0.000405	20.810020
1148.342403	-3.002300	3.600400	-10.808000	25.596774	0.000406	20.827986
1149.347769	-2.989900	3.600400	-10.764000	25.604105	0.000404	20.807374
1150.347188	-2.997800	3.600100	-10.791000	25.565018	0.000403	20.800362
1151.345557	-3.001000	3.600500	-10.804000	25.576823	0.000405	20.826441
1152.349360	-2.994500	3.598500	-10.775000	25.561319	0.000402	20.801862
1153.347385	-2.993700	3.599700	-10.775000	25.572003	0.000401	20.805005
1154.349843	-2.992100	3.598000	-10.764000	25.556670	0.000403	20.807625
1155.368981	-2.983200	3.599100	-10.735000	25.550658	0.000402	20.802061
1156.371555	-2.996600	3.598300	-10.781000	25.565642	0.000401	20.791980
1157.370027	-2.998100	3.596700	-10.782000	25.572302	0.000401	20.800090
1158.367780	-2.996200	3.597600	-10.778000	25.539401	0.000400	20.801661
1159.366921	-3.003300	3.597700	-10.803000	25.562958	0.000398	20.795448
1160.373900	-3.017100	3.597100	-10.851000	25.613972	0.000398	20.812068
1161.369745	-2.991600	3.596900	-10.759000	25.639542	0.000398	20.808351
1162.375764	-2.998000	3.596400	-10.781000	25.610545	0.000398	20.809101
1163.366873	-2.991900	3.597400	-10.762000	25.602618	0.000398	20.785492
1164.353708	-2.966100	3.595900	-10.665000	25.583560	0.000400	20.803810
1165.371776	-3.030200	3.594300	-10.890000	25.614198	0.000399	20.810399
1166.372736	-3.011500	3.596000	-10.828000	25.596134	0.000399	20.811223
1167.362543	-3.008500	3.594900	-10.814000	25.544548	0.000400	20.781701
1168.365468	-2.987300	3.595400	-10.740000	25.573971	0.000397	20.763834
1169.377654	-2.989800	3.593600	-10.743000	25.634350	0.000400	20.787016
1170.363910	-2.998600	3.594800	-10.778000	25.649457	0.000397	20.782274
1171.363725	-2.973200	3.595000	-10.689000	25.635717	0.000399	20.791234
1172.382697	-3.002600	3.592900	-10.787000	25.661509	0.000398	20.770197
1173.368424	-3.008300	3.593000	-10.808000	25.640242	0.000396	20.782976
1174.368377	-3.004500	3.593000	-10.794000	25.585178	0.000397	20.804961
1175.382244	-2.997400	3.590600	-10.762000	25.612460	0.000397	20.793480
1176.381972	-3.008400	3.593100	-10.809000	25.645161	0.000394	20.775114
1177.379928	-3.003900	3.592300	-10.789000	25.609007	0.000395	20.791434
1178.373613	-2.989300	3.590700	-10.733000	25.614674	0.000397	20.773892
1179.372841	-2.999800	3.591900	-10.774000	25.628763	0.000395	20.788043
1180.373726	-2.990800	3.589700	-10.735000	25.638976	0.000396	20.809205
1181.374514	-3.008400	3.590000	-10.800000	25.577599	0.000394	20.789763
1182.367848	-3.021800	3.589800	-10.847000	25.574047	0.000393	20.793782
1183.369159	-3.008500	3.589500	-10.798000	25.604809	0.000395	20.801917
1184.380545	-3.020000	3.588200	-10.835000	25.622974	0.000392	20.778435
1185.382629	-3.003300	3.589600	-10.780000	25.650057	0.000392	20.792834
1186.378763	-2.978100	3.589900	-10.689000	25.617804	0.000390	20.787467
1187.391520	-3.012800	3.588000	-10.809000	25.544251	0.000391	20.783299
1188.394202	-2.991200	3.588100	-10.732000	25.531976	0.000390	20.774764
1189.394778	-2.991500	3.589500	-10.737000	25.504244	0.000391	20.799072
1190.388712	-2.998900	3.588600	-10.760000	25.489856	0.000388	20.790314
1191.391766	-2.981700	3.588700	-10.699000	25.490378	0.000387	20.787993
1192.373061	-3.005200	3.587000	-10.778000	25.511302	0.000389	20.785297
1193.370515	-2.990000	3.586800	-10.724000	25.505286	0.000389	20.783523
1194.369648	-3.022100	3.585800	-10.835000	25.562442	0.000387	20.766954
1195.375013	-3.002200	3.587600	-10.770000	25.547335	0.000388	20.797776
1196.379553	-2.991600	3.585900	-10.727000	25.547432	0.000386	20.780330
1197.394369	-2.985100	3.585900	-10.702000	25.555287	0.000385	20.808133
1198.379550	-2.984300	3.585300	-10.698000	25.573304	0.000387	20.787346
1199.353502	-2.982600	3.585000	-10.692000	25.614777	0.000387	20.791539
1200.354822	-2.990900	3.584800	-10.721000	25.640046	0.000385	20.787520
1201.354950	-2.991100	3.584500	-10.721000	25.623349	0.000388	20.812477
1202.356288	-2.992400	3.585400	-10.729000	25.638782	0.000385	20.795734
1203.358596	-3.010500	3.584000	-10.789000	25.631500	0.000382	20.796007
1204.357931	-2.999400	3.582200	-10.744000	25.593436	0.000385	20.789073
1205.355940	-3.018200	3.582600	-10.812000	25.622559	0.000384	20.773750
1206.359459	-3.009300	3.582400	-10.780000	25.632498	0.000386	20.799380
1207.359237	-2.995300	3.582500	-10.731000	25.600644	0.000384	20.799156
1208.364675	-3.007900	3.582200	-10.773000	25.575198	0.000383	20.801577
1209.361407	-2.993600	3.581600	-10.721000	25.582282	0.000383	20.782138
1210.362771	-2.982500	3.581400	-10.681000	25.590581	0.000383	20.794740
1211.364581	-3.019800	3.581500	-10.814000	25.555296	0.000382	20.789650
1212.364790	-2.994800	3.582000	-10.727000	25.525477	0.000382	20.797636
1213.380723	-2.986300	3.580500	-10.692000	25.590160	0.000381	20.797636
1214.378486	-2.988000	3.580500	-10.697000	25.571374	0.000381	20.788252
1215.373398	-3.000800	3.580700	-10.744000	25.605068	0.000381	20.791746
1216.382418	-2.992800	3.580400	-10.714000	25.607356	0.000381	20.776500
1217.380684	-2.991700	3.580400	-10.711000	25.671186	0.000379	20.810736
1218.420433	-3.002100	3.579000	-10.743000	25.719663	0.000379	20.794942
1219.367507	-2.977800	3.580400	-10.661000	25.709575	0.000379	20.810887
1220.365572	-2.996900	3.577800	-10.721000	25.669871	0.000380	20.802777
1221.365843	-3.034200	3.576600	-10.851000	25.655360	0.000379	20.785358
1222.366393	-2.995700	3.578000	-10.718000	25.640799	0.000378	20.781639
1223.361873	-3.002000	3.576700	-10.737000	25.640774	0.000377	20.802951
1224.365148	-2.995400	3.578200	-10.717000	25.622263	0.000376	20.794317
1225.364948	-2.997800	3.577700	-10.723000	25.598930	0.000376	20.791746
1226.365577	-3.017000	3.576300	-10.789000	25.597489	0.000378	20.814480
1227.367545	-3.006100	3.577100	-10.752000	25.561758	0.000376	20.788078
1228.362224	-2.954500	3.578100	-10.570000	25.579002	0.000377	20.812035
1229.366684	-3.021300	3.575200	-10.801000	25.614510	0.000374	20.802177
1230.361848	-2.996700	3.575600	-10.714000	25.616200	0.000375	20.796288
1231.378132	-3.013500	3.575600	-10.774000	25.574108	0.000376	20.781515
1232.363077	-3.012500	3.575300	-10.769000	25.583773	0.000375	20.807817
1233.366608	-3.001000	3.574000	-10.725000	25.593463	0.000374	20.817549
1234.367083	-3.000300	3.574300	-10.723000	25.626461	0.000373	20.799955
1235.367859	-3.006500	3.573300	-10.743000	25.677969	0.000373	20.800953
1236.367670	-3.010700	3.573800	-10.759000	25.662464	0.000372	20.807666
1237.375421	-3.007500	3.572500	-10.744000	25.671708	0.000371	20.810786
1238.368027	-3.015000	3.572600	-10.770000	25.661248	0.000372	20.793642
1239.373237	-2.999500	3.571100	-10.710000	25.653620	0.000373	20.801154
1240.375659	-2.988200	3.573300	-10.676000	25.688726	0.000371	20.813180
1241.370777	-3.013800	3.571200	-10.762000	25.702319	0.000372	20.811186
1242.370199	-2.990400	3.571300	-10.679000	25.680851	0.000369	20.801951
1243.371909	-2.989900	3.571000	-10.676000	25.726691	0.000368	20.818122
1244.376657	-3.015600	3.571400	-10.768000	25.696108	0.000372	20.781239
1245.376376	-3.002800	3.570000	-10.719000	25.708555	0.000369	20.796587
1246.369831	-3.005000	3.571300	-10.731000	25.662565	0.000370	20.807767
1247.371773	-2.999700	3.569700	-10.707000	25.640253	0.000369	20.812859
1248.371469	-3.022400	3.568500	-10.785000	25.589366	0.000367	20.820072
1249.373483	-2.982800	3.569600	-10.647000	25.623086	0.000366	20.804152
1250.379838	-3.006500	3.569600	-10.731000	25.668283	0.000366	20.822045
1251.378943	-2.996400	3.568900	-10.692000	25.691415	0.000365	20.826786
1252.375116	-2.980800	3.569000	-10.637000	25.653599	0.000366	20.794495
1253.374665	-2.978300	3.569400	-10.629000	25.672336	0.000366	20.806675
1254.374097	-2.987800	3.568900	-10.663000	25.696686	0.000363	20.829235
1255.372066	-2.990800	3.566400	-10.666000	25.735869	0.000365	20.836824
1256.380729	-2.997000	3.567600	-10.691000	25.782130	0.000365	20.816910
1257.375232	-2.987700	3.568600	-10.661000	25.773759	0.000363	20.809449
1258.376477	-2.998500	3.567200	-10.696000	25.733090	0.000366	20.812696
1259.377175	-3.005500	3.566100	-10.717000	25.686506	0.000362	20.806209
1260.377204	-3.002600	3.565100	-10.704000	25.700868	0.000362	20.821108
1261.378668	-2.971700	3.565800	-10.596000	25.703379	0.000364	20.816518
1262.376755	-3.011600	3.564300	-10.733000	25.676697	0.000362	20.812952
1263.374311	-2.979300	3.565800	-10.623000	25.645415	0.000363	20.821836
1264.384462	-2.991200	3.566200	-10.667000	25.628048	0.000360	20.828102
1265.379067	-3.019400	3.564800	-10.762000	25.687783	0.000360	20.809862
1266.389156	-3.008500	3.564200	-10.722000	25.709053	0.000360	20.816527
1267.380679	-2.976800	3.564600	-10.611000	25.715291	0.000358	20.816154
1268.379327	-2.986400	3.564100	-10.643000	25.720683	0.000359	20.813036
1269.381861	-2.985200	3.563100	-10.636000	25.753432	0.000356	20.818429
1270.378967	-3.000300	3.562500	-10.688000	25.767892	0.000358	20.803083
1271.380537	-2.980800	3.563800	-10.622000	25.720567	0.000360	20.812919
1272.390024	-2.938700	3.565000	-10.475000	25.690454	0.000358	20.823450
1273.384984	-2.994500	3.562900	-10.668000	25.649932	0.000358	20.832063
1274.443404	-2.988400	3.561500	-10.642000	25.613954	0.000357	20.831964
1275.383749	-2.989600	3.562300	-10.649000	25.630976	0.000356	20.799274
1276.381818	-2.973700	3.562000	-10.591000	25.638383	0.000357	20.813826
1277.380129	-2.992000	3.561400	-10.655000	25.638484	0.000359	20.796384
1278.385368	-2.972300	3.560300	-10.582000	25.684724	0.000358	20.815325
1279.406367	-3.009900	3.561000	-10.717000	25.726318	0.000357	20.788824
1280.411681	-2.992900	3.560300	-10.655000	25.691859	0.000356	20.800680
1281.400096	-2.997400	3.560900	-10.673000	25.659658	0.000356	20.815753
1282.404967	-3.017000	3.560500	-10.741000	25.623234	0.000355	20.833224
1283.398275	-3.014300	3.559000	-10.727000	25.597044	0.000358	20.809765
1284.405920	-2.988000	3.558800	-10.634000	25.604525	0.000357	20.822969
1285.414259	-2.998500	3.558000	-10.668000	25.635932	0.000357	20.815157
1286.401112	-2.997600	3.559200	-10.668000	25.655514	0.000356	20.819652
1287.400291	-3.004900	3.556700	-10.687000	25.655067	0.000354	20.822047
1288.401136	-3.034700	3.555600	-10.789000	25.603781	0.000354	20.816057
1289.423628	-2.996900	3.557200	-10.659000	25.623985	0.000355	20.811218
1290.406163	-2.985000	3.557900	-10.619000	25.656188	0.000356	20.839768
1291.411840	-2.983200	3.556000	-10.607000	25.649080	0.000354	20.814612
1292.381941	-2.996600	3.556300	-10.654000	25.656782	0.000353	20.811442
1293.387335	-2.989800	3.556900	-10.634000	25.699940	0.000352	20.845305
1294.381592	-3.035800	3.553900	-10.788000	25.758252	0.000351	20.814262
1295.383333	-3.006400	3.554400	-10.685000	25.776662	0.000353	20.816633
1296.383457	-2.998600	3.554600	-10.657000	25.734526	0.000353	20.835474
1297.416230	-3.019900	3.553000	-10.729000	25.741978	0.000352	20.834899
1298.402410	-2.982900	3.554500	-10.602000	25.760017	0.000352	20.847802
1299.401971	-2.999500	3.553700	-10.659000	25.776338	0.000350	20.821049
1300.404118	-2.993700	3.553200	-10.636000	25.791270	0.000351	20.816608
1301.410206	-2.989100	3.552800	-10.619000	25.806373	0.000350	20.825141
1302.391643	-3.008800	3.553200	-10.689000	25.843490	0.000351	20.820225
1303.386616	-2.995700	3.552700	-10.642000	25.849178	0.000352	20.822621
1304.391952	-3.012600	3.552700	-10.702000	25.817131	0.000350	20.829783
1305.389329	-3.021800	3.550300	-10.727000	25.852532	0.000348	20.826464
1306.399318	-3.003200	3.550800	-10.663000	25.856805	0.000348	20.837394
1307.395784	-3.029100	3.550700	-10.754000	25.849875	0.000347	20.843234
1308.406983	-3.003100	3.550700	-10.662000	25.801927	0.000346	20.849597
1309.427886	-2.991100	3.550900	-10.620000	25.777804	0.000347	20.846702
1310.430334	-3.014000	3.551700	-10.704000	25.780014	0.000348	20.820474
1311.429203	-2.992600	3.549900	-10.623000	25.770723	0.000347	20.833427
1312.426412	-2.994000	3.548900	-10.624000	25.781356	0.000348	20.832253
1313.432687	-2.988600	3.550600	-10.610000	25.804411	0.000346	20.840238
1314.436185	-2.984900	3.549600	-10.594000	25.772461	0.000344	20.831379
1315.425657	-3.010400	3.547500	-10.678000	25.753406	0.000346	20.859179
1316.424344	-3.009200	3.548900	-10.677000	25.734176	0.000346	20.853614
1317.432837	-2.999900	3.549500	-10.647000	25.787492	0.000346	20.838891
1318.443952	-3.003600	3.548000	-10.656000	25.756735	0.000346	20.829333
1319.423018	-2.999200	3.547300	-10.638000	25.723914	0.000347	20.849471
1320.417482	-3.017000	3.547000	-10.700000	25.724734	0.000345	20.839864
1321.415295	-2.998700	3.546600	-10.634000	25.714947	0.000342	20.835249
1322.417468	-2.988600	3.547400	-10.601000	25.720436	0.000344	20.846452
1323.415179	-2.996500	3.546900	-10.628000	25.734747	0.000347	20.839963
1324.414073	-3.014700	3.545700	-10.688000	25.735219	0.000343	20.851342
1325.410780	-3.000400	3.545100	-10.636000	25.735567	0.000343	20.845054
1326.417011	-2.996000	3.546200	-10.624000	25.717379	0.000343	20.836269
1327.447873	-3.017600	3.545500	-10.698000	25.678346	0.000344	20.839263
1328.434254	-3.009000	3.544700	-10.665000	25.678894	0.000341	20.847874
1329.424361	-3.008100	3.545200	-10.664000	25.654022	0.000341	20.851342
1330.446973	-2.978200	3.545100	-10.557000	25.688857	0.000342	20.851717
1331.428308	-3.004600	3.543600	-10.646000	25.625271	0.000341	20.859924
1332.443720	-3.003900	3.543400	-10.643000	25.695464	0.000340	20.841758
1333.442032	-3.014100	3.541700	-10.675000	25.752433	0.000340	20.852986
1334.411441	-2.974900	3.544100	-10.543000	25.742693	0.000342	20.865962
1335.410466	-2.996900	3.543100	-10.617000	25.703040	0.000341	20.882556
1336.432432	-2.996100	3.542700	-10.614000	25.693920	0.000339	20.853009
1337.437144	-3.001500	3.542500	-10.632000	25.755486	0.000339	20.865061
1338.426116	-3.024100	3.539300	-10.703000	25.753623	0.000340	20.851811
1339.442160	-3.000700	3.541000	-10.625000	25.719484	0.000338	20.859246
1340.450266	-2.994900	3.540700	-10.603000	25.699134	0.000337	20.869151
1341.435957	-3.015500	3.539800	-10.673000	25.724104	0.000337	20.843972
1342.452369	-3.001200	3.540300	-10.624000	25.724725	0.000338	20.868302
1343.438333	-3.019600	3.539500	-10.688000	25.718336	0.000338	20.853825
1344.433894	-3.011500	3.539100	-10.657000	25.693216	0.000337	20.848034
1345.443740	-2.997100	3.540500	-10.609000	25.680618	0.000335	20.871416
1346.447762	-2.995800	3.538100	-10.599000	25.710458	0.000337	20.881472
1347.412458	-2.998400	3.538800	-10.610000	25.781338	0.000336	20.857838
1348.427106	-3.003600	3.537800	-10.625000	25.801858	0.000337	20.855691
1349.426462	-2.992700	3.536500	-10.583000	25.787473	0.000334	20.858785
1350.416765	-3.021600	3.537100	-10.686000	25.791321	0.000335	20.882089
1351.429675	-2.973700	3.538300	-10.521000	25.755943	0.000333	20.876899
1352.414377	-3.003900	3.536100	-10.621000	25.767122	0.000334	20.881963
1353.417522	-2.999200	3.535800	-10.603000	25.796512	0.000333	20.886828
1354.421822	-2.982000	3.537800	-10.549000	25.803590	0.000333	20.874974
1355.398468	-2.998400	3.535000	-10.598000	25.835413	0.000334	20.882284
1356.412844	-3.027000	3.533400	-10.694000	25.802271	0.000333	20.889295
1357.418921	-3.014500	3.534100	-10.652000	25.768979	0.000333	20.873872
1358.421600	-2.991400	3.536500	-10.578000	25.734322	0.000332	20.894061
1359.421312	-2.967900	3.534800	-10.489000	25.705549	0.000331	20.883653
1360.449638	-2.996400	3.534400	-10.590000	25.712603	0.000330	20.864187
1361.441245	-2.966500	3.534300	-10.483000	25.755311	0.000332	20.877212
1362.421046	-3.009200	3.532900	-10.630000	25.795484	0.000332	20.892908
1363.427618	-2.998600	3.532500	-10.592000	25.808476	0.000331	20.875140
1364.429020	-2.969500	3.533900	-10.493000	25.820101	0.000330	20.893455
1365.424410	-2.995500	3.533300	-10.583000	25.832844	0.000329	20.883022
1366.425869	-3.015000	3.531200	-10.646000	25.851251	0.000330	20.892029
1367.422585	-3.003700	3.531700	-10.607000	25.885855	0.000330	20.892178
1368.409556	-2.982400	3.531400	-10.531000	25.895616	0.000327	20.893923
1369.420681	-3.011500	3.530600	-10.631000	25.899267	0.000328	20.885737
1370.407585	-2.973400	3.530800	-10.497000	25.864139	0.000329	20.883640
1371.415507	-2.999700	3.531800	-10.594000	25.863917	0.000327	20.907596
1372.405380	-2.995600	3.530000	-10.573000	25.896184	0.000328	20.893071
1373.413893	-3.027100	3.529000	-10.681000	25.901823	0.000325	20.901580
1374.411480	-2.992900	3.530300	-10.564000	25.875068	0.000326	20.911211
1375.418996	-3.001000	3.529200	-10.590000	25.888978	0.000323	20.896737
1376.407201	-3.020200	3.528100	-10.655000	25.814824	0.000324	20.910911
1377.411214	-2.951500	3.528700	-10.414000	25.787794	0.000323	20.894193
1378.422450	-2.984100	3.528300	-10.528000	25.783792	0.000324	20.916723
1379.419512	-3.000400	3.527700	-10.584000	25.773110	0.000324	20.917847
1380.415660	-2.977200	3.528400	-10.504000	25.846793	0.000324	20.909361
1381.411754	-3.003900	3.527400	-10.596000	25.834198	0.000322	20.910932
1382.410626	-2.991500	3.528200	-10.554000	25.806672	0.000323	20.903197
1383.408697	-3.011200	3.526700	-10.619000	25.813105	0.000322	20.912503
1384.414200	-3.016300	3.525000	-10.630000	25.825602	0.000323	20.895661
1385.409536	-3.030600	3.524200	-10.679000	25.852901	0.000323	20.917866
1386.411746	-3.019300	3.524600	-10.641000	25.877892	0.000323	20.900773
1387.416465	-2.978200	3.525600	-10.499000	25.865919	0.000323	20.915297
1388.412187	-3.013000	3.524400	-10.619000	25.899381	0.000322	20.907187
1389.417544	-2.992300	3.524200	-10.544000	25.867234	0.000321	20.913299
1390.413368	-2.992500	3.524500	-10.546000	25.875433	0.000321	20.916793
1391.412394	-3.008200	3.523900	-10.599000	25.870388	0.000319	20.920734
1392.410109	-2.978600	3.524400	-10.497000	25.807957	0.000319	20.894531
1393.411650	-2.977400	3.524700	-10.494000	25.817968	0.000322	20.931611
1394.412629	-3.006700	3.522500	-10.590000	25.775434	0.000321	20.917337
1395.412592	-3.022600	3.522500	-10.647000	25.781546	0.000319	20.912571
1396.408181	-3.018900	3.521000	-10.628000	25.811385	0.000320	20.915042
1397.412760	-2.997500	3.521100	-10.554000	25.821568	0.000319	20.932856
1398.434210	-3.000900	3.520900	-10.565000	25.790488	0.000316	20.930086
1399.451128	-3.006200	3.520400	-10.582000	25.784079	0.000317	20.925071
1400.457650	-2.988800	3.521200	-10.523000	25.826088	0.000316	20.917958
1401.451402	-3.003300	3.519000	-10.568000	25.813865	0.000317	20.922749
1402.472062	-3.016800	3.519800	-10.618000	25.802064	0.000316	20.943135
1403.445184	-3.002800	3.519400	-10.566000	25.852323	0.000315	20.933404
1404.437335	-2.984900	3.518900	-10.503000	25.879573	0.000314	20.927589
1405.436393	-2.991100	3.518700	-10.524000	25.912487	0.000315	20.937419
1406.437943	-2.973800	3.520000	-10.467000	25.909381	0.000316	20.912965
1407.434301	-2.982100	3.519800	-10.496000	25.860667	0.000314	20.917606
1408.451402	-3.003500	3.518700	-10.568000	25.847500	0.000313	20.922871
1409.435689	-3.008800	3.517100	-10.581000	25.901258	0.000315	20.935622
1410.451688	-2.993200	3.519100	-10.532000	25.940558	0.000312	20.928163
1411.440965	-3.007900	3.516300	-10.575000	25.934445	0.000313	20.935771
1412.437793	-3.017600	3.515100	-10.606000	25.932384	0.000313	20.929434
1413.452377	-2.991900	3.516600	-10.520000	25.926943	0.000315	20.943407
1414.445957	-2.980800	3.517700	-10.485000	25.864888	0.000312	20.936070
1415.426174	-3.024300	3.515300	-10.631000	25.844394	0.000314	20.911217
1416.429248	-3.026700	3.514300	-10.636000	25.804497	0.000312	20.919977
1417.418774	-3.022400	3.515300	-10.624000	25.829362	0.000312	20.918876
1418.416981	-2.987600	3.515000	-10.500000	25.845610	0.000311	20.953686
1419.424445	-2.983900	3.513600	-10.483000	25.825264	0.000310	20.922820
1420.419917	-2.994400	3.514400	-10.523000	25.806307	0.000311	20.925114
1421.421787	-2.990800	3.513300	-10.507000	25.805365	0.000310	20.923219
1422.422644	-2.998000	3.513400	-10.532000	25.807276	0.000310	20.908071
1423.417320	-2.994900	3.513900	-10.523000	25.857806	0.000310	20.912837
1424.417708	-2.990800	3.513000	-10.506000	25.913947	0.000310	20.913284
1425.416140	-2.999200	3.512700	-10.534000	25.892633	0.000309	20.911313
1426.417985	-2.999600	3.513000	-10.536000	25.873331	0.000308	20.916104
1427.450644	-3.005600	3.511800	-10.555000	25.919237	0.000308	20.906746
1428.458902	-2.986100	3.512800	-10.489000	25.856215	0.000308	20.921669
1429.454202	-3.006000	3.512100	-10.557000	25.839000	0.000306	20.918601
1430.452006	-2.996500	3.511700	-10.522000	25.805139	0.000306	20.909243
1431.472925	-3.003300	3.508800	-10.537000	25.812916	0.000306	20.907572
1432.454624	-2.992600	3.512000	-10.508000	25.839822	0.000305	20.930805
1433.458341	-2.988700	3.509400	-10.488000	25.869682	0.000304	20.895845
1434.467885	-2.996600	3.511100	-10.520000	25.928709	0.000306	20.915786
1435.463264	-2.986800	3.509500	-10.481000	25.895373	0.000304	20.909325
1436.453978	-3.003700	3.508600	-10.538000	25.921408	0.000302	20.910349
1437.460928	-2.995000	3.508600	-10.507000	25.955565	0.000304	20.896776
1438.438506	-2.983500	3.508800	-10.467000	26.003308	0.000302	20.894008
1439.425457	-3.004500	3.507000	-10.535000	25.996678	0.000304	20.902519
1440.424241	-2.981600	3.507200	-10.456000	26.003114	0.000302	20.899502
1441.421509	-2.993100	3.507600	-10.498000	26.001253	0.000301	20.897158
1442.425806	-3.004500	3.507700	-10.538000	25.965634	0.000303	20.911158
1443.424254	-2.989500	3.507400	-10.484000	25.940472	0.000301	20.904845
1444.424755	-3.006100	3.506800	-10.541000	25.947903	0.000301	20.907095
1445.429974	-3.018000	3.505500	-10.579000	25.947905	0.000301	20.875331
1446.430092	-3.013700	3.505700	-10.564000	25.969642	0.000303	20.915183
1447.422292	-3.007600	3.505700	-10.544000	25.941276	0.000300	20.897594
1448.432286	-2.994000	3.504200	-10.491000	25.879251	0.000300	20.869424
1449.428403	-3.001100	3.504000	-10.514000	25.812924	0.000300	20.895254
1450.426521	-3.000300	3.503600	-10.511000	25.790369	0.000301	20.903891
1451.427628	-3.010100	3.502900	-10.543000	25.803042	0.000299	20.881061
1452.428783	-3.002600	3.503600	-10.519000	25.851540	0.000297	20.876199
1453.430731	-3.023600	3.502500	-10.589000	25.848710	0.000296	20.867193
1454.426576	-3.001600	3.504100	-10.516000	25.831694	0.000296	20.887557
1455.437008	-3.000300	3.503000	-10.508000	25.891395	0.000297	20.875459
1456.426330	-3.004500	3.503400	-10.525000	25.889186	0.000296	20.872766
1457.428750	-2.999800	3.502500	-10.505000	25.892147	0.000297	20.867206
1458.428305	-2.994200	3.501700	-10.483000	25.891553	0.000296	20.855231
1459.431858	-2.992900	3.501400	-10.477000	25.851015	0.000298	20.877094
1460.427633	-2.997700	3.501700	-10.495000	25.814699	0.000296	20.863373
1461.428668	-2.981100	3.501500	-10.438000	25.789065	0.000294	20.862754
1462.429820	-2.985700	3.499400	-10.446000	25.819478	0.000295	20.863433
1463.426357	-2.984400	3.500200	-10.445000	25.864496	0.000293	20.867878
1464.435751	-3.007000	3.499000	-10.520000	25.898012	0.000293	20.877365
1465.429209	-2.998400	3.499600	-10.492000	25.921664	0.000292	20.852764
1466.430593	-2.997300	3.499000	-10.487000	25.874767	0.000292	20.858282
1467.429573	-3.017700	3.498400	-10.556000	25.882696	0.000293	20.870040
1468.431938	-3.002800	3.496900	-10.500000	25.904290	0.000295	20.848112
1469.436099	-2.999000	3.497700	-10.489000	25.903002	0.000293	20.849188
1470.432100	-2.996400	3.498700	-10.483000	25.882113	0.000293	20.860919
1471.432659	-2.985400	3.496800	-10.438000	25.889273	0.000290	20.866690
1472.433053	-2.999300	3.496100	-10.486000	25.857206	0.000291	20.847754
1473.435857	-3.009800	3.496400	-10.522000	25.830332	0.000288	20.858216
1474.438941	-3.018300	3.496400	-10.552000	25.860345	0.000289	20.850433
1475.442288	-3.002800	3.496400	-10.498000	25.912840	0.000294	20.847218
1476.439228	-2.988700	3.496400	-10.449000	25.871185	0.000292	20.835718
1477.433638	-3.000300	3.495900	-10.487000	25.869800	0.000291	20.854715
1478.435950	-2.989700	3.495400	-10.449000	25.854824	0.000293	20.825921
1479.436990	-2.988000	3.495800	-10.445000	25.854307	0.000291	20.826350
1480.440862	-2.997900	3.493800	-10.473000	25.871007	0.000289	20.821315
1481.480258	-2.989700	3.494000	-10.446000	25.849173	0.000288	20.811710
1482.450910	-3.009600	3.493300	-10.513000	25.857600	0.000291	20.831080
1483.462992	-2.989100	3.493600	-10.442000	25.875239	0.000290	20.838368
1484.464006	-2.997900	3.493900	-10.473000	25.937500	0.000290	20.825051
1485.458284	-3.003200	3.492200	-10.486000	25.930027	0.000286	20.854053
1486.464816	-2.993500	3.493200	-10.456000	25.899227	0.000287	20.837810
1487.459434	-2.987100	3.492500	-10.432000	25.897220	0.000287	20.825363
1488.461717	-2.993900	3.490800	-10.449000	25.839888	0.000285	20.828935
1489.455693	-2.995200	3.490600	-10.454000	25.866424	0.000286	20.810547
1490.455646	-3.027700	3.490800	-10.568000	25.915910	0.000286	20.805259
1491.466602	-2.989400	3.491900	-10.437000	25.900587	0.000285	20.802667
1492.437342	-3.000100	3.489900	-10.468000	25.934524	0.000285	20.823959
1493.437726	-3.006200	3.490200	-10.491000	25.969429	0.000284	20.820145
1494.442809	-2.991500	3.488700	-10.434000	25.955325	0.000284	20.833950
1495.439998	-2.996900	3.489000	-10.455000	25.927656	0.000282	20.818956
1496.461137	-3.014500	3.488700	-10.515000	25.894051	0.000284	20.805111
1497.455851	-3.012700	3.488100	-10.508000	25.876738	0.000283	20.797202
1498.455901	-2.970000	3.489200	-10.362000	25.887673	0.000284	20.802022
1499.462447	-2.997100	3.488400	-10.454000	25.885244	0.000284	20.821867
1500.471520	-3.008600	3.488200	-10.494000	25.846194	0.000283	20.800182
1501.467134	-2.990000	3.487600	-10.427000	25.843517	0.000285	20.799864
1502.463451	-2.988300	3.486700	-10.419000	25.841308	0.000284	20.828464
1503.460310	-3.004100	3.487400	-10.476000	25.811748	0.000283	20.809203
1504.462043	-3.007500	3.485200	-10.481000	25.855102	0.000281	20.819088
1505.465866	-3.015200	3.485900	-10.510000	25.878805	0.000280	20.824408
1506.465349	-2.989000	3.486900	-10.422000	25.895303	0.000281	20.787402
1507.463701	-2.999000	3.485900	-10.453000	25.887879	0.000281	20.825937
1508.471232	-2.988200	3.485300	-10.414000	25.853626	0.000280	20.825666
1509.466296	-3.003600	3.484500	-10.465000	25.860508	0.000283	20.793699
1510.466640	-3.004500	3.483600	-10.466000	25.885381	0.000279	20.803038
1511.470376	-2.976800	3.483700	-10.369000	25.933476	0.000282	20.813897
1512.478741	-3.026300	3.483700	-10.541000	25.976773	0.000281	20.803815
1513.472107	-3.004900	3.483700	-10.467000	25.991853	0.000280	20.806164
1514.442223	-3.025900	3.482200	-10.536000	25.961801	0.000279	20.794938
1515.443414	-3.000000	3.483800	-10.450000	25.930804	0.000278	20.803152
1516.445616	-2.993500	3.483600	-10.428000	25.904075	0.000277	20.797162
1517.446828	-2.993200	3.482400	-10.423000	25.924026	0.000279	20.794920
1518.464718	-3.019700	3.480900	-10.511000	25.872681	0.000276	20.786013
1519.444897	-3.000800	3.481300	-10.447000	25.856013	0.000279	20.781597
1520.470059	-3.006100	3.480500	-10.462000	25.887466	0.000277	20.815565
1521.463813	-3.000300	3.480900	-10.443000	25.898945	0.000275	20.792008
1522.446080	-3.008200	3.480100	-10.468000	25.918202	0.000275	20.786224
1523.450406	-2.974700	3.479500	-10.349000	25.909632	0.000276	20.795633
1524.460384	-3.001700	3.478900	-10.441000	25.956560	0.000275	20.802949
1525.450099	-2.986700	3.480300	-10.394000	25.968186	0.000275	20.798034
1526.449768	-2.984800	3.480800	-10.389000	25.986345	0.000272	20.779293
1527.473801	-3.000500	3.478700	-10.437000	25.960963	0.000274	20.766595
1528.450406	-2.980000	3.480100	-10.369000	25.951952	0.000274	20.781724
1529.465440	-2.976700	3.478100	-10.352000	25.940723	0.000274	20.798418
1530.464211	-3.000400	3.477200	-10.432000	25.894475	0.000274	20.794630
1531.473613	-3.002000	3.476200	-10.435000	25.834157	0.000273	20.763909
1532.473952	-3.023700	3.476000	-10.509000	25.810089	0.000273	20.778139
1533.469522	-3.012000	3.475800	-10.468000	25.804351	0.000271	20.783755
1534.477328	-3.011900	3.476600	-10.471000	25.829573	0.000272	20.768313
1535.470522	-2.998600	3.475400	-10.420000	25.849746	0.000271	20.776724
1536.467102	-3.012000	3.476400	-10.470000	25.832013	0.000272	20.780721
1537.470748	-3.006200	3.474700	-10.445000	25.851914	0.000269	20.799765
1538.451326	-2.992600	3.476000	-10.401000	25.844713	0.000270	20.785892
1539.475556	-3.015000	3.473900	-10.472000	25.829636	0.000271	20.786868
1540.448109	-3.010300	3.475000	-10.460000	25.846161	0.000271	20.781658
1541.451163	-3.017400	3.474400	-10.483000	25.809270	0.000272	20.773048
1542.477858	-3.005900	3.473800	-10.441000	25.883454	0.000269	20.790198
1543.487109	-2.984200	3.473400	-10.364000	25.905391	0.000268	20.767664
1544.470145	-2.987700	3.472300	-10.373000	25.938209	0.000270	20.779297
1545.470654	-2.978100	3.471800	-10.338000	25.984288	0.000268	20.786710
1546.478087	-2.979400	3.472500	-10.345000	25.995222	0.000269	20.786790
1547.469505	-2.997200	3.472100	-10.406000	25.941074	0.000266	20.773640
1548.451597	-2.999700	3.472800	-10.416000	25.914152	0.000267	20.794958
1549.451766	-3.022000	3.471300	-10.489000	25.925904	0.000267	20.775944
1550.472011	-2.992700	3.470500	-10.385000	25.923794	0.000267	20.774298
1551.470184	-3.000800	3.470700	-10.414000	25.871727	0.000268	20.779365
1552.463778	-3.001900	3.471700	-10.421000	25.876551	0.000266	20.768090
1553.456309	-3.025900	3.469200	-10.496000	25.853722	0.000268	20.779770
1554.452816	-3.000400	3.470800	-10.413000	25.884430	0.000264	20.778849
1555.458329	-2.992600	3.469800	-10.383000	25.853228	0.000265	20.765997
1556.454568	-3.006100	3.469800	-10.430000	25.873925	0.000264	20.759761
1557.455369	-2.985600	3.470800	-10.362000	25.905776	0.000264	20.762835
1558.453765	-2.985000	3.469200	-10.355000	25.925179	0.000264	20.751507
1559.451976	-2.994100	3.467900	-10.382000	25.860270	0.000263	20.770226
1560.456287	-3.001900	3.467900	-10.410000	25.791404	0.000264	20.767430
1561.458416	-2.993300	3.467400	-10.379000	25.852846	0.000262	20.768459
1562.451810	-2.989900	3.467600	-10.367000	25.895181	0.000264	20.777796
1563.454755	-3.010900	3.467600	-10.439000	25.923176	0.000262	20.779841
1564.498025	-3.009100	3.467300	-10.433000	25.899928	0.000261	20.737993
1565.457669	-2.981300	3.467200	-10.336000	25.896448	0.000262	20.759154
1566.459101	-3.008400	3.465500	-10.425000	25.914609	0.000261	20.769812
1567.452445	-3.003000	3.465200	-10.405000	25.898267	0.000260	20.750550
1568.452533	-2.987000	3.465700	-10.351000	25.857330	0.000260	20.753996
1569.453050	-2.998800	3.464300	-10.388000	25.886846	0.000262	20.750931
1570.453291	-2.997100	3.464200	-10.382000	25.909353	0.000262	20.760739
1571.457005	-2.993600	3.464000	-10.369000	25.929849	0.000260	20.768053
1572.475996	-3.006900	3.463300	-10.413000	25.952830	0.000257	20.764588
1573.475392	-3.006800	3.463100	-10.412000	25.945728	0.000259	20.769781
1574.470181	-2.977000	3.463500	-10.310000	25.970446	0.000259	20.764268
1575.479393	-3.014200	3.463400	-10.438000	25.973055	0.000259	20.764045
1576.462478	-3.021300	3.461100	-10.456000	25.996458	0.000260	20.761952
1577.466235	-3.023800	3.462100	-10.467000	26.016232	0.000259	20.763802
1578.459446	-2.992200	3.462600	-10.360000	26.050856	0.000256	20.747380
1579.465675	-3.010100	3.460400	-10.415000	26.048848	0.000259	20.756268
1580.464044	-2.995600	3.461100	-10.367000	26.004492	0.000257	20.757221
1581.461376	-3.007800	3.460700	-10.408000	26.016389	0.000257	20.733138
1582.481607	-3.006800	3.461800	-10.408000	25.983328	0.000255	20.747812
1583.492539	-3.000300	3.460300	-10.381000	25.969823	0.000255	20.765064
1584.486504	-3.015900	3.459700	-10.434000	25.936835	0.000255	20.762269
1585.458203	-3.014400	3.459900	-10.428000	25.961081	0.000256	20.748695
1586.459659	-3.026400	3.459600	-10.469000	25.943072	0.000254	20.777070
1587.458607	-3.004400	3.457800	-10.388000	25.873894	0.000254	20.727960
1588.485168	-2.989000	3.458800	-10.338000	25.868776	0.000254	20.735622
1589.457951	-2.989100	3.458700	-10.337000	25.924297	0.000252	20.754415
1590.474208	-3.005700	3.457900	-10.393000	25.901250	0.000254	20.755443
1591.478263	-2.988500	3.457400	-10.332000	25.902046	0.000254	20.743440
1592.479441	-3.013600	3.457000	-10.417000	25.925299	0.000253	20.738351
1593.483256	-2.988100	3.457400	-10.330000	25.921548	0.000252	20.735057
1594.480309	-3.014000	3.456200	-10.416000	25.946840	0.000254	20.749560
1595.462234	-3.011400	3.455500	-10.405000	25.964003	0.000250	20.746415
1596.461891	-2.999800	3.455600	-10.366000	25.997465	0.000252	20.751584
1597.484275	-2.982400	3.455000	-10.304000	25.993171	0.000253	20.711706
1598.462777	-2.991900	3.455300	-10.337000	26.006533	0.000251	20.730822
1599.463674	-2.971600	3.456600	-10.270000	26.017961	0.000250	20.732821
1600.462409	-2.997500	3.455300	-10.356000	26.014411	0.000249	20.744902
1601.488288	-2.997000	3.453800	-10.350000	26.009522	0.000252	20.741411
1602.468536	-3.005500	3.454300	-10.380000	26.044046	0.000250	20.727261
1603.467305	-3.021000	3.452800	-10.430000	26.057090	0.000249	20.739893
1604.465596	-3.007100	3.454800	-10.388000	26.052766	0.000249	20.729858
1605.466392	-3.015000	3.453100	-10.410000	26.048500	0.000248	20.739322
1606.462661	-3.001000	3.452600	-10.360000	26.071873	0.000251	20.732934
1607.470142	-3.013400	3.452500	-10.403000	26.056377	0.000247	20.732063
1608.467083	-2.983800	3.452300	-10.301000	26.053002	0.000249	20.745743
1609.469902	-3.008700	3.451300	-10.383000	26.066219	0.000248	20.738633
1610.466393	-3.014500	3.452100	-10.406000	26.047219	0.000249	20.734241
1611.481784	-3.011900	3.451100	-10.394000	26.061077	0.000249	20.743424
1612.501071	-2.991900	3.449400	-10.318000	26.015377	0.000249	20.725483
1613.463918	-3.003200	3.449100	-10.357000	26.017194	0.000245	20.732050
1614.489689	-3.009200	3.450000	-10.380000	26.052141	0.000248	20.741084
1615.483664	-3.006800	3.450200	-10.373000	26.067618	0.000247	20.738143
1616.483015	-2.999400	3.449200	-10.345000	26.045565	0.000248	20.735424
1617.490598	-3.006900	3.448700	-10.369000	26.016980	0.000248	20.738000
1618.487742	-3.006800	3.449600	-10.371000	26.027088	0.000246	20.740569
1619.487401	-3.005400	3.448100	-10.363000	26.025028	0.000244	20.729489
1620.484676	-3.000900	3.449400	-10.351000	26.021005	0.000245	20.715490
1621.490314	-3.001500	3.448000	-10.349000	25.995672	0.000244	20.716116
1622.491641	-2.991900	3.448900	-10.318000	26.012017	0.000243	20.743919
1623.474588	-2.999500	3.447200	-10.339000	25.992720	0.000241	20.731643
1624.494005	-3.017500	3.446700	-10.400000	25.944111	0.000242	20.741603
1625.499897	-2.984200	3.447400	-10.286000	25.933034	0.000242	20.729051
1626.491374	-2.996600	3.447000	-10.329000	25.948309	0.000243	20.708835
1627.498943	-2.971600	3.447200	-10.242000	25.946150	0.000242	20.720891
1628.474061	-3.017500	3.445300	-10.395000	25.946825	0.000240	20.712560
1629.474517	-3.024700	3.445200	-10.420000	25.962548	0.000241	20.749695
1630.475140	-2.991900	3.445800	-10.309000	25.954034	0.000243	20.732131
1631.473609	-3.022500	3.444900	-10.411000	25.948815	0.000242	20.728784
1632.474096	-2.996300	3.445500	-10.323000	25.906189	0.000241	20.721523
1633.473824	-2.979800	3.444800	-10.264000	25.872684	0.000240	20.739073
1634.474744	-2.990700	3.444600	-10.301000	25.872437	0.000240	20.735032
1635.490921	-2.987800	3.444900	-10.292000	25.835124	0.000240	20.727894
1636.497712	-2.977000	3.443600	-10.251000	25.859248	0.000242	20.727947
1637.493807	-3.008900	3.441200	-10.354000	25.846705	0.000240	20.724355
1638.490739	-3.019000	3.442400	-10.391000	25.855475	0.000238	20.735062
1639.495839	-2.986900	3.442900	-10.283000	25.864819	0.000239	20.726431
1640.494628	-3.036900	3.441200	-10.449000	25.902455	0.000238	20.726307
1641.495304	-2.997100	3.442300	-10.316000	25.923099	0.000238	20.730925
1642.493017	-3.008800	3.441200	-10.353000	25.967593	0.000236	20.741961
1643.497176	-2.997300	3.440700	-10.312000	25.991141	0.000237	20.727686
1644.495669	-3.002900	3.440200	-10.329000	26.051107	0.000238	20.707801
1645.495219	-3.010600	3.439600	-10.354000	26.070996	0.000237	20.742959
1646.475486	-3.005300	3.438500	-10.333000	26.060493	0.000237	20.722922
1647.485924	-2.993900	3.440500	-10.300000	26.028205	0.000234	20.731733
1648.478498	-2.992300	3.439000	-10.289000	25.988318	0.000237	20.725798
1649.480234	-2.987700	3.440700	-10.279000	25.925174	0.000234	20.732536
1650.483256	-3.002800	3.438300	-10.324000	25.874277	0.000236	20.729768
1651.476536	-2.987700	3.438400	-10.272000	25.889831	0.000235	20.748713
1652.480228	-2.979900	3.438100	-10.245000	25.941101	0.000233	20.709180
1653.475533	-3.025800	3.436900	-10.398000	25.989416	0.000234	20.741126
1654.510305	-3.008700	3.438000	-10.343000	26.037954	0.000234	20.723510
1655.498571	-2.991700	3.438600	-10.286000	26.008670	0.000232	20.728701
1656.498018	-2.993400	3.436300	-10.285000	25.957206	0.000233	20.744802
1657.500476	-3.003600	3.437300	-10.323000	25.945357	0.000233	20.739536
1658.504455	-2.992700	3.435600	-10.281000	25.951221	0.000232	20.735470
1659.509020	-2.984700	3.436100	-10.255000	25.908966	0.000233	20.720519
1660.481256	-3.009900	3.435200	-10.339000	25.971318	0.000231	20.738117
1661.481962	-2.999700	3.436800	-10.309000	25.945360	0.000231	20.740013
1662.483294	-3.024000	3.435800	-10.389000	25.958455	0.000232	20.733254
1663.487196	-2.999300	3.435800	-10.304000	25.930211	0.000231	20.729535
1664.478421	-3.002200	3.435000	-10.312000	25.888553	0.000231	20.741265
1665.481740	-2.996200	3.433000	-10.285000	25.939231	0.000231	20.740019
1666.481153	-2.982400	3.434100	-10.241000	25.993034	0.000230	20.739071
1667.480754	-2.996500	3.432700	-10.285000	25.975723	0.000231	20.738749
1668.480982	-3.005100	3.433400	-10.317000	25.950885	0.000230	20.746038
1669.483311	-2.984300	3.434100	-10.248000	26.033275	0.000230	20.742517
1670.482857	-3.014300	3.431500	-10.343000	26.035511	0.000228	20.716313
1671.480685	-3.008800	3.430800	-10.322000	25.954809	0.000230	20.741919
1672.483728	-3.002900	3.431900	-10.305000	25.944280	0.000229	20.745567
1673.482361	-2.990400	3.431400	-10.260000	25.988697	0.000232	20.742300
1674.505743	-2.984000	3.430200	-10.235000	26.001957	0.000228	20.751356
1675.508289	-2.998800	3.431300	-10.289000	25.996643	0.000228	20.730842
1676.485421	-2.993300	3.429600	-10.265000	25.985467	0.000228	20.745219
1677.482337	-2.989100	3.429700	-10.251000	25.984002	0.000228	20.774568
1678.488401	-3.042400	3.429200	-10.432000	25.962764	0.000227	20.747067
1679.502495	-2.975900	3.429900	-10.206000	25.950468	0.000227	20.749413
1680.506212	-2.988100	3.429700	-10.248000	25.913161	0.000226	20.761245
1681.489439	-3.009300	3.428900	-10.317000	25.908768	0.000225	20.751616
1682.512051	-3.001300	3.428300	-10.289000	25.917134	0.000224	20.745322
1683.488674	-3.014700	3.427600	-10.332000	25.944684	0.000225	20.773000
1684.488592	-3.027600	3.427700	-10.377000	25.946375	0.000225	20.749093
1685.493774	-3.018600	3.427200	-10.344000	25.952908	0.000225	20.760873
1686.490316	-2.993400	3.426600	-10.255000	25.969204	0.000226	20.760650
1687.490871	-2.994400	3.427100	-10.262000	25.960311	0.000222	20.767363
1688.487159	-3.012000	3.426200	-10.319000	25.979686	0.000224	20.761223
1689.492676	-2.982200	3.426700	-10.219000	25.938154	0.000221	20.758852
1690.491219	-3.007800	3.427000	-10.307000	25.957853	0.000222	20.762048
1691.488304	-2.996800	3.426000	-10.265000	25.998666	0.000224	20.753265
1692.491868	-3.015300	3.424500	-10.325000	25.998564	0.000222	20.761223
1693.495427	-2.993200	3.424500	-10.249000	25.946624	0.000224	20.762147
1694.506063	-3.018500	3.423400	-10.332000	25.980457	0.000220	20.761524
1695.488513	-2.979500	3.425300	-10.205000	26.021741	0.000222	20.750844
1696.488024	-2.982000	3.423400	-10.208000	25.985649	0.000221	20.760576
1697.487148	-2.979400	3.424100	-10.201000	25.974519	0.000218	20.764093
1698.489850	-3.010900	3.422700	-10.304000	25.911282	0.000219	20.768367
1699.502463	-2.996800	3.423600	-10.259000	25.981901	0.000222	20.763448
1700.515185	-2.989800	3.422200	-10.231000	26.052518	0.000221	20.773706
1701.506312	-2.986700	3.422500	-10.221000	26.025295	0.000222	20.758682
1702.509007	-3.009400	3.422700	-10.300000	26.033419	0.000220	20.789605
1703.512760	-2.984400	3.422700	-10.214000	26.048669	0.000220	20.761304
1704.516149	-3.010100	3.420900	-10.297000	26.106590	0.000219	20.763551
1705.491580	-3.005100	3.421300	-10.280000	26.094993	0.000218	20.778925
1706.491998	-2.979600	3.421200	-10.192000	26.123680	0.000217	20.762704
1707.492969	-3.002600	3.420500	-10.270000	26.173301	0.000218	20.761356
1708.507378	-2.974600	3.420800	-10.174000	26.170920	0.000217	20.764180
1709.512454	-3.025500	3.420000	-10.347000	26.169134	0.000217	20.758592
1710.506304	-2.985500	3.419800	-10.208000	26.099690	0.000219	20.774162
1711.510059	-2.994000	3.418200	-10.233000	26.050066	0.000217	20.785941
1712.519464	-2.984000	3.419300	-10.203000	26.081163	0.000218	20.771193
1713.494660	-3.000100	3.417700	-10.253000	26.107164	0.000217	20.759385
1714.497021	-3.035100	3.418100	-10.373000	26.065886	0.000214	20.788560
1715.501049	-3.013700	3.417700	-10.299000	26.048724	0.000215	20.777007
1716.496077	-3.001600	3.417100	-10.256000	26.039532	0.000215	20.772513
1717.494855	-3.022100	3.416800	-10.325000	26.024804	0.000214	20.769095
1718.494188	-3.004500	3.417700	-10.267000	26.051827	0.000215	20.787711
1719.492144	-3.028000	3.414800	-10.339000	26.055306	0.000214	20.771766
1720.497645	-3.003900	3.416600	-10.263000	26.054933	0.000215	20.794625
1721.516953	-3.019100	3.414600	-10.307000	26.085681	0.000213	20.790906
1722.527036	-3.005400	3.415800	-10.265000	26.055902	0.000214	20.777180
1723.516049	-2.997500	3.415400	-10.237000	26.052277	0.000213	20.756869
1724.515415	-3.000100	3.414600	-10.244000	26.020483	0.000213	20.760960
1725.496249	-3.002100	3.414000	-10.248000	26.000513	0.000213	20.794002
1726.494424	-2.990900	3.414900	-10.213000	25.997731	0.000212	20.789784
1727.518701	-2.979300	3.414800	-10.173000	26.000538	0.000212	20.790708
1728.520050	-2.991800	3.413700	-10.213000	25.980790	0.000210	20.784618
1729.520195	-2.997900	3.412500	-10.230000	26.036901	0.000210	20.787888
1730.517615	-3.005300	3.412300	-10.255000	26.006796	0.000212	20.769969
1731.521611	-2.997200	3.412000	-10.225000	26.011167	0.000211	20.789533
1732.501357	-3.017200	3.413000	-10.297000	26.023314	0.000212	20.809798
1733.524420	-2.997400	3.412100	-10.225000	26.094576	0.000211	20.779455
1734.526058	-2.994600	3.412300	-10.217000	26.122813	0.000210	20.797870
1735.518281	-2.988500	3.412100	-10.197000	26.094647	0.000208	20.781423
1736.517967	-2.996400	3.411300	-10.221000	26.067480	0.000210	20.783524
1737.498742	-3.018400	3.409500	-10.290000	26.072045	0.000208	20.783843
1738.533754	-3.016400	3.409300	-10.284000	26.039286	0.000209	20.770369
1739.524008	-2.989300	3.409400	-10.191000	25.985982	0.000208	20.795050
1740.502772	-2.992000	3.409800	-10.201000	25.981660	0.000208	20.796872
1741.533046	-3.029200	3.407300	-10.320000	25.996614	0.000209	20.782024
1742.501474	-2.973700	3.409900	-10.139000	26.011716	0.000207	20.781076
1743.507102	-2.999600	3.407300	-10.219000	26.021578	0.000208	20.803786
1744.520120	-3.018300	3.409100	-10.289000	26.023761	0.000207	20.799342
1745.521287	-3.000400	3.407200	-10.222000	26.012016	0.000206	20.797972
1746.522297	-2.994300	3.408200	-10.204000	26.070556	0.000207	20.776657
1747.514155	-3.002900	3.407700	-10.232000	26.068942	0.000208	20.810123
1748.529433	-3.009100	3.407200	-10.252000	26.062860	0.000206	20.799745
1749.507874	-3.031100	3.405300	-10.321000	26.119485	0.000206	20.814914
1750.529071	-3.002300	3.407100	-10.228000	26.109748	0.000204	20.806079
1751.522992	-2.982900	3.407300	-10.163000	26.125792	0.000204	20.800863
1752.522737	-3.018200	3.404600	-10.275000	26.156739	0.000207	20.789760
1753.525786	-2.989900	3.406800	-10.185000	26.157162	0.000205	20.791607
1754.507848	-3.014100	3.406400	-10.265000	26.167219	0.000203	20.795549
1755.512390	-2.992800	3.404100	-10.187000	26.188431	0.000203	20.816864
1756.510515	-2.978100	3.404500	-10.138000	26.161458	0.000202	20.784070
1757.529366	-3.003400	3.404000	-10.222000	26.165708	0.000204	20.797823
1758.522536	-2.997200	3.404400	-10.203000	26.166476	0.000204	20.809500
1759.520442	-2.982500	3.404100	-10.152000	26.179567	0.000203	20.829293
1760.509295	-2.994600	3.404100	-10.193000	26.162380	0.000203	20.814868
1761.530098	-3.018500	3.401400	-10.266000	26.211749	0.000202	20.811846
1762.519951	-3.006700	3.401400	-10.226000	26.170250	0.000201	20.833682
1763.534448	-2.991100	3.402500	-10.176000	26.175789	0.000202	20.839721
1764.533390	-2.992900	3.402100	-10.181000	26.156440	0.000201	20.801787
1765.531064	-3.008100	3.402000	-10.232000	26.192653	0.000201	20.811149
1766.534194	-3.000300	3.400400	-10.201000	26.156245	0.000200	20.825299
1767.533560	-2.998000	3.401400	-10.196000	26.188900	0.000201	20.836300
1768.529579	-3.013400	3.399200	-10.242000	26.186269	0.000198	20.812795
1769.518385	-3.000600	3.400200	-10.202000	26.216714	0.000199	20.826319
1770.512713	-3.003800	3.398300	-10.207000	26.220190	0.000199	20.843087
1771.533243	-2.999600	3.400000	-10.198000	26.222127	0.000200	20.824171
1772.543001	-3.000000	3.399400	-10.198000	26.214926	0.000200	20.818831
1773.513918	-2.992300	3.398200	-10.168000	26.214004	0.000198	20.830233
1774.521151	-3.014500	3.398800	-10.244000	26.190337	0.000197	20.829210
1775.514209	-2.984900	3.399900	-10.148000	26.185618	0.000196	20.827788
1776.518828	-2.997100	3.397800	-10.182000	26.167114	0.000196	20.844754
1777.516208	-3.012100	3.396900	-10.231000	26.132319	0.000196	20.837292
1778.516321	-2.998100	3.397400	-10.184000	26.121141	0.000197	20.827484
1779.516112	-3.007400	3.397200	-10.215000	26.120821	0.000197	20.825265
1780.541120	-2.996400	3.396700	-10.178000	26.122980	0.000194	20.831227
1781.512637	-3.007900	3.396200	-10.215000	26.131227	0.000197	20.840936
1782.515728	-3.004000	3.396100	-10.201000	26.174861	0.000197	20.849694
1783.537708	-3.011700	3.395300	-10.225000	26.217103	0.000197	20.843304
1784.516293	-3.021100	3.394900	-10.255000	26.265304	0.000195	20.828680
1785.518695	-3.028700	3.394000	-10.279000	26.261681	0.000196	20.841160
1786.517940	-3.005000	3.394400	-10.199000	26.191747	0.000194	20.838213
1787.537549	-2.997000	3.395400	-10.175000	26.150420	0.000195	20.845049
1788.541725	-3.008900	3.394100	-10.212000	26.163259	0.000193	20.846096
1789.529685	-3.008800	3.394400	-10.212000	26.147043	0.000192	20.826009
1790.536734	-3.002100	3.394800	-10.191000	26.140560	0.000192	20.840831
1791.535452	-3.008800	3.392800	-10.207000	26.156977	0.000192	20.855430
1792.518706	-3.000700	3.392200	-10.178000	26.144338	0.000192	20.849843
1793.524086	-2.987600	3.392700	-10.135000	26.136162	0.000192	20.843998
1794.517220	-2.992500	3.392400	-10.151000	26.191892	0.000193	20.857324
1795.516695	-3.019700	3.391000	-10.239000	26.220625	0.000192	20.842102
1796.520020	-2.976300	3.393200	-10.098000	26.241118	0.000191	20.828556
1797.520012	-2.980700	3.391500	-10.108000	26.222614	0.000189	20.846471
1798.520668	-2.975500	3.393000	-10.095000	26.233541	0.000191	20.857451
1799.524533	-2.994800	3.391600	-10.156000	26.283678	0.000191	20.862790
1800.534640	-2.984400	3.390300	-10.117000	26.301138	0.000191	20.853310
1801.517116	-2.983100	3.390100	-10.111000	26.329616	0.000187	20.849688
1802.525787	-2.998800	3.390800	-10.168000	26.296966	0.000189	20.851488
1803.522204	-2.985100	3.390700	-10.121000	26.261308	0.000190	20.836992
1804.520618	-2.989700	3.388800	-10.130000	26.280128	0.000188	20.869180
1805.520499	-3.004200	3.388800	-10.179000	26.287255	0.000189	20.842678
1806.522147	-3.004200	3.389000	-10.181000	26.334337	0.000189	20.845424
1807.522524	-3.014300	3.389300	-10.214000	26.281966	0.000187	20.870553
1808.522037	-2.995700	3.388000	-10.149000	26.234284	0.000187	20.862465
1809.524266	-3.012900	3.388000	-10.206000	26.204807	0.000186	20.837112
1810.520818	-2.993400	3.387800	-10.140000	26.190528	0.000187	20.868281
1811.519989	-2.989300	3.387000	-10.124000	26.205430	0.000186	20.864764
1812.541193	-3.021800	3.386700	-10.233000	26.208931	0.000189	20.832247
1813.549354	-2.992700	3.386600	-10.134000	26.193977	0.000186	20.855151
1814.529442	-2.992800	3.386800	-10.134000	26.224051	0.000185	20.853131
1815.523569	-3.002500	3.385600	-10.164000	26.303990	0.000184	20.864237
1816.526114	-3.010900	3.385600	-10.193000	26.335552	0.000185	20.853757
1817.529085	-2.997200	3.385400	-10.146000	26.342977	0.000184	20.883028
1818.526998	-3.015300	3.384800	-10.206000	26.319656	0.000184	20.861963
1819.526347	-3.011700	3.385100	-10.193000	26.335573	0.000185	20.883174
1820.527449	-2.990800	3.385400	-10.124000	26.330384	0.000182	20.893605
1821.522879	-2.984400	3.383600	-10.097000	26.366662	0.000183	20.884073
1822.545911	-2.979300	3.384400	-10.082000	26.390744	0.000183	20.866078
1823.548943	-3.017300	3.382400	-10.206000	26.419001	0.000183	20.885942
1824.525133	-3.011200	3.382400	-10.184000	26.389427	0.000182	20.870444
1825.542388	-2.986600	3.383400	-10.104000	26.357895	0.000182	20.899917
1826.524844	-3.005700	3.382100	-10.165000	26.325141	0.000182	20.861312
1827.524457	-3.010700	3.381200	-10.179000	26.342771	0.000181	20.888036
1828.539516	-2.998300	3.381800	-10.138000	26.406833	0.000181	20.884618
1829.551221	-3.011000	3.381900	-10.182000	26.398662	0.000183	20.887311
1830.565936	-2.997000	3.381900	-10.134000	26.379619	0.000179	20.880500
1831.523741	-2.959100	3.380900	-10.004000	26.372068	0.000180	20.895195
1832.527069	-3.031800	3.380000	-10.247000	26.347211	0.000179	20.889180
1833.529408	-3.002600	3.378900	-10.145000	26.336980	0.000179	20.872260
1834.523617	-2.998800	3.379400	-10.133000	26.355999	0.000178	20.883314
1835.544517	-3.020500	3.378000	-10.202000	26.365364	0.000178	20.901259
1836.552515	-3.010200	3.378400	-10.169000	26.356049	0.000179	20.881941
1837.527176	-2.990000	3.378400	-10.101000	26.357563	0.000178	20.877773
1838.528701	-2.998600	3.377400	-10.126000	26.375984	0.000177	20.896760
1839.524556	-2.992300	3.378300	-10.108000	26.356619	0.000176	20.892945
1840.526724	-3.007000	3.377400	-10.155000	26.384950	0.000178	20.896763
1841.533562	-2.999800	3.378100	-10.133000	26.371636	0.000177	20.895235
1842.552907	-3.011100	3.377300	-10.168000	26.332755	0.000176	20.901677
1843.532062	-3.017300	3.375500	-10.184000	26.297167	0.000175	20.914748
1844.535061	-2.986700	3.376700	-10.084000	26.318648	0.000177	20.903621
1845.529195	-2.997700	3.376000	-10.120000	26.284030	0.000176	20.897281
1846.535502	-3.017100	3.375100	-10.182000	26.271562	0.000175	20.885226
1847.533535	-3.007400	3.375900	-10.152000	26.277051	0.000174	20.904965
1848.533751	-2.994700	3.375300	-10.107000	26.242907	0.000172	20.903370
1849.555209	-2.967400	3.375100	-10.014000	26.282439	0.000176	20.886673
1850.531056	-2.994700	3.374400	-10.104000	26.326342	0.000175	20.875793
1851.553818	-3.023800	3.374000	-10.201000	26.339876	0.000173	20.879912
1852.535576	-3.007200	3.373000	-10.142000	26.350277	0.000177	20.869029
1853.553901	-3.005200	3.374700	-10.141000	26.360409	0.000174	20.892487
1854.532350	-3.010600	3.373000	-10.154000	26.328349	0.000173	20.878759
1855.554238	-2.987500	3.373300	-10.076000	26.391392	0.000172	20.877160
1856.561892	-2.984400	3.373200	-10.066000	26.431193	0.000172	20.877808
1857.568444	-2.999500	3.372300	-10.114000	26.425233	0.000173	20.883197
1858.539372	-2.977600	3.373500	-10.045000	26.447951	0.000171	20.866677
1859.551459	-3.018500	3.372100	-10.178000	26.483081	0.000171	20.872116
1860.565840	-2.987800	3.371700	-10.072000	26.506495	0.000171	20.892803
1861.552934	-3.025600	3.372200	-10.202000	26.468433	0.000171	20.879203
1862.563064	-2.995100	3.371000	-10.095000	26.393597	0.000171	20.883169
1863.562977	-2.984300	3.369600	-10.056000	26.406979	0.000170	20.867697
1864.538136	-3.017900	3.370000	-10.169000	26.406532	0.000169	20.885264
1865.561882	-2.971000	3.370600	-10.012000	26.435035	0.000169	20.868394
1866.559651	-2.993200	3.369900	-10.086000	26.421206	0.000170	20.877728
1867.564768	-3.021300	3.369100	-10.178000	26.434714	0.000171	20.873287
1868.556661	-2.990900	3.369900	-10.078000	26.441492	0.000168	20.872038
1869.560839	-2.993200	3.368300	-10.080000	26.470141	0.000168	20.854843
1870.557539	-2.971600	3.368900	-10.010000	26.444544	0.000170	20.878425
1871.565719	-3.006900	3.367900	-10.126000	26.372291	0.000169	20.887833
1872.560884	-2.963200	3.369000	-9.981700	26.357887	0.000167	20.850126
1873.556058	-2.981300	3.367600	-10.039000	26.357166	0.000166	20.860306
1874.565310	-2.993300	3.366300	-10.075000	26.290146	0.000165	20.873083
1875.542653	-3.003100	3.366800	-10.110000	26.289400	0.000167	20.864273
1876.558255	-2.994900	3.366400	-10.081000	26.281354	0.000165	20.868989
1877.566213	-3.014500	3.366000	-10.146000	26.301346	0.000164	20.846408
1878.574052	-3.017600	3.364700	-10.152000	26.331242	0.000164	20.886882
1879.557510	-2.997000	3.365300	-10.085000	26.340305	0.000163	20.862801
1880.565480	-2.999500	3.364500	-10.091000	26.345122	0.000163	20.888977
1881.556156	-3.011400	3.364800	-10.132000	26.380234	0.000166	20.857412
1882.560757	-2.966100	3.366200	-9.983800	26.405062	0.000166	20.868140
1883.564980	-3.001400	3.365400	-10.100000	26.449632	0.000163	20.847979
1884.568305	-3.008100	3.363800	-10.117000	26.384301	0.000162	20.858655
1885.563769	-2.989700	3.362700	-10.053000	26.362923	0.000163	20.840015
1886.559857	-2.995500	3.363100	-10.074000	26.336380	0.000163	20.847951
1887.566023	-3.012900	3.362700	-10.130000	26.356466	0.000162	20.870034
1888.558313	-2.981000	3.362100	-10.022000	26.360666	0.000163	20.874254
1889.565925	-2.978100	3.364200	-10.018000	26.385121	0.000162	20.856160
1890.563608	-2.998200	3.361900	-10.079000	26.377249	0.000161	20.837818
1891.547081	-3.017000	3.361100	-10.139000	26.344271	0.000161	20.851140
1892.546946	-3.022400	3.360500	-10.156000	26.362723	0.000162	20.851667
1893.543428	-3.007000	3.360900	-10.106000	26.402426	0.000159	20.860750
1894.549803	-3.015700	3.359300	-10.130000	26.413474	0.000160	20.858577
1895.561420	-3.001500	3.359800	-10.084000	26.432890	0.000160	20.859126
1896.546875	-3.008500	3.360500	-10.109000	26.440018	0.000160	20.834998
1897.546494	-3.010400	3.360000	-10.113000	26.400539	0.000159	20.847474
1898.547824	-3.015100	3.357700	-10.122000	26.398701	0.000159	20.846575
1899.551003	-2.993000	3.358700	-10.052000	26.376876	0.000157	20.858304
1900.551590	-2.972700	3.360300	-9.988300	26.408657	0.000160	20.838090
1901.547102	-3.003200	3.357900	-10.084000	26.433710	0.000158	20.850942
1902.549512	-2.992000	3.359000	-10.050000	26.369482	0.000159	20.845184
1903.549310	-2.983800	3.359300	-10.023000	26.364783	0.000156	20.841409
1904.548864	-2.999000	3.358300	-10.071000	26.390758	0.000156	20.820101
1905.555507	-3.008000	3.357300	-10.097000	26.392568	0.000157	20.852265
1906.573954	-3.026800	3.356300	-10.158000	26.461173	0.000156	20.831130
1907.547810	-2.995900	3.357600	-10.058000	26.462541	0.000156	20.841514
1908.549507	-2.992700	3.357900	-10.048000	26.481309	0.000156	20.858955
1909.551605	-3.007200	3.356200	-10.091000	26.482601	0.000154	20.833702
1910.548574	-2.994000	3.355400	-10.045000	26.428499	0.000154	20.847601
1911.560022	-2.998100	3.354900	-10.058000	26.479024	0.000152	20.823469
1912.549450	-2.990200	3.354500	-10.030000	26.476095	0.000155	20.845655
1913.553358	-2.996900	3.354000	-10.051000	26.463136	0.000152	20.848750
1914.577613	-2.997000	3.355000	-10.054000	26.483569	0.000154	20.839417
1915.554345	-2.995100	3.354700	-10.047000	26.516195	0.000155	20.824796
1916.560256	-2.995300	3.355100	-10.049000	26.500751	0.000154	20.831083
1917.550587	-3.017500	3.353000	-10.117000	26.506689	0.000151	20.843216
1918.550961	-3.027100	3.351900	-10.145000	26.524612	0.000153	20.839419
1919.558377	-2.995800	3.353100	-10.045000	26.500159	0.000150	20.829066
1920.553366	-3.002500	3.352500	-10.065000	26.502641	0.000148	20.843414
1921.552942	-2.999800	3.352700	-10.057000	26.504281	0.000150	20.846485
1922.558064	-3.002700	3.351500	-10.062000	26.487968	0.000148	20.834356
1923.555959	-2.977300	3.351700	-9.977700	26.490105	0.000149	20.824650
1924.557234	-3.001500	3.351100	-10.056000	26.492266	0.000149	20.843891
1925.559666	-2.991100	3.351500	-10.024000	26.515926	0.000149	20.831164
1926.556530	-2.991900	3.349400	-10.020000	26.581271	0.000150	20.820509
1927.558528	-3.012000	3.349300	-10.087000	26.592939	0.000150	20.836506
1928.555761	-2.987400	3.350000	-10.007000	26.635242	0.000150	20.843944
1929.552632	-3.024400	3.348600	-10.126000	26.615355	0.000147	20.820633
1930.587941	-3.009200	3.348500	-10.075000	26.598821	0.000150	20.825350
1931.557120	-2.987700	3.350100	-10.008000	26.600483	0.000148	20.815167
1932.574014	-3.012500	3.347500	-10.084000	26.540455	0.000147	20.819784
1933.588968	-2.983300	3.347800	-9.986700	26.540702	0.000147	20.821929
1934.578450	-2.998500	3.348900	-10.042000	26.530623	0.000147	20.836454
1935.574300	-2.982600	3.348800	-9.986900	26.483674	0.000146	20.821978
1936.580678	-2.998300	3.348000	-10.037000	26.461255	0.000145	20.834532
1937.558231	-3.009100	3.347400	-10.071000	26.530349	0.000147	20.804410
1938.573072	-3.009600	3.347500	-10.075000	26.541966	0.000146	20.822725
1939.555542	-2.997300	3.346600	-10.030000	26.560214	0.000146	20.832059
1940.578183	-2.978000	3.347300	-9.966800	26.565326	0.000145	20.830086
1941.556091	-2.985200	3.346700	-9.989500	26.576995	0.000145	20.828065
1942.569417	-3.008600	3.346000	-10.065000	26.568054	0.000145	20.827139
1943.574518	-3.005800	3.343200	-10.048000	26.554449	0.000143	20.827687
1944.594420	-2.997300	3.345300	-10.026000	26.527562	0.000144	20.812989
1945.571139	-2.983300	3.345800	-9.981000	26.518772	0.000142	20.816955
1946.574561	-3.006500	3.344900	-10.055000	26.546902	0.000142	20.819627
1947.578297	-2.979900	3.344500	-9.964500	26.598113	0.000140	20.840759
1948.578478	-2.963500	3.345100	-9.912500	26.610898	0.000142	20.798609
1949.573662	-3.015600	3.343000	-10.079000	26.622070	0.000143	20.823116
1950.581322	-3.017200	3.343000	-10.085000	26.601362	0.000141	20.820318
1951.584790	-3.016600	3.341700	-10.080000	26.560625	0.000139	20.822989
1952.586365	-3.016800	3.341100	-10.079000	26.573385	0.000141	20.819221
1953.593611	-2.993800	3.341200	-10.002000	26.629068	0.000141	20.818772
1954.584379	-2.996600	3.342200	-10.014000	26.645153	0.000137	20.821666
1955.561516	-3.037500	3.340100	-10.145000	26.611265	0.000138	20.826953
1956.562932	-3.015800	3.340400	-10.073000	26.616481	0.000139	20.812282
1957.565055	-3.008700	3.340500	-10.050000	26.546619	0.000138	20.825032
1958.560244	-3.016200	3.340400	-10.075000	26.560943	0.000137	20.821412
1959.568040	-3.040500	3.339300	-10.152000	26.619209	0.000138	20.821189
1960.590876	-2.978100	3.340600	-9.947200	26.644778	0.000138	20.803745
1961.560740	-3.048600	3.337900	-10.174000	26.696979	0.000138	20.819714
1962.565297	-2.989900	3.339700	-9.984000	26.677171	0.000137	20.797429
1963.565839	-2.985200	3.339200	-9.967700	26.699486	0.000137	20.833139
1964.559559	-2.996600	3.338700	-10.004000	26.698841	0.000137	20.809732
1965.591766	-2.982800	3.338200	-9.956300	26.661732	0.000133	20.790918
1966.587929	-3.004000	3.338600	-10.028000	26.609375	0.000136	20.822683
1967.561634	-2.995300	3.337400	-9.995400	26.608009	0.000136	20.811353
1968.562138	-2.976500	3.337800	-9.933300	26.601384	0.000137	20.808486
1969.560096	-3.002400	3.336800	-10.017000	26.619801	0.000135	20.814198
1970.561005	-3.001900	3.337100	-10.017000	26.590431	0.000134	20.804588
1971.563691	-3.005500	3.337500	-10.030000	26.570771	0.000134	20.821809
1972.560521	-2.997400	3.336600	-10.000000	26.601628	0.000135	20.809206
1973.563045	-2.989400	3.336400	-9.973000	26.584475	0.000135	20.817092
1974.563574	-2.996800	3.335600	-9.995500	26.615008	0.000133	20.823129
1975.564620	-3.012800	3.334400	-10.045000	26.647478	0.000132	20.794132
1976.566744	-3.005900	3.334300	-10.021000	26.632903	0.000132	20.800343
1977.589463	-2.995700	3.334000	-9.986900	26.633301	0.000131	20.796949
1978.578974	-3.006300	3.334300	-10.023000	26.595194	0.000131	20.813169
1979.583775	-3.004400	3.334500	-10.017000	26.557583	0.000132	20.803336
1980.589084	-2.990200	3.332900	-9.965000	26.570713	0.000132	20.813690
1981.592789	-2.972300	3.334400	-9.909600	26.568182	0.000131	20.809723
1982.606301	-2.986900	3.332200	-9.951600	26.622943	0.000130	20.807399
1983.575124	-3.017000	3.332200	-10.053000	26.661693	0.000131	20.810319
1984.570620	-2.961400	3.332500	-9.867700	26.711810	0.000130	20.806175
1985.566631	-3.011700	3.331600	-10.033000	26.702627	0.000131	20.798840
1986.570912	-3.000200	3.329800	-9.988600	26.695353	0.000129	20.806225
1987.566210	-3.006600	3.331200	-10.013000	26.670106	0.000129	20.796017
1988.570979	-2.996400	3.330400	-9.978500	26.641508	0.000129	20.792397
1989.580586	-3.018900	3.329700	-10.050000	26.583369	0.000126	20.803179
1990.589465	-2.981700	3.331400	-9.933000	26.595929	0.000126	20.779294
1991.566633	-2.977400	3.331200	-9.917200	26.582546	0.000127	20.792394
1992.587977	-2.973700	3.329900	-9.901200	26.543497	0.000124	20.805299
1993.564386	-2.996100	3.329500	-9.975100	26.579639	0.000128	20.796584
1994.566852	-3.002600	3.328600	-9.993300	26.611716	0.000125	20.766241
1995.570045	-3.034500	3.327400	-10.096000	26.665482	0.000124	20.798007
1996.567233	-2.986300	3.329100	-9.940700	26.716197	0.000123	20.803473
1997.596189	-3.015300	3.328100	-10.034000	26.724733	0.000124	20.793089
1998.606700	-2.990500	3.328500	-9.952100	26.709419	0.000126	20.804245
1999.566824	-2.991600	3.327500	-9.953600	26.760030	0.000123	20.786850
2000.565532	-2.996000	3.327200	-9.967300	26.831215	0.000125	20.804369
2001.566563	-3.023100	3.325000	-10.050000	26.854347	0.000125	20.783531
2002.569116	-3.006000	3.326500	-9.999000	26.862015	0.000125	20.792664
2003.573691	-3.010200	3.326000	-10.011000	26.794133	0.000123	20.779413
2004.568256	-3.024300	3.325800	-10.057000	26.766284	0.000121	20.791242
2005.588411	-3.000200	3.324700	-9.973400	26.735830	0.000121	20.793814
2006.573496	-2.998700	3.326700	-9.975100	26.754395	0.000121	20.771228
2007.586702	-2.973500	3.325300	-9.886600	26.773435	0.000121	20.771879
2008.595820	-3.021100	3.323500	-10.039000	26.768269	0.000121	20.785651
2009.600405	-2.990200	3.324300	-9.939400	26.704700	0.000119	20.795708
2010.584538	-2.985600	3.323900	-9.922600	26.680844	0.000120	20.789742
2011.568940	-3.005400	3.323000	-9.986100	26.661210	0.000122	20.793238
2012.568857	-3.001100	3.322300	-9.970200	26.657459	0.000119	20.776664
2013.570796	-3.003900	3.321900	-9.976600	26.737165	0.000120	20.771922
2014.580018	-3.018900	3.322500	-10.029000	26.776558	0.000121	20.775492
2015.572274	-3.003500	3.321200	-9.973400	26.823566	0.000119	20.788143
2016.570630	-2.997000	3.320700	-9.950200	26.814707	0.000118	20.796780
2017.569633	-3.015800	3.319700	-10.011000	26.861291	0.000120	20.774867
2018.573974	-2.982700	3.320200	-9.902600	26.844214	0.000119	20.788515
2019.576690	-2.983100	3.321900	-9.908700	26.803707	0.000117	20.790461
2020.572516	-3.014000	3.320400	-10.007000	26.823760	0.000117	20.775536
2021.572841	-3.016300	3.318500	-10.009000	26.858234	0.000116	20.788388
2022.574474	-3.015900	3.320300	-10.013000	26.869974	0.000116	20.780278
2023.575469	-3.019300	3.318800	-10.018000	26.885634	0.000114	20.773265
2024.581521	-3.022400	3.318400	-10.029000	26.904422	0.000116	20.773664
2025.576346	-3.005400	3.318300	-9.972100	26.868085	0.000115	20.765576
2026.573735	-3.011700	3.317600	-9.991100	26.811022	0.000115	20.790704
2027.610493	-2.990500	3.317700	-9.919700	26.780519	0.000114	20.773311
2028.574628	-2.980400	3.317100	-9.885200	26.755028	0.000116	20.777080
2029.575676	-2.990400	3.318400	-9.922100	26.769870	0.000114	20.767820
2030.578487	-2.992500	3.317200	-9.925100	26.762568	0.000114	20.787032
2031.572553	-3.004200	3.316600	-9.963000	26.762247	0.000114	20.786235
2032.572618	-2.992700	3.315600	-9.922300	26.786672	0.000113	20.770488
2033.582453	-3.015400	3.316900	-9.999400	26.828591	0.000112	20.770436
2034.579928	-3.005100	3.314700	-9.960200	26.852962	0.000113	20.785457
2035.586817	-2.998400	3.315100	-9.939600	26.892326	0.000111	20.776674
2036.594622	-2.992500	3.315200	-9.920100	26.902151	0.000112	20.771381
2037.597619	-3.011300	3.314200	-9.979100	26.938857	0.000109	20.780316
2038.620512	-2.980400	3.314800	-9.878600	26.889343	0.000111	20.782210
2039.575005	-3.003300	3.314700	-9.954200	26.876065	0.000109	20.790670
2040.601991	-3.016900	3.313500	-9.995400	26.899418	0.000109	20.781435
2041.576156	-3.011500	3.312700	-9.974400	26.907388	0.000110	20.783285
2042.579625	-2.993500	3.313500	-9.918000	26.892443	0.000109	20.772999
2043.602347	-3.013600	3.312800	-9.983200	26.932124	0.000111	20.780658
2044.609024	-3.012600	3.311800	-9.976300	26.962526	0.000107	20.781832
2045.581934	-2.974500	3.312100	-9.850500	27.038462	0.000109	20.758149
2046.592836	-3.033800	3.311000	-10.043000	27.003991	0.000106	20.786546
2047.589647	-2.998200	3.310900	-9.925800	26.991732	0.000107	20.769002
2048.590760	-2.994400	3.310700	-9.913000	27.032133	0.000108	20.759370
2049.584227	-2.988200	3.311100	-9.893900	26.992947	0.000105	20.771171
2050.587886	-2.988800	3.310900	-9.894500	27.001064	0.000106	20.754204
2051.593710	-2.996400	3.310500	-9.919000	26.948948	0.000107	20.771497
2052.577575	-2.994800	3.310100	-9.911700	26.855878	0.000106	20.762785
2053.579473	-2.988600	3.308100	-9.885800	26.833665	0.000104	20.758468
2054.608613	-2.995400	3.308400	-9.909200	26.820138	0.000105	20.787541
2055.581510	-3.022700	3.308800	-9.999900	26.822520	0.000104	20.770970
2056.581142	-3.000000	3.307900	-9.922900	26.797203	0.000104	20.775386
2057.586356	-2.966100	3.308200	-9.810900	26.848207	0.000102	20.770719
2058.590532	-2.992000	3.306800	-9.892700	26.918416	0.000103	20.753123
2059.581094	-2.978900	3.307800	-9.852900	26.932710	0.000103	20.758487
2060.586194	-2.997400	3.307600	-9.914000	26.908711	0.000104	20.750950
2061.582386	-3.007800	3.307200	-9.946900	26.926356	0.000102	20.771538
2062.590838	-3.012700	3.306200	-9.959500	26.952934	0.000102	20.779772
2063.592221	-2.994600	3.305500	-9.897700	26.937250	0.000101	20.795770
2064.581101	-3.005400	3.305100	-9.931100	26.899796	0.000101	20.757158
2065.584520	-3.001900	3.304500	-9.918500	26.899971	0.000100	20.759706
2066.583221	-2.995900	3.305300	-9.901200	26.874458	9.922178E-5	20.760604
2067.583486	-3.007300	3.304200	-9.935900	26.880438	0.000101	20.768039
2068.580164	-2.994200	3.304800	-9.894900	26.910965	0.000101	20.765545
2069.582008	-2.995200	3.304100	-9.896000	26.949381	9.951880E-5	20.774777
2070.593394	-2.997100	3.303400	-9.898800	26.966824	9.948579E-5	20.760549
2071.586507	-2.982600	3.303500	-9.852000	26.961144	0.000100	20.756260
2072.589650	-3.020700	3.300300	-9.968200	26.883736	9.790168E-5	20.772304
2073.582701	-3.008600	3.301900	-9.933100	26.852360	9.829771E-5	20.760670
2074.584671	-3.004300	3.303000	-9.922600	26.832431	9.813270E-5	20.745373
2075.594710	-2.979400	3.301400	-9.834900	26.862362	9.730764E-5	20.778314
2076.589332	-2.994900	3.300800	-9.883800	26.902318	9.714262E-5	20.750211
2077.587368	-2.996700	3.301400	-9.892000	26.964831	9.450243E-5	20.752381
2078.585990	-3.022900	3.301200	-9.978000	26.996249	9.638357E-5	20.767855
2079.590148	-3.004800	3.301300	-9.919600	27.015331	9.489846E-5	20.763336
2080.587662	-3.013100	3.299200	-9.940100	27.040816	9.793468E-5	20.768577
2081.586431	-3.010100	3.299900	-9.932300	27.092330	9.407340E-5	20.781977
2082.596121	-3.004600	3.299100	-9.911400	27.040318	9.668059E-5	20.764756
2083.585337	-3.005400	3.300400	-9.917900	27.018182	9.394139E-5	20.777109
2084.588094	-2.990900	3.298300	-9.863900	27.017760	9.397439E-5	20.768149
2085.588244	-2.981700	3.298500	-9.834500	27.050438	9.377638E-5	20.772563
2086.587914	-2.973900	3.298400	-9.808400	26.999418	9.291831E-5	20.762980
2087.584824	-3.002600	3.296800	-9.897600	27.007308	9.463444E-5	20.771389
2088.598289	-2.988400	3.297200	-9.852300	26.998993	9.311633E-5	20.740741
2089.594105	-3.029100	3.295900	-9.982300	27.001450	9.377638E-5	20.776403
2090.584744	-3.004600	3.295600	-9.900600	27.029564	9.050914E-5	20.777175
2091.589000	-3.016800	3.295900	-9.942100	27.059390	9.255529E-5	20.770187
2092.584177	-3.027100	3.295400	-9.973800	27.122243	9.242328E-5	20.791198
2093.590890	-3.013800	3.296700	-9.934700	27.136981	9.136720E-5	20.758131
2094.592876	-3.014100	3.295300	-9.931200	27.185362	9.130120E-5	20.765067
2095.585238	-2.966900	3.295300	-9.776100	27.199576	9.258829E-5	20.772726
2096.595737	-2.994600	3.295300	-9.867300	27.182257	9.044313E-5	20.763366
2097.592251	-3.001800	3.293800	-9.885300	27.140621	9.044313E-5	20.757525
2098.589786	-2.998900	3.293700	-9.876700	27.177814	9.110318E-5	20.773597
2099.596322	-3.004900	3.294000	-9.897400	27.159503	8.859500E-5	20.775568
2100.586398	-2.982500	3.292800	-9.820300	27.144715	8.753892E-5	20.761643
2101.587736	-2.995000	3.292200	-9.859700	27.143918	8.905703E-5	20.775540
2102.604354	-2.980300	3.293600	-9.814600	27.147018	8.704389E-5	20.770597
2103.591908	-3.022000	3.292900	-9.949500	27.165552	8.849599E-5	20.747512
2104.591101	-3.006700	3.289700	-9.890400	27.187136	8.922204E-5	20.742194
2105.592866	-3.011600	3.290800	-9.909200	27.209440	8.866100E-5	20.776483
2106.612217	-3.004100	3.290700	-9.884300	27.171255	8.734091E-5	20.762258
2107.615812	-2.991500	3.291100	-9.843100	27.156641	8.776994E-5	20.771741
2108.612566	-3.024400	3.289000	-9.945400	27.167654	8.592180E-5	20.750101
2109.610437	-3.021600	3.289800	-9.940200	27.194078	8.783594E-5	20.779524
2110.594938	-3.010100	3.288300	-9.896900	27.195320	8.479972E-5	20.761332
2111.594205	-3.034700	3.288300	-9.978000	27.180432	8.833098E-5	20.763427
2112.593783	-2.991700	3.288900	-9.838200	27.159464	8.621883E-5	20.760356
2113.615894	-2.986200	3.287900	-9.817700	27.195142	8.519575E-5	20.773007
2114.594839	-2.987100	3.288900	-9.823000	27.197249	8.509674E-5	20.762324
2115.609598	-3.002100	3.287200	-9.867900	27.130134	8.516275E-5	20.776376
2116.617435	-2.987500	3.287100	-9.819300	27.110602	8.334762E-5	20.785655
2117.621166	-2.988700	3.287500	-9.824800	27.097352	8.512975E-5	20.788924
2118.621577	-2.972200	3.288300	-9.771800	27.063477	8.301759E-5	20.770978
2119.598660	-2.977400	3.286600	-9.784600	27.108217	8.450270E-5	20.786101
2120.611151	-3.007900	3.286600	-9.885000	27.146303	7.984936E-5	20.786948
2121.622633	-2.994200	3.286000	-9.838300	27.235795	8.235754E-5	20.785448
2122.619764	-3.001700	3.284900	-9.859500	27.258816	8.169749E-5	20.773043
2123.595080	-3.009900	3.283800	-9.882900	27.269486	8.446970E-5	20.796103
2124.597839	-2.982700	3.285200	-9.797700	27.278491	8.235754E-5	20.787618
2125.619660	-3.023100	3.283600	-9.926200	27.270478	8.186251E-5	20.788092
2126.596464	-3.003200	3.283700	-9.860700	27.271048	8.179650E-5	20.803838
2127.597235	-2.990000	3.282700	-9.814200	27.344926	8.163149E-5	20.784271
2128.613241	-2.991600	3.282600	-9.819000	27.355147	7.988236E-5	20.775113
2129.612296	-2.995000	3.282100	-9.829000	27.318481	7.905730E-5	20.781851
2130.594540	-2.986100	3.283000	-9.802900	27.286425	7.981636E-5	20.800814
2131.615881	-3.006300	3.281700	-9.864600	27.256207	7.915631E-5	20.801239
2132.594794	-2.977400	3.281600	-9.769400	27.178028	7.909030E-5	20.795623
2133.594993	-2.998200	3.281300	-9.837300	27.176491	8.083943E-5	20.795973
2134.603627	-2.995700	3.281200	-9.828500	27.142520	7.961834E-5	20.783618
2135.594969	-3.001500	3.281100	-9.847300	27.150510	7.882628E-5	20.777429
2136.595196	-3.004700	3.279000	-9.851600	27.204252	7.862827E-5	20.803982
2137.629126	-3.018300	3.279700	-9.898200	27.297911	7.747319E-5	20.791031
2138.597538	-3.005400	3.279700	-9.855600	27.337379	7.816624E-5	20.787585
2139.615446	-3.009900	3.277800	-9.865000	27.367745	7.701115E-5	20.796321
2140.598897	-2.982200	3.279900	-9.779700	27.398554	7.668113E-5	20.799339
2141.596987	-2.979600	3.278500	-9.767900	27.350725	7.486600E-5	20.792949
2142.614234	-2.977900	3.278200	-9.761800	27.274342	7.529503E-5	20.793401
2143.613471	-2.998500	3.277400	-9.826100	27.204970	7.493200E-5	20.795695
2144.622984	-2.989300	3.277800	-9.796800	27.223900	7.443696E-5	20.787709
2145.620638	-3.000200	3.276100	-9.828300	27.204326	7.519602E-5	20.787461
2146.620018	-3.024100	3.277500	-9.910500	27.202537	7.496500E-5	20.791825
2147.607840	-2.996800	3.274700	-9.813500	27.258981	7.390893E-5	20.805451
2148.603160	-3.007700	3.274900	-9.849500	27.346159	7.549304E-5	20.803055
2149.602612	-3.017700	3.274300	-9.879700	27.309717	7.407394E-5	20.816183
2150.629961	-3.012600	3.274800	-9.864500	27.275107	7.549304E-5	20.801757
2151.617687	-3.017700	3.274400	-9.880800	27.271807	7.354590E-5	20.789903
2152.616758	-3.011900	3.273500	-9.858800	27.313559	7.239081E-5	20.810565
2153.602826	-2.999400	3.272100	-9.813500	27.282525	7.437096E-5	20.798788
2154.604029	-3.000600	3.273400	-9.821700	27.323954	7.285285E-5	20.781666
2155.600799	-3.011800	3.272700	-9.856400	27.329360	7.262183E-5	20.787105
2156.633214	-2.995400	3.271400	-9.798100	27.313981	7.070769E-5	20.801032
2157.620904	-2.987900	3.272800	-9.778100	27.323384	7.222580E-5	20.809542
2158.626013	-2.990100	3.271500	-9.780300	27.288626	6.955261E-5	20.794019
2159.622911	-3.008400	3.270000	-9.836700	27.215136	6.925558E-5	20.796911
2160.618652	-3.009300	3.270700	-9.842000	27.209408	7.116972E-5	20.810589
2161.600813	-2.989600	3.271900	-9.781100	27.227444	6.899157E-5	20.785109
2162.603833	-3.002300	3.268900	-9.813200	27.258729	6.793549E-5	20.814206
2163.603752	-3.003300	3.270800	-9.821900	27.303956	6.889256E-5	20.806121
2164.605436	-3.002400	3.269600	-9.816000	27.276718	6.879355E-5	20.809068
2165.602996	-3.008400	3.268500	-9.831000	27.290089	6.757246E-5	20.799758
2166.603988	-2.989700	3.269900	-9.775300	27.292419	7.044367E-5	20.803998
2167.622014	-3.001700	3.269000	-9.811700	27.285499	6.684641E-5	20.811736
2168.622338	-3.015400	3.267900	-9.853100	27.306782	6.786948E-5	20.813230
2169.629088	-3.005400	3.267700	-9.820400	27.309388	6.763847E-5	20.803050
2170.620058	-2.998300	3.266400	-9.793100	27.353298	6.433822E-5	20.790322
2171.621559	-3.002200	3.265800	-9.803800	27.353720	6.681341E-5	20.802601
2172.604183	-3.013900	3.266400	-9.843100	27.297407	6.631837E-5	20.811860
2173.605186	-3.026500	3.264000	-9.877200	27.344167	6.720943E-5	20.825707
2174.609615	-3.008200	3.265300	-9.821900	27.360491	6.602135E-5	20.817473
2175.606140	-3.013600	3.264800	-9.837700	27.391501	6.602135E-5	20.832546
2176.606706	-3.008900	3.263000	-9.817300	27.403553	6.506428E-5	20.821437
2177.604898	-3.003500	3.263900	-9.802000	27.392019	6.357917E-5	20.806041
2178.608135	-3.002300	3.263300	-9.796500	27.433396	6.513028E-5	20.814002
2179.624817	-3.013700	3.261500	-9.828400	27.435651	6.542730E-5	20.819590
2180.635000	-3.014600	3.264100	-9.839100	27.486253	6.687941E-5	20.829247
2181.624760	-3.013000	3.262400	-9.828700	27.451054	6.351316E-5	20.826551
2182.608099	-3.005200	3.260700	-9.798600	27.436816	6.183004E-5	20.825503
2183.628096	-3.001100	3.261900	-9.788200	27.443910	6.417321E-5	20.827425
2184.628557	-3.001600	3.261600	-9.789300	27.515321	6.364517E-5	20.828621
2185.642854	-3.001500	3.259600	-9.782500	27.471541	6.357917E-5	20.821084
2186.631149	-2.999800	3.260100	-9.778400	27.549548	6.156602E-5	20.813746
2187.613081	-3.011900	3.260800	-9.820100	27.569911	6.278711E-5	20.828070
2188.615946	-3.032700	3.258400	-9.880600	27.513927	6.176404E-5	20.832908
2189.615676	-2.991700	3.259800	-9.752100	27.419668	6.136801E-5	20.817735
2190.618298	-3.015800	3.259400	-9.828600	27.370053	6.166503E-5	20.835626
2191.615171	-3.027900	3.258300	-9.864800	27.471736	6.093898E-5	20.841668
2192.611938	-3.007200	3.258100	-9.796500	27.527988	5.975089E-5	20.821925
2193.637482	-2.988600	3.257900	-9.734800	27.510620	6.087297E-5	20.807296
2194.612221	-2.980500	3.256600	-9.705300	27.476693	6.196205E-5	20.822474
2195.613484	-3.002500	3.259600	-9.785300	27.394557	5.852980E-5	20.830879
2196.612476	-2.981500	3.257600	-9.712000	27.388578	5.915684E-5	20.807321
2197.615064	-2.995700	3.257000	-9.756700	27.422907	5.711069E-5	20.848968
2198.612441	-3.007300	3.255800	-9.789900	27.496926	5.757273E-5	20.818648
2199.612106	-3.003700	3.255300	-9.777100	27.511385	5.697869E-5	20.831773
2200.612823	-2.996100	3.256300	-9.755000	27.557744	5.872781E-5	20.816776
2201.612599	-3.020300	3.253900	-9.827000	27.580090	5.823278E-5	20.843527
2202.612625	-3.005900	3.253700	-9.779800	27.572375	5.928885E-5	20.861841
2203.613240	-2.972700	3.254300	-9.673200	27.561585	5.829878E-5	20.837710
2204.614673	-2.984200	3.254600	-9.710600	27.580956	5.777074E-5	20.837760
2205.614786	-2.982400	3.254300	-9.703800	27.557117	5.628563E-5	20.835111
2206.616170	-2.993400	3.251900	-9.733100	27.568898	5.942086E-5	20.844594
2207.615298	-3.002400	3.251900	-9.762600	27.593652	5.681367E-5	20.826827
2208.613558	-3.011500	3.251800	-9.791400	27.537247	5.727571E-5	20.823655
2209.616357	-2.994200	3.250900	-9.733200	27.581320	5.720970E-5	20.857566
2210.614382	-3.018100	3.251000	-9.810800	27.587471	5.631864E-5	20.847634
2211.619052	-3.009000	3.249600	-9.776100	27.549922	5.664866E-5	20.846838
2212.614649	-3.026300	3.249800	-9.833900	27.549149	5.509755E-5	20.848905
2213.614132	-3.001500	3.250900	-9.756400	27.593669	5.473452E-5	20.833956
2214.614305	-3.004500	3.249100	-9.760500	27.550191	5.509755E-5	20.839048
2215.615406	-3.003300	3.248500	-9.755400	27.517621	5.384346E-5	20.838521
2216.620177	-2.992900	3.248600	-9.721900	27.487558	5.691268E-5	20.850948
2217.636340	-3.003800	3.247700	-9.754800	27.497033	5.489953E-5	20.854791
2218.638317	-3.011600	3.247400	-9.779100	27.504399	5.404147E-5	20.854614
2219.631385	-2.986300	3.247400	-9.697000	27.446307	5.394246E-5	20.840741
2220.637002	-3.025100	3.245100	-9.816100	27.456571	5.463551E-5	20.852964
2221.617153	-2.977500	3.248100	-9.670500	27.463049	5.179731E-5	20.842411
2222.612437	-2.960700	3.246200	-9.610000	27.489389	5.390946E-5	20.871281
2223.636788	-2.986200	3.245300	-9.690500	27.483161	5.186331E-5	20.861222
2224.617390	-2.969700	3.245800	-9.638300	27.488047	5.120326E-5	20.876094
2225.616640	-2.973200	3.246100	-9.650400	27.524382	5.318341E-5	20.842952
2226.615971	-2.982200	3.245500	-9.678100	27.541920	5.338142E-5	20.836890
2227.624094	-3.000200	3.242700	-9.728000	27.560022	5.239135E-5	20.843724
2228.617582	-3.009600	3.242700	-9.758800	27.608609	5.143428E-5	20.847092
2229.619052	-3.020500	3.243300	-9.795000	27.656573	5.163229E-5	20.863585
2230.616322	-2.985100	3.243500	-9.681000	27.731813	5.282038E-5	20.862011
2231.615640	-2.966600	3.243600	-9.621600	27.721992	5.222634E-5	20.868249
2232.618659	-3.008000	3.240400	-9.745700	27.732232	5.156629E-5	20.860062
2233.637500	-3.005800	3.240600	-9.739200	27.672714	5.044421E-5	20.862284
2234.633545	-3.011700	3.239900	-9.756800	27.614528	4.981716E-5	20.850202
2235.619525	-3.026900	3.239700	-9.805100	27.633873	4.892610E-5	20.861132
2236.618885	-3.001000	3.240600	-9.724800	27.671569	5.126927E-5	20.857813
2237.620172	-2.995500	3.239000	-9.701700	27.701129	5.126927E-5	20.862902
2238.624166	-3.020200	3.238700	-9.780200	27.729027	4.938813E-5	20.858734
2239.635501	-3.000700	3.239100	-9.718900	27.629454	4.928912E-5	20.872332
2240.640734	-3.002100	3.239200	-9.724000	27.636172	4.965215E-5	20.867713
2241.634400	-2.996800	3.238400	-9.703900	27.618117	4.876108E-5	20.871831
2242.640190	-3.016500	3.238300	-9.767500	27.637758	4.919011E-5	20.865516
2243.641818	-2.991800	3.238400	-9.687200	27.717169	5.021319E-5	20.884257
2244.624782	-2.985400	3.238500	-9.667300	27.705537	4.866208E-5	20.884880
2245.618992	-2.999400	3.235800	-9.704600	27.636070	4.714396E-5	20.873774
2246.648545	-2.995400	3.237800	-9.698100	27.616750	4.965215E-5	20.886102
2247.650551	-3.000000	3.236000	-9.707400	27.652459	4.836505E-5	20.853283
2248.645466	-2.961000	3.235800	-9.579900	27.635101	4.757300E-5	20.881807
2249.649987	-2.995600	3.234900	-9.689900	27.593532	4.753999E-5	20.880283
2250.641652	-2.998900	3.234000	-9.697900	27.606899	4.988317E-5	20.882827
2251.641337	-3.001100	3.234100	-9.704700	27.678945	4.615389E-5	20.887519
2252.621979	-2.988000	3.233400	-9.660800	27.680630	4.648392E-5	20.881154
2253.622441	-2.997500	3.231100	-9.684100	27.723383	4.588987E-5	20.876760
2254.626141	-2.990000	3.232100	-9.662800	27.714329	4.582387E-5	20.866702
2255.645603	-2.970100	3.233100	-9.601000	27.677973	4.493280E-5	20.898868
2256.650064	-2.961300	3.232200	-9.570100	27.672442	4.661593E-5	20.883346
2257.648080	-2.995700	3.230500	-9.676700	27.661232	4.612089E-5	20.855946
2258.635246	-2.990400	3.231900	-9.663700	27.726032	4.598888E-5	20.876108
2259.627895	-2.991100	3.230000	-9.661100	27.679606	4.628590E-5	20.887236
2260.628734	-3.015800	3.230700	-9.742400	27.680499	4.486680E-5	20.879600
2261.625234	-3.019100	3.229000	-9.748200	27.666363	4.305166E-5	20.876281
2262.624327	-2.977700	3.230600	-9.618700	27.637767	4.499881E-5	20.874060
2263.653789	-3.012300	3.228200	-9.723800	27.647313	4.262263E-5	20.902628
2264.653758	-2.982300	3.228400	-9.627300	27.638730	4.536183E-5	20.894466
2265.652936	-2.982600	3.227500	-9.625400	27.721069	4.443777E-5	20.895767
2266.640724	-2.993800	3.228700	-9.665400	27.768632	4.783702E-5	20.914233
2267.632723	-3.016400	3.226300	-9.731300	27.708245	4.093951E-5	20.902303
2268.628973	-2.989900	3.225800	-9.644000	27.694406	4.262263E-5	20.885533
2269.629700	-3.003900	3.225100	-9.686800	27.708194	4.222660E-5	20.897036
2270.628138	-3.016900	3.225100	-9.728900	27.707523	4.054348E-5	20.901101
2271.629293	-2.975100	3.225400	-9.595000	27.692297	4.179757E-5	20.912331
2272.625568	-2.990500	3.225900	-9.646600	27.739911	4.186358E-5	20.909037
2273.634490	-3.013700	3.223200	-9.713200	27.767039	4.093951E-5	20.908836
2274.629637	-2.993400	3.223500	-9.648500	27.801655	4.173157E-5	20.882983
2275.634294	-3.017100	3.222900	-9.723400	27.840337	4.268864E-5	20.919065
2276.668046	-2.993200	3.223000	-9.646200	27.875795	4.100551E-5	20.903070
2277.647833	-2.985800	3.224500	-9.627000	27.887794	4.057648E-5	20.908508
2278.651796	-3.007700	3.220800	-9.685900	27.859355	4.057648E-5	20.899327
2279.664032	-2.989900	3.221200	-9.630100	27.835599	3.915738E-5	20.913823
2280.665806	-2.988000	3.220400	-9.621300	27.853351	4.097251E-5	20.907508
2281.635275	-2.993400	3.219800	-9.637200	27.877627	4.117053E-5	20.918189
2282.630793	-2.970800	3.220200	-9.566200	27.856178	3.985043E-5	20.898026
2283.656173	-2.993300	3.221300	-9.641200	27.885557	3.978442E-5	20.909576
2284.635529	-2.985800	3.218600	-9.608800	27.832545	4.110452E-5	20.889889
2285.646577	-2.995900	3.218800	-9.642000	27.890145	3.988343E-5	20.902814
2286.672410	-2.987700	3.220300	-9.620200	27.882481	3.988343E-5	20.913592
2287.633892	-2.975700	3.218800	-9.577300	27.834156	3.843133E-5	20.915215
2288.634171	-3.013000	3.216600	-9.691100	27.755050	3.740825E-5	20.906255
2289.635190	-2.973000	3.218300	-9.567600	27.780468	3.915738E-5	20.901014
2290.654453	-3.016700	3.215600	-9.699500	27.869909	3.777128E-5	20.888613
2291.635671	-2.989600	3.217100	-9.617400	27.949993	3.635217E-5	20.884818
2292.633909	-2.997300	3.215900	-9.638700	27.971934	3.773827E-5	20.901685
2293.637273	-3.007800	3.213900	-9.666200	27.957454	3.866234E-5	20.904653
2294.645213	-2.986400	3.215400	-9.601900	27.938364	3.668220E-5	20.911043
2295.635118	-2.993800	3.214500	-9.622700	27.849099	3.628617E-5	20.901332
2296.633862	-2.986900	3.213500	-9.596700	27.819395	3.664919E-5	20.897043
2297.636486	-2.987400	3.214300	-9.601300	27.832732	3.701222E-5	20.893396
2298.634592	-2.996500	3.212300	-9.625000	27.831319	3.523009E-5	20.895767
2299.636995	-3.008000	3.211100	-9.658000	27.798191	3.473505E-5	20.900359
2300.639449	-3.016400	3.212000	-9.687300	27.806721	3.595614E-5	20.880022
2301.635150	-3.024100	3.210900	-9.708900	27.832804	3.417401E-5	20.881141
2302.637068	-3.013800	3.211300	-9.677200	27.860428	3.536210E-5	20.880968
2303.635016	-3.015000	3.211100	-9.680700	27.874112	3.513108E-5	20.888102
2304.653445	-2.990100	3.211700	-9.602800	27.901187	3.447103E-5	20.890222
2305.649739	-3.015600	3.208900	-9.675700	27.937587	3.443803E-5	20.891771
2306.652855	-2.999600	3.208500	-9.623700	27.932677	3.645118E-5	20.881613
2307.653034	-2.978500	3.208500	-9.555000	27.859530	3.381099E-5	20.888124
2308.651940	-2.998800	3.207900	-9.619800	27.887498	3.542810E-5	20.884031
2309.668381	-3.033600	3.207600	-9.729900	27.904058	3.176484E-5	20.884103
2310.635720	-3.008000	3.208200	-9.648800	27.920325	3.252389E-5	20.902370
2311.657349	-2.993400	3.207100	-9.599500	27.862305	3.308493E-5	20.862469
2312.653666	-3.007700	3.205900	-9.641200	27.874403	3.143481E-5	20.875119
2313.651996	-2.975200	3.207800	-9.543300	27.913059	3.357997E-5	20.886523
2314.664973	-2.991700	3.206000	-9.590100	27.884494	3.265590E-5	20.866784
2315.664339	-2.991900	3.204000	-9.585200	27.920791	2.975169E-5	20.873444
2316.637980	-2.992300	3.203900	-9.586000	27.922254	3.143481E-5	20.861166
2317.646417	-2.994200	3.204600	-9.595000	27.946723	3.021372E-5	20.864932
2318.638809	-2.982400	3.205000	-9.557600	27.998119	3.117079E-5	20.872093
2319.637245	-2.980200	3.202700	-9.543700	27.995142	3.093978E-5	20.857718
2320.638032	-3.000400	3.203600	-9.611200	27.944188	3.176484E-5	20.882293
2321.638936	-2.990400	3.202700	-9.576700	27.905437	2.912464E-5	20.867474
2322.646811	-3.007600	3.201000	-9.626700	27.934966	3.133580E-5	20.874908
2323.639802	-2.994200	3.201000	-9.584100	27.961568	2.928965E-5	20.864227
2324.640141	-3.005800	3.201300	-9.621400	27.989137	2.856360E-5	20.858312
2325.640388	-2.992700	3.199000	-9.572600	28.012194	3.021372E-5	20.858761
2326.643598	-3.000100	3.198200	-9.593800	28.002770	3.199585E-5	20.870612
2327.643555	-3.030700	3.197800	-9.689700	27.949315	3.041174E-5	20.873705
2328.662513	-2.997100	3.198800	-9.586000	27.947456	3.206186E-5	20.879893
2329.644520	-3.010100	3.197100	-9.621700	27.943364	3.113779E-5	20.857284
2330.641103	-3.015600	3.199600	-9.647400	27.967266	2.932266E-5	20.858582
2331.643021	-2.988100	3.196300	-9.550100	27.943808	3.064275E-5	20.871481
2332.642016	-3.001800	3.196200	-9.593500	27.970213	2.955367E-5	20.862971
2333.641746	-2.982500	3.195900	-9.529900	28.005691	3.093978E-5	20.865017
2334.647898	-2.991100	3.194800	-9.554500	28.008591	2.991670E-5	20.847074
2335.643780	-3.000700	3.194000	-9.583400	27.987638	2.770554E-5	20.844949
2336.645733	-3.008800	3.193200	-9.607200	27.985036	3.126980E-5	20.847072
2337.647654	-3.006800	3.193700	-9.602100	27.995350	3.047774E-5	20.844177
2338.649364	-2.974600	3.192500	-9.495500	28.002216	2.919065E-5	20.837813
2339.647677	-2.997300	3.191600	-9.565300	28.015208	2.892663E-5	20.862269
2340.644819	-3.007400	3.191300	-9.596600	28.079787	2.744152E-5	20.857101
2341.643833	-2.985400	3.190600	-9.523800	28.067365	2.760653E-5	20.839382
2342.661602	-2.997500	3.192300	-9.567900	28.108270	3.133580E-5	20.868229
2343.669114	-3.004400	3.189000	-9.579800	28.152218	2.915764E-5	20.838031
2344.645211	-2.984100	3.191400	-9.523100	28.092874	2.859660E-5	20.857947
2345.670025	-2.992200	3.188600	-9.540300	28.010342	2.843159E-5	20.838880
2346.650020	-2.987900	3.188600	-9.526600	28.007837	2.694648E-5	20.850108
2347.647537	-3.006800	3.187400	-9.582800	28.039175	2.618743E-5	20.864583
2348.651443	-2.996200	3.188200	-9.550800	28.016663	2.849760E-5	20.832441
2349.649498	-2.997200	3.187600	-9.552800	27.954407	2.684747E-5	20.856071
2350.648858	-3.007200	3.186400	-9.581000	27.894526	2.589040E-5	20.832312
2351.669572	-3.011000	3.186100	-9.592600	27.881214	2.404227E-5	20.851156
2352.648241	-2.985100	3.185600	-9.507800	27.891502	2.678147E-5	20.851079
2353.649064	-3.001200	3.185300	-9.559100	27.979965	2.668246E-5	20.841020
2354.652774	-3.026300	3.184400	-9.636300	28.055533	2.701249E-5	20.829842
2355.654458	-3.024400	3.182200	-9.623600	28.051715	2.516435E-5	20.859663
2356.653609	-2.998400	3.183400	-9.543600	28.102509	2.552738E-5	20.837776
2357.651363	-3.008600	3.183100	-9.576200	28.074843	2.503234E-5	20.847383
2358.652780	-2.975100	3.181500	-9.464600	28.095343	2.516435E-5	20.854743
2359.655284	-2.991200	3.182300	-9.518200	28.144278	2.645145E-5	20.823874
2360.654668	-3.001100	3.181100	-9.545500	28.214454	2.417428E-5	20.849478
2361.654748	-2.977600	3.180800	-9.470200	28.176305	2.486733E-5	20.837150
2362.653891	-3.007200	3.180200	-9.562700	28.182103	2.559338E-5	20.844409
2363.652169	-3.002700	3.180200	-9.548100	28.123377	2.381125E-5	20.841713
2364.655500	-3.005700	3.177200	-9.548900	28.126625	2.212813E-5	20.832181
2365.656653	-2.995300	3.177900	-9.518100	28.194969	2.433929E-5	20.831284
2366.655839	-2.995500	3.176800	-9.515400	28.173206	2.443830E-5	20.842564
2367.652576	-2.971300	3.177300	-9.440300	28.186859	2.311820E-5	20.849198
2368.653611	-3.008700	3.175600	-9.553200	28.157535	2.216113E-5	20.832004
2369.654989	-2.999500	3.174600	-9.520700	28.129002	2.245815E-5	20.828410
2370.677984	-2.990800	3.176500	-9.498800	28.051681	2.136907E-5	20.849672
2371.654781	-3.007800	3.172700	-9.542000	28.058744	2.282118E-5	20.846350
2372.673398	-3.010000	3.171600	-9.545600	28.126894	2.226014E-5	20.820124
2373.669129	-3.006400	3.172500	-9.536500	28.242630	2.229314E-5	20.814784
2374.671413	-2.999800	3.172000	-9.515100	28.271530	2.136907E-5	20.835820
2375.656185	-3.002100	3.171500	-9.520400	28.291827	2.130307E-5	20.831600
2376.677162	-3.016000	3.170900	-9.562300	28.288383	2.001597E-5	20.829555
2377.655905	-2.994300	3.170200	-9.491700	28.211668	2.163309E-5	20.830553
2378.656992	-3.014200	3.170700	-9.556100	28.179889	2.074203E-5	20.816102
2379.665867	-3.026800	3.168100	-9.588500	28.210080	2.018098E-5	20.820419
2380.660425	-3.021500	3.166100	-9.566000	28.209459	1.981796E-5	20.823587
2381.655059	-3.001800	3.166400	-9.503700	28.176639	2.097304E-5	20.826107
2382.656612	-2.997200	3.165800	-9.487600	28.188066	1.773881E-5	20.833817
2383.665787	-3.008700	3.165500	-9.522500	28.164615	1.958694E-5	20.823485
2384.659557	-2.980000	3.166500	-9.434700	28.198674	1.912491E-5	20.807988
2385.674167	-3.005800	3.164200	-9.509300	28.219270	1.942193E-5	20.825404
2386.669307	-2.988000	3.165100	-9.456200	28.261284	1.905890E-5	20.840202
2387.669640	-3.014300	3.161900	-9.530100	28.240313	1.869588E-5	20.817193
2388.656421	-2.991200	3.162800	-9.460000	28.241751	1.945493E-5	20.828123
2389.657254	-2.997600	3.162200	-9.478000	28.211484	1.872888E-5	20.833212
2390.682404	-3.008400	3.159900	-9.505400	28.241082	1.806883E-5	20.815596
2391.677643	-3.002700	3.160400	-9.489200	28.210739	1.767280E-5	20.816815
2392.659766	-3.015000	3.159500	-9.525300	28.184291	1.853086E-5	20.807258
2393.678112	-2.984500	3.159800	-9.430000	28.180151	1.925692E-5	20.812573
2394.673438	-3.010600	3.157800	-9.506300	28.153401	1.978496E-5	20.818360
2395.681158	-3.000300	3.157600	-9.472900	28.167235	1.763980E-5	20.817113
2396.680602	-3.015000	3.156900	-9.516800	28.185776	1.866287E-5	20.827244
2397.658689	-3.009100	3.155500	-9.493900	28.289782	1.915791E-5	20.819584
2398.658444	-2.990000	3.155900	-9.435500	28.305443	1.572566E-5	20.806903
2399.660217	-2.990800	3.154400	-9.433000	28.298651	1.602268E-5	20.825194
2400.661097	-2.980600	3.154600	-9.401000	28.286979	1.773881E-5	20.801114
2401.660754	-3.001800	3.153100	-9.464100	28.226101	1.585767E-5	20.843186
2402.660044	-3.017000	3.153100	-9.511700	28.198563	1.490060E-5	20.817834
2403.658763	-3.013000	3.150200	-9.490700	28.101488	1.552764E-5	20.827264
2404.663575	-3.000900	3.151300	-9.456100	28.071986	1.410854E-5	20.808947
2405.659613	-2.995600	3.150500	-9.436600	28.094943	1.391052E-5	20.825892
2406.679882	-3.015200	3.148100	-9.491200	28.092189	1.348149E-5	20.816481
2407.677469	-2.987200	3.148300	-9.404100	28.113608	1.420755E-5	20.807698
2408.679502	-2.971700	3.148900	-9.357200	28.169906	1.763980E-5	20.800362
2409.681996	-3.026500	3.145500	-9.518900	28.172431	1.559365E-5	20.819974
2410.679463	-3.003100	3.146200	-9.446700	28.227288	1.767280E-5	20.804553
2411.693760	-2.999500	3.144800	-9.432100	28.288954	1.645171E-5	20.821121
2412.686175	-2.996100	3.145200	-9.422600	28.325984	1.239241E-5	20.808619
2413.679633	-2.999000	3.143400	-9.426200	28.320530	1.516462E-5	20.823516
2414.661878	-2.995900	3.144800	-9.420100	28.317283	1.252442E-5	20.816928
2415.664214	-2.999700	3.142200	-9.423600	28.333936	1.483459E-5	20.826108
2416.662695	-3.000200	3.142300	-9.426700	28.246691	1.420755E-5	20.815079
2417.677224	-3.004800	3.140000	-9.434600	28.275095	1.443856E-5	20.821392
2418.685103	-2.987700	3.140300	-9.379900	28.239205	1.308546E-5	20.801852
2419.659397	-3.012400	3.139700	-9.456900	28.211219	1.259043E-5	20.822988
2420.661162	-3.016300	3.138300	-9.464500	28.192479	1.202939E-5	20.805070
2421.666242	-2.995500	3.138800	-9.401500	28.219272	1.311847E-5	20.795535
2422.675953	-3.011300	3.136400	-9.443100	28.299604	1.344849E-5	20.801972
2423.662470	-3.010700	3.136200	-9.440700	28.325751	1.424055E-5	20.793211
2424.662133	-2.982800	3.136200	-9.353500	28.337548	1.476859E-5	20.797978
2425.687947	-3.003500	3.134200	-9.412800	28.409841	1.229340E-5	20.816718
2426.662795	-2.989600	3.133300	-9.366100	28.421810	1.301946E-5	20.808856
2427.662669	-3.006800	3.131200	-9.414000	28.370583	1.156735E-5	20.811800
2428.662426	-2.975400	3.132900	-9.320300	28.425252	1.051127E-5	20.816589
2429.665139	-2.982400	3.131200	-9.337900	28.506633	9.521201E-6	20.798495
2430.664318	-2.979800	3.131400	-9.329700	28.529580	1.064328E-5	20.784620
2431.667515	-3.009000	3.128500	-9.413200	28.593930	1.292045E-5	20.793952
2432.686954	-2.993200	3.129300	-9.365500	28.584515	1.097331E-5	20.797745
2433.666046	-3.002200	3.127100	-9.387300	28.527818	1.166636E-5	20.804656
2434.664355	-3.011500	3.126100	-9.413600	28.426113	1.001624E-5	20.797068
2435.678435	-3.013100	3.126700	-9.420300	28.339024	9.653210E-6	20.790928
2436.684586	-2.985800	3.124600	-9.328900	28.344847	1.070929E-5	20.795370
2437.687791	-2.992600	3.124400	-9.349400	28.409209	8.465123E-6	20.798063
2438.684103	-3.015400	3.121700	-9.411800	28.431091	1.173236E-5	20.794968
2439.699015	-2.986300	3.123200	-9.325800	28.370892	9.950232E-6	20.787930
2440.675939	-2.974000	3.122000	-9.284200	28.381920	1.047827E-5	20.808043
2441.674235	-3.009800	3.122700	-9.398100	28.412503	1.021425E-5	20.783836
2442.672153	-2.990300	3.120500	-9.330300	28.440900	1.097331E-5	20.796785
2443.695491	-2.999900	3.119900	-9.358400	28.418696	9.521201E-6	20.796237
2444.672170	-3.000300	3.118900	-9.356300	28.315518	9.983235E-6	20.796659
2445.674063	-2.982100	3.116700	-9.292700	28.381915	8.498126E-6	20.785279
2446.671001	-2.995200	3.115100	-9.329600	28.331926	7.343041E-6	20.797059
2447.674512	-2.979400	3.116000	-9.282300	28.317229	7.046019E-6	20.786528
2448.670923	-3.022600	3.113600	-9.410000	28.361864	8.696140E-6	20.795909
2449.671667	-2.987200	3.114500	-9.302800	28.356288	7.211031E-6	20.791242
2450.679914	-2.992300	3.113000	-9.314400	28.288454	8.861152E-6	20.794539
2451.674218	-2.989600	3.111500	-9.301500	28.321266	8.927157E-6	20.777316
2452.674139	-3.008400	3.108900	-9.351600	28.395840	6.649990E-6	20.773222
2453.689178	-3.013900	3.109000	-9.369300	28.418119	7.673065E-6	20.764836
2454.691228	-3.003000	3.108500	-9.334300	28.421467	4.702846E-6	20.797131
2455.700987	-3.019600	3.106400	-9.378500	28.408256	7.079021E-6	20.770077
2456.696635	-2.977300	3.106700	-9.247400	28.463497	8.201104E-6	20.802471
2457.674394	-3.020100	3.105900	-9.378800	28.424019	4.372822E-6	20.775518
2458.677687	-3.000400	3.104900	-9.314500	28.402260	7.574058E-6	20.771626
2459.674465	-3.016400	3.103500	-9.360500	28.393634	7.112024E-6	20.783328
2460.674866	-2.993000	3.103200	-9.287000	28.401491	7.607060E-6	20.773222
2461.676355	-3.016100	3.101700	-9.354200	28.464214	6.484977E-6	20.784227
2462.677398	-2.982400	3.101500	-9.249400	28.511148	6.187956E-6	20.767006
2463.675430	-2.976200	3.101000	-9.228700	28.563636	6.121951E-6	20.783356
2464.673688	-3.030500	3.097200	-9.385400	28.577733	5.362895E-6	20.767681
2465.682150	-2.997000	3.098200	-9.284300	28.544949	5.593912E-6	20.780183
2466.695964	-2.983000	3.097600	-9.239300	28.555356	5.461902E-6	20.784974
2467.676096	-2.972000	3.095900	-9.200000	28.544974	4.999868E-6	20.783053
2468.681983	-2.951400	3.096800	-9.139000	28.599835	5.197883E-6	20.765760
2469.678365	-3.010800	3.092400	-9.310200	28.593218	7.277036E-6	20.793234
2470.679893	-2.967400	3.093200	-9.177800	28.546487	4.405824E-6	20.794534
2471.681064	-2.985500	3.092900	-9.233000	28.509018	3.844783E-6	20.762964
2472.701661	-3.013900	3.091000	-9.314200	28.505819	3.118730E-6	20.788192
2473.678367	-2.991600	3.089700	-9.242400	28.533351	4.603839E-6	20.771822
2474.681577	-2.995600	3.088600	-9.251000	28.566828	4.108802E-6	20.762863
2475.678831	-3.009300	3.086500	-9.287000	28.627758	4.603839E-6	20.764484
2476.696401	-3.026100	3.085600	-9.336500	28.592845	3.712773E-6	20.764409
2477.682900	-3.012100	3.085900	-9.294300	28.581744	5.659917E-6	20.766505
2478.677521	-2.981500	3.084400	-9.193900	28.552455	5.230885E-6	20.760241
2479.680972	-2.984600	3.084400	-9.204500	28.603102	5.890934E-6	20.755773
2480.676657	-3.025200	3.081700	-9.321500	28.627634	5.890934E-6	20.771946
2481.677732	-2.987500	3.080800	-9.202300	28.581295	4.768851E-6	20.757992
2482.678494	-3.004900	3.079400	-9.252900	28.596065	3.283742E-6	20.760065
2483.676791	-3.012500	3.079300	-9.275500	28.608998	4.306817E-6	20.764556
2484.678687	-3.009300	3.077600	-9.260600	28.529459	2.392676E-6	20.763161
2485.678963	-2.986500	3.077700	-9.189700	28.478508	2.557688E-6	20.761162
2486.691828	-2.982600	3.075500	-9.172400	28.587987	4.075800E-6	20.766629
2487.683220	-2.992100	3.074100	-9.197200	28.584122	4.537834E-6	20.752305
2488.682538	-3.010000	3.074400	-9.253000	28.631694	3.085727E-6	20.763707
2489.681368	-3.021300	3.071200	-9.278300	28.704142	4.075800E-6	20.751329
2490.683223	-3.007900	3.071300	-9.237100	28.756317	3.613766E-6	20.749356
2491.683933	-3.010500	3.070700	-9.242900	28.711600	3.151732E-6	20.768799
2492.680208	-2.982000	3.069400	-9.151900	28.654020	1.633620E-6	20.748735
2493.680101	-3.020300	3.067700	-9.264700	28.698690	3.250739E-6	20.766227
2494.683629	-3.008300	3.067300	-9.225900	28.720542	4.438827E-6	20.763107
2495.698975	-3.007900	3.066500	-9.223400	28.733175	3.052725E-6	20.769194
2496.687444	-2.977800	3.065400	-9.126800	28.798159	3.349747E-6	20.747407
2497.688513	-3.012300	3.062400	-9.223900	28.774005	3.646768E-6	20.742516
2498.701900	-3.001400	3.062200	-9.189700	28.715709	2.475182E-7	20.762980
2499.682255	-2.999500	3.061200	-9.181500	28.693855	1.006574E-6	20.741442
2500.682807	-3.005400	3.059300	-9.193300	28.702871	1.963645E-6	20.737720
2501.684938	-2.982400	3.058600	-9.120900	28.737607	2.788705E-6	20.732405
2502.682272	-3.023200	3.055800	-9.237800	28.703440	1.765630E-6	20.743036
2503.682396	-2.993700	3.056100	-9.148300	28.778631	2.491683E-6	20.751444
2504.683092	-2.988300	3.055400	-9.129300	28.757895	2.656696E-6	20.749523
2505.683622	-2.992500	3.053300	-9.136300	28.817626	1.798632E-6	20.749947
2506.686317	-2.992900	3.053300	-9.137500	28.861892	6.435474E-7	20.743332
2507.680552	-3.004500	3.050700	-9.164900	28.879135	3.316744E-6	20.766392
2508.683177	-2.998500	3.049300	-9.142200	28.886441	1.402603E-6	20.763795
2509.687279	-3.024300	3.048100	-9.217800	28.841824	2.821708E-6	20.768634
2510.705326	-3.000600	3.047100	-9.142600	28.838157	2.062652E-6	20.771104
2511.690876	-3.019700	3.045500	-9.195900	28.824554	1.897640E-6	20.752185
2512.686884	-2.991200	3.044900	-9.106400	28.834537	3.151732E-6	20.740430
2513.707061	-3.019000	3.043300	-9.187000	28.874395	7.095522E-7	20.768255
2514.687057	-3.032500	3.040600	-9.218900	28.834932	1.270594E-6	20.776390
2515.687055	-2.994800	3.042000	-9.109500	28.823386	1.336598E-6	20.752431
2516.685959	-2.969000	3.041500	-9.029200	28.791428	3.481756E-6	20.746791
2517.684084	-2.983200	3.038800	-9.064200	28.733256	1.501611E-6	20.743196
2518.709945	-3.003800	3.038200	-9.125300	28.739448	2.557688E-6	20.731889
2519.685980	-3.006800	3.035900	-9.126800	28.729735	2.458681E-6	20.766203
2520.687443	-3.003700	3.034700	-9.115000	28.725895	5.445401E-7	20.733410
2521.686620	-2.989600	3.034700	-9.071300	28.791915	6.105450E-7	20.747756
2522.689009	-3.012000	3.032800	-9.134100	28.809900	1.006574E-6	20.754968
2523.690858	-3.007100	3.032200	-9.117400	28.813442	-1.171586E-6	20.743362
2524.688865	-3.022100	3.029400	-9.154100	28.824736	-1.204589E-6	20.740514
2525.690606	-3.026800	3.028400	-9.165100	28.778334	1.831635E-6	20.748300
2526.687639	-2.993000	3.027900	-9.061900	28.723481	9.405693E-7	20.759430
2527.690798	-3.017400	3.025400	-9.128100	28.727792	-2.805207E-7	20.759030
2528.705783	-2.990100	3.025800	-9.046400	28.736635	6.765498E-7	20.747074
2529.717350	-2.985600	3.025000	-9.029500	28.752886	1.666623E-6	20.744952
2530.692025	-2.976600	3.022700	-8.997200	28.754767	-1.485109E-7	20.746372
2531.710542	-2.992500	3.020000	-9.036400	28.760116	-2.475182E-7	20.747018
2532.692592	-3.016500	3.018800	-9.104800	28.813156	-1.006574E-6	20.735012
2533.693624	-2.968300	3.019300	-8.961100	28.809908	2.194662E-6	20.762088
2534.689942	-2.992100	3.015900	-9.022600	28.846025	1.666623E-6	20.758642
2535.687301	-3.014300	3.014700	-9.085300	28.809386	1.303596E-6	20.761088
2536.693473	-3.003100	3.013400	-9.048600	28.772124	2.128657E-6	20.753424
2537.689396	-3.037700	3.011100	-9.145600	28.775119	-2.623693E-6	20.756441
2538.693861	-2.989500	3.011800	-9.002400	28.768231	2.475182E-7	20.767995
2539.695855	-3.003000	3.010400	-9.039500	28.809653	-1.485109E-7	20.756615
2540.693553	-2.983300	3.009000	-8.975800	28.827636	-5.775425E-7	20.787533
2541.697608	-2.992800	3.006700	-8.998000	28.864470	1.435606E-6	20.753515
2542.708946	-3.011300	3.007800	-9.057100	28.947774	-1.831635E-6	20.754462
2543.696124	-2.995200	3.004200	-8.997200	28.955228	-9.075668E-7	20.762446
2544.689718	-2.964300	3.003600	-8.902200	28.852674	1.996647E-6	20.757754
2545.693389	-3.009700	3.001900	-9.033800	28.789503	-1.006574E-6	20.763819
2546.692277	-3.008600	2.999400	-9.023500	28.836048	7.095522E-7	20.769929
2547.694995	-2.999100	2.999300	-8.994400	28.889235	-8.085595E-7	20.762342
2548.715046	-2.972400	2.998600	-8.911400	28.902886	-1.897640E-6	20.749542
2549.717168	-3.012100	2.996500	-9.023500	28.884600	-1.039577E-6	20.759095
2550.715394	-3.007100	2.994600	-9.003900	28.852543	3.135231E-7	20.754776
2551.692142	-2.999300	2.994700	-8.981000	28.797176	-7.425547E-7	20.746417
2552.698144	-2.994500	2.992500	-8.959900	28.760237	-2.194662E-6	20.759468
2553.693510	-3.007800	2.989700	-8.991400	28.759071	-1.336598E-6	20.773467
2554.714293	-3.009600	2.989200	-8.995500	28.829007	-1.815134E-7	20.755248
2555.697910	-3.002200	2.987700	-8.968800	28.890665	-4.950365E-8	20.775163
2556.697353	-3.003900	2.986500	-8.970800	28.930693	3.580764E-6	20.769022
2557.697658	-2.977200	2.986100	-8.888700	28.953804	-1.699625E-6	20.771442
2558.713346	-2.988100	2.983300	-8.913000	28.939535	-7.095522E-7	20.746160
2559.733520	-2.999000	2.981500	-8.940800	28.868192	3.795279E-7	20.783818
2560.709816	-2.985700	2.981000	-8.899700	28.850999	-1.798632E-6	20.760334
2561.713560	-2.976100	2.979000	-8.864500	28.850128	-6.105450E-7	20.766094
2562.694315	-3.014400	2.977500	-8.974600	28.870714	-1.996647E-6	20.772608
2563.696216	-3.000100	2.977500	-8.932600	28.856074	-1.996647E-6	20.784413
2564.709013	-3.014100	2.975500	-8.967600	28.937545	2.029649E-6	20.756010
2565.718104	-3.013900	2.972400	-8.957900	29.020375	-1.270594E-6	20.781615
2566.718245	-2.972100	2.973200	-8.835700	29.064658	-1.039577E-6	20.757481
2567.719501	-2.983900	2.971000	-8.864800	29.077711	4.125304E-7	20.772530
2568.721840	-2.995500	2.970000	-8.895800	29.054451	4.455328E-7	20.776120
2569.701834	-3.022400	2.967200	-8.967400	29.001670	-7.755571E-7	20.780787
2570.707092	-3.001500	2.967300	-8.905100	28.930630	-1.534613E-6	20.794088
2571.702778	-2.990000	2.965600	-8.865500	28.887923	-8.415620E-7	20.782833
2572.729757	-3.015200	2.963100	-8.933300	28.874570	-1.369601E-6	20.780760
2573.717757	-2.983100	2.961900	-8.834900	28.866073	-1.435606E-6	20.766036
2574.724323	-2.998600	2.960900	-8.877600	28.870307	3.135231E-7	20.776466
2575.720283	-2.980100	2.959100	-8.817500	28.920419	-2.458681E-6	20.785699
2576.712997	-3.022300	2.957200	-8.935500	28.924308	6.765498E-7	20.776340
2577.721961	-2.991200	2.954600	-8.836500	28.991384	-3.349747E-6	20.772795
2578.725029	-3.019600	2.953700	-8.918400	29.002208	-9.075668E-7	20.767579
2579.727736	-2.995500	2.951900	-8.841700	29.067395	8.250607E-8	20.776361
2580.718721	-2.984400	2.951500	-8.807900	29.045378	-1.650122E-8	20.766979
2581.726553	-3.013300	2.948900	-8.885100	29.003965	-2.805207E-7	20.779781
2582.730521	-3.014400	2.947000	-8.882100	29.038391	-2.227664E-6	20.789811
2583.727903	-3.024600	2.945600	-8.908300	29.079752	-5.445401E-7	20.770319
2584.703989	-2.999600	2.945000	-8.833200	29.015552	-1.171586E-6	20.787662
2585.706455	-3.021700	2.942200	-8.890200	28.986125	-6.765498E-7	20.800214
2586.723641	-2.999600	2.941700	-8.823000	28.977975	-1.435606E-6	20.782993
2587.704105	-3.016400	2.939300	-8.865900	29.028505	-1.996647E-6	20.773686
2588.736310	-3.018700	2.937700	-8.867100	29.022336	-3.844783E-6	20.769841
2589.705257	-2.991000	2.936100	-8.781100	28.967001	-1.930642E-6	20.776678
2590.709063	-2.988900	2.935400	-8.772800	28.956149	-3.250739E-6	20.791350
2591.708496	-3.022800	2.932600	-8.863400	28.999498	-1.831635E-6	20.780022
2592.711605	-3.011700	2.932300	-8.830100	29.027112	-3.283742E-6	20.791248
2593.709970	-2.989700	2.930500	-8.760600	28.969746	-2.392676E-6	20.800781
2594.712295	-2.998800	2.930200	-8.786000	28.950995	-2.293669E-6	20.796588
2595.708286	-2.993800	2.927000	-8.761700	28.995084	-2.029649E-6	20.777945
2596.710187	-2.999600	2.925000	-8.773600	28.987803	-8.085595E-7	20.795739
2597.725025	-2.984400	2.924500	-8.727500	28.943537	-1.897640E-6	20.791919
2598.735788	-2.981400	2.921900	-8.710300	28.915769	-2.029649E-6	20.791919
2599.734499	-3.008100	2.920200	-8.783800	28.917600	-2.095654E-6	20.788074
2600.712471	-2.997200	2.919300	-8.748600	28.949752	-2.623693E-6	20.786327
2601.712541	-3.017200	2.916200	-8.797400	29.036469	-2.293669E-6	20.802572
2602.714540	-2.987700	2.914100	-8.705700	29.081793	-1.204589E-6	20.782807
2603.736777	-2.997600	2.913600	-8.732900	29.066584	-1.138584E-6	20.804467
2604.733577	-2.995800	2.912700	-8.725000	29.035799	-3.118730E-6	20.803794
2605.733052	-2.996400	2.909200	-8.716600	29.036814	-2.260666E-6	20.786325
2606.714158	-2.986000	2.908600	-8.684300	29.051896	-4.125304E-7	20.795357
2607.713956	-3.001000	2.905600	-8.719300	29.057222	-1.732628E-6	20.803094
2608.718530	-2.996800	2.905200	-8.705700	29.098828	-9.075668E-7	20.792860
2609.717086	-3.013700	2.901400	-8.743400	29.146007	4.950364E-8	20.791562
2610.715064	-2.998700	2.901300	-8.699700	29.201952	-9.075668E-7	20.798624
2611.716214	-2.978400	2.899900	-8.635800	29.202570	1.633620E-6	20.793558
2612.718822	-2.987000	2.896600	-8.651500	29.228570	-2.425679E-6	20.821655
2613.717976	-3.013000	2.894700	-8.721000	29.262670	6.435474E-7	20.790587
2614.738276	-2.997300	2.893900	-8.673300	29.275546	-6.105450E-7	20.818261
2615.735873	-2.992400	2.892300	-8.654500	29.228099	-2.458681E-6	20.787042
2616.737116	-3.001300	2.889800	-8.672400	29.220000	9.405693E-7	20.811122
2617.716742	-2.983300	2.888100	-8.615400	29.164753	-2.920715E-6	20.795278
2618.736009	-2.988400	2.887500	-8.627900	29.198034	-3.135231E-7	20.803685
2619.736917	-2.996600	2.884700	-8.642800	29.131143	-1.369601E-6	20.788437
2620.754954	-2.994900	2.882900	-8.633200	29.067171	1.501611E-6	20.794626
2621.717300	-3.019900	2.880600	-8.698600	29.146470	-1.006574E-6	20.798192
2622.717955	-2.972600	2.879400	-8.558700	29.215318	-1.171586E-6	20.796921
2623.740704	-2.980100	2.878000	-8.575200	29.282400	-1.303596E-6	20.792927
2624.717765	-2.991900	2.876000	-8.603400	29.224800	-1.996647E-6	20.811218
2625.717432	-3.018300	2.872900	-8.669900	29.224352	-2.425679E-6	20.836844
2626.731018	-3.033200	2.869900	-8.704100	29.195550	-1.039577E-6	20.793596
2627.739640	-2.985200	2.869100	-8.563900	29.175393	-1.732628E-6	20.815483
2628.718052	-3.008700	2.867600	-8.626500	29.222986	-2.260666E-6	20.821244
2629.743159	-3.055900	2.864500	-8.751300	29.226183	4.950364E-8	20.811663
2630.735560	-2.987700	2.865000	-8.558000	29.247876	-1.699625E-6	20.836842
2631.717680	-3.002600	2.861500	-8.590700	29.267090	-3.085727E-6	20.822068
2632.718206	-3.008100	2.858900	-8.599500	29.310472	-3.465255E-7	20.835441
2633.720661	-3.020100	2.857100	-8.628200	29.372274	8.745644E-7	20.817124
2634.720211	-3.001100	2.855900	-8.569900	29.399385	-8.250608E-8	20.799404
2635.720860	-3.008500	2.854600	-8.587300	29.408794	-1.039577E-6	20.811258
2636.729141	-2.996600	2.851800	-8.544400	29.373807	-1.039577E-6	20.827677
2637.723557	-2.997300	2.849500	-8.540600	29.295291	-5.445401E-7	20.807815
2638.726497	-3.016300	2.848500	-8.591100	29.212605	-1.072579E-6	20.806515
2639.725628	-2.994200	2.845700	-8.519800	29.290313	-1.765630E-6	20.827453
2640.725921	-3.005700	2.843600	-8.545800	29.361598	-2.227664E-6	20.816321
2641.729056	-3.008000	2.841000	-8.545000	29.394455	-8.250608E-8	20.818143
2642.745646	-2.986900	2.840800	-8.484400	29.404458	-1.468608E-6	20.819689
2643.739102	-3.029400	2.836100	-8.590900	29.388461	-2.392676E-6	20.835808
2644.727934	-3.029100	2.834300	-8.584300	29.400569	8.085595E-7	20.818141
2645.749632	-2.992100	2.833300	-8.476300	29.462862	8.085595E-7	20.837779
2646.727232	-3.027900	2.828700	-8.563200	29.462763	-4.950365E-8	20.822507
2647.728662	-3.019700	2.827900	-8.538800	29.465931	-7.095522E-7	20.828071
2648.722485	-3.019800	2.824500	-8.528600	29.427482	-5.445401E-7	20.818714
2649.726691	-2.991500	2.823100	-8.444200	29.396679	-6.435474E-7	20.828918
2650.741135	-2.996000	2.819800	-8.447000	29.384794	-9.075668E-7	20.832587
2651.732111	-2.996300	2.819700	-8.448200	29.324874	-2.425679E-6	20.821033
2652.728994	-3.013300	2.815800	-8.484100	29.312591	-2.854710E-6	20.817189
2653.728808	-2.961000	2.815700	-8.336200	29.276487	-5.445401E-7	20.823477
2654.736416	-3.024600	2.809900	-8.497700	29.400068	-1.435606E-6	20.826645
2655.728868	-2.990400	2.809400	-8.400600	29.431735	-1.897640E-6	20.844337
2656.733540	-3.004900	2.807400	-8.434900	29.418688	-2.194662E-6	20.834506
2657.731981	-3.009300	2.803200	-8.434700	29.412053	2.293669E-6	20.845362
2658.729870	-3.011500	2.800400	-8.432700	29.352007	-1.270594E-6	20.836051
2659.740240	-2.992500	2.798500	-8.373200	29.341261	-1.105581E-6	20.851772
2660.735905	-2.964400	2.796800	-8.289800	29.273017	-9.075668E-7	20.826144
2661.729107	-3.004300	2.793600	-8.391200	29.271803	8.415620E-7	20.829662
2662.752262	-3.001400	2.790600	-8.375300	29.289384	8.745644E-7	20.830784
2663.750737	-3.021800	2.786400	-8.419300	29.334872	-1.237591E-6	20.845807
2664.735699	-2.990500	2.784400	-8.326100	29.393826	-8.250608E-8	20.815137
2665.731057	-3.002900	2.782300	-8.353400	29.384442	4.785352E-7	20.847404
2666.742518	-2.976300	2.779400	-8.271500	29.381346	-1.336598E-6	20.850447
2667.734368	-3.002200	2.776700	-8.334900	29.400880	8.745644E-7	20.839791
2668.731608	-3.009600	2.772400	-8.342900	29.426875	-8.415620E-7	20.834698
2669.732782	-2.997900	2.770500	-8.304600	29.473571	9.075668E-7	20.849522
2670.729875	-3.016000	2.767800	-8.346000	29.474091	-2.128657E-6	20.843882
2671.733398	-3.018800	2.763800	-8.342200	29.433264	-1.402603E-6	20.852516
2672.749224	-3.002800	2.761700	-8.291400	29.490455	-2.491683E-6	20.832876
2673.756710	-3.019300	2.757100	-8.323100	29.499119	-8.745644E-7	20.857730
2674.769744	-2.998400	2.754700	-8.259300	29.547246	-4.125304E-7	20.853612
2675.730646	-3.007100	2.751800	-8.273700	29.612551	-1.105581E-6	20.832675
2676.739514	-2.985200	2.749400	-8.206200	29.579279	-5.445401E-7	20.867411
2677.756372	-3.011200	2.746300	-8.268900	29.573734	3.795279E-7	20.833373
2678.758770	-2.959700	2.742400	-8.115800	29.543086	-2.326671E-6	20.855108
2679.733094	-2.997300	2.738300	-8.206400	29.496915	4.125304E-7	20.850293
2680.735963	-3.019400	2.734800	-8.256000	29.554967	-9.075668E-7	20.840059
2681.731826	-2.991800	2.732100	-8.171400	29.652430	1.171586E-6	20.854860
2682.757092	-2.996600	2.729800	-8.179200	29.629703	1.237591E-6	20.851388
2683.757056	-3.005100	2.725700	-8.189900	29.605716	5.445401E-7	20.875094
2684.734510	-3.024900	2.721300	-8.230500	29.536448	-8.745644E-7	20.862641
2685.758953	-3.014100	2.718300	-8.192400	29.503250	-1.237591E-6	20.855730
2686.749242	-3.018700	2.713800	-8.190900	29.482625	-4.125304E-7	20.861018
2687.753687	-3.026400	2.710000	-8.200900	29.578062	-3.795279E-7	20.853382
2688.785664	-3.006600	2.706300	-8.136000	29.585339	8.415620E-7	20.858821
2689.738194	-3.015900	2.702400	-8.149400	29.581527	-3.349747E-6	20.863039
2690.738687	-2.993600	2.699400	-8.079600	29.603163	-6.765498E-7	20.855453
2691.737751	-2.986000	2.695000	-8.046200	29.653267	-3.795279E-7	20.846221
2692.762931	-3.003400	2.690700	-8.080300	29.684825	-1.072579E-6	20.871397
2693.753582	-3.003200	2.686600	-8.067400	29.683538	-4.455328E-7	20.846393
2694.753283	-2.991600	2.683600	-8.027200	29.748736	-1.336598E-6	20.856175
2695.736448	-2.996700	2.678600	-8.026400	29.776285	-7.095522E-7	20.869252
2696.767232	-3.020000	2.673700	-8.072800	29.729158	-1.105581E-6	20.866782
2697.760713	-3.011500	2.670800	-8.042400	29.734751	-1.996647E-6	20.862938
2698.762341	-2.973300	2.665800	-7.924700	29.810513	-8.250608E-8	20.855401
2699.742550	-3.017300	2.661500	-8.029400	29.837564	-1.138584E-6	20.857546
2700.758752	-2.984400	2.656800	-7.927700	29.843999	-8.745644E-7	20.867354
2701.737581	-2.979200	2.654000	-7.906000	29.830483	-1.633620E-6	20.854675
2702.751279	-2.993200	2.647800	-7.923700	29.834964	-2.145158E-7	20.868201
2703.742496	-3.001700	2.642600	-7.931800	29.839716	-2.689698E-6	20.864458
2704.744210	-2.978100	2.638500	-7.856700	29.918464	-1.105581E-6	20.859466
2705.742204	-3.017300	2.633200	-7.944100	29.967217	1.485109E-7	20.847463
2706.738456	-2.987800	2.628700	-7.853600	30.036405	8.250607E-8	20.870770
2707.762849	-3.028100	2.622400	-7.939500	30.072134	2.805207E-7	20.859389
2708.764824	-3.000000	2.617300	-7.851200	30.144756	1.336598E-6	20.867675
2709.757177	-3.023100	2.611800	-7.894700	30.011288	-7.755571E-7	20.882897
2710.744534	-2.986600	2.608400	-7.789300	30.013737	1.435606E-6	20.883470
2711.745991	-3.004800	2.602000	-7.817800	30.019379	2.475182E-7	20.882522
2712.746826	-3.002400	2.596900	-7.796200	30.058424	4.125304E-7	20.857417
2713.767120	-2.997700	2.592500	-7.770600	30.082103	6.765498E-7	20.880823
2714.763020	-3.003700	2.586000	-7.767100	29.979312	1.336598E-6	20.881945
2715.769008	-3.027400	2.578600	-7.805800	29.995249	2.656696E-6	20.890429
2716.777513	-2.993800	2.574200	-7.705900	29.934101	-1.864637E-6	20.882819
2717.763625	-3.007200	2.568800	-7.723300	29.877600	-9.075668E-7	20.890802
2718.778994	-3.010000	2.561200	-7.708700	29.823893	-1.369601E-6	20.893071
2719.747055	-3.013000	2.556600	-7.702600	29.875495	-1.650122E-8	20.876353
2720.753303	-3.000700	2.551300	-7.655000	29.899105	1.864637E-6	20.882142
2721.756548	-3.009900	2.543700	-7.655300	30.009919	-4.455328E-7	20.889103
2722.751290	-2.997500	2.538600	-7.609100	30.037831	-3.795279E-7	20.883587
2723.749209	-3.008300	2.531800	-7.614900	30.078015	4.042798E-6	20.879544
2724.760632	-3.031600	2.524800	-7.653100	30.086326	2.293669E-6	20.872279
2725.752219	-3.031600	2.518900	-7.635100	30.055348	3.052725E-6	20.890822
2726.751035	-3.007500	2.513700	-7.559300	30.054082	1.369601E-6	20.902820
2727.752293	-2.976700	2.506700	-7.461100	30.025156	2.145158E-7	20.883133
2728.752728	-3.002000	2.498800	-7.500200	30.123587	7.755571E-7	20.907012
