LabVIEW Measurement	
Writer_Version	2
Reader_Version	2
Separator	Tab
Decimal_Separator	.
Multi_Headings	No
X_Columns	One
Time_Pref	Absolute
Operator	admin
Description	Clolumns are: time, Current, Voltage, Power, Battery Temp, and Chamber Temp
Date	2024/08/16
Time	13:07:17.8513970375061035156
***End_of_Header***	
	
Channels	6						
Samples	1	1	1	1	1	1	
Date	2024/08/29	2024/08/29	2024/08/29	2024/08/29	2024/08/29	2024/08/29	
Time	00:24:53.9795928001403808594	00:24:53.9886274337768554688	00:24:53.9956679344177246094	00:24:53.9591960906982421875	00:24:53.9591960906982421875	00:24:53.9591960906982421875	
X_Dimension	Time	Time	Time	Time	Time	Time	
X0	0.0000000000000000E+0	0.0000000000000000E+0	0.0000000000000000E+0	0.0000000000000000E+0	0.0000000000000000E+0	0.0000000000000000E+0	
Delta_X	1.000000	1.000000	1.000000	1.000000	1.000000	1.000000	
***End_of_Header***							
X_Value	Untitled	Untitled 1	Untitled 2	Untitled 3	Untitled 4	Untitled 5	Comment
0.000000	0.024251	4.084500	0.099085	20.947448	0.000474	20.954085
0.997052	-2.989100	3.925500	-11.732000	20.951714	0.000471	20.943655
2.000066	-2.989900	3.919200	-11.717000	20.946389	0.000469	20.962034
2.997899	-2.994200	3.914200	-11.719000	20.945992	0.000472	20.958793
3.998502	-2.976000	3.912600	-11.643000	20.926762	0.000471	20.952837
4.997357	-2.995700	3.909500	-11.711000	20.930236	0.000471	20.923599
5.999381	-3.004700	3.906300	-11.736000	20.943952	0.000470	20.942056
7.001153	-3.010000	3.905200	-11.754000	20.947453	0.000469	20.938445
8.007043	-2.980000	3.902700	-11.629000	20.968286	0.000469	20.940789
8.999166	-2.981500	3.900900	-11.629000	20.981073	0.000468	20.926552
10.007766	-3.008800	3.898700	-11.729000	20.974598	0.000467	20.931930
11.003110	-2.991800	3.897300	-11.659000	20.980709	0.000467	20.940886
12.002909	-3.002800	3.897100	-11.701000	20.996639	0.000468	20.930742
13.003312	-3.017500	3.894300	-11.751000	20.994548	0.000463	20.926279
14.003268	-3.004800	3.893500	-11.699000	20.990788	0.000466	20.927260
15.000897	-3.005600	3.892700	-11.699000	21.022433	0.000462	20.936150
16.002379	-3.020500	3.891700	-11.754000	21.014322	0.000463	20.942736
17.007083	-3.009400	3.889400	-11.704000	21.019348	0.000463	20.947288
18.001381	-2.998600	3.890000	-11.664000	21.042687	0.000463	20.927961
19.003782	-3.012400	3.889000	-11.714000	21.040096	0.000461	20.924421
20.005230	-2.992600	3.887800	-11.634000	21.050707	0.000461	20.934558
21.005052	-3.006600	3.887200	-11.686000	21.048544	0.000461	20.932396
22.005071	-2.992900	3.885700	-11.628000	21.066746	0.000461	20.942066
23.005635	-2.984700	3.887200	-11.601000	21.088741	0.000459	20.917127
24.004454	-3.010200	3.884300	-11.691000	21.065850	0.000458	20.935955
25.000639	-2.989200	3.886000	-11.615000	21.092123	0.000460	20.915295
26.011588	-2.971600	3.884300	-11.541000	21.095708	0.000460	20.932155
27.006172	-2.979200	3.884500	-11.571000	21.093019	0.000460	20.924251
28.002940	-3.004000	3.882700	-11.663000	21.104577	0.000459	20.925381
29.004835	-3.008200	3.883100	-11.679000	21.110506	0.000458	20.923725
30.009234	-3.010300	3.880900	-11.681000	21.124201	0.000458	20.906131
31.008006	-3.003500	3.881000	-11.656000	21.130915	0.000458	20.915217
32.007461	-3.015200	3.880100	-11.699000	21.108947	0.000457	20.924537
33.010374	-3.012600	3.880000	-11.688000	21.136967	0.000456	20.926011
34.006764	-3.000400	3.881700	-11.645000	21.151817	0.000457	20.924270
35.010862	-3.014600	3.879200	-11.692000	21.156245	0.000458	20.924907
36.008149	-2.999400	3.879100	-11.633000	21.160660	0.000458	20.931219
37.003726	-3.018300	3.878400	-11.705000	21.166400	0.000458	20.933641
38.007611	-3.007500	3.879400	-11.667000	21.183912	0.000455	20.928874
39.007673	-2.998700	3.878000	-11.628000	21.202553	0.000456	20.923341
40.008002	-3.003500	3.877200	-11.644000	21.189074	0.000457	20.906540
41.007487	-2.999900	3.877200	-11.630000	21.200580	0.000457	20.899084
42.008479	-3.001000	3.877300	-11.634000	21.206449	0.000456	20.903058
43.009993	-2.992000	3.876400	-11.597000	21.219902	0.000455	20.922678
44.013883	-3.006500	3.876800	-11.655000	21.223876	0.000455	20.902473
45.010505	-3.017700	3.876000	-11.696000	21.239621	0.000455	20.904474
46.009471	-3.003000	3.876600	-11.641000	21.229109	0.000455	20.914345
47.008308	-2.996400	3.874900	-11.610000	21.260787	0.000455	20.906682
48.006902	-2.998300	3.875200	-11.618000	21.271551	0.000454	20.920768
49.008112	-2.979800	3.875400	-11.547000	21.276921	0.000453	20.913812
50.008196	-2.990000	3.874500	-11.584000	21.273791	0.000455	20.919216
51.009486	-2.975300	3.875000	-11.529000	21.298456	0.000454	20.911175
52.007340	-3.000000	3.873700	-11.620000	21.280901	0.000454	20.896459
53.007746	-3.003400	3.873900	-11.633000	21.299689	0.000453	20.902927
54.008171	-3.006800	3.872800	-11.644000	21.316355	0.000453	20.902531
55.006602	-2.986700	3.873600	-11.568000	21.326723	0.000454	20.918591
56.009573	-3.011500	3.872300	-11.661000	21.314530	0.000455	20.900231
57.013686	-3.000300	3.873400	-11.621000	21.340682	0.000454	20.889885
58.011157	-3.008600	3.872200	-11.649000	21.320640	0.000451	20.918669
59.012410	-2.979500	3.872700	-11.538000	21.349231	0.000452	20.910291
60.016685	-2.991200	3.871300	-11.579000	21.365293	0.000454	20.903128
61.011986	-2.994500	3.872600	-11.595000	21.352068	0.000453	20.889897
62.009978	-3.004000	3.872900	-11.633000	21.362280	0.000454	20.887786
63.015931	-2.987700	3.870900	-11.563000	21.382892	0.000454	20.894184
64.010795	-2.978700	3.871800	-11.532000	21.388683	0.000454	20.881960
65.014684	-3.001200	3.870700	-11.616000	21.388812	0.000453	20.899632
66.013653	-3.003200	3.871400	-11.626000	21.413878	0.000456	20.913804
67.018513	-2.990400	3.871400	-11.576000	21.414293	0.000453	20.891936
68.018035	-2.997100	3.869100	-11.594000	21.425640	0.000452	20.897599
69.015233	-3.015200	3.870900	-11.671000	21.445518	0.000456	20.895677
70.012815	-2.986100	3.870400	-11.557000	21.432190	0.000455	20.902256
71.016218	-2.989700	3.868400	-11.565000	21.442375	0.000454	20.894429
72.016138	-3.001700	3.870300	-11.617000	21.468536	0.000454	20.913491
73.023087	-3.000400	3.869600	-11.609000	21.482837	0.000455	20.895085
74.017758	-2.980100	3.870900	-11.534000	21.487731	0.000454	20.908042
75.018742	-2.994700	3.869400	-11.587000	21.490516	0.000455	20.914621
76.017578	-2.998200	3.869400	-11.600000	21.481220	0.000455	20.881615
77.018630	-2.992600	3.869000	-11.578000	21.500701	0.000453	20.911536
78.021641	-3.008300	3.868500	-11.637000	21.511677	0.000456	20.896916
79.017180	-2.999500	3.868500	-11.603000	21.522069	0.000456	20.894513
80.015823	-2.976800	3.869100	-11.516000	21.536148	0.000454	20.901962
81.017506	-2.983500	3.869100	-11.542000	21.548683	0.000454	20.889375
82.017383	-2.995700	3.867900	-11.586000	21.534597	0.000453	20.896143
83.018878	-2.989200	3.868300	-11.562000	21.535467	0.000456	20.889427
84.019886	-2.986100	3.867100	-11.546000	21.550675	0.000455	20.877619
85.018486	-2.979100	3.868700	-11.524000	21.541802	0.000455	20.888180
86.025882	-2.968200	3.868000	-11.479000	21.582344	0.000454	20.897928
87.022056	-2.997600	3.866500	-11.589000	21.566967	0.000454	20.910515
88.020557	-2.990200	3.868600	-11.568000	21.617005	0.000454	20.884250
89.021159	-3.009900	3.865400	-11.634000	21.599525	0.000455	20.879561
90.020021	-2.975700	3.867700	-11.508000	21.614214	0.000457	20.885250
91.020811	-2.990600	3.865700	-11.559000	21.610805	0.000456	20.903175
92.021880	-2.992800	3.867300	-11.573000	21.616809	0.000456	20.885951
93.031386	-2.992300	3.865400	-11.565000	21.628810	0.000456	20.895115
94.024833	-2.998200	3.866000	-11.590000	21.651131	0.000459	20.888055
95.023492	-3.009200	3.865600	-11.631000	21.640597	0.000457	20.895056
96.019495	-2.993200	3.865700	-11.570000	21.685212	0.000456	20.921684
97.021305	-2.998000	3.865400	-11.588000	21.673737	0.000458	20.879385
98.019515	-3.009600	3.865000	-11.631000	21.681019	0.000455	20.914170
99.021315	-3.019600	3.864400	-11.668000	21.665150	0.000456	20.891653
100.018840	-3.002300	3.864900	-11.602000	21.669148	0.000457	20.916040
101.021111	-2.992800	3.865600	-11.568000	21.699963	0.000456	20.910844
102.025527	-2.997800	3.864500	-11.584000	21.685413	0.000458	20.903869
103.023899	-3.016600	3.863700	-11.654000	21.685088	0.000457	20.930568
104.020014	-2.981400	3.863900	-11.518000	21.717279	0.000456	20.911104
105.024507	-2.988900	3.864100	-11.548000	21.729298	0.000457	20.917442
106.019119	-3.009100	3.862400	-11.622000	21.752908	0.000458	20.902193
107.020305	-2.987000	3.864300	-11.541000	21.757373	0.000460	20.922306
108.022902	-3.001900	3.863200	-11.596000	21.762273	0.000456	20.903030
109.020629	-2.999600	3.862800	-11.586000	21.769665	0.000458	20.914695
110.022936	-3.013000	3.862600	-11.637000	21.788693	0.000459	20.908609
111.023856	-3.027100	3.862200	-11.691000	21.784896	0.000459	20.922351
112.027543	-3.019300	3.862100	-11.660000	21.793605	0.000458	20.899302
113.025017	-3.029300	3.862700	-11.700000	21.802288	0.000460	20.902302
114.021632	-3.011400	3.862500	-11.631000	21.803021	0.000460	20.914415
115.032053	-3.009200	3.862800	-11.623000	21.811989	0.000460	20.920071
116.028976	-3.023900	3.861400	-11.676000	21.824943	0.000460	20.911700
117.027450	-3.002000	3.861700	-11.591000	21.842490	0.000459	20.915986
118.032731	-2.984700	3.862200	-11.527000	21.807278	0.000458	20.926260
119.038143	-2.989000	3.862800	-11.545000	21.831302	0.000462	20.919012
120.025077	-3.012000	3.860000	-11.625000	21.847986	0.000461	20.916272
121.031427	-2.993700	3.860900	-11.557000	21.861750	0.000461	20.911556
122.030036	-2.976700	3.860200	-11.489000	21.885195	0.000462	20.917953
123.024627	-3.010600	3.861100	-11.623000	21.876928	0.000461	20.924851
124.033195	-2.986500	3.862100	-11.533000	21.900801	0.000460	20.916031
125.026358	-3.002800	3.860400	-11.591000	21.883871	0.000463	20.899086
126.044210	-2.997800	3.860100	-11.571000	21.921708	0.000464	20.924629
127.026958	-2.998800	3.861500	-11.579000	21.901469	0.000462	20.909114
128.026125	-3.001800	3.860900	-11.589000	21.928048	0.000463	20.911536
129.027102	-2.983900	3.860500	-11.519000	21.944361	0.000462	20.926915
130.035128	-3.007700	3.859200	-11.607000	21.961303	0.000462	20.911633
131.037592	-2.992600	3.860600	-11.552000	21.944905	0.000464	20.929357
132.029747	-2.979500	3.859800	-11.499000	21.955112	0.000463	20.947158
133.023946	-2.982200	3.860100	-11.510000	21.974189	0.000465	20.908412
134.023868	-3.005900	3.858500	-11.597000	21.969186	0.000462	20.934695
135.025766	-2.985900	3.860000	-11.524000	21.992181	0.000466	20.937799
136.030500	-3.018900	3.858100	-11.646000	22.003153	0.000465	20.929343
137.029085	-2.996500	3.859000	-11.563000	21.996016	0.000466	20.921725
138.030104	-2.993000	3.858700	-11.548000	21.997463	0.000466	20.922225
139.027798	-3.002600	3.859100	-11.586000	22.005060	0.000464	20.935993
140.038405	-3.007800	3.858100	-11.604000	22.041194	0.000466	20.931863
141.028417	-3.001900	3.858200	-11.580000	22.045022	0.000466	20.930953
142.030841	-2.969500	3.859300	-11.459000	22.029580	0.000468	20.935409
143.028521	-3.005600	3.858100	-11.595000	22.051361	0.000467	20.928290
144.030586	-3.001000	3.857100	-11.573000	22.046306	0.000466	20.944565
145.032276	-2.996300	3.857100	-11.556000	22.068508	0.000468	20.933129
146.036658	-3.000800	3.856900	-11.572000	22.087084	0.000466	20.947929
147.029471	-3.006900	3.857700	-11.599000	22.079214	0.000468	20.955222
148.042504	-2.995500	3.857500	-11.554000	22.071240	0.000470	20.936337
149.032775	-3.026800	3.856100	-11.671000	22.093467	0.000470	20.958112
150.031343	-3.018000	3.856400	-11.637000	22.091203	0.000468	20.943993
151.036589	-2.983000	3.856900	-11.504000	22.085805	0.000470	20.931952
152.037375	-2.959400	3.858700	-11.418000	22.102193	0.000470	20.937453
153.038433	-2.993600	3.856500	-11.543000	22.112022	0.000471	20.936862
154.036109	-2.980000	3.856700	-11.491000	22.101162	0.000469	20.926938
155.043341	-2.997400	3.856000	-11.557000	22.106202	0.000469	20.959008
156.037982	-3.001400	3.855500	-11.571000	22.098469	0.000471	20.942259
157.032843	-2.977800	3.856300	-11.482000	22.134353	0.000471	20.943570
158.041151	-2.997100	3.855600	-11.555000	22.129188	0.000472	20.931289
159.047122	-3.010400	3.855400	-11.605000	22.144733	0.000471	20.946376
160.035410	-3.018100	3.855800	-11.636000	22.142786	0.000471	20.954857
161.034618	-3.008800	3.855400	-11.599000	22.160822	0.000473	20.968644
162.043659	-3.030900	3.855000	-11.683000	22.163475	0.000473	20.960397
163.038099	-3.014100	3.853700	-11.614000	22.202568	0.000471	20.965871
164.039728	-2.997800	3.855100	-11.556000	22.190203	0.000473	20.962975
165.039719	-3.015700	3.854900	-11.625000	22.226221	0.000473	20.957786
166.042171	-3.014400	3.852700	-11.612000	22.222581	0.000475	20.967417
167.036582	-2.997800	3.853900	-11.552000	22.203846	0.000477	20.945816
168.037622	-3.018600	3.853500	-11.631000	22.249438	0.000474	20.972021
169.040586	-2.999600	3.854200	-11.560000	22.258824	0.000477	20.960084
170.038967	-2.978700	3.853500	-11.477000	22.283967	0.000474	20.962974
171.041214	-2.999400	3.852700	-11.555000	22.275489	0.000475	20.983879
172.043694	-2.988500	3.852900	-11.513000	22.274808	0.000474	20.969923
173.041527	-3.014600	3.852900	-11.614000	22.267938	0.000476	20.969683
174.042066	-2.980200	3.854400	-11.485000	22.268042	0.000477	20.948453
175.049724	-2.991800	3.852600	-11.525000	22.277720	0.000475	20.977580
176.042130	-2.990900	3.852400	-11.521000	22.272479	0.000478	20.958109
177.041584	-3.025500	3.850200	-11.648000	22.282053	0.000477	20.962954
178.044058	-3.017800	3.851800	-11.623000	22.269786	0.000477	20.961103
179.047382	-3.026400	3.851100	-11.653000	22.280911	0.000479	20.971767
180.046834	-2.997800	3.851700	-11.546000	22.298400	0.000477	20.976001
181.045281	-3.007700	3.851400	-11.583000	22.349300	0.000479	20.970546
182.046319	-2.998900	3.850000	-11.545000	22.352323	0.000478	20.964090
183.051941	-2.995400	3.851800	-11.537000	22.346615	0.000479	20.977813
184.048414	-3.024300	3.850400	-11.644000	22.348502	0.000479	21.001036
185.051542	-3.010200	3.851200	-11.592000	22.364679	0.000479	20.981203
186.062347	-3.009100	3.850700	-11.586000	22.370459	0.000479	20.999789
187.049654	-3.014300	3.849200	-11.602000	22.381064	0.000478	20.987651
188.048027	-3.021000	3.850000	-11.631000	22.380421	0.000481	20.963304
189.053126	-3.015200	3.848100	-11.602000	22.382737	0.000480	20.985060
190.052259	-3.004700	3.848900	-11.564000	22.416063	0.000481	20.980975
191.054262	-3.003100	3.849200	-11.558000	22.433452	0.000481	20.967571
192.049612	-3.011300	3.849800	-11.592000	22.416796	0.000484	20.992613
193.048542	-2.998200	3.849800	-11.542000	22.428367	0.000482	20.979546
194.054842	-3.013200	3.849400	-11.599000	22.412768	0.000482	20.985261
195.055016	-2.993800	3.848200	-11.520000	22.443797	0.000482	20.986462
196.053889	-3.014600	3.848100	-11.600000	22.446690	0.000481	20.997892
197.052298	-2.990500	3.848500	-11.508000	22.446430	0.000485	20.981988
198.050395	-2.987900	3.849700	-11.501000	22.454920	0.000483	20.978637
199.053440	-2.989000	3.848700	-11.503000	22.463832	0.000484	20.982819
200.052429	-2.997700	3.848600	-11.536000	22.494418	0.000485	20.983579
201.059326	-3.014800	3.847400	-11.598000	22.486266	0.000484	20.977312
202.054756	-2.996000	3.846600	-11.522000	22.504620	0.000486	20.987631
203.053693	-3.000400	3.847500	-11.543000	22.481920	0.000486	21.012309
204.058869	-2.995900	3.847800	-11.527000	22.521554	0.000486	21.008854
205.057173	-2.997000	3.847100	-11.529000	22.519654	0.000487	21.006951
206.054602	-2.994500	3.847200	-11.518000	22.533357	0.000484	21.012140
207.057397	-2.999100	3.846200	-11.535000	22.524544	0.000487	21.001892
208.059390	-3.002300	3.845800	-11.546000	22.534570	0.000486	20.983014
209.055629	-2.997900	3.846200	-11.530000	22.540115	0.000488	20.995203
210.054754	-2.986800	3.847300	-11.490000	22.539382	0.000486	21.004425
211.055061	-3.002400	3.845500	-11.545000	22.573300	0.000487	20.992878
212.057899	-2.997800	3.846200	-11.529000	22.563521	0.000487	21.002522
213.062532	-2.996800	3.845700	-11.523000	22.566860	0.000489	21.017718
214.055458	-2.993700	3.844500	-11.509000	22.571303	0.000488	21.031174
215.059521	-2.985100	3.846500	-11.481000	22.563203	0.000488	21.023537
216.055280	-3.019800	3.844000	-11.607000	22.589500	0.000489	21.007204
217.059403	-3.001200	3.844700	-11.537000	22.583586	0.000489	20.996067
218.059232	-3.012100	3.843700	-11.576000	22.612379	0.000488	20.998827
219.056631	-3.006300	3.843300	-11.553000	22.617347	0.000491	21.009016
220.057972	-2.988500	3.844800	-11.488000	22.599416	0.000490	21.017134
221.056434	-2.999200	3.844800	-11.530000	22.608119	0.000492	21.013049
222.054564	-3.016100	3.843300	-11.591000	22.621795	0.000491	21.030537
223.057613	-3.012800	3.843600	-11.580000	22.629713	0.000490	21.024719
224.060198	-3.008900	3.842500	-11.560000	22.655062	0.000493	21.014075
225.057437	-3.002100	3.842600	-11.534000	22.659744	0.000492	21.031563
226.063188	-2.991500	3.844000	-11.499000	22.657111	0.000492	21.022764
227.059654	-2.986300	3.842000	-11.473000	22.688121	0.000492	21.025849
228.061951	-3.001900	3.842900	-11.534000	22.692803	0.000492	21.035278
229.059254	-3.004000	3.841000	-11.537000	22.726249	0.000491	21.018998
230.057469	-3.000500	3.841400	-11.525000	22.716523	0.000495	21.030589
231.056789	-2.972400	3.842000	-11.419000	22.720919	0.000494	21.027881
232.063893	-2.989500	3.841600	-11.484000	22.704079	0.000494	21.024290
233.061757	-2.993700	3.841000	-11.498000	22.710563	0.000496	21.029836
234.063827	-3.009300	3.841200	-11.558000	22.715829	0.000497	21.030843
235.062747	-3.026100	3.841300	-11.623000	22.720802	0.000495	21.013068
236.062091	-3.028600	3.841300	-11.632000	22.710538	0.000496	21.025543
237.065654	-2.996400	3.841500	-11.510000	22.697731	0.000495	21.029310
238.061135	-3.005200	3.840700	-11.541000	22.726243	0.000497	21.017569
239.063033	-3.002900	3.839800	-11.530000	22.739756	0.000498	21.035369
240.061237	-3.014700	3.839700	-11.574000	22.741066	0.000499	21.027673
241.064600	-2.987600	3.839800	-11.471000	22.740437	0.000497	21.022777
242.061004	-2.998300	3.839400	-11.511000	22.782590	0.000497	21.027069
243.063347	-3.008200	3.838600	-11.546000	22.790481	0.000498	21.037817
244.063545	-3.029400	3.837600	-11.625000	22.786584	0.000498	21.044817
245.063793	-3.024300	3.839500	-11.610000	22.797607	0.000499	21.028836
246.062432	-2.994900	3.839000	-11.496000	22.811774	0.000500	21.059143
247.059937	-3.009000	3.838100	-11.548000	22.806230	0.000499	21.061649
248.063093	-3.007700	3.838700	-11.545000	22.790811	0.000500	21.055214
249.064594	-3.006600	3.838300	-11.539000	22.804570	0.000500	21.031544
250.062473	-2.988300	3.838100	-11.468000	22.836146	0.000500	21.044681
251.062501	-2.988500	3.837200	-11.467000	22.815742	0.000501	21.060747
252.063409	-2.995800	3.837100	-11.495000	22.834726	0.000502	21.060325
253.062442	-3.010200	3.837200	-11.549000	22.860460	0.000502	21.058604
254.062540	-3.011100	3.836200	-11.551000	22.873349	0.000502	21.053026
255.065234	-3.022800	3.836200	-11.595000	22.876370	0.000502	21.042778
256.065587	-2.997300	3.835400	-11.495000	22.868531	0.000503	21.058630
257.067319	-2.973100	3.836600	-11.405000	22.887178	0.000503	21.059766
258.069757	-3.003200	3.836000	-11.519000	22.876843	0.000502	21.058896
259.071458	-3.003900	3.836700	-11.524000	22.899159	0.000502	21.065130
260.069414	-3.004600	3.836400	-11.526000	22.892987	0.000502	21.054681
261.072358	-3.007900	3.835700	-11.535000	22.900611	0.000505	21.055682
262.068895	-3.013000	3.834800	-11.553000	22.913279	0.000503	21.067422
263.067405	-3.017100	3.835100	-11.569000	22.914019	0.000505	21.075747
264.068413	-3.022800	3.834600	-11.590000	22.966311	0.000505	21.060338
265.075690	-3.009800	3.835300	-11.542000	22.976165	0.000505	21.040817
266.068406	-2.996200	3.835800	-11.492000	22.989364	0.000505	21.082955
267.072235	-3.018600	3.834300	-11.573000	22.993331	0.000506	21.062279
268.067720	-2.976800	3.835900	-11.418000	22.997085	0.000508	21.064617
269.074240	-3.022400	3.833300	-11.584000	23.003606	0.000507	21.077312
270.069859	-3.008300	3.833800	-11.533000	23.037154	0.000509	21.068253
271.070887	-3.017500	3.833800	-11.567000	22.994719	0.000507	21.068883
272.069395	-3.016600	3.833400	-11.563000	23.006161	0.000507	21.063753
273.071670	-3.030900	3.832200	-11.614000	23.018270	0.000510	21.067351
274.072717	-3.005100	3.831700	-11.513000	23.026685	0.000509	21.072461
275.069620	-2.989500	3.832600	-11.457000	23.006809	0.000508	21.078624
276.074526	-2.991900	3.831800	-11.463000	23.037407	0.000508	21.082254
277.072810	-3.016300	3.832800	-11.559000	23.038010	0.000509	21.078591
278.075728	-3.011600	3.831700	-11.539000	23.057463	0.000509	21.087176
279.079238	-2.991000	3.832200	-11.461000	23.024779	0.000509	21.080981
280.074270	-3.029000	3.831300	-11.604000	23.033589	0.000511	21.074637
281.073093	-3.003400	3.831300	-11.506000	23.037238	0.000511	21.081137
282.077171	-2.978200	3.831400	-11.409000	23.055668	0.000510	21.072104
283.072938	-2.993000	3.831500	-11.467000	23.039922	0.000512	21.086670
284.076013	-2.983800	3.830600	-11.429000	23.056899	0.000511	21.090403
285.075878	-3.007700	3.831400	-11.522000	23.059849	0.000512	21.070604
286.077946	-3.014100	3.829600	-11.542000	23.059603	0.000512	21.090741
287.078342	-3.000200	3.829700	-11.489000	23.075880	0.000513	21.078604
288.078722	-2.990000	3.830600	-11.452000	23.083743	0.000513	21.070364
289.077842	-2.985300	3.831300	-11.436000	23.070201	0.000513	21.076234
290.078846	-2.993200	3.829400	-11.461000	23.085947	0.000512	21.057876
291.077303	-2.962300	3.830000	-11.345000	23.134167	0.000514	21.049298
292.076914	-2.974400	3.829700	-11.390000	23.096454	0.000515	21.057500
293.080196	-3.004700	3.829400	-11.506000	23.095171	0.000515	21.056214
294.077741	-3.003900	3.828300	-11.499000	23.141044	0.000516	21.047181
295.080933	-3.010100	3.828100	-11.522000	23.112886	0.000518	21.054052
296.080745	-3.000300	3.828800	-11.487000	23.124321	0.000518	21.053181
297.081745	-2.997200	3.828300	-11.474000	23.125928	0.000518	21.046733
298.079518	-3.019100	3.827300	-11.554000	23.150533	0.000515	21.058584
299.079385	-3.007000	3.829400	-11.514000	23.158992	0.000516	21.059948
300.080650	-2.988400	3.826900	-11.436000	23.152523	0.000516	21.043512
301.079605	-3.010000	3.827700	-11.521000	23.153787	0.000516	21.043830
302.081876	-2.975100	3.827800	-11.387000	23.176785	0.000518	21.037005
303.084247	-3.003300	3.825300	-11.487000	23.169713	0.000516	21.058363
304.082127	-2.999500	3.826600	-11.475000	23.188238	0.000518	21.058435
305.080614	-2.992800	3.825300	-11.447000	23.212932	0.000519	21.044304
306.079587	-2.983600	3.825900	-11.413000	23.215344	0.000518	21.048142
307.083331	-3.001700	3.824600	-11.478000	23.204591	0.000519	21.020777
308.082539	-3.001800	3.826800	-11.486000	23.193054	0.000520	21.032446
309.082375	-2.970000	3.826200	-11.363000	23.189845	0.000521	21.029232
310.080111	-3.001000	3.824800	-11.477000	23.193339	0.000521	21.022303
311.083466	-3.003700	3.826200	-11.492000	23.196521	0.000519	21.041609
312.084568	-2.996800	3.825300	-11.463000	23.193916	0.000520	21.027621
313.087358	-3.028300	3.822900	-11.576000	23.212394	0.000518	21.043765
314.086240	-3.009100	3.824900	-11.509000	23.207054	0.000520	21.020400
315.083683	-2.996600	3.825300	-11.462000	23.187505	0.000520	21.033050
316.088097	-3.003800	3.824700	-11.488000	23.215577	0.000521	21.019459
317.084240	-3.025700	3.823300	-11.568000	23.231456	0.000522	21.026362
318.083142	-3.023800	3.823700	-11.561000	23.239940	0.000522	21.028225
319.084032	-3.007700	3.823100	-11.498000	23.272327	0.000521	21.022277
320.082494	-2.992100	3.823000	-11.439000	23.265541	0.000522	21.033018
321.082694	-3.012200	3.823800	-11.517000	23.279398	0.000522	21.025569
322.084468	-2.983300	3.823500	-11.406000	23.302263	0.000523	21.026199
323.085539	-3.006000	3.822500	-11.490000	23.289437	0.000522	21.014770
324.092463	-3.004300	3.820200	-11.476000	23.307675	0.000523	21.017874
325.089411	-2.988800	3.821200	-11.420000	23.297163	0.000524	21.016348
326.092388	-2.999600	3.821200	-11.461000	23.287914	0.000524	21.007555
327.086995	-3.009400	3.821800	-11.501000	23.313456	0.000523	21.014659
328.085941	-3.015000	3.821600	-11.521000	23.288459	0.000524	21.016160
329.085938	-3.004500	3.821900	-11.483000	23.303177	0.000527	21.004834
330.088671	-3.017800	3.819700	-11.526000	23.306093	0.000526	21.000171
331.084412	-3.024700	3.819300	-11.551000	23.308491	0.000527	21.008263
332.087695	-3.003600	3.819500	-11.472000	23.307966	0.000527	21.004892
333.087470	-3.007700	3.820300	-11.489000	23.322866	0.000527	20.992326
334.087768	-3.020900	3.819900	-11.538000	23.340027	0.000526	21.009049
335.089901	-2.987300	3.820100	-11.411000	23.354323	0.000526	21.005834
336.089022	-2.984100	3.819000	-11.396000	23.357531	0.000528	20.998145
337.086154	-2.983000	3.819800	-11.393000	23.339262	0.000527	20.997853
338.087136	-3.010200	3.818000	-11.492000	23.339632	0.000527	21.005808
339.100376	-3.001000	3.817400	-11.456000	23.354563	0.000529	21.003230
340.099833	-2.991900	3.818900	-11.425000	23.343345	0.000529	20.961647
341.087047	-2.964900	3.818200	-11.320000	23.336197	0.000528	20.991937
342.089626	-2.982800	3.817100	-11.384000	23.364705	0.000529	21.011497
343.090229	-3.004800	3.817300	-11.469000	23.394930	0.000529	21.014763
344.092570	-2.996400	3.816800	-11.437000	23.415752	0.000529	21.005289
345.089062	-3.003900	3.816300	-11.463000	23.437247	0.000528	20.987482
346.091249	-3.014000	3.816600	-11.502000	23.436961	0.000529	21.012796
347.091706	-3.000700	3.816300	-11.450000	23.425232	0.000530	20.995353
348.088499	-3.003200	3.817500	-11.464000	23.393362	0.000532	20.994229
349.092424	-3.001400	3.817200	-11.456000	23.405889	0.000528	21.004886
350.090894	-3.017700	3.816800	-11.517000	23.421552	0.000530	20.987397
351.092575	-3.006600	3.816500	-11.474000	23.403128	0.000531	20.986001
352.096149	-2.982900	3.815700	-11.381000	23.428965	0.000532	20.996249
353.093779	-3.008600	3.814100	-11.475000	23.451302	0.000531	20.984027
354.095154	-3.006600	3.814200	-11.467000	23.451483	0.000530	20.997483
355.092047	-2.989000	3.815000	-11.403000	23.488458	0.000532	20.990449
356.097702	-2.994200	3.814000	-11.419000	23.509822	0.000533	20.973935
357.096511	-3.014400	3.814300	-11.497000	23.505306	0.000532	20.980312
358.097235	-2.985200	3.815600	-11.388000	23.506193	0.000532	20.994002
359.098798	-3.001900	3.813000	-11.445000	23.500284	0.000534	20.994242
360.101769	-2.978900	3.814500	-11.362000	23.511481	0.000533	20.973701
361.100163	-2.990000	3.813100	-11.400000	23.516211	0.000533	20.995034
362.097915	-3.028100	3.812400	-11.543000	23.495819	0.000536	20.978864
363.098136	-2.988700	3.811300	-11.390000	23.512453	0.000534	20.991742
364.097466	-3.011000	3.812400	-11.477000	23.516892	0.000536	20.967272
365.100970	-3.020100	3.811700	-11.511000	23.494847	0.000535	20.969830
366.106853	-3.005100	3.811900	-11.454000	23.492793	0.000537	20.995268
367.101243	-2.970500	3.813000	-11.326000	23.542298	0.000535	20.992735
368.101180	-2.977200	3.812500	-11.350000	23.521149	0.000534	20.983390
369.097381	-2.996000	3.810900	-11.416000	23.518991	0.000535	20.971272
370.102233	-2.988900	3.811300	-11.390000	23.526481	0.000534	20.987313
371.099798	-2.987900	3.811300	-11.387000	23.543769	0.000536	20.987099
372.099761	-3.019300	3.809800	-11.502000	23.562449	0.000536	20.982592
373.101073	-3.002700	3.809500	-11.438000	23.556987	0.000537	20.996554
374.104727	-3.015000	3.810100	-11.486000	23.553702	0.000539	20.992313
375.098785	-3.006100	3.809500	-11.450000	23.568974	0.000536	20.980124
376.107265	-2.989600	3.810000	-11.390000	23.582976	0.000538	20.965239
377.097035	-3.017300	3.809500	-11.493000	23.578324	0.000535	20.965791
378.099773	-2.995000	3.809700	-11.409000	23.581952	0.000536	20.985072
379.106350	-3.005400	3.808600	-11.445000	23.556229	0.000535	20.972090
380.101509	-3.010400	3.807400	-11.461000	23.528561	0.000538	20.981812
381.100505	-3.008500	3.808600	-11.457000	23.555335	0.000538	20.963135
382.102129	-3.027500	3.807300	-11.526000	23.571125	0.000537	20.981332
383.104162	-2.993100	3.808700	-11.399000	23.603865	0.000535	20.964369
384.101674	-2.977400	3.808600	-11.339000	23.612171	0.000540	20.961316
385.102503	-3.012200	3.807200	-11.466000	23.621761	0.000540	20.960024
386.102132	-2.992200	3.807400	-11.391000	23.622992	0.000538	20.987332
387.107569	-2.990900	3.807000	-11.386000	23.632218	0.000541	20.982832
388.101809	-3.010300	3.807100	-11.460000	23.617160	0.000539	20.972954
389.107480	-3.007800	3.805500	-11.446000	23.614478	0.000540	20.964576
390.101283	-2.976900	3.807400	-11.334000	23.624832	0.000537	20.971162
391.102055	-2.998500	3.806300	-11.412000	23.673203	0.000540	20.992625
392.102738	-3.019600	3.805700	-11.490000	23.664405	0.000539	20.986176
393.102761	-3.007200	3.805500	-11.443000	23.654441	0.000540	20.965284
394.106566	-3.008600	3.804800	-11.446000	23.694408	0.000540	20.987332
395.106122	-3.009500	3.804600	-11.450000	23.705726	0.000542	20.988248
396.102432	-2.994900	3.805200	-11.395000	23.704359	0.000543	20.959381
397.107502	-3.013500	3.803600	-11.461000	23.683757	0.000543	20.993723
398.107524	-2.993400	3.803400	-11.384000	23.705986	0.000542	20.967174
399.108296	-3.019300	3.804100	-11.484000	23.692691	0.000544	20.956692
400.109960	-3.003200	3.803400	-11.421000	23.739376	0.000542	20.975045
401.103926	-3.007800	3.803500	-11.439000	23.708642	0.000543	20.959407
402.104217	-3.021100	3.801100	-11.482000	23.713786	0.000540	20.964564
403.109560	-3.017800	3.802600	-11.475000	23.694000	0.000541	20.961797
404.108645	-3.038900	3.801500	-11.552000	23.694156	0.000542	20.951997
405.113783	-2.989000	3.802800	-11.366000	23.713572	0.000543	20.987579
406.108973	-2.986500	3.801700	-11.353000	23.735508	0.000543	20.977805
407.109247	-2.997800	3.801100	-11.394000	23.741734	0.000543	20.963661
408.109776	-3.001500	3.801600	-11.409000	23.754878	0.000542	20.966882
409.110569	-2.978700	3.802800	-11.327000	23.793042	0.000544	20.964369
410.114363	-2.999300	3.801100	-11.399000	23.798587	0.000543	20.975143
411.112863	-3.001400	3.799500	-11.403000	23.815190	0.000544	20.946276
412.109898	-3.010000	3.799700	-11.435000	23.784108	0.000544	20.975325
413.113385	-2.990100	3.800600	-11.363000	23.804158	0.000544	20.960342
414.114634	-2.998600	3.800400	-11.394000	23.777520	0.000544	20.973935
415.112900	-3.004100	3.799400	-11.413000	23.757703	0.000543	20.969240
416.116442	-3.004300	3.799800	-11.415000	23.750298	0.000545	20.957076
417.111097	-3.000000	3.799000	-11.396000	23.758623	0.000545	20.956887
418.113826	-3.006700	3.800200	-11.425000	23.767109	0.000545	20.952120
419.116848	-2.988200	3.798800	-11.350000	23.773024	0.000544	20.974643
420.110116	-2.975100	3.798200	-11.299000	23.792413	0.000547	20.949990
421.119841	-2.980000	3.798600	-11.319000	23.809120	0.000543	20.970058
422.113259	-3.010500	3.797800	-11.432000	23.818448	0.000546	20.959972
423.114581	-2.987100	3.798500	-11.346000	23.805576	0.000545	20.963187
424.117069	-2.995200	3.797900	-11.374000	23.813324	0.000545	20.965739
425.115343	-3.011300	3.797200	-11.434000	23.800848	0.000545	20.966980
426.111585	-2.985200	3.798100	-11.336000	23.837623	0.000547	20.960232
427.117279	-2.999300	3.796100	-11.384000	23.827459	0.000547	20.942931
428.118549	-2.996600	3.797800	-11.380000	23.837778	0.000548	20.968921
429.119644	-2.985400	3.796700	-11.334000	23.841905	0.000546	20.950302
430.115345	-2.995700	3.794700	-11.366000	23.839430	0.000547	20.952088
431.113984	-2.980700	3.795200	-11.311000	23.833574	0.000548	20.967551
432.115828	-2.991600	3.795800	-11.354000	23.842287	0.000546	20.967278
433.113689	-3.000800	3.794800	-11.387000	23.829027	0.000548	20.934547
434.115314	-2.987500	3.795300	-11.337000	23.865853	0.000547	20.954400
435.116045	-2.996800	3.795500	-11.373000	23.895935	0.000549	20.957537
436.117552	-3.006400	3.793700	-11.404000	23.883193	0.000547	20.947607
437.120809	-3.009100	3.793100	-11.413000	23.863482	0.000547	20.962927
438.123374	-2.990600	3.795700	-11.351000	23.861506	0.000547	20.936294
439.118523	-2.997000	3.792800	-11.366000	23.851654	0.000546	20.957232
440.118395	-2.986900	3.793800	-11.331000	23.825490	0.000548	20.936216
441.121238	-3.001900	3.792600	-11.384000	23.836101	0.000548	20.937372
442.117981	-3.019500	3.791500	-11.448000	23.846342	0.000547	20.963759
443.124447	-3.022500	3.792800	-11.463000	23.900981	0.000549	20.949322
444.122234	-3.015600	3.792100	-11.434000	23.922097	0.000551	20.947737
445.117867	-2.998000	3.792500	-11.369000	23.949600	0.000547	20.957771
446.123795	-3.031800	3.790800	-11.492000	23.926431	0.000549	20.944022
447.118532	-2.985300	3.792000	-11.319000	23.931651	0.000549	20.963954
448.129508	-3.004900	3.792700	-11.396000	23.886044	0.000549	20.953784
449.123867	-2.997300	3.790500	-11.361000	23.905250	0.000549	20.940327
450.124369	-3.015900	3.790500	-11.431000	23.909609	0.000548	20.954654
451.120188	-2.974000	3.792000	-11.276000	23.925103	0.000550	20.949329
452.126354	-3.018400	3.790700	-11.441000	23.925336	0.000550	20.941977
453.124275	-3.007700	3.791600	-11.404000	23.965916	0.000549	20.957538
454.124582	-3.018900	3.788400	-11.436000	23.978598	0.000551	20.954135
455.126628	-3.022500	3.788800	-11.451000	23.982329	0.000550	20.938912
456.125647	-2.980400	3.790200	-11.296000	23.980826	0.000549	20.944517
457.130252	-2.996400	3.789000	-11.353000	23.977989	0.000552	20.944517
458.128878	-2.990300	3.789300	-11.330000	23.957470	0.000549	20.935320
459.129795	-3.018100	3.787100	-11.429000	23.941912	0.000551	20.953856
460.127606	-3.002600	3.788300	-11.374000	23.949950	0.000551	20.943426
461.128811	-3.002000	3.787800	-11.369000	23.970560	0.000551	20.948446
462.131026	-2.999400	3.785600	-11.354000	23.989603	0.000549	20.956161
463.126583	-2.978200	3.788700	-11.282000	24.041346	0.000552	20.945465
464.133090	-3.005500	3.787100	-11.380000	24.048645	0.000549	20.957051
465.132690	-3.003400	3.786300	-11.371000	24.065160	0.000550	20.948959
466.132414	-3.026200	3.785000	-11.453000	24.071332	0.000549	20.957045
467.131406	-3.007300	3.786200	-11.385000	24.026910	0.000550	20.930515
468.132287	-3.010600	3.785300	-11.395000	24.019578	0.000550	20.932172
469.129795	-2.996400	3.785400	-11.341000	24.011560	0.000551	20.937406
470.133383	-3.026800	3.784800	-11.455000	23.991203	0.000553	20.921261
471.132548	-3.015200	3.784800	-11.411000	24.005563	0.000552	20.932341
472.129005	-2.993100	3.785200	-11.328000	24.027487	0.000552	20.936783
473.134601	-3.017800	3.783800	-11.418000	24.008231	0.000551	20.928379
474.132143	-3.005400	3.783700	-11.370000	24.021859	0.000553	20.944414
475.135949	-2.990200	3.784400	-11.316000	24.008614	0.000553	20.940615
476.132607	-3.012600	3.784200	-11.399000	24.004987	0.000550	20.936504
477.132650	-3.007400	3.783700	-11.378000	23.999501	0.000552	20.928633
478.133794	-2.998000	3.784200	-11.344000	24.014592	0.000552	20.939973
479.129341	-3.013500	3.782900	-11.399000	24.041801	0.000554	20.932647
480.134911	-2.971900	3.783200	-11.242000	24.056160	0.000553	20.940408
481.138521	-2.997200	3.782500	-11.336000	24.095323	0.000550	20.931322
482.133523	-2.979200	3.783200	-11.270000	24.110710	0.000552	20.923523
483.132184	-2.994900	3.782500	-11.328000	24.105504	0.000551	20.926361
484.138669	-2.985200	3.781300	-11.287000	24.110814	0.000552	20.940694
485.133051	-2.977600	3.781200	-11.258000	24.125515	0.000551	20.934102
486.132267	-2.984500	3.781500	-11.285000	24.140171	0.000548	20.948799
487.131185	-3.004400	3.780400	-11.357000	24.133442	0.000551	20.921192
488.131572	-2.980400	3.782000	-11.270000	24.176643	0.000553	20.935122
489.133175	-2.969800	3.780700	-11.227000	24.131862	0.000554	20.930037
490.135065	-3.025300	3.778800	-11.431000	24.130917	0.000555	20.932408
491.134333	-3.014600	3.780400	-11.396000	24.124240	0.000553	20.944676
492.136621	-3.009500	3.779500	-11.373000	24.139659	0.000553	20.928375
493.134326	-3.014000	3.777900	-11.386000	24.177971	0.000552	20.943566
494.136863	-3.012500	3.778100	-11.379000	24.177129	0.000554	20.919965
495.136475	-2.997500	3.778100	-11.324000	24.193675	0.000552	20.923283
496.137484	-2.975400	3.778300	-11.241000	24.209133	0.000554	20.916977
497.135589	-2.989500	3.778000	-11.293000	24.217247	0.000553	20.929856
498.132917	-2.976600	3.779200	-11.248000	24.169864	0.000553	20.940650
499.139352	-2.990800	3.778600	-11.301000	24.180135	0.000554	20.908755
500.137905	-2.995700	3.777700	-11.316000	24.218290	0.000552	20.927109
501.137202	-3.015200	3.777100	-11.388000	24.238590	0.000555	20.925661
502.142559	-2.997000	3.776500	-11.317000	24.218594	0.000553	20.938793
503.140327	-3.002900	3.777000	-11.341000	24.191494	0.000554	20.928207
504.141190	-3.001800	3.775200	-11.332000	24.211316	0.000553	20.932916
505.143347	-2.989100	3.775900	-11.286000	24.219249	0.000555	20.938501
506.139222	-2.993400	3.775000	-11.300000	24.248155	0.000555	20.919609
507.139820	-2.996400	3.774900	-11.311000	24.255978	0.000555	20.914654
508.140913	-3.001100	3.775200	-11.328000	24.282443	0.000555	20.910855
509.143758	-3.017300	3.774100	-11.387000	24.231048	0.000553	20.938482
510.140385	-3.008900	3.774400	-11.356000	24.200243	0.000554	20.909958
511.138872	-3.012000	3.773800	-11.366000	24.185473	0.000555	20.934969
512.142469	-2.987300	3.774800	-11.276000	24.171841	0.000552	20.914661
513.141624	-3.000300	3.773500	-11.321000	24.172703	0.000554	20.915525
514.140266	-2.994600	3.772500	-11.296000	24.218732	0.000556	20.919020
515.146343	-2.982800	3.773000	-11.253000	24.224269	0.000554	20.913194
516.140103	-2.984100	3.773900	-11.260000	24.205432	0.000556	20.898094
517.140581	-3.012000	3.772400	-11.362000	24.203956	0.000554	20.924586
518.143162	-2.996300	3.774100	-11.307000	24.200407	0.000556	20.914864
519.141345	-3.013200	3.773800	-11.370000	24.204791	0.000554	20.926847
520.141769	-3.013100	3.772100	-11.364000	24.205284	0.000555	20.907428
521.145031	-2.983900	3.771600	-11.253000	24.196011	0.000553	20.912351
522.142579	-2.992600	3.771600	-11.286000	24.213470	0.000556	20.917060
523.144330	-2.985600	3.772200	-11.260000	24.226913	0.000554	20.939551
524.142939	-2.991200	3.771400	-11.281000	24.255664	0.000555	20.902486
525.144627	-2.991700	3.770300	-11.278000	24.285464	0.000553	20.902980
526.144114	-2.987400	3.771000	-11.264000	24.301930	0.000556	20.902902
527.149333	-3.013600	3.770900	-11.362000	24.316260	0.000556	20.910164
528.145828	-3.009600	3.769900	-11.345000	24.310665	0.000556	20.937266
529.145963	-3.002200	3.769400	-11.316000	24.281036	0.000556	20.893324
530.146441	-3.007500	3.769900	-11.337000	24.250757	0.000555	20.908469
531.147478	-3.009600	3.767600	-11.338000	24.250310	0.000554	20.911814
532.149914	-2.996400	3.769000	-11.293000	24.226410	0.000552	20.906807
533.150140	-3.015800	3.769600	-11.367000	24.237431	0.000554	20.906008
534.154717	-3.004000	3.768600	-11.320000	24.237192	0.000554	20.899605
535.151594	-2.998500	3.767700	-11.295000	24.278323	0.000557	20.898189
536.152252	-3.006800	3.767100	-11.326000	24.255414	0.000557	20.890857
537.153984	-2.977400	3.767100	-11.214000	24.283355	0.000555	20.901813
538.152578	-3.011300	3.767200	-11.343000	24.312946	0.000556	20.920589
539.156621	-3.009800	3.765500	-11.332000	24.343540	0.000557	20.906236
540.153696	-3.015900	3.766500	-11.359000	24.331614	0.000554	20.896170
541.151731	-3.013100	3.765800	-11.345000	24.364014	0.000555	20.879836
542.158381	-2.995900	3.767100	-11.285000	24.368112	0.000553	20.901015
543.152082	-3.004100	3.765100	-11.310000	24.347918	0.000556	20.898774
544.153459	-2.977000	3.765800	-11.210000	24.323151	0.000553	20.890526
545.155554	-2.983600	3.766700	-11.237000	24.316663	0.000554	20.927163
546.168790	-2.996000	3.765700	-11.280000	24.330870	0.000553	20.904906
547.155716	-2.995600	3.764100	-11.275000	24.382202	0.000555	20.883382
548.160840	-3.010700	3.763200	-11.329000	24.350851	0.000554	20.868055
549.157958	-3.012700	3.763400	-11.336000	24.373267	0.000557	20.888169
550.161988	-2.993000	3.763800	-11.264000	24.399107	0.000556	20.875212
551.157358	-3.004900	3.763500	-11.308000	24.384054	0.000555	20.879551
552.158481	-3.010400	3.763100	-11.328000	24.375754	0.000554	20.879759
553.158019	-2.984900	3.764800	-11.237000	24.366618	0.000555	20.874862
554.159749	-3.018000	3.763100	-11.356000	24.371267	0.000555	20.885215
555.162938	-2.991700	3.762300	-11.255000	24.361211	0.000555	20.889826
556.164932	-3.011700	3.761500	-11.328000	24.328384	0.000554	20.876336
557.164902	-2.991500	3.762500	-11.255000	24.338964	0.000554	20.889320
558.163350	-3.013700	3.761700	-11.336000	24.361490	0.000554	20.891054
559.166866	-3.007400	3.762800	-11.315000	24.374647	0.000556	20.884338
560.162278	-3.020800	3.759500	-11.355000	24.383408	0.000554	20.895971
561.167598	-3.007900	3.762100	-11.315000	24.410749	0.000556	20.878831
562.160806	-3.005200	3.760800	-11.301000	24.404340	0.000554	20.887573
563.162907	-2.982200	3.762000	-11.218000	24.467458	0.000554	20.872661
564.164110	-3.009400	3.760300	-11.315000	24.474864	0.000554	20.873928
565.168258	-3.010900	3.760400	-11.321000	24.469141	0.000552	20.883832
566.166585	-3.024200	3.758800	-11.366000	24.479720	0.000556	20.876428
567.160603	-3.017000	3.758400	-11.338000	24.486621	0.000554	20.880033
568.164068	-2.985100	3.760100	-11.223000	24.469905	0.000553	20.899770
569.160995	-3.001400	3.759500	-11.282000	24.452994	0.000555	20.881383
570.165159	-3.011300	3.757800	-11.314000	24.441859	0.000553	20.907194
571.168046	-2.988000	3.759700	-11.233000	24.454859	0.000553	20.893210
572.168755	-2.977300	3.758100	-11.188000	24.476178	0.000555	20.885677
573.163631	-2.978900	3.758800	-11.196000	24.496241	0.000553	20.882098
574.163960	-3.001300	3.758700	-11.280000	24.485209	0.000554	20.887151
575.168615	-2.974300	3.757400	-11.175000	24.473873	0.000554	20.894743
576.162746	-2.989100	3.756600	-11.228000	24.463527	0.000554	20.875830
577.168221	-3.015400	3.755300	-11.323000	24.434225	0.000554	20.872985
578.160264	-3.005000	3.756700	-11.289000	24.467069	0.000553	20.884598
579.164464	-3.000300	3.755200	-11.266000	24.487553	0.000555	20.889976
580.164174	-3.021100	3.756700	-11.349000	24.495509	0.000553	20.882312
581.165397	-2.988900	3.755800	-11.225000	24.486607	0.000554	20.883812
582.167811	-2.982100	3.756300	-11.201000	24.470591	0.000554	20.873434
583.171322	-2.987800	3.754800	-11.218000	24.454185	0.000553	20.880207
584.166050	-2.994600	3.754200	-11.242000	24.467282	0.000552	20.901881
585.162450	-2.979200	3.755500	-11.187000	24.443392	0.000552	20.887397
586.169030	-3.001900	3.754200	-11.269000	24.468493	0.000554	20.866114
587.166132	-3.013600	3.753800	-11.312000	24.460847	0.000554	20.877883
588.171673	-3.003100	3.754800	-11.275000	24.435112	0.000554	20.883832
589.165595	-3.002100	3.754500	-11.271000	24.407383	0.000554	20.876876
590.168619	-3.010200	3.752500	-11.295000	24.420830	0.000553	20.871401
591.167681	-3.000000	3.753400	-11.259000	24.429208	0.000553	20.885495
592.169442	-3.007900	3.752300	-11.286000	24.459902	0.000554	20.873616
593.170265	-2.978300	3.753300	-11.177000	24.483610	0.000551	20.872271
594.170433	-2.979000	3.752300	-11.177000	24.482037	0.000553	20.879701
595.169899	-2.991200	3.751700	-11.221000	24.456348	0.000553	20.871473
596.167657	-3.016200	3.750800	-11.312000	24.420752	0.000552	20.888865
597.169484	-2.999000	3.751800	-11.251000	24.435144	0.000552	20.889079
598.170589	-3.018800	3.750100	-11.319000	24.452567	0.000553	20.876214
599.173782	-3.027800	3.750100	-11.354000	24.450709	0.000554	20.879565
600.172090	-2.958900	3.751600	-11.100000	24.450152	0.000552	20.888489
601.171158	-2.992000	3.749800	-11.219000	24.474987	0.000554	20.891120
602.175213	-2.988000	3.749900	-11.204000	24.459844	0.000550	20.893470
603.172366	-2.976600	3.749100	-11.159000	24.458556	0.000552	20.878429
604.178844	-3.028200	3.750400	-11.356000	24.498857	0.000552	20.885196
605.176978	-3.000700	3.749100	-11.248000	24.490797	0.000553	20.894653
606.171336	-2.992500	3.750700	-11.223000	24.553593	0.000552	20.887483
607.175291	-3.017200	3.748700	-11.309000	24.539655	0.000554	20.883456
608.174438	-3.004700	3.748900	-11.263000	24.565957	0.000553	20.874760
609.177202	-3.009400	3.747900	-11.278000	24.589741	0.000551	20.879657
610.177039	-2.994900	3.748400	-11.226000	24.547003	0.000551	20.870915
611.171347	-2.980100	3.748200	-11.169000	24.545449	0.000550	20.878364
612.170248	-3.010000	3.746900	-11.277000	24.504225	0.000550	20.885366
613.174422	-3.023700	3.747400	-11.329000	24.526203	0.000553	20.873279
614.171073	-2.996200	3.746900	-11.225000	24.522313	0.000551	20.878859
615.174015	-2.980900	3.746700	-11.168000	24.548227	0.000550	20.888737
616.172073	-2.996200	3.746700	-11.225000	24.566703	0.000550	20.903955
617.171308	-2.993200	3.746600	-11.214000	24.574892	0.000552	20.870922
618.177731	-2.976500	3.745500	-11.147000	24.594869	0.000548	20.894758
619.176811	-3.008500	3.745400	-11.266000	24.596183	0.000551	20.878060
620.180739	-2.996400	3.745800	-11.223000	24.580874	0.000551	20.886880
621.176641	-3.024300	3.743200	-11.318000	24.546292	0.000549	20.901494
622.181290	-2.996600	3.744700	-11.220000	24.565771	0.000549	20.891167
623.175601	-3.011800	3.744400	-11.277000	24.568180	0.000550	20.890265
624.178400	-2.994400	3.744500	-11.212000	24.600709	0.000550	20.902988
625.181298	-2.994600	3.744000	-11.210000	24.592462	0.000549	20.890447
626.181462	-3.007800	3.743500	-11.259000	24.605739	0.000551	20.886226
627.183792	-3.019300	3.744600	-11.305000	24.590961	0.000551	20.892734
628.177396	-3.016400	3.743100	-11.289000	24.569787	0.000552	20.898515
629.183253	-2.979100	3.745200	-11.156000	24.548029	0.000550	20.879530
630.179691	-3.007900	3.743800	-11.260000	24.565275	0.000549	20.906789
631.183785	-2.993400	3.742500	-11.202000	24.565243	0.000551	20.885896
632.178238	-2.986800	3.742300	-11.176000	24.598950	0.000551	20.875621
633.179046	-2.970100	3.744100	-11.120000	24.606666	0.000551	20.916551
634.179879	-2.972600	3.742400	-11.123000	24.607709	0.000550	20.912856
635.181886	-3.003100	3.741000	-11.234000	24.596970	0.000549	20.905400
636.184720	-2.999600	3.740800	-11.220000	24.602874	0.000549	20.910375
637.186204	-3.018100	3.741200	-11.290000	24.591553	0.000547	20.896646
638.182835	-3.022000	3.741100	-11.304000	24.596336	0.000549	20.914720
639.180517	-3.008900	3.740400	-11.254000	24.624444	0.000549	20.915897
640.185628	-2.981400	3.742000	-11.156000	24.630295	0.000550	20.906122
641.183740	-2.987500	3.740200	-11.172000	24.578891	0.000551	20.921398
642.189326	-2.995800	3.739700	-11.202000	24.594537	0.000549	20.920028
643.185423	-2.985700	3.740000	-11.166000	24.593949	0.000550	20.923704
644.183224	-2.983800	3.739700	-11.156000	24.620282	0.000550	20.901291
645.180963	-2.998200	3.738400	-11.208000	24.651853	0.000549	20.926329
646.184375	-2.983500	3.740000	-11.158000	24.658811	0.000550	20.909605
647.186495	-2.980800	3.740100	-11.148000	24.622892	0.000549	20.929037
648.180465	-2.994000	3.738200	-11.192000	24.618769	0.000549	20.919211
649.181851	-3.008900	3.737200	-11.244000	24.627430	0.000547	20.925057
650.186544	-3.001300	3.738200	-11.218000	24.616037	0.000548	20.906515
651.191042	-2.985600	3.738700	-11.161000	24.650054	0.000549	20.920732
652.191322	-2.994100	3.736600	-11.187000	24.643776	0.000548	20.910165
653.194733	-3.006000	3.736300	-11.230000	24.668742	0.000549	20.911984
654.187756	-2.990000	3.737200	-11.173000	24.712103	0.000550	20.912822
655.188328	-3.005200	3.736200	-11.227000	24.686504	0.000549	20.942606
656.190386	-2.981300	3.737400	-11.141000	24.726221	0.000545	20.904704
657.186548	-3.009100	3.736800	-11.245000	24.689599	0.000550	20.934333
658.192860	-3.004500	3.736600	-11.226000	24.687178	0.000547	20.932378
659.190057	-3.005800	3.736600	-11.231000	24.710377	0.000547	20.931002
660.210024	-3.013600	3.735800	-11.257000	24.720086	0.000547	20.927943
661.215721	-3.011800	3.735000	-11.248000	24.685749	0.000546	20.950382
662.191613	-3.008500	3.735500	-11.237000	24.672674	0.000545	20.937263
663.196804	-2.990000	3.735800	-11.168000	24.655611	0.000546	20.931996
664.196730	-3.005300	3.734200	-11.221000	24.637041	0.000548	20.928536
665.191618	-2.997100	3.735300	-11.194000	24.662817	0.000546	20.918365
666.188708	-3.006400	3.734700	-11.228000	24.672215	0.000547	20.933011
667.199526	-2.962300	3.735200	-11.064000	24.728516	0.000544	20.933083
668.191086	-2.988800	3.733700	-11.158000	24.707570	0.000547	20.926763
669.217735	-3.001500	3.732700	-11.202000	24.684650	0.000547	20.918464
670.208449	-2.984400	3.734400	-11.144000	24.689007	0.000544	20.937057
671.225131	-2.977600	3.732800	-11.114000	24.677369	0.000546	20.937234
672.197508	-2.986400	3.732600	-11.146000	24.683907	0.000545	20.960386
673.193138	-2.984400	3.732900	-11.139000	24.698762	0.000545	20.925511
674.196898	-2.996500	3.732900	-11.185000	24.712828	0.000545	20.962855
675.192937	-3.002800	3.731500	-11.204000	24.722686	0.000544	20.936242
676.211896	-3.004500	3.731200	-11.209000	24.716498	0.000546	20.926239
677.193749	-3.013100	3.730100	-11.239000	24.725444	0.000545	20.951809
678.210022	-2.998000	3.730800	-11.184000	24.738460	0.000545	20.922675
679.229294	-2.999600	3.730100	-11.187000	24.708797	0.000546	20.927994
680.204739	-2.994200	3.730300	-11.168000	24.695010	0.000545	20.946874
681.198349	-3.035500	3.730300	-11.322000	24.746351	0.000545	20.953349
682.199352	-3.024400	3.729500	-11.278000	24.783988	0.000544	20.943231
683.201831	-3.024600	3.728100	-11.275000	24.809599	0.000542	20.942855
684.209207	-3.021800	3.729600	-11.269000	24.763297	0.000544	20.958026
685.202457	-2.999600	3.729700	-11.187000	24.756942	0.000544	20.935056
686.199096	-2.969300	3.730800	-11.077000	24.762580	0.000542	20.949247
687.219314	-3.030800	3.728800	-11.300000	24.794178	0.000545	20.963411
688.199825	-2.990300	3.729100	-11.150000	24.769868	0.000545	20.944708
689.200162	-2.987700	3.728800	-11.140000	24.783751	0.000542	20.947261
690.220167	-2.994300	3.728700	-11.164000	24.798735	0.000543	20.954710
691.217509	-2.992800	3.728800	-11.159000	24.799544	0.000542	20.960263
692.199193	-2.994800	3.729100	-11.167000	24.790464	0.000542	20.968693
693.221314	-2.997000	3.727500	-11.171000	24.801247	0.000543	20.945853
694.224617	-3.004400	3.725300	-11.192000	24.770822	0.000542	20.948035
695.201551	-2.997700	3.726700	-11.171000	24.836915	0.000542	20.969317
696.203517	-2.985500	3.726500	-11.124000	24.850636	0.000543	20.985456
697.222980	-3.008900	3.726400	-11.212000	24.829064	0.000542	20.949113
698.200186	-3.005400	3.726100	-11.198000	24.821396	0.000542	20.966071
699.204696	-3.013300	3.726000	-11.226000	24.803811	0.000542	20.968337
700.200730	-2.992900	3.726000	-11.151000	24.825331	0.000542	20.964330
701.205073	-2.991300	3.725900	-11.144000	24.789864	0.000541	20.960506
702.215072	-2.978200	3.726900	-11.099000	24.824697	0.000541	20.980287
703.202621	-3.014900	3.724900	-11.230000	24.840340	0.000540	20.964220
704.202122	-2.999700	3.723500	-11.167000	24.797424	0.000540	20.972358
705.202332	-3.002000	3.724200	-11.179000	24.779464	0.000540	20.965715
706.206398	-3.006900	3.724500	-11.198000	24.796027	0.000540	20.974748
707.205133	-3.006700	3.723700	-11.195000	24.819676	0.000541	20.967189
708.201318	-3.010300	3.723900	-11.209000	24.848599	0.000540	20.980567
709.202387	-2.985200	3.725300	-11.119000	24.809987	0.000540	20.965053
710.224265	-2.998100	3.722600	-11.160000	24.807302	0.000540	20.977055
711.222232	-3.000000	3.721600	-11.164000	24.797147	0.000539	20.966391
712.235457	-2.982100	3.722800	-11.101000	24.777251	0.000539	20.972502
713.223346	-2.990700	3.722600	-11.132000	24.785226	0.000539	20.972444
714.204177	-3.016300	3.722200	-11.226000	24.794747	0.000540	20.980576
715.205841	-2.992400	3.723400	-11.141000	24.816086	0.000539	20.988713
716.203166	-3.006300	3.722700	-11.191000	24.862484	0.000539	20.992130
717.208458	-3.021500	3.720300	-11.240000	24.867894	0.000538	20.977173
718.203634	-3.009900	3.722100	-11.203000	24.846530	0.000538	21.008358
719.204702	-2.999400	3.721700	-11.162000	24.831562	0.000539	20.984805
720.202193	-3.029600	3.719500	-11.268000	24.829012	0.000539	20.970395
721.206200	-2.998300	3.721800	-11.158000	24.817958	0.000540	20.983955
722.210446	-3.014100	3.720100	-11.212000	24.801292	0.000536	20.976714
723.210510	-3.009200	3.719900	-11.194000	24.822651	0.000538	20.984871
724.207816	-2.993700	3.720900	-11.138000	24.826483	0.000538	21.014316
725.204045	-2.993600	3.719900	-11.135000	24.864382	0.000537	20.996405
726.206027	-3.006600	3.719100	-11.181000	24.902986	0.000540	20.972565
727.205302	-3.012000	3.718700	-11.199000	24.911962	0.000537	21.006225
728.208547	-3.007100	3.719500	-11.183000	24.940352	0.000535	20.997264
729.205352	-2.994800	3.719000	-11.137000	24.951315	0.000536	20.991673
730.208588	-3.000200	3.718800	-11.156000	24.922686	0.000536	20.993757
731.209927	-3.011800	3.717500	-11.195000	24.944333	0.000536	21.000310
732.209126	-2.997700	3.717700	-11.143000	24.940735	0.000537	20.988167
733.216584	-2.990000	3.719000	-11.119000	24.944146	0.000536	20.984952
734.204066	-3.000400	3.717700	-11.154000	24.921807	0.000534	20.992876
735.211222	-3.005200	3.717500	-11.171000	24.851856	0.000535	20.996636
736.210447	-2.985900	3.716900	-11.097000	24.900387	0.000537	20.999825
737.208969	-3.002500	3.716900	-11.159000	24.897256	0.000536	20.990046
738.209003	-3.017700	3.716200	-11.213000	24.926909	0.000535	21.009373
739.211971	-3.003800	3.715600	-11.159000	24.951390	0.000534	21.007393
740.231063	-3.020400	3.716100	-11.223000	24.958321	0.000536	20.997281
741.231176	-3.008500	3.716100	-11.179000	24.962437	0.000534	21.008523
742.213184	-3.025500	3.714800	-11.238000	24.985688	0.000535	21.009575
743.211123	-3.002900	3.715000	-11.155000	24.996708	0.000535	21.000724
744.215676	-3.020300	3.714400	-11.218000	24.983185	0.000533	21.005167
745.226488	-2.995100	3.714700	-11.124000	24.977937	0.000533	21.005115
746.237739	-2.999400	3.715500	-11.143000	24.960452	0.000532	21.003687
747.232866	-2.989800	3.713900	-11.103000	24.985308	0.000531	21.019149
748.236570	-2.998600	3.713900	-11.136000	24.994122	0.000534	21.002869
749.216669	-2.987000	3.715600	-11.097000	24.924498	0.000532	21.029708
750.227942	-2.990700	3.714300	-11.107000	24.938955	0.000534	21.008662
751.239776	-3.024400	3.711900	-11.225000	24.910372	0.000533	21.010318
752.243324	-3.002900	3.713300	-11.150000	24.932756	0.000533	21.019981
753.226146	-3.002100	3.713200	-11.147000	24.955567	0.000532	21.015377
754.238583	-2.991100	3.713400	-11.106000	24.931048	0.000532	21.025378
755.231843	-3.003600	3.712900	-11.151000	24.921502	0.000534	21.039502
756.235740	-3.004600	3.712000	-11.152000	24.949026	0.000531	21.033937
757.221489	-3.003700	3.712400	-11.150000	24.964007	0.000531	21.031905
758.221600	-2.985500	3.711600	-11.080000	24.939941	0.000532	21.023398
759.219260	-2.996200	3.710600	-11.116000	24.902309	0.000531	21.041100
760.222902	-2.997900	3.712300	-11.128000	24.892543	0.000532	21.046471
761.242047	-3.022100	3.708700	-11.207000	24.917945	0.000532	21.052050
762.216864	-3.022100	3.710100	-11.212000	24.954049	0.000531	21.018120
763.216412	-3.010300	3.709500	-11.165000	24.980639	0.000531	21.047173
764.234593	-2.999600	3.710800	-11.130000	24.957782	0.000529	21.043673
765.239239	-3.006100	3.709400	-11.150000	24.960357	0.000532	21.056686
766.225438	-2.986900	3.711000	-11.083000	24.928176	0.000530	21.042881
767.223621	-3.001500	3.711000	-11.138000	24.933788	0.000529	21.031446
768.221377	-3.023700	3.708800	-11.213000	24.926779	0.000530	21.043375
769.224717	-3.010300	3.710300	-11.168000	24.889536	0.000529	21.034920
770.222555	-3.013000	3.707900	-11.171000	24.908931	0.000530	21.046324
771.225015	-2.989400	3.709100	-11.087000	24.955965	0.000527	21.054174
772.221233	-2.985100	3.708500	-11.069000	24.947067	0.000529	21.050460
773.221235	-3.001300	3.708500	-11.130000	24.962048	0.000528	21.043687
774.225598	-2.991600	3.707600	-11.091000	24.962864	0.000530	21.049246
775.226933	-3.003300	3.707300	-11.133000	24.984775	0.000530	21.056539
776.225729	-2.977500	3.707900	-11.039000	24.983882	0.000529	21.048058
777.243979	-2.995600	3.707500	-11.106000	24.958062	0.000529	21.052012
778.242713	-2.991400	3.707300	-11.088000	25.022119	0.000527	21.038551
779.256379	-3.014300	3.706800	-11.173000	24.994326	0.000526	21.058539
780.225181	-2.993800	3.708200	-11.100000	25.035526	0.000527	21.045370
781.245640	-3.023700	3.706800	-11.207000	25.045529	0.000530	21.074844
782.256319	-3.025600	3.704200	-11.205000	25.064916	0.000527	21.032200
783.246869	-3.012400	3.705300	-11.161000	25.072791	0.000526	21.050058
784.243591	-2.994400	3.705400	-11.095000	25.063344	0.000526	21.048162
785.244525	-2.999600	3.706000	-11.115000	25.043660	0.000526	21.052585
786.243818	-3.001600	3.706200	-11.123000	25.024184	0.000528	21.042520
787.250216	-3.004500	3.705900	-11.132000	25.022772	0.000526	21.072864
788.247564	-2.983000	3.705800	-11.053000	25.016289	0.000525	21.049766
789.252037	-3.003100	3.704000	-11.123000	25.051555	0.000526	21.078521
790.233769	-2.995900	3.704800	-11.098000	25.059533	0.000526	21.052871
791.254849	-2.998200	3.704700	-11.106000	25.060639	0.000525	21.084319
792.249145	-2.994000	3.704900	-11.092000	25.104172	0.000525	21.070176
793.233284	-2.979900	3.704200	-11.037000	25.104800	0.000525	21.071754
794.232155	-3.010600	3.703100	-11.147000	25.063629	0.000523	21.074995
795.225683	-3.001000	3.703400	-11.113000	25.008103	0.000524	21.080423
796.229385	-3.002400	3.703800	-11.119000	24.995136	0.000522	21.072624
797.254599	-3.019000	3.702500	-11.177000	25.016424	0.000525	21.068390
798.243702	-2.995500	3.703300	-11.093000	25.003302	0.000523	21.077975
799.228909	-3.005300	3.702300	-11.126000	24.989493	0.000523	21.076443
800.265019	-3.013900	3.701700	-11.155000	25.016372	0.000524	21.060279
801.252146	-2.981500	3.702500	-11.038000	25.021931	0.000523	21.069176
802.253432	-2.990500	3.701800	-11.069000	25.021828	0.000523	21.075709
803.265379	-2.972500	3.701400	-11.001000	25.058485	0.000523	21.083579
804.254350	-3.009600	3.700300	-11.136000	25.058439	0.000523	21.075000
805.234455	-3.001800	3.700900	-11.109000	25.058698	0.000521	21.064832
806.236132	-3.005200	3.700100	-11.118000	25.054032	0.000525	21.082429
807.260145	-3.004000	3.701600	-11.119000	25.039824	0.000522	21.070540
808.236031	-3.008000	3.699500	-11.127000	25.057727	0.000523	21.073812
809.246028	-3.007200	3.700400	-11.127000	25.092551	0.000521	21.057565
810.238078	-3.010900	3.700500	-11.141000	25.109685	0.000520	21.065754
811.259577	-2.994900	3.699100	-11.078000	25.136368	0.000521	21.079261
812.239821	-3.004300	3.699200	-11.112000	25.145737	0.000522	21.063540
813.238575	-3.016000	3.699100	-11.156000	25.161536	0.000519	21.070390
814.242326	-3.017600	3.699200	-11.161000	25.150330	0.000521	21.060091
815.238580	-3.015300	3.698800	-11.152000	25.160695	0.000520	21.082345
816.238008	-3.026700	3.698300	-11.192000	25.129787	0.000520	21.050850
817.238461	-2.997600	3.697800	-11.084000	25.159278	0.000521	21.070020
818.238349	-3.033000	3.697300	-11.213000	25.139623	0.000518	21.046026
819.239240	-3.014800	3.697600	-11.147000	25.095696	0.000519	21.070676
820.240022	-2.965400	3.699200	-10.969000	25.078453	0.000519	21.076599
821.240410	-2.976000	3.698500	-11.006000	25.037041	0.000520	21.060638
822.239878	-3.001600	3.697700	-11.098000	25.023026	0.000520	21.048468
823.238131	-2.992100	3.696900	-11.061000	25.075095	0.000519	21.050474
824.257633	-2.979200	3.697300	-11.014000	25.073044	0.000517	21.037039
825.256076	-2.987700	3.697600	-11.047000	25.116001	0.000518	21.042702
826.238906	-3.010800	3.697300	-11.131000	25.081967	0.000517	21.045046
827.237061	-2.984000	3.697000	-11.031000	25.067376	0.000516	21.047942
828.237343	-3.015600	3.695800	-11.144000	25.090100	0.000518	21.047046
829.237215	-2.994000	3.695100	-11.062000	25.079787	0.000516	21.055657
830.241383	-2.996500	3.695400	-11.071000	25.072987	0.000516	21.043618
831.244547	-2.987600	3.695200	-11.039000	25.077186	0.000515	21.035507
832.242321	-2.985400	3.696800	-11.036000	25.115814	0.000514	21.041092
833.246755	-3.004000	3.695600	-11.101000	25.132708	0.000518	21.031027
834.241344	-2.990600	3.694800	-11.048000	25.125358	0.000517	21.027442
835.247392	-3.001800	3.694600	-11.090000	25.129978	0.000517	21.035871
836.262459	-2.991800	3.693400	-11.048000	25.132339	0.000516	21.047723
837.245865	-3.004900	3.693900	-11.099000	25.179798	0.000513	21.010501
838.264142	-2.984700	3.693600	-11.024000	25.170015	0.000515	21.031021
839.263369	-2.993100	3.694000	-11.055000	25.175651	0.000515	21.032412
840.264773	-3.009800	3.692500	-11.112000	25.212620	0.000513	21.019742
841.268077	-3.008100	3.693400	-11.109000	25.146549	0.000513	21.034964
842.243870	-2.992200	3.693500	-11.050000	25.133880	0.000515	21.031729
843.247474	-2.990900	3.694500	-11.049000	25.132141	0.000514	21.027139
844.246083	-3.005300	3.691900	-11.094000	25.151765	0.000515	21.021237
845.245732	-2.997600	3.692900	-11.068000	25.155253	0.000512	21.054129
846.248268	-3.010200	3.690700	-11.108000	25.167273	0.000511	21.030166
847.247417	-2.994400	3.693200	-11.058000	25.141872	0.000513	21.012255
848.249375	-2.998900	3.692400	-11.072000	25.172567	0.000513	21.030738
849.268943	-2.995500	3.691700	-11.057000	25.160500	0.000513	21.012938
850.270223	-2.995300	3.691200	-11.056000	25.139246	0.000510	21.017678
851.271857	-3.001600	3.690400	-11.076000	25.155221	0.000511	21.023283
852.271563	-3.005000	3.690600	-11.090000	25.153571	0.000512	21.032530
853.251297	-2.995100	3.690700	-11.053000	25.183928	0.000511	21.032186
854.250865	-3.041800	3.688100	-11.217000	25.140476	0.000510	21.021283
855.250358	-3.011600	3.689600	-11.111000	25.144752	0.000510	21.022731
856.275920	-3.004000	3.690700	-11.086000	25.170367	0.000508	21.016204
857.273553	-2.967600	3.689000	-10.946000	25.172961	0.000509	21.012646
858.254268	-3.004000	3.689600	-11.083000	25.152937	0.000510	21.009139
859.251190	-2.989800	3.689600	-11.029000	25.128273	0.000508	21.008561
860.284123	-3.017500	3.687400	-11.126000	25.106126	0.000508	21.021413
861.253449	-3.011300	3.687200	-11.102000	25.102477	0.000509	20.997366
862.255866	-2.993000	3.687500	-11.035000	25.112396	0.000509	20.982669
863.255991	-3.012400	3.688100	-11.109000	25.144202	0.000508	21.024075
864.251310	-2.998300	3.686600	-11.052000	25.120607	0.000508	20.997074
865.253901	-2.989800	3.686900	-11.021000	25.110138	0.000507	21.022121
866.267876	-2.966900	3.688300	-10.942000	25.165238	0.000508	21.007263
867.278391	-3.011300	3.686500	-11.100000	25.189907	0.000508	21.014484
868.278478	-2.987500	3.687600	-11.016000	25.245268	0.000510	21.016959
869.267173	-2.992700	3.686100	-11.030000	25.256259	0.000506	21.022303
870.251575	-2.984000	3.687000	-11.001000	25.232988	0.000507	20.996100
871.255153	-2.988000	3.686600	-11.014000	25.216588	0.000506	21.005711
872.261382	-2.995200	3.685700	-11.038000	25.188982	0.000506	21.013556
873.260499	-2.991600	3.686000	-11.026000	25.162643	0.000504	20.998496
874.255542	-2.994100	3.685200	-11.032000	25.189486	0.000505	21.005055
875.258052	-3.020400	3.684400	-11.127000	25.195859	0.000504	21.009082
876.252333	-2.981100	3.685600	-10.986000	25.204257	0.000505	21.009926
877.260670	-3.020400	3.684400	-11.126000	25.155454	0.000504	20.989859
878.253612	-2.985400	3.684000	-10.997000	25.171196	0.000504	21.000918
879.259611	-2.977600	3.683600	-10.968000	25.152428	0.000504	20.982554
880.274878	-3.008600	3.683700	-11.082000	25.192709	0.000504	21.009238
881.263205	-2.996100	3.683200	-11.033000	25.209893	0.000504	21.009894
882.278311	-3.030800	3.682400	-11.160000	25.205979	0.000504	20.994114
883.256979	-2.968100	3.683600	-10.932000	25.229542	0.000504	20.995484
884.258932	-3.002200	3.682200	-11.054000	25.220957	0.000505	20.990186
885.256729	-2.975500	3.682400	-10.956000	25.218149	0.000504	21.020078
886.261045	-2.995800	3.683100	-11.033000	25.194348	0.000501	21.016572
887.254987	-2.993300	3.683100	-11.024000	25.208303	0.000503	21.000239
888.257474	-3.016700	3.681900	-11.106000	25.162957	0.000501	21.012560
889.256118	-2.997000	3.682000	-11.033000	25.191431	0.000503	20.999421
890.277923	-2.986000	3.681200	-10.991000	25.230749	0.000502	20.979155
891.275680	-3.013900	3.681400	-11.094000	25.249375	0.000502	21.012548
892.272751	-2.980500	3.681500	-10.972000	25.279335	0.000500	21.002801
893.278415	-3.012900	3.680700	-11.088000	25.272619	0.000500	20.992741
894.256731	-3.005600	3.679100	-11.057000	25.248321	0.000502	21.001061
895.262078	-3.018700	3.679100	-11.105000	25.222735	0.000499	21.000503
896.259004	-2.991900	3.680700	-11.011000	25.224701	0.000500	20.985885
897.278795	-3.003700	3.680700	-11.055000	25.243489	0.000500	21.025603
898.295158	-3.003900	3.678500	-11.049000	25.217056	0.000500	21.019929
899.288110	-3.008400	3.679400	-11.069000	25.183232	0.000500	21.000200
900.271413	-3.006800	3.678900	-11.061000	25.204797	0.000498	20.997668
901.265068	-2.979300	3.680600	-10.964000	25.181006	0.000499	20.984217
902.278841	-2.992800	3.677600	-11.005000	25.210916	0.000499	20.991484
903.289071	-3.014200	3.677100	-11.083000	25.218654	0.000500	20.993563
904.284497	-2.981300	3.678500	-10.967000	25.203380	0.000499	21.002409
905.266908	-3.017900	3.678200	-11.099000	25.234603	0.000497	21.000564
906.267067	-3.007800	3.677100	-11.059000	25.233108	0.000496	20.992427
907.288782	-3.009700	3.676700	-11.064000	25.241525	0.000496	21.011306
908.292562	-3.003100	3.677600	-11.043000	25.247484	0.000498	21.006857
909.288812	-2.972800	3.677400	-10.931000	25.237825	0.000497	20.982466
910.289338	-3.002100	3.676400	-11.035000	25.189517	0.000495	20.998449
911.288086	-3.004000	3.675700	-11.041000	25.211527	0.000497	21.012009
912.267347	-3.012600	3.675700	-11.072000	25.207064	0.000494	20.976714
913.267376	-2.994800	3.676400	-11.009000	25.184083	0.000495	20.996312
914.287720	-2.987200	3.675400	-10.977000	25.226661	0.000496	21.007289
915.267927	-3.005600	3.675800	-11.047000	25.246154	0.000492	20.996041
916.280658	-3.010800	3.675700	-11.066000	25.256201	0.000493	20.988586
917.288527	-2.985800	3.674900	-10.971000	25.292539	0.000493	20.982871
918.288742	-2.986400	3.675300	-10.975000	25.299462	0.000494	20.980813
919.285977	-2.992200	3.674600	-10.994000	25.340230	0.000494	21.007991
920.288042	-3.007300	3.674700	-11.050000	25.343198	0.000494	20.977786
921.292011	-2.992900	3.674600	-10.997000	25.320053	0.000495	20.971618
922.271099	-2.973900	3.674500	-10.926000	25.332565	0.000492	20.970904
923.270801	-2.984400	3.674100	-10.964000	25.332565	0.000492	20.996030
924.271776	-3.002300	3.672100	-11.024000	25.341583	0.000492	20.998921
925.283494	-2.998500	3.671300	-11.006000	25.338885	0.000492	20.991471
926.302976	-3.001300	3.673200	-11.023000	25.328490	0.000490	21.007584
927.295693	-2.988700	3.673000	-10.977000	25.325548	0.000489	20.995623
928.295733	-3.005100	3.672800	-11.036000	25.299969	0.000490	20.972315
929.271988	-3.013800	3.672300	-11.067000	25.232934	0.000490	20.988933
930.293274	-3.010800	3.672300	-11.055000	25.161721	0.000489	20.987615
931.279270	-3.005000	3.671200	-11.031000	25.173103	0.000491	20.997617
932.277293	-3.019600	3.670300	-11.082000	25.170845	0.000490	20.982551
933.272592	-3.009900	3.670100	-11.046000	25.176092	0.000490	20.993981
934.290076	-3.016300	3.669800	-11.069000	25.208727	0.000488	20.994502
935.299184	-3.007700	3.670300	-11.038000	25.248139	0.000489	21.000878
936.287321	-2.992400	3.671600	-10.986000	25.299687	0.000489	20.991943
937.308995	-2.982300	3.669800	-10.944000	25.293470	0.000487	20.990917
938.274340	-3.008500	3.670100	-11.040000	25.286594	0.000488	21.007244
939.271993	-3.016200	3.669900	-11.068000	25.226772	0.000488	20.988437
940.275685	-3.043400	3.667900	-11.163000	25.248652	0.000487	20.977689
941.275172	-3.005400	3.668700	-11.025000	25.243140	0.000487	20.980690
942.275366	-3.016300	3.669300	-11.067000	25.276432	0.000488	21.000836
943.273578	-3.003400	3.668100	-11.016000	25.253265	0.000486	20.991802
944.273992	-3.009700	3.669100	-11.042000	25.259560	0.000487	20.993855
945.271252	-3.001300	3.667400	-11.006000	25.259736	0.000485	20.973172
946.279025	-3.019600	3.667900	-11.074000	25.261542	0.000485	20.985414
947.270934	-2.991200	3.667600	-10.970000	25.281875	0.000487	20.986862
948.297126	-3.012300	3.666800	-11.045000	25.313542	0.000485	20.973614
949.296493	-2.987900	3.667200	-10.956000	25.352135	0.000484	20.975380
950.306628	-2.972600	3.667400	-10.902000	25.411991	0.000484	20.993754
951.298409	-3.011000	3.666800	-11.039000	25.422328	0.000484	20.978058
952.295503	-3.000800	3.666300	-11.001000	25.431164	0.000483	20.992144
953.308929	-2.978900	3.666200	-10.920000	25.383706	0.000485	20.962512
954.276947	-3.004900	3.666300	-11.016000	25.372424	0.000484	20.995749
955.276550	-3.023800	3.664000	-11.079000	25.405370	0.000484	20.976676
956.307688	-2.984100	3.665800	-10.938000	25.346939	0.000484	20.973957
957.295598	-3.025800	3.664200	-11.085000	25.343711	0.000482	20.982094
958.276538	-3.003500	3.664100	-11.005000	25.297006	0.000484	20.991622
959.281028	-3.039800	3.664300	-11.138000	25.277281	0.000482	20.985095
960.277086	-2.989500	3.664000	-10.953000	25.291443	0.000481	20.985089
961.275801	-3.013400	3.664000	-11.040000	25.260035	0.000482	20.988642
962.304739	-3.002600	3.663300	-10.998000	25.248565	0.000480	20.983291
963.291619	-2.995600	3.664500	-10.976000	25.280601	0.000481	20.985584
964.310118	-2.991100	3.662500	-10.954000	25.327561	0.000483	20.972044
965.276755	-2.996000	3.663000	-10.973000	25.344006	0.000480	20.959160
966.279429	-3.023700	3.661500	-11.071000	25.347784	0.000481	20.978123
967.281539	-2.996400	3.662800	-10.974000	25.380969	0.000480	20.967349
968.282236	-2.988200	3.662200	-10.943000	25.347358	0.000479	20.972481
969.304009	-2.984500	3.662600	-10.930000	25.322989	0.000477	20.966031
970.283935	-2.983000	3.660600	-10.919000	25.315272	0.000478	20.972981
971.297334	-3.013800	3.661100	-11.033000	25.330300	0.000479	20.975742
972.318414	-2.967100	3.662100	-10.865000	25.351182	0.000479	20.966838
973.287083	-3.022200	3.659400	-11.059000	25.380460	0.000479	20.981535
974.284984	-2.976400	3.660400	-10.894000	25.390298	0.000477	20.955382
975.292871	-3.004200	3.660700	-10.996000	25.387174	0.000475	20.959831
976.290789	-2.982900	3.659500	-10.915000	25.350160	0.000476	20.978138
977.281508	-3.016100	3.658600	-11.034000	25.332656	0.000474	20.976210
978.285903	-2.994200	3.659600	-10.957000	25.306948	0.000477	20.973158
979.283851	-3.003600	3.660400	-10.992000	25.327778	0.000474	20.964202
980.288369	-2.995400	3.659800	-10.962000	25.337664	0.000474	20.953267
981.290098	-3.027200	3.659000	-11.076000	25.325941	0.000474	20.967099
982.288921	-3.011300	3.659800	-11.020000	25.320222	0.000476	20.949031
983.290212	-3.003200	3.659100	-10.988000	25.325967	0.000475	20.967599
984.292507	-3.005800	3.658200	-10.995000	25.305500	0.000474	20.971230
985.291020	-3.016100	3.656800	-11.028000	25.305842	0.000473	20.960670
986.298627	-2.994300	3.657300	-10.950000	25.297892	0.000472	20.955533
987.291656	-3.005400	3.657300	-10.991000	25.311878	0.000474	20.975262
988.309274	-3.001100	3.656900	-10.974000	25.333097	0.000474	20.972386
989.313756	-2.997700	3.656300	-10.960000	25.358390	0.000473	20.971704
990.292081	-3.006500	3.656800	-10.993000	25.341130	0.000473	20.955325
991.314313	-2.986600	3.657100	-10.922000	25.335328	0.000473	20.948078
992.311254	-2.990200	3.656200	-10.932000	25.365312	0.000471	20.950682
993.312476	-2.993600	3.655900	-10.944000	25.386936	0.000472	20.950110
994.291713	-3.005200	3.656000	-10.986000	25.354166	0.000472	20.966989
995.311761	-3.002100	3.655700	-10.974000	25.332314	0.000470	20.970177
996.330603	-3.028700	3.654600	-11.068000	25.349817	0.000473	20.963098
997.321547	-2.997000	3.655700	-10.955000	25.344171	0.000471	20.961696
998.309167	-2.971700	3.654400	-10.860000	25.360860	0.000471	20.965650
999.293402	-3.012200	3.654000	-11.006000	25.394906	0.000472	20.972808
1000.314860	-2.963300	3.655400	-10.831000	25.394854	0.000469	20.955215
1001.311185	-3.015800	3.653500	-11.018000	25.414323	0.000469	20.943472
1002.313622	-3.004600	3.653100	-10.975000	25.388036	0.000470	20.963066
1003.310959	-2.986000	3.653600	-10.909000	25.405637	0.000469	20.955611
1004.293849	-3.017800	3.652400	-11.020000	25.398502	0.000468	20.964567
1005.294030	-2.997900	3.652400	-10.949000	25.410540	0.000468	20.950578
1006.291786	-2.996800	3.653600	-10.949000	25.380293	0.000468	20.946759
1007.297581	-3.020800	3.651800	-11.030000	25.373553	0.000467	20.938096
1008.315487	-2.996800	3.652700	-10.945000	25.383941	0.000466	20.949000
1009.325006	-2.972800	3.651400	-10.853000	25.365992	0.000467	20.948046
1010.303174	-3.034900	3.651500	-11.081000	25.383490	0.000467	20.950917
1011.293641	-3.015000	3.650300	-11.005000	25.360642	0.000468	20.940304
1012.312264	-2.995800	3.651500	-10.938000	25.376277	0.000464	20.971646
1013.291416	-3.000500	3.649400	-10.950000	25.351301	0.000465	20.961743
1014.313714	-3.019400	3.649800	-11.019000	25.346397	0.000466	20.944493
1015.315103	-3.001100	3.649400	-10.951000	25.361321	0.000465	20.959950
1016.309267	-3.016400	3.649600	-11.008000	25.340284	0.000464	20.960164
1017.314960	-2.978000	3.649200	-10.865000	25.365068	0.000463	20.935266
1018.314347	-2.989800	3.649900	-10.912000	25.404152	0.000462	20.943216
1019.309311	-2.987600	3.648400	-10.899000	25.405232	0.000463	20.932448
1020.314161	-3.021100	3.648600	-11.022000	25.377423	0.000464	20.941982
1021.319614	-3.004600	3.648900	-10.963000	25.362494	0.000462	20.943586
1022.311727	-3.002500	3.647400	-10.950000	25.353547	0.000462	20.945508
1023.299913	-3.025400	3.646300	-11.031000	25.370942	0.000464	20.947327
1024.302997	-3.011600	3.647800	-10.984000	25.381958	0.000461	20.946061
1025.301758	-3.002500	3.646600	-10.948000	25.397173	0.000462	20.930994
1026.298185	-2.967600	3.648300	-10.826000	25.435000	0.000460	20.922038
1027.305109	-2.999500	3.646000	-10.935000	25.418811	0.000459	20.931858
1028.318295	-3.012400	3.646000	-10.982000	25.452264	0.000460	20.941268
1029.319489	-2.992300	3.646900	-10.911000	25.410841	0.000459	20.930968
1030.297635	-2.988800	3.645100	-10.894000	25.391875	0.000461	20.917615
1031.298578	-3.002600	3.645200	-10.944000	25.360631	0.000458	20.923226
1032.332817	-3.007200	3.646100	-10.964000	25.374533	0.000460	20.937657
1033.319511	-2.996200	3.644800	-10.919000	25.396202	0.000458	20.948509
1034.305872	-2.997900	3.646000	-10.930000	25.390853	0.000458	20.935552
1035.299043	-2.981400	3.644800	-10.866000	25.378025	0.000457	20.928837
1036.302782	-2.988600	3.644200	-10.890000	25.398491	0.000456	20.944644
1037.303889	-3.003000	3.643200	-10.940000	25.426538	0.000455	20.913067
1038.321494	-2.985300	3.644600	-10.879000	25.475069	0.000457	20.915807
1039.301764	-3.012600	3.643100	-10.974000	25.448466	0.000457	20.936506
1040.304059	-2.996000	3.641000	-10.908000	25.422760	0.000456	20.923497
1041.301189	-2.983700	3.643700	-10.870000	25.415075	0.000456	20.923841
1042.305680	-2.984700	3.642800	-10.872000	25.430497	0.000455	20.929369
1043.322783	-2.995000	3.641800	-10.906000	25.443277	0.000455	20.918022
1044.325508	-3.013600	3.641100	-10.971000	25.484066	0.000454	20.905403
1045.304374	-3.003900	3.640400	-10.934000	25.472921	0.000457	20.932615
1046.337678	-3.022700	3.640100	-11.002000	25.437539	0.000452	20.901355
1047.323651	-2.991000	3.640300	-10.888000	25.415922	0.000456	20.921372
1048.326758	-2.999700	3.642000	-10.924000	25.381321	0.000456	20.911286
1049.305182	-2.993800	3.640400	-10.897000	25.356714	0.000453	20.923560
1050.310383	-2.995200	3.640300	-10.903000	25.338930	0.000452	20.916136
1051.303672	-3.009300	3.639900	-10.952000	25.373745	0.000453	20.920273
1052.306668	-3.012200	3.639600	-10.962000	25.407977	0.000453	20.930463
1053.308068	-2.995700	3.639600	-10.902000	25.417905	0.000452	20.923363
1054.308358	-2.992000	3.640400	-10.891000	25.420001	0.000453	20.899866
1055.307921	-3.016000	3.638100	-10.971000	25.400117	0.000452	20.920200
1056.304205	-3.016400	3.638200	-10.974000	25.418532	0.000452	20.931579
1057.306303	-2.991000	3.638400	-10.882000	25.397963	0.000452	20.909030
1058.308267	-3.012000	3.637600	-10.955000	25.426539	0.000452	20.911646
1059.309318	-3.002300	3.637000	-10.919000	25.448228	0.000448	20.914459
1060.308222	-3.004900	3.637000	-10.928000	25.410168	0.000448	20.895682
1061.308578	-2.950900	3.638400	-10.735000	25.421423	0.000451	20.900345
1062.326526	-3.002300	3.637100	-10.919000	25.393143	0.000450	20.905613
1063.325995	-3.019800	3.637100	-10.982000	25.376589	0.000449	20.909380
1064.309360	-3.010200	3.636500	-10.946000	25.371841	0.000448	20.895604
1065.310326	-2.991100	3.636300	-10.876000	25.353004	0.000450	20.904190
1066.309423	-3.025000	3.635700	-10.997000	25.396972	0.000447	20.898079
1067.311303	-3.005100	3.634600	-10.920000	25.408757	0.000450	20.897110
1068.332958	-3.018300	3.634000	-10.967000	25.388893	0.000448	20.899923
1069.333180	-2.991800	3.634500	-10.873000	25.419529	0.000448	20.906977
1070.313761	-3.002800	3.633800	-10.910000	25.421345	0.000448	20.901690
1071.317491	-3.012300	3.633200	-10.944000	25.453822	0.000446	20.905378
1072.336553	-3.001800	3.634600	-10.909000	25.486293	0.000447	20.919966
1073.339201	-3.000000	3.633400	-10.899000	25.494662	0.000446	20.907509
1074.339477	-3.002000	3.633100	-10.906000	25.526769	0.000447	20.887596
1075.339291	-3.013800	3.633800	-10.951000	25.484171	0.000448	20.902664
1076.320138	-3.015500	3.632100	-10.950000	25.495944	0.000444	20.879875
1077.319338	-2.997700	3.633200	-10.890000	25.530204	0.000444	20.896261
1078.318652	-3.007700	3.631600	-10.922000	25.487580	0.000445	20.883804
1079.316160	-2.999000	3.631800	-10.891000	25.470556	0.000444	20.896579
1080.332024	-3.018000	3.632800	-10.963000	25.421708	0.000443	20.881193
1081.314133	-2.995200	3.631900	-10.877000	25.473918	0.000442	20.882887
1082.319779	-3.026800	3.629400	-10.985000	25.467697	0.000442	20.884226
1083.314795	-2.993700	3.632200	-10.873000	25.442458	0.000443	20.889701
1084.319121	-2.996500	3.630400	-10.878000	25.424671	0.000444	20.884168
1085.318902	-2.996800	3.628900	-10.874000	25.387580	0.000442	20.875373
1086.318888	-2.990800	3.629200	-10.852000	25.382515	0.000443	20.875030
1087.341798	-2.989200	3.629800	-10.849000	25.381410	0.000441	20.898574
1088.342510	-2.981300	3.629800	-10.821000	25.416825	0.000440	20.887195
1089.335318	-3.000800	3.629000	-10.889000	25.461709	0.000439	20.892910
1090.343975	-3.018300	3.627200	-10.947000	25.451534	0.000442	20.889331
1091.337831	-3.013000	3.626900	-10.927000	25.460520	0.000440	20.884131
1092.347826	-3.015000	3.627800	-10.937000	25.444290	0.000439	20.892962
1093.328934	-2.970400	3.629300	-10.779000	25.449452	0.000439	20.884871
1094.323328	-2.989700	3.627400	-10.843000	25.452239	0.000441	20.890988
1095.340033	-3.017400	3.627700	-10.945000	25.454724	0.000438	20.897276
1096.345568	-2.990300	3.629100	-10.851000	25.458009	0.000437	20.886825
1097.323143	-2.978700	3.627500	-10.804000	25.473715	0.000437	20.882683
1098.320628	-2.980800	3.625800	-10.807000	25.485965	0.000437	20.889768
1099.319586	-3.014000	3.626500	-10.929000	25.507291	0.000439	20.911181
1100.351269	-2.998800	3.627200	-10.876000	25.487247	0.000435	20.883943
1101.347102	-2.992500	3.624900	-10.847000	25.507596	0.000436	20.892524
1102.344065	-2.999200	3.625400	-10.873000	25.469014	0.000437	20.887918
1103.344744	-2.986500	3.626400	-10.828000	25.474784	0.000436	20.897505
1104.339271	-3.024300	3.623900	-10.958000	25.470767	0.000436	20.894894
1105.344995	-3.009000	3.623200	-10.902000	25.480231	0.000436	20.894441
1106.358578	-3.020700	3.623100	-10.943000	25.512868	0.000437	20.885016
1107.344813	-2.993100	3.623700	-10.845000	25.530830	0.000435	20.878873
1108.324481	-2.993100	3.623300	-10.844000	25.540688	0.000433	20.894461
1109.349140	-2.994700	3.623400	-10.849000	25.508944	0.000434	20.874913
1110.323962	-3.012600	3.622300	-10.911000	25.510942	0.000434	20.880238
1111.325857	-3.008100	3.622200	-10.895000	25.541943	0.000430	20.904256
1112.348435	-2.985400	3.622900	-10.815000	25.495698	0.000434	20.891481
1113.328255	-3.009900	3.622200	-10.901000	25.462672	0.000434	20.897671
1114.348103	-3.001400	3.620700	-10.866000	25.452518	0.000432	20.891267
1115.349064	-3.002000	3.621700	-10.872000	25.463850	0.000432	20.890319
1116.343322	-3.015800	3.620600	-10.918000	25.481496	0.000432	20.901875
1117.327694	-2.993100	3.620200	-10.835000	25.483852	0.000431	20.878163
1118.348488	-3.002700	3.621400	-10.872000	25.503636	0.000431	20.880962
1119.328974	-3.000400	3.620400	-10.862000	25.507428	0.000431	20.905156
1120.347114	-3.009300	3.620300	-10.893000	25.519886	0.000429	20.885426
1121.351722	-3.007500	3.618700	-10.882000	25.512176	0.000431	20.902812
1122.331817	-2.997900	3.620500	-10.853000	25.510074	0.000427	20.898805
1123.333311	-3.021700	3.617800	-10.931000	25.501466	0.000428	20.912445
1124.335728	-2.993000	3.619200	-10.831000	25.506505	0.000428	20.905651
1125.334274	-3.021300	3.618200	-10.931000	25.531710	0.000428	20.892084
1126.330233	-3.000300	3.619000	-10.856000	25.558674	0.000427	20.887395
1127.334446	-3.018300	3.617900	-10.919000	25.564282	0.000429	20.905828
1128.331495	-3.000700	3.618500	-10.857000	25.493009	0.000428	20.892099
1129.340991	-2.996600	3.618700	-10.842000	25.470765	0.000426	20.910064
1130.338662	-2.992900	3.616900	-10.824000	25.444795	0.000424	20.905797
1131.340115	-2.992200	3.617000	-10.822000	25.446756	0.000427	20.916300
1132.339062	-2.996700	3.617200	-10.839000	25.482641	0.000426	20.908714
1133.360855	-2.995200	3.617300	-10.834000	25.497751	0.000425	20.912033
1134.360137	-2.979600	3.615500	-10.772000	25.529702	0.000425	20.909032
1135.359509	-2.982000	3.615400	-10.781000	25.510732	0.000422	20.905629
1136.357484	-3.000800	3.615300	-10.847000	25.499452	0.000424	20.923223
1137.353340	-2.978400	3.615300	-10.767000	25.499608	0.000424	20.912475
1138.359635	-2.992900	3.614200	-10.816000	25.490533	0.000423	20.919009
1139.359756	-2.997700	3.614700	-10.834000	25.474978	0.000422	20.901967
1140.338583	-2.984600	3.615300	-10.790000	25.455483	0.000424	20.902779
1141.357874	-2.975500	3.613700	-10.751000	25.492998	0.000423	20.906786
1142.337672	-2.995800	3.612900	-10.823000	25.471537	0.000424	20.916054
1143.356710	-2.965300	3.615000	-10.719000	25.513378	0.000422	20.912079
1144.336837	-2.995100	3.613300	-10.821000	25.484810	0.000420	20.901883
1145.339077	-3.008200	3.612900	-10.867000	25.514265	0.000420	20.913444
1146.343967	-2.994100	3.613400	-10.817000	25.533707	0.000419	20.904994
1147.339971	-2.979300	3.612200	-10.761000	25.498840	0.000420	20.927823
1148.339895	-2.975200	3.612100	-10.745000	25.490819	0.000419	20.915502
1149.344713	-2.985700	3.613300	-10.788000	25.519698	0.000418	20.898512
1150.339236	-2.977300	3.612700	-10.755000	25.527247	0.000421	20.921738
1151.338571	-2.989000	3.610300	-10.790000	25.524658	0.000420	20.906338
1152.343180	-2.998400	3.609600	-10.822000	25.550989	0.000420	20.919029
1153.338686	-3.001000	3.608700	-10.829000	25.541463	0.000418	20.938384
1154.342610	-2.975800	3.610700	-10.743000	25.558725	0.000419	20.908781
1155.343573	-2.985700	3.609800	-10.777000	25.559249	0.000418	20.921634
1156.343817	-2.995600	3.609000	-10.811000	25.612262	0.000417	20.914184
1157.343634	-2.984300	3.609100	-10.769000	25.648608	0.000417	20.910386
1158.341484	-2.980300	3.609300	-10.755000	25.570025	0.000417	20.937670
1159.342656	-2.992600	3.608600	-10.799000	25.531787	0.000417	20.924875
1160.337700	-3.002900	3.607300	-10.831000	25.525882	0.000417	20.919894
1161.341778	-3.015800	3.609800	-10.885000	25.547207	0.000415	20.933721
1162.341472	-3.008000	3.605600	-10.845000	25.545920	0.000416	20.942385
1163.344265	-2.991900	3.607100	-10.791000	25.560317	0.000417	20.937404
1164.344100	-2.981900	3.606500	-10.753000	25.586866	0.000415	20.924239
1165.343433	-2.986500	3.607800	-10.774000	25.590456	0.000416	20.917888
1166.348162	-3.025400	3.605900	-10.907000	25.577288	0.000413	20.919836
1167.367224	-2.993300	3.606900	-10.796000	25.563939	0.000414	20.929662
1168.368117	-3.003000	3.604900	-10.824000	25.551689	0.000412	20.941067
1169.364709	-3.001000	3.605200	-10.817000	25.542563	0.000413	20.937118
1170.346126	-2.999500	3.604700	-10.812000	25.515910	0.000412	20.944964
1171.360281	-3.015100	3.604500	-10.866000	25.562258	0.000411	20.940301
1172.354815	-2.985600	3.605800	-10.764000	25.575342	0.000412	20.948699
1173.369562	-2.993200	3.604500	-10.787000	25.567731	0.000411	20.938211
1174.366546	-2.981600	3.603800	-10.744000	25.542339	0.000409	20.937367
1175.348014	-3.008900	3.603000	-10.840000	25.568623	0.000411	20.960442
1176.347384	-3.010800	3.602700	-10.846000	25.597418	0.000409	20.928672
1177.359003	-2.999100	3.603300	-10.805000	25.589469	0.000410	20.958618
1178.367241	-2.996100	3.602700	-10.793000	25.589106	0.000408	20.956831
1179.370357	-2.990500	3.604600	-10.779000	25.603892	0.000412	20.939915
1180.361572	-3.007800	3.602300	-10.834000	25.598434	0.000408	20.960035
1181.371354	-3.011600	3.603100	-10.850000	25.588940	0.000408	20.956190
1182.368584	-2.997500	3.601200	-10.794000	25.582253	0.000409	20.945208
1183.349671	-2.999500	3.601400	-10.802000	25.591923	0.000408	20.953022
1184.367301	-2.981300	3.601000	-10.735000	25.569339	0.000407	20.959263
1185.367282	-2.982000	3.601600	-10.739000	25.566843	0.000407	20.931631
1186.372049	-2.991000	3.601000	-10.770000	25.545519	0.000406	20.934871
1187.349120	-2.982900	3.600400	-10.739000	25.512412	0.000407	20.956148
1188.349589	-2.990000	3.599100	-10.761000	25.506087	0.000405	20.974449
1189.366772	-2.994600	3.599800	-10.780000	25.506248	0.000403	20.958492
1190.375314	-2.971900	3.599100	-10.696000	25.565157	0.000405	20.960279
1191.352837	-3.010200	3.598500	-10.831000	25.578428	0.000406	20.944212
1192.352042	-3.012500	3.597700	-10.837000	25.610584	0.000404	20.956116
1193.354784	-2.993100	3.597700	-10.767000	25.616011	0.000404	20.957773
1194.357089	-2.995900	3.597200	-10.775000	25.642734	0.000404	20.959956
1195.362594	-2.997800	3.596400	-10.780000	25.654853	0.000405	20.963118
1196.372503	-3.004000	3.595700	-10.801000	25.632005	0.000405	20.941596
1197.392718	-3.021500	3.595900	-10.864000	25.581728	0.000403	20.972178
1198.372583	-3.000100	3.596200	-10.788000	25.560663	0.000403	20.944863
1199.371655	-3.006500	3.595200	-10.808000	25.591902	0.000400	20.977179
1200.371538	-3.018200	3.594600	-10.849000	25.598485	0.000402	20.981894
1201.377346	-3.016900	3.595000	-10.845000	25.650495	0.000403	20.948786
1202.380013	-3.017700	3.595500	-10.850000	25.618599	0.000399	20.985025
1203.356255	-2.995300	3.595900	-10.771000	25.556487	0.000400	20.979070
1204.356115	-3.014000	3.593700	-10.830000	25.582060	0.000399	20.951651
1205.356184	-3.007900	3.595200	-10.812000	25.579808	0.000398	20.977361
1206.376989	-2.992100	3.594700	-10.753000	25.592265	0.000400	20.969958
1207.370079	-3.008600	3.593300	-10.810000	25.616633	0.000399	20.976887
1208.375117	-2.995300	3.593400	-10.763000	25.576814	0.000399	20.987629
1209.376358	-2.994100	3.593300	-10.757000	25.575875	0.000399	20.958242
1210.379871	-2.998000	3.593000	-10.771000	25.574537	0.000398	20.973965
1211.360822	-3.008900	3.592700	-10.809000	25.574215	0.000398	20.969375
1212.359670	-3.006900	3.592200	-10.800000	25.565561	0.000397	20.963529
1213.358377	-3.012700	3.591000	-10.818000	25.591844	0.000397	20.963373
1214.355188	-3.004300	3.591400	-10.789000	25.531250	0.000397	20.969849
1215.359431	-2.997700	3.592200	-10.768000	25.530597	0.000396	20.975356
1216.377905	-2.991500	3.590500	-10.739000	25.550712	0.000395	20.987020
1217.378830	-3.003000	3.591200	-10.783000	25.547360	0.000395	20.993610
1218.380730	-2.991300	3.588800	-10.734000	25.525507	0.000394	20.985889
1219.360412	-2.975300	3.590100	-10.680000	25.571252	0.000394	20.967822
1220.357260	-3.004400	3.589400	-10.783000	25.552761	0.000393	20.975804
1221.380532	-2.990500	3.589300	-10.734000	25.529943	0.000396	20.995084
1222.384811	-2.979200	3.588800	-10.691000	25.568632	0.000393	20.984629
1223.380743	-2.967400	3.588300	-10.647000	25.570988	0.000393	20.977512
1224.365077	-3.032600	3.587100	-10.878000	25.602101	0.000394	20.995480
1225.359671	-3.007000	3.588400	-10.790000	25.601494	0.000394	20.984915
1226.360394	-3.013600	3.587200	-10.809000	25.573535	0.000393	21.009937
1227.365270	-2.990400	3.588000	-10.728000	25.577286	0.000393	20.979096
1228.360620	-2.995200	3.586000	-10.739000	25.578884	0.000392	21.000612
1229.360873	-2.987200	3.586300	-10.711000	25.601966	0.000393	20.985863
1230.362951	-2.996100	3.587200	-10.746000	25.612192	0.000393	20.979065
1231.361875	-3.000300	3.585600	-10.757000	25.681170	0.000393	20.989072
1232.370984	-3.005600	3.585900	-10.777000	25.674348	0.000392	20.986962
1233.378714	-3.034900	3.585500	-10.881000	25.705879	0.000392	20.999664
1234.361610	-3.020000	3.584600	-10.824000	25.674063	0.000390	20.997580
1235.361678	-3.009700	3.585100	-10.788000	25.711777	0.000391	20.991365
1236.363735	-3.005800	3.584900	-10.774000	25.648668	0.000388	21.028493
1237.381750	-3.001100	3.584300	-10.756000	25.666919	0.000390	21.004154
1238.385585	-3.011600	3.583400	-10.791000	25.684993	0.000390	21.002393
1239.363869	-2.989000	3.583800	-10.711000	25.680402	0.000388	20.989723
1240.362149	-3.012100	3.583300	-10.792000	25.654961	0.000388	21.016323
1241.363867	-3.013100	3.583000	-10.795000	25.653015	0.000389	20.994933
1242.363361	-3.003900	3.582300	-10.760000	25.635179	0.000390	21.019214
1243.358572	-3.000700	3.583600	-10.753000	25.660439	0.000389	20.985321
1244.359534	-3.015600	3.580800	-10.797000	25.689335	0.000389	21.017657
1245.377250	-3.019100	3.582300	-10.814000	25.715511	0.000389	21.005071
1246.387879	-2.987800	3.581000	-10.698000	25.696468	0.000388	21.000642
1247.360048	-3.008900	3.581500	-10.775000	25.658089	0.000384	21.026575
1248.379216	-3.015600	3.582300	-10.802000	25.601893	0.000387	21.014708
1249.385275	-2.984000	3.580100	-10.681000	25.588404	0.000385	21.018230
1250.388115	-2.991700	3.581100	-10.713000	25.609073	0.000385	21.018125
1251.391150	-2.986800	3.580500	-10.693000	25.591548	0.000385	21.028023
1252.370162	-2.992600	3.580000	-10.713000	25.613182	0.000386	21.020355
1253.376348	-2.992000	3.579000	-10.708000	25.647853	0.000383	21.011082
1254.370652	-3.003200	3.578800	-10.746000	25.675680	0.000385	21.004893
1255.366126	-3.001800	3.579400	-10.744000	25.683545	0.000382	21.030805
1256.366780	-3.005200	3.578600	-10.754000	25.599226	0.000381	21.029096
1257.374129	-3.026100	3.577000	-10.823000	25.584611	0.000382	21.002095
1258.370997	-2.991700	3.577900	-10.702000	25.588020	0.000383	21.029695
1259.367803	-2.996100	3.578500	-10.721000	25.642338	0.000382	21.034936
1260.387290	-3.002500	3.577500	-10.740000	25.689023	0.000381	21.033462
1261.387502	-2.998800	3.576100	-10.723000	25.716502	0.000381	21.029294
1262.364101	-2.992900	3.577800	-10.707000	25.723718	0.000382	21.058347
1263.367262	-3.005300	3.577400	-10.751000	25.674093	0.000380	21.017047
1264.373664	-3.004600	3.577400	-10.748000	25.673989	0.000379	21.031164
1265.370210	-2.976800	3.577000	-10.645000	25.685371	0.000380	21.026476
1266.367889	-2.991300	3.576200	-10.696000	25.712824	0.000380	21.047407
1267.385134	-3.008700	3.574800	-10.754000	25.746475	0.000380	21.044698
1268.368542	-3.009300	3.575200	-10.757000	25.737900	0.000378	21.052679
1269.388125	-2.990600	3.574400	-10.689000	25.713010	0.000378	21.058024
1270.370635	-3.010900	3.576000	-10.766000	25.674585	0.000380	21.013749
1271.368808	-3.022200	3.574800	-10.803000	25.650115	0.000376	21.041797
1272.371731	-2.993100	3.573700	-10.696000	25.667556	0.000377	21.040348
1273.372166	-3.008700	3.573300	-10.750000	25.702775	0.000378	21.047746
1274.371625	-2.979500	3.573400	-10.647000	25.740431	0.000376	21.050006
1275.376314	-2.978600	3.573100	-10.642000	25.715282	0.000376	21.056513
1276.368457	-3.003000	3.571500	-10.724000	25.716299	0.000376	21.055638
1277.370225	-2.988500	3.573000	-10.677000	25.689256	0.000376	21.060243
1278.372239	-3.006400	3.571400	-10.737000	25.695102	0.000377	21.046677
1279.373208	-2.987500	3.572800	-10.672000	25.672360	0.000375	21.056549
1280.401936	-3.011900	3.570700	-10.754000	25.690714	0.000376	21.060284
1281.374109	-3.003700	3.570800	-10.725000	25.696674	0.000375	21.044463
1282.369412	-2.997500	3.569800	-10.700000	25.669055	0.000375	21.042802
1283.374278	-3.013700	3.570300	-10.759000	25.619583	0.000372	21.049063
1284.377008	-2.993000	3.570200	-10.684000	25.625145	0.000375	21.066025
1285.371686	-3.006100	3.569600	-10.729000	25.664853	0.000372	21.076032
1286.372294	-2.984500	3.569100	-10.651000	25.630680	0.000372	21.090070
1287.371700	-3.005200	3.569000	-10.724000	25.646908	0.000372	21.075078
1288.373475	-2.995900	3.568200	-10.689000	25.688270	0.000371	21.062097
1289.373746	-2.991300	3.568200	-10.672000	25.680898	0.000370	21.048532
1290.371780	-3.026300	3.568000	-10.797000	25.639718	0.000369	21.066910
1291.375337	-3.007600	3.568000	-10.730000	25.640791	0.000369	21.067514
1292.376671	-3.008600	3.567600	-10.732000	25.635785	0.000370	21.058221
1293.381074	-3.016700	3.567000	-10.760000	25.648241	0.000371	21.074047
1294.377770	-2.974500	3.568100	-10.612000	25.644459	0.000371	21.052235
1295.375841	-3.010100	3.566600	-10.735000	25.693032	0.000370	21.082522
1296.385386	-2.991300	3.565600	-10.665000	25.739528	0.000369	21.074224
1297.383871	-3.002800	3.565000	-10.704000	25.772390	0.000369	21.079256
1298.376765	-2.995900	3.565000	-10.678000	25.784134	0.000371	21.069718
1299.379433	-2.997000	3.565500	-10.684000	25.790037	0.000368	21.081334
1300.381668	-2.996000	3.564800	-10.680000	25.739575	0.000369	21.051042
1301.379280	-2.994700	3.564700	-10.675000	25.715105	0.000366	21.060128
1302.398859	-2.985100	3.564400	-10.639000	25.711246	0.000368	21.075688
1303.398351	-2.999900	3.564200	-10.692000	25.743553	0.000366	21.093909
1304.403229	-3.018200	3.563500	-10.754000	25.763883	0.000367	21.061232
1305.404710	-2.992300	3.563400	-10.661000	25.742739	0.000367	21.082663
1306.400626	-3.014200	3.564300	-10.743000	25.757238	0.000366	21.069254
1307.382086	-2.984700	3.563800	-10.636000	25.785908	0.000366	21.076240
1308.385927	-3.004100	3.562200	-10.701000	25.806044	0.000364	21.059013
1309.381065	-3.001700	3.561100	-10.689000	25.792143	0.000364	21.088664
1310.412085	-3.016700	3.561800	-10.744000	25.790836	0.000363	21.075026
1311.385044	-3.002100	3.561100	-10.690000	25.762243	0.000363	21.081866
1312.398269	-3.023900	3.560900	-10.766000	25.743310	0.000363	21.067592
1313.393495	-2.995100	3.560900	-10.664000	25.702396	0.000362	21.080074
1314.398291	-3.000300	3.560300	-10.681000	25.720334	0.000362	21.084340
1315.399802	-2.980500	3.560000	-10.610000	25.740031	0.000363	21.077099
1316.396365	-3.000600	3.559600	-10.680000	25.740000	0.000361	21.068535
1317.399565	-3.002000	3.559400	-10.685000	25.724842	0.000361	21.069431
1318.402053	-2.997100	3.558200	-10.663000	25.656049	0.000359	21.071932
1319.402529	-3.016100	3.559600	-10.735000	25.675301	0.000361	21.055236
1320.395323	-3.009800	3.558600	-10.710000	25.670393	0.000362	21.078276
1321.413617	-3.000100	3.558700	-10.675000	25.663887	0.000360	21.062263
1322.378846	-2.998800	3.558600	-10.670000	25.667062	0.000360	21.066399
1323.381773	-3.002600	3.558400	-10.683000	25.659950	0.000361	21.041244
1324.385725	-2.992100	3.558200	-10.645000	25.678574	0.000358	21.035768
1325.399643	-3.001600	3.556800	-10.675000	25.659711	0.000360	21.039108
1326.379646	-3.008600	3.556600	-10.699000	25.629756	0.000358	21.041738
1327.387453	-2.987900	3.557000	-10.627000	25.643261	0.000357	21.053876
1328.381959	-2.976500	3.556500	-10.585000	25.722575	0.000359	21.039660
1329.404536	-3.007400	3.554700	-10.689000	25.751474	0.000356	21.034075
1330.400139	-2.979200	3.556200	-10.593000	25.777172	0.000358	21.045661
1331.403123	-2.995800	3.555300	-10.650000	25.773842	0.000355	21.026673
1332.404237	-2.996200	3.555100	-10.651000	25.762513	0.000355	21.034732
1333.402136	-3.009100	3.555600	-10.698000	25.738698	0.000356	21.028355
1334.387360	-3.014600	3.554500	-10.714000	25.752782	0.000355	21.042973
1335.385906	-2.990100	3.553900	-10.625000	25.755407	0.000355	21.047979
1336.382445	-2.984200	3.554200	-10.606000	25.731384	0.000354	21.006788
1337.384519	-2.998700	3.552900	-10.654000	25.729677	0.000353	21.043473
1338.393596	-2.996800	3.552600	-10.646000	25.775409	0.000354	21.030616
1339.385904	-3.017600	3.552400	-10.719000	25.809763	0.000356	21.013920
1340.387093	-3.021600	3.552100	-10.732000	25.776903	0.000354	21.014576
1341.384174	-3.016100	3.551900	-10.712000	25.766206	0.000352	21.034174
1342.381830	-3.006300	3.551400	-10.676000	25.771108	0.000354	21.031986
1343.378769	-2.993000	3.552500	-10.632000	25.781882	0.000353	21.030955
1344.400860	-3.003500	3.551100	-10.665000	25.789565	0.000353	21.032507
1345.412464	-2.995700	3.550600	-10.635000	25.796562	0.000352	21.026261
1346.407109	-2.997900	3.551000	-10.645000	25.786546	0.000352	21.016202
1347.380631	-2.983100	3.550100	-10.589000	25.767534	0.000352	21.024605
1348.383811	-2.998000	3.549600	-10.640000	25.768795	0.000351	20.995530
1349.380201	-2.981100	3.551100	-10.586000	25.782718	0.000351	21.023261
1350.384278	-3.013900	3.548800	-10.695000	25.756195	0.000351	21.015587
1351.410184	-3.040900	3.548600	-10.790000	25.743823	0.000350	21.023547
1352.384870	-3.002300	3.547400	-10.650000	25.794586	0.000351	21.006736
1353.383439	-3.028200	3.546900	-10.740000	25.786094	0.000350	21.005793
1354.385337	-3.014900	3.547400	-10.694000	25.773500	0.000347	21.009737
1355.390577	-3.005100	3.548200	-10.662000	25.749586	0.000347	21.013217
1356.413175	-2.977800	3.548900	-10.567000	25.811994	0.000349	21.009523
1357.408362	-2.999100	3.546500	-10.636000	25.804815	0.000349	21.022698
1358.400874	-3.011100	3.545600	-10.675000	25.749970	0.000349	21.024506
1359.408212	-2.993800	3.546800	-10.618000	25.751495	0.000347	21.005178
1360.388347	-3.020600	3.546000	-10.709000	25.749317	0.000348	21.004413
1361.386734	-3.001400	3.545500	-10.641000	25.754846	0.000349	20.993848
1362.388331	-2.986200	3.546400	-10.589000	25.755842	0.000347	21.016655
1363.391865	-2.978300	3.546400	-10.561000	25.763603	0.000348	21.008330
1364.387167	-2.977000	3.545900	-10.555000	25.819297	0.000347	21.025865
1365.387287	-3.013100	3.543600	-10.676000	25.819479	0.000346	21.009930
1366.388490	-2.992900	3.545200	-10.609000	25.789715	0.000346	21.012748
1367.397203	-3.010300	3.543000	-10.664000	25.805686	0.000345	21.010774
1368.387954	-3.007200	3.543400	-10.655000	25.822565	0.000346	20.989800
1369.385325	-2.987400	3.544000	-10.587000	25.869346	0.000344	20.997437
1370.388411	-3.016300	3.541600	-10.682000	25.860767	0.000344	20.997828
1371.390454	-2.964600	3.543000	-10.503000	25.877733	0.000346	21.015816
1372.422996	-3.018300	3.543300	-10.694000	25.842250	0.000344	21.016207
1373.414378	-3.020700	3.541700	-10.697000	25.803072	0.000345	21.013363
1374.390979	-2.981700	3.542700	-10.562000	25.752455	0.000342	21.007565
1375.396284	-3.000700	3.540400	-10.623000	25.718835	0.000343	20.988024
1376.395170	-2.989600	3.540900	-10.585000	25.728251	0.000344	20.997005
1377.413797	-2.992500	3.541600	-10.598000	25.736063	0.000343	21.013384
1378.412375	-3.009400	3.539500	-10.650000	25.768054	0.000341	20.997156
1379.413927	-2.990100	3.540900	-10.586000	25.755754	0.000340	20.995234
1380.417969	-3.019600	3.537900	-10.681000	25.713975	0.000342	20.997839
1381.409220	-2.994100	3.539200	-10.595000	25.708253	0.000341	20.987352
1382.391694	-3.014100	3.539100	-10.666000	25.679451	0.000339	20.994458
1383.425509	-2.979200	3.540600	-10.547000	25.692675	0.000342	20.994937
1384.414913	-2.999300	3.539200	-10.614000	25.720911	0.000338	20.998167
1385.393569	-2.999300	3.538000	-10.611000	25.759671	0.000337	20.976412
1386.401396	-2.996700	3.537300	-10.600000	25.777370	0.000339	20.997031
1387.394771	-3.024700	3.536700	-10.696000	25.782640	0.000337	20.984784
1388.400622	-3.001500	3.537700	-10.617000	25.783221	0.000338	20.991530
1389.421874	-3.001400	3.538300	-10.619000	25.760216	0.000339	20.993077
1390.418390	-3.006500	3.536600	-10.631000	25.757565	0.000335	21.017437
1391.418376	-2.995200	3.536800	-10.593000	25.796226	0.000337	21.005064
1392.394296	-2.983900	3.536900	-10.552000	25.818012	0.000337	21.003241
1393.394761	-2.970300	3.535300	-10.500000	25.862827	0.000337	20.992786
1394.396307	-2.987900	3.535400	-10.562000	25.842110	0.000336	21.002793
1395.418475	-2.974900	3.534800	-10.515000	25.844600	0.000337	20.996761
1396.423178	-2.984700	3.533900	-10.547000	25.864481	0.000335	21.000610
1397.412834	-2.998300	3.533500	-10.593000	25.804219	0.000338	21.005507
1398.394921	-2.994000	3.534000	-10.580000	25.831669	0.000334	20.998943
1399.401157	-3.011700	3.532700	-10.638000	25.817005	0.000334	20.991327
1400.398135	-2.984400	3.534200	-10.546000	25.742532	0.000333	20.990488
1401.399886	-2.993600	3.532100	-10.573000	25.742709	0.000333	21.000621
1402.401705	-2.986600	3.533500	-10.552000	25.784358	0.000334	21.002627
1403.414163	-3.003100	3.532500	-10.608000	25.819293	0.000332	20.998365
1404.416124	-3.004700	3.531000	-10.609000	25.798887	0.000331	20.963648
1405.411386	-2.997600	3.532300	-10.588000	25.834340	0.000332	20.968915
1406.413725	-3.018300	3.528700	-10.650000	25.894336	0.000330	20.983664
1407.422671	-3.035800	3.529000	-10.712000	25.874487	0.000333	20.978423
1408.413819	-2.982600	3.530300	-10.530000	25.841498	0.000333	20.996490
1409.413800	-2.988100	3.531800	-10.553000	25.852484	0.000331	21.003731
1410.409893	-3.001100	3.530400	-10.594000	25.832032	0.000330	21.015426
1411.417281	-3.002100	3.529900	-10.596000	25.818868	0.000329	20.987034
1412.417355	-2.996900	3.528200	-10.572000	25.790204	0.000330	20.995224
1413.401098	-2.988800	3.529000	-10.546000	25.784487	0.000330	20.975735
1414.398528	-3.026000	3.526100	-10.669000	25.816009	0.000327	20.977053
1415.404723	-3.015800	3.528100	-10.639000	25.769356	0.000328	20.990405
1416.402546	-2.987300	3.528200	-10.539000	25.754806	0.000329	20.976740
1417.408316	-3.012600	3.527200	-10.625000	25.779482	0.000329	20.983033
1418.405023	-3.031000	3.526700	-10.688000	25.808955	0.000329	20.986560
1419.399095	-3.021600	3.526300	-10.654000	25.816611	0.000326	20.961064
1420.406711	-3.010700	3.525900	-10.614000	25.880545	0.000328	20.998730
1421.404967	-2.984400	3.526400	-10.523000	25.868506	0.000327	20.981424
1422.403222	-2.995400	3.526400	-10.562000	25.868631	0.000327	20.976808
1423.403713	-2.998000	3.525400	-10.568000	25.872179	0.000326	20.972312
1424.399486	-2.971600	3.525500	-10.475000	25.875244	0.000326	20.989613
1425.407907	-2.993600	3.526000	-10.555000	25.884710	0.000324	20.973521
1426.423812	-3.012400	3.524600	-10.616000	25.890529	0.000326	20.991692
1427.432738	-3.008800	3.523400	-10.600000	25.880249	0.000324	20.987055
1428.402567	-3.009800	3.524900	-10.608000	25.866774	0.000325	20.979209
1429.423161	-3.024700	3.521600	-10.650000	25.886572	0.000325	20.943627
1430.428815	-3.003800	3.523000	-10.582000	25.810656	0.000326	20.990639
1431.405300	-2.978700	3.523800	-10.495000	25.806273	0.000323	20.962533
1432.402242	-3.000400	3.522000	-10.566000	25.796812	0.000322	20.980528
1433.403408	-3.006800	3.522100	-10.590000	25.772868	0.000324	20.975917
1434.406086	-3.002700	3.520300	-10.570000	25.759962	0.000324	20.958214
1435.401468	-2.992700	3.521200	-10.537000	25.748290	0.000322	20.982523
1436.419805	-2.973200	3.522400	-10.472000	25.769320	0.000323	20.969983
1437.429174	-2.986600	3.520300	-10.513000	25.811959	0.000322	20.967769
1438.405863	-3.009900	3.521000	-10.596000	25.828298	0.000324	20.987972
1439.429259	-3.011600	3.519700	-10.599000	25.822971	0.000323	20.984518
1440.407369	-3.017700	3.519100	-10.618000	25.838760	0.000321	20.971932
1441.402118	-3.045700	3.516300	-10.708000	25.862594	0.000320	20.972166
1442.405375	-2.970700	3.518900	-10.453000	25.820632	0.000320	20.976480
1443.421577	-3.017500	3.519000	-10.618000	25.767105	0.000318	20.979137
1444.423550	-3.004100	3.517400	-10.566000	25.763433	0.000320	20.980189
1445.429037	-2.967800	3.518400	-10.441000	25.768651	0.000321	20.991119
1446.408381	-2.981600	3.517900	-10.487000	25.836462	0.000320	20.978632
1447.407095	-3.018600	3.517700	-10.617000	25.853195	0.000321	20.987853
1448.425894	-2.995100	3.517800	-10.535000	25.868191	0.000319	20.969254
1449.427676	-3.017700	3.516000	-10.610000	25.874824	0.000317	20.963591
1450.433698	-3.015600	3.516100	-10.602000	25.855447	0.000318	20.982055
1451.419673	-3.012900	3.515500	-10.591000	25.829408	0.000316	20.974865
1452.407425	-3.011100	3.515000	-10.583000	25.859010	0.000317	20.988952
1453.414231	-2.985500	3.516600	-10.498000	25.854975	0.000319	20.981580
1454.407438	-3.009100	3.515800	-10.579000	25.859404	0.000314	20.963274
1455.406919	-2.997900	3.515400	-10.537000	25.886780	0.000316	20.972755
1456.410818	-3.026600	3.513500	-10.633000	25.882325	0.000315	20.986295
1457.410115	-2.990400	3.513700	-10.506000	25.894835	0.000315	20.963779
1458.413542	-2.975700	3.514300	-10.456000	25.890717	0.000315	20.967702
1459.406300	-2.999300	3.513000	-10.536000	25.778590	0.000315	20.968864
1460.409331	-3.003900	3.512400	-10.550000	25.774788	0.000315	20.970260
1461.432427	-3.001600	3.513100	-10.544000	25.775369	0.000315	20.971317
1462.412013	-2.990800	3.513000	-10.506000	25.742533	0.000314	20.972948
1463.416342	-3.006600	3.511900	-10.558000	25.755382	0.000314	20.956933
1464.410590	-2.999800	3.512000	-10.534000	25.791786	0.000312	20.955568
1465.426441	-2.983900	3.512700	-10.481000	25.810745	0.000314	20.960387
1466.426047	-3.009700	3.512000	-10.569000	25.793700	0.000313	20.979298
1467.424880	-3.005300	3.510300	-10.549000	25.807099	0.000314	20.959095
1468.439279	-3.003500	3.510800	-10.544000	25.815133	0.000312	20.984232
1469.414574	-2.986000	3.510200	-10.481000	25.827250	0.000313	20.963216
1470.435444	-2.984100	3.511700	-10.477000	25.857562	0.000314	20.957157
1471.411782	-2.993100	3.508900	-10.502000	25.843138	0.000312	20.961158
1472.439628	-3.017000	3.508600	-10.583000	25.817338	0.000309	20.985972
1473.415090	-2.970700	3.510500	-10.427000	25.840861	0.000311	20.933744
1474.450622	-2.981200	3.509200	-10.461000	25.890944	0.000312	20.975516
1475.431190	-3.022100	3.506500	-10.595000	25.893097	0.000310	20.941173
1476.437486	-3.006100	3.508900	-10.547000	25.859222	0.000307	20.961194
1477.434093	-2.993400	3.505900	-10.494000	25.837167	0.000309	20.982184
1478.412359	-3.003600	3.506000	-10.529000	25.813779	0.000308	20.965805
1479.410973	-2.982300	3.508300	-10.462000	25.802922	0.000309	20.942100
1480.414976	-3.006700	3.506000	-10.541000	25.828858	0.000309	20.968149
1481.430007	-3.002800	3.506100	-10.527000	25.810817	0.000310	20.958563
1482.438316	-3.003200	3.506000	-10.528000	25.771084	0.000309	20.961799
1483.418275	-2.995600	3.506000	-10.501000	25.789446	0.000306	20.957959
1484.418376	-3.015200	3.505400	-10.569000	25.826684	0.000308	20.938943
1485.446098	-2.988700	3.505400	-10.476000	25.816217	0.000307	20.943127
1486.437834	-2.994600	3.504200	-10.493000	25.837012	0.000310	20.952161
1487.448492	-2.980800	3.504700	-10.446000	25.852064	0.000308	20.955901
1488.444782	-2.974000	3.505100	-10.423000	25.834491	0.000305	20.942517
1489.436634	-2.997400	3.504200	-10.502000	25.836037	0.000305	20.930795
1490.442975	-2.997700	3.501500	-10.495000	25.786448	0.000305	20.960637
1491.420344	-3.010000	3.501700	-10.539000	25.864565	0.000306	20.939537
1492.437583	-2.994700	3.503300	-10.491000	25.873502	0.000305	20.961788
1493.419416	-2.989400	3.501900	-10.468000	25.814158	0.000304	20.936318
1494.417942	-2.997300	3.501600	-10.493000	25.837494	0.000305	20.951223
1495.417312	-3.016200	3.500900	-10.558000	25.891541	0.000305	20.933447
1496.419670	-3.040800	3.500800	-10.643000	25.895027	0.000305	20.921777
1497.416056	-2.996500	3.501400	-10.491000	25.883932	0.000306	20.939553
1498.422950	-2.995800	3.500200	-10.485000	25.936556	0.000304	20.955907
1499.420415	-2.989500	3.500200	-10.463000	25.936633	0.000302	20.939392
1500.420068	-2.998500	3.499000	-10.492000	25.876266	0.000303	20.947973
1501.423715	-2.981600	3.499800	-10.434000	25.860167	0.000304	20.942231
1502.420661	-3.009700	3.498000	-10.527000	25.808800	0.000299	20.942315
1503.444067	-3.011600	3.498100	-10.534000	25.770560	0.000301	20.937568
1504.444787	-3.020800	3.496900	-10.562000	25.787683	0.000299	20.927743
1505.456557	-2.997600	3.499900	-10.490000	25.757945	0.000299	20.923950
1506.419797	-3.004100	3.498500	-10.509000	25.766416	0.000300	20.928665
1507.427023	-2.968300	3.498300	-10.383000	25.732262	0.000300	20.925180
1508.422606	-2.987400	3.497400	-10.446000	25.768065	0.000300	20.945493
1509.426727	-2.973400	3.496900	-10.397000	25.804096	0.000302	20.953709
1510.421803	-2.973800	3.496300	-10.396000	25.746906	0.000301	20.942257
1511.423009	-3.001000	3.496500	-10.492000	25.742518	0.000301	20.929316
1512.427259	-2.997200	3.495500	-10.476000	25.758147	0.000300	20.937428
1513.424358	-2.973000	3.494900	-10.389000	25.778917	0.000298	20.935058
1514.423598	-3.007000	3.494700	-10.508000	25.782802	0.000299	20.944649
1515.455721	-2.973700	3.495500	-10.393000	25.839596	0.000298	20.940059
1516.445362	-2.997700	3.494400	-10.474000	25.888762	0.000297	20.939663
1517.432178	-3.015800	3.493800	-10.536000	25.941099	0.000296	20.925388
1518.425253	-2.984300	3.493400	-10.425000	25.934279	0.000297	20.936553
1519.448258	-2.999300	3.491700	-10.472000	25.898570	0.000298	20.940981
1520.447572	-2.983100	3.493000	-10.419000	25.924082	0.000297	20.934844
1521.425987	-2.990100	3.492900	-10.443000	25.908528	0.000295	20.925857
1522.445711	-3.027400	3.491600	-10.570000	25.866261	0.000299	20.929389
1523.447991	-3.000500	3.491100	-10.474000	25.855426	0.000297	20.918506
1524.438226	-2.985700	3.492200	-10.426000	25.837801	0.000295	20.932094
1525.451345	-3.004500	3.491800	-10.491000	25.853040	0.000296	20.926066
1526.457558	-3.015100	3.492600	-10.530000	25.884027	0.000296	20.907883
1527.427427	-3.007600	3.491600	-10.500000	25.869784	0.000296	20.917756
1528.428295	-2.986900	3.490800	-10.426000	25.879250	0.000295	20.938643
1529.423940	-3.002900	3.489300	-10.477000	25.881921	0.000296	20.926155
1530.423055	-2.994800	3.489200	-10.449000	25.874820	0.000294	20.902902
1531.430863	-2.998100	3.490000	-10.462000	25.886926	0.000293	20.939242
1532.439247	-2.998900	3.488500	-10.461000	25.826188	0.000294	20.922326
1533.449260	-3.013800	3.488500	-10.512000	25.838694	0.000294	20.920190
1534.440663	-3.004800	3.487400	-10.478000	25.846143	0.000293	20.894484
1535.446369	-3.006300	3.487800	-10.486000	25.903903	0.000294	20.922633
1536.448898	-3.006000	3.486700	-10.479000	25.910277	0.000292	20.919554
1537.441903	-2.986700	3.487700	-10.416000	25.855993	0.000294	20.917653
1538.429738	-2.993900	3.487200	-10.440000	25.865034	0.000292	20.924363
1539.444201	-3.011700	3.486300	-10.498000	25.828243	0.000292	20.933397
1540.449044	-3.004800	3.486100	-10.474000	25.861357	0.000289	20.910714
1541.431650	-3.004800	3.485100	-10.471000	25.836470	0.000292	20.929334
1542.452265	-3.029900	3.486100	-10.560000	25.834841	0.000290	20.921535
1543.432096	-2.992600	3.485400	-10.429000	25.844048	0.000289	20.909922
1544.457519	-2.989100	3.485500	-10.418000	25.820577	0.000290	20.920482
1545.434031	-2.980600	3.485300	-10.387000	25.830220	0.000293	20.902670
1546.433956	-3.008800	3.484500	-10.483000	25.803444	0.000289	20.920342
1547.459965	-3.033200	3.482300	-10.561000	25.889060	0.000290	20.916258
1548.446774	-2.981700	3.484700	-10.390000	25.920076	0.000288	20.911381
1549.454852	-2.988100	3.483300	-10.407000	25.933234	0.000287	20.912746
1550.436102	-3.010800	3.481100	-10.480000	25.939344	0.000288	20.909876
1551.434111	-2.998300	3.483800	-10.444000	25.909895	0.000287	20.921541
1552.439522	-2.987000	3.482100	-10.400000	25.924049	0.000287	20.910631
1553.439547	-3.002100	3.483100	-10.455000	25.911410	0.000287	20.916425
1554.439826	-3.002900	3.480900	-10.451000	25.916783	0.000289	20.896221
1555.460562	-3.011100	3.479800	-10.477000	25.901706	0.000287	20.904781
1556.458208	-3.036300	3.479200	-10.563000	25.938857	0.000287	20.904645
1557.462563	-2.989300	3.479900	-10.401000	25.893858	0.000287	20.885045
1558.441019	-2.996300	3.480600	-10.428000	25.899517	0.000286	20.906376
1559.439985	-3.007200	3.480700	-10.466000	25.862728	0.000283	20.914936
1560.438180	-3.013400	3.480100	-10.486000	25.895555	0.000285	20.921360
1561.440614	-3.015100	3.479100	-10.489000	25.863952	0.000284	20.899572
1562.439596	-3.014400	3.479400	-10.487000	25.847090	0.000283	20.902073
1563.439216	-3.002700	3.477600	-10.441000	25.824832	0.000283	20.895362
1564.458516	-2.982800	3.477900	-10.374000	25.811346	0.000282	20.901255
1565.446214	-2.985500	3.477500	-10.381000	25.843335	0.000284	20.899249
1566.440082	-3.007100	3.477500	-10.457000	25.878761	0.000281	20.908283
1567.458838	-2.987400	3.477700	-10.389000	25.882221	0.000283	20.898483
1568.441346	-2.995000	3.476500	-10.411000	25.911458	0.000279	20.920266
1569.437691	-2.998700	3.476100	-10.423000	25.888014	0.000282	20.918052
1570.441947	-2.991400	3.476900	-10.399000	25.880042	0.000282	20.891554
1571.441598	-2.999100	3.475600	-10.422000	25.864280	0.000281	20.904642
1572.443365	-3.008600	3.476400	-10.458000	25.854783	0.000281	20.899369
1573.443054	-3.000600	3.475000	-10.426000	25.877651	0.000282	20.900531
1574.447225	-3.007900	3.474000	-10.448000	25.885022	0.000279	20.883281
1575.450050	-3.015200	3.475300	-10.479000	25.929305	0.000279	20.881301
1576.449075	-3.003300	3.473900	-10.432000	25.907962	0.000281	20.882619
1577.444812	-3.007600	3.473300	-10.446000	25.905022	0.000281	20.917594
1578.440862	-3.025100	3.472800	-10.505000	25.930114	0.000279	20.902027
1579.450206	-3.038700	3.473200	-10.553000	25.864218	0.000277	20.905054
1580.470332	-2.994300	3.473600	-10.400000	25.849871	0.000279	20.912452
1581.450125	-3.007900	3.472500	-10.444000	25.903596	0.000279	20.901939
1582.447144	-3.003200	3.473500	-10.430000	25.907030	0.000278	20.913922
1583.449317	-2.999000	3.473200	-10.415000	25.900920	0.000277	20.894035
1584.452182	-2.996500	3.470600	-10.399000	25.938284	0.000277	20.897432
1585.450449	-2.983000	3.471100	-10.353000	25.923912	0.000277	20.896270
1586.444715	-2.997400	3.471600	-10.404000	25.897870	0.000276	20.892869
1587.470228	-3.005100	3.470700	-10.428000	25.830457	0.000278	20.919028
1588.471219	-2.999600	3.470700	-10.410000	25.780547	0.000275	20.899241
1589.465771	-2.992200	3.469500	-10.380000	25.781289	0.000277	20.915157
1590.473771	-2.998100	3.469600	-10.401000	25.825784	0.000274	20.899636
1591.450913	-3.002100	3.469700	-10.416000	25.914203	0.000276	20.889362
1592.472978	-2.997800	3.468600	-10.396000	25.964439	0.000276	20.911380
1593.452867	-2.983500	3.468900	-10.348000	25.933337	0.000275	20.869231
1594.454693	-3.007600	3.467800	-10.429000	25.980927	0.000273	20.901393
1595.485243	-3.006500	3.468500	-10.428000	25.972800	0.000272	20.902711
1596.475108	-3.001300	3.467400	-10.406000	25.961525	0.000274	20.892332
1597.481851	-3.013000	3.467500	-10.446000	25.929686	0.000274	20.916768
1598.459045	-2.990900	3.468400	-10.373000	25.916004	0.000273	20.898282
1599.452992	-2.983700	3.466400	-10.342000	25.897488	0.000272	20.890587
1600.451963	-2.982800	3.466000	-10.338000	25.870112	0.000272	20.890113
1601.459385	-2.987600	3.467200	-10.358000	25.862897	0.000272	20.877177
1602.451972	-2.974900	3.466100	-10.311000	25.837643	0.000271	20.896376
1603.461222	-3.017100	3.466800	-10.458000	25.865911	0.000271	20.877359
1604.460267	-3.005600	3.465700	-10.416000	25.873038	0.000272	20.894949
1605.462336	-3.002400	3.463800	-10.399000	25.912737	0.000271	20.886467
1606.458034	-2.994200	3.465800	-10.376000	25.906523	0.000270	20.907250
1607.460188	-2.996500	3.465200	-10.382000	25.888878	0.000268	20.897111
1608.463766	-3.012200	3.463000	-10.431000	25.877151	0.000268	20.893866
1609.459684	-2.996200	3.463500	-10.377000	25.832098	0.000270	20.891756
1610.459478	-3.017900	3.462900	-10.450000	25.804747	0.000269	20.883248
1611.457246	-3.029600	3.463100	-10.491000	25.813819	0.000269	20.880033
1612.460814	-3.048300	3.461500	-10.551000	25.842587	0.000268	20.913195
1613.457995	-3.006800	3.462200	-10.409000	25.840989	0.000268	20.885988
1614.467992	-3.004500	3.461200	-10.398000	25.858972	0.000268	20.881768
1615.466206	-3.008500	3.460100	-10.409000	25.884196	0.000267	20.887666
1616.463759	-2.993400	3.460900	-10.359000	25.906882	0.000267	20.911403
1617.467574	-2.995800	3.462000	-10.370000	25.926695	0.000268	20.901437
1618.464134	-2.988700	3.461200	-10.344000	25.861120	0.000268	20.912846
1619.472319	-3.022400	3.460100	-10.456000	25.908080	0.000267	20.905969
1620.462106	-2.997400	3.460600	-10.371000	25.908838	0.000266	20.908152
1621.484500	-2.996700	3.459000	-10.365000	25.919014	0.000265	20.900832
1622.462286	-3.006500	3.460200	-10.403000	25.921711	0.000264	20.889792
1623.471350	-2.993100	3.459900	-10.354000	25.899264	0.000265	20.908965
1624.487314	-2.992800	3.460300	-10.355000	25.850726	0.000266	20.906673
1625.470055	-3.000900	3.458700	-10.379000	25.885602	0.000264	20.899983
1626.467589	-3.007100	3.458500	-10.398000	25.915150	0.000266	20.910701
1627.465835	-2.990400	3.458900	-10.343000	25.969842	0.000263	20.876507
1628.471318	-2.997900	3.457400	-10.364000	25.984685	0.000264	20.884781
1629.469223	-3.020000	3.456900	-10.438000	25.966850	0.000264	20.919016
1630.474008	-3.001700	3.456700	-10.375000	25.963784	0.000266	20.914989
1631.486961	-3.010400	3.457700	-10.408000	25.917215	0.000263	20.910878
1632.488943	-2.992000	3.457900	-10.345000	25.900167	0.000263	20.889486
1633.485894	-2.983100	3.457000	-10.312000	25.877958	0.000263	20.908425
1634.491159	-3.013500	3.455200	-10.411000	25.889021	0.000263	20.909581
1635.477206	-3.010300	3.455300	-10.401000	25.899431	0.000262	20.911978
1636.469591	-2.988900	3.456500	-10.330000	25.962493	0.000263	20.909899
1637.470802	-2.991200	3.456300	-10.338000	25.947650	0.000261	20.910634
1638.472063	-2.991500	3.454000	-10.332000	25.949517	0.000263	20.894493
1639.474615	-3.005600	3.454300	-10.382000	25.946680	0.000260	20.902074
1640.493104	-2.996700	3.453000	-10.346000	25.936089	0.000258	20.919407
1641.490050	-2.995700	3.453400	-10.345000	25.940125	0.000260	20.930098
1642.490385	-2.993200	3.453400	-10.336000	25.924736	0.000259	20.944034
1643.474532	-2.996400	3.453300	-10.346000	25.904679	0.000258	20.905397
1644.472734	-3.026400	3.451600	-10.445000	25.873710	0.000259	20.909373
1645.473103	-3.003200	3.452300	-10.368000	25.886003	0.000259	20.941633
1646.493570	-2.993300	3.450900	-10.328000	25.906407	0.000260	20.928941
1647.467893	-2.995100	3.451400	-10.336000	25.947525	0.000257	20.930895
1648.472254	-3.009500	3.451100	-10.385000	25.967472	0.000259	20.926753
1649.471617	-2.997700	3.452400	-10.348000	25.987030	0.000259	20.905153
1650.473000	-3.016100	3.450800	-10.407000	26.035618	0.000257	20.912244
1651.473497	-2.998700	3.451000	-10.348000	26.025656	0.000257	20.898916
1652.475736	-3.012500	3.449900	-10.392000	26.013961	0.000259	20.927941
1653.485318	-3.011300	3.450000	-10.388000	25.985116	0.000258	20.919350
1654.471082	-3.004400	3.448600	-10.360000	25.986454	0.000258	20.919746
1655.489961	-3.014500	3.447900	-10.393000	26.012442	0.000256	20.925466
1656.470108	-2.998100	3.449300	-10.341000	25.996313	0.000258	20.921590
1657.488498	-2.998800	3.448000	-10.339000	25.945109	0.000256	20.916141
1658.470397	-3.016100	3.446800	-10.395000	25.897071	0.000252	20.920038
1659.470757	-3.013100	3.447200	-10.385000	25.895416	0.000255	20.919324
1660.504210	-3.002200	3.447200	-10.348000	25.911365	0.000254	20.929181
1661.490665	-2.973400	3.448700	-10.253000	25.923476	0.000255	20.923804
1662.506113	-3.013400	3.446400	-10.384000	25.977280	0.000255	20.926649
1663.493567	-2.996700	3.446200	-10.326000	25.969698	0.000254	20.915714
1664.473651	-3.021900	3.446000	-10.413000	25.957084	0.000254	20.921533
1665.475070	-2.999400	3.446400	-10.336000	25.964216	0.000253	20.920163
1666.478458	-2.997800	3.446600	-10.331000	25.928948	0.000254	20.914604
1667.495202	-2.981200	3.445300	-10.270000	25.957712	0.000254	20.925957
1668.480652	-3.000500	3.446000	-10.338000	25.971814	0.000251	20.934908
1669.478264	-3.001700	3.444500	-10.339000	25.956027	0.000252	20.940383
1670.479695	-2.975300	3.446100	-10.253000	25.972416	0.000251	20.926504
1671.479529	-2.988900	3.445300	-10.297000	25.999680	0.000253	20.919758
1672.478722	-2.995000	3.443100	-10.311000	26.004079	0.000253	20.936029
1673.507274	-3.019600	3.444400	-10.400000	26.030927	0.000252	20.938347
1674.498876	-2.977400	3.444000	-10.253000	26.027909	0.000251	20.926307
1675.501245	-2.980200	3.443900	-10.263000	26.012014	0.000248	20.933096
1676.481729	-2.988300	3.442300	-10.285000	25.987577	0.000249	20.914711
1677.501946	-2.988700	3.443000	-10.290000	25.957943	0.000251	20.921922
1678.498013	-2.994300	3.441200	-10.303000	25.976349	0.000251	20.943730
1679.486160	-2.999600	3.441300	-10.322000	25.930455	0.000248	20.947409
1680.498889	-2.984600	3.441300	-10.270000	25.913962	0.000250	20.949331
1681.511863	-2.972200	3.441700	-10.229000	25.913122	0.000250	20.950384
1682.489229	-3.023600	3.439800	-10.399000	25.954915	0.000248	20.955860
1683.485070	-3.020200	3.438900	-10.385000	25.995234	0.000249	20.942789
1684.483713	-2.992700	3.440000	-10.294000	26.031578	0.000247	20.938527
1685.493506	-2.972900	3.441100	-10.229000	26.022653	0.000248	20.937147
1686.485322	-2.993100	3.439900	-10.295000	26.002303	0.000248	20.957950
1687.485373	-2.992000	3.439100	-10.289000	25.998938	0.000248	20.959785
1688.485214	-2.985200	3.439400	-10.266000	25.990054	0.000250	20.951334
1689.485784	-2.993700	3.439100	-10.295000	25.999047	0.000247	20.957049
1690.491527	-3.018400	3.437300	-10.374000	26.008979	0.000247	20.936210
1691.487166	-3.006200	3.437800	-10.334000	25.976021	0.000247	20.938659
1692.490897	-3.010600	3.437900	-10.349000	25.937662	0.000245	20.958441
1693.497377	-2.982400	3.437300	-10.249000	25.928742	0.000246	20.966073
1694.506432	-3.014500	3.436300	-10.358000	25.955986	0.000248	20.982536
1695.504357	-3.001500	3.436900	-10.314000	25.976851	0.000245	20.954664
1696.488622	-2.985600	3.436300	-10.259000	25.982276	0.000247	20.959166
1697.514429	-3.006100	3.435800	-10.327000	26.031202	0.000242	20.958061
1698.492769	-3.005000	3.435400	-10.323000	26.069236	0.000245	20.970196
1699.519626	-3.000600	3.436300	-10.310000	26.066327	0.000244	20.961110
1700.514669	-3.015400	3.435900	-10.359000	26.022438	0.000243	20.968221
1701.512398	-2.987200	3.434400	-10.258000	26.002166	0.000243	20.980094
1702.504318	-3.003000	3.434800	-10.314000	25.985674	0.000244	20.954994
1703.525032	-2.993300	3.435900	-10.284000	25.970836	0.000243	20.965215
1704.510119	-2.998000	3.434200	-10.295000	25.990394	0.000244	20.981543
1705.495795	-2.988000	3.433500	-10.258000	25.994030	0.000243	20.953432
1706.494393	-3.011400	3.432200	-10.335000	25.995632	0.000245	20.967368
1707.490595	-2.994000	3.432500	-10.276000	26.013115	0.000243	20.968811
1708.487952	-2.989800	3.434400	-10.266000	26.046544	0.000240	20.993385
1709.498300	-3.001700	3.431900	-10.301000	26.074435	0.000242	20.968306
1710.491829	-3.009700	3.432300	-10.329000	26.078734	0.000242	20.977840
1711.492100	-3.008100	3.432600	-10.325000	26.046167	0.000241	20.953657
1712.493823	-3.006300	3.432000	-10.316000	26.036205	0.000240	20.964509
1713.492024	-3.003300	3.430600	-10.302000	26.059510	0.000242	20.979388
1714.493145	-3.016000	3.429700	-10.343000	26.052743	0.000239	20.984916
1715.492833	-2.997300	3.430100	-10.280000	26.045716	0.000240	20.978805
1716.499049	-2.996800	3.430500	-10.279000	26.029961	0.000237	20.996163
1717.495330	-2.997000	3.429300	-10.277000	25.983178	0.000239	20.985198
1718.493078	-2.997000	3.429200	-10.276000	26.021119	0.000239	20.970215
1719.515531	-2.997500	3.430000	-10.280000	26.016634	0.000240	20.977560
1720.507174	-3.005500	3.426900	-10.298000	26.000739	0.000238	20.998572
1721.510213	-3.004500	3.429000	-10.301000	26.005406	0.000238	20.987616
1722.515916	-2.966600	3.429100	-10.172000	26.003934	0.000238	21.001307
1723.495200	-3.013300	3.427800	-10.327000	26.010251	0.000236	20.995801
1724.517397	-2.995600	3.428400	-10.269000	26.035865	0.000237	20.986449
1725.529147	-2.993000	3.427900	-10.259000	26.045091	0.000238	20.993347
1726.522919	-2.985300	3.427200	-10.230000	26.011896	0.000237	21.012149
1727.517591	-3.003900	3.426700	-10.292000	25.972698	0.000235	20.987471
1728.526339	-3.022300	3.425900	-10.354000	25.983029	0.000233	20.990263
1729.496394	-2.992600	3.426700	-10.254000	25.980426	0.000235	20.997130
1730.521127	-2.998800	3.426100	-10.273000	25.968286	0.000236	21.012905
1731.497697	-2.999400	3.426300	-10.276000	25.970957	0.000234	21.007055
1732.526196	-3.011800	3.425100	-10.314000	25.956118	0.000234	21.007795
1733.500379	-3.020100	3.423300	-10.337000	25.998776	0.000237	21.013192
1734.517575	-3.011000	3.424600	-10.311000	26.045990	0.000234	20.995673
1735.501340	-2.991300	3.424400	-10.243000	26.054879	0.000233	21.024987
1736.522782	-2.998000	3.423900	-10.263000	26.062715	0.000234	21.040917
1737.524616	-3.030300	3.423600	-10.373000	26.011509	0.000233	21.005598
1738.534164	-3.014700	3.422200	-10.315000	25.977529	0.000234	21.010338
1739.528938	-3.003900	3.422900	-10.280000	26.001598	0.000236	21.016975
1740.507440	-2.979400	3.423200	-10.198000	25.991558	0.000235	21.013526
1741.509191	-2.990300	3.422200	-10.233000	25.980486	0.000235	21.032271
1742.502891	-2.986600	3.422900	-10.221000	25.951302	0.000234	20.995846
1743.532631	-2.991900	3.421300	-10.235000	25.932133	0.000233	21.024947
1744.522826	-3.017900	3.419600	-10.320000	25.973926	0.000231	21.016674
1745.503690	-2.989000	3.421200	-10.224000	26.037456	0.000232	21.026921
1746.501828	-2.996700	3.420500	-10.249000	26.051033	0.000231	21.002161
1747.516769	-2.992300	3.420300	-10.234000	26.045132	0.000233	21.022306
1748.502771	-3.006500	3.419200	-10.279000	26.039572	0.000230	21.013403
1749.509076	-2.993200	3.419300	-10.233000	26.054093	0.000231	20.994332
1750.502877	-2.997400	3.418500	-10.246000	26.067047	0.000231	21.012085
1751.504794	-2.989400	3.419400	-10.221000	26.084270	0.000230	21.034127
1752.532351	-3.003000	3.417500	-10.262000	26.122857	0.000231	21.026907
1753.507272	-3.010400	3.418300	-10.290000	26.144330	0.000232	21.017665
1754.529146	-2.990800	3.418700	-10.223000	26.167836	0.000231	21.055502
1755.534818	-2.981500	3.417700	-10.189000	26.151394	0.000231	21.028081
1756.528040	-2.999000	3.418100	-10.250000	26.165611	0.000229	21.016765
1757.534534	-3.002700	3.417300	-10.261000	26.156563	0.000229	21.038963
1758.528725	-3.022600	3.417200	-10.328000	26.106699	0.000228	21.030112
1759.513109	-2.994400	3.417200	-10.231000	26.098335	0.000226	21.039723
1760.511979	-2.997400	3.418000	-10.244000	26.039082	0.000227	21.005326
1761.512256	-2.984000	3.415200	-10.190000	26.021703	0.000226	21.048548
1762.512202	-2.984800	3.415100	-10.193000	26.037008	0.000227	21.046856
1763.512205	-2.966700	3.416000	-10.133000	26.070674	0.000226	21.054602
1764.514861	-3.007400	3.414000	-10.266000	26.090023	0.000226	21.042276
1765.527707	-2.990300	3.415300	-10.211000	26.106249	0.000227	21.032030
1766.535959	-2.995300	3.413200	-10.223000	26.115132	0.000224	21.034791
1767.513986	-2.978500	3.414400	-10.168000	26.092226	0.000224	21.054445
1768.518260	-3.008400	3.413400	-10.268000	26.081576	0.000224	21.018147
1769.532269	-2.996300	3.413800	-10.228000	26.124051	0.000224	21.047543
1770.545058	-2.990000	3.413200	-10.205000	26.104123	0.000223	21.038427
1771.511909	-3.022700	3.411900	-10.312000	26.079532	0.000224	21.052596
1772.513735	-3.019900	3.411500	-10.302000	26.062357	0.000223	21.071845
1773.513411	-3.008300	3.411600	-10.262000	26.036241	0.000223	21.038501
1774.535963	-2.995900	3.412700	-10.223000	26.011130	0.000224	21.033660
1775.514946	-2.997800	3.412300	-10.229000	26.002708	0.000221	21.057437
1776.518974	-2.999800	3.412800	-10.236000	26.029058	0.000224	21.057832
1777.514386	-3.025600	3.411000	-10.319000	26.006224	0.000223	21.056702
1778.515982	-2.990100	3.410100	-10.196000	26.044658	0.000221	21.038422
1779.517078	-2.964700	3.410900	-10.111000	26.058764	0.000222	21.061599
1780.534163	-2.987700	3.410800	-10.189000	26.103902	0.000221	21.066648
1781.537599	-3.008600	3.409600	-10.257000	26.145878	0.000220	21.038183
1782.550903	-3.006400	3.409600	-10.249000	26.119318	0.000221	21.060328
1783.535589	-2.997000	3.409900	-10.219000	26.118136	0.000221	21.042075
1784.545001	-2.999100	3.408500	-10.222000	26.092394	0.000221	21.070257
1785.546849	-2.990700	3.407100	-10.188000	26.085394	0.000221	21.054218
1786.542958	-2.999000	3.407700	-10.219000	26.078419	0.000221	21.056219
1787.521115	-2.969400	3.409000	-10.122000	26.088117	0.000219	21.055531
1788.524789	-3.019500	3.407600	-10.288000	26.050281	0.000219	21.069196
1789.526005	-2.989600	3.405900	-10.181000	26.108793	0.000219	21.069665
1790.519638	-2.995500	3.406200	-10.203000	26.110603	0.000218	21.053469
1791.527942	-2.992400	3.406700	-10.194000	26.086432	0.000218	21.063794
1792.523154	-2.975700	3.406500	-10.136000	26.089212	0.000215	21.074171
1793.526525	-3.007000	3.406600	-10.242000	26.102550	0.000218	21.080459
1794.523513	-3.004600	3.404500	-10.229000	26.086692	0.000215	21.048885
1795.525889	-3.000300	3.404700	-10.214000	26.093034	0.000218	21.071374
1796.524318	-3.012100	3.405800	-10.257000	26.093952	0.000217	21.073244
1797.524805	-2.990900	3.405100	-10.184000	26.107083	0.000214	21.079324
1798.543323	-3.003100	3.403600	-10.220000	26.115841	0.000215	21.089070
1799.522673	-2.985700	3.404000	-10.162000	26.151124	0.000217	21.093701
1800.524102	-2.997300	3.404100	-10.202000	26.175038	0.000216	21.094024
1801.526150	-2.999000	3.404500	-10.208000	26.207643	0.000214	21.082220
1802.526803	-2.993300	3.402000	-10.182000	26.228374	0.000215	21.093566
1803.544259	-3.020300	3.403100	-10.277000	26.242612	0.000215	21.079902
1804.527924	-3.004700	3.402600	-10.223000	26.211807	0.000213	21.092566
1805.528938	-3.002200	3.402100	-10.213000	26.172959	0.000214	21.102364
1806.543534	-2.979100	3.402800	-10.137000	26.203522	0.000212	21.104626
1807.548825	-3.007200	3.401200	-10.227000	26.205331	0.000213	21.100755
1808.550077	-3.004700	3.400600	-10.217000	26.197098	0.000213	21.074944
1809.549310	-2.996700	3.401300	-10.192000	26.167102	0.000213	21.080837
1810.531401	-3.020300	3.400600	-10.269000	26.188552	0.000214	21.101912
1811.533137	-2.985700	3.401200	-10.154000	26.184695	0.000213	21.097641
1812.557686	-3.005500	3.400000	-10.217000	26.192478	0.000215	21.100168
1813.552193	-3.017200	3.399200	-10.255000	26.223226	0.000212	21.081759
1814.547802	-2.990000	3.399100	-10.162000	26.211711	0.000211	21.101476
1815.564378	-3.015900	3.398400	-10.248000	26.250060	0.000210	21.102081
1816.555874	-2.988100	3.399200	-10.156000	26.253203	0.000212	21.106186
1817.554784	-3.007100	3.398400	-10.219000	26.266673	0.000210	21.081323
1818.533695	-3.011600	3.397900	-10.232000	26.219940	0.000209	21.086516
1819.564136	-3.007000	3.398000	-10.217000	26.186668	0.000211	21.105233
1820.563777	-3.019700	3.397100	-10.257000	26.215975	0.000211	21.101967
1821.554113	-3.006500	3.396800	-10.211000	26.196573	0.000209	21.086267
1822.532941	-2.998000	3.397700	-10.185000	26.203127	0.000210	21.094748
1823.533968	-2.994200	3.397100	-10.170000	26.243125	0.000210	21.108386
1824.531607	-2.995800	3.396800	-10.175000	26.219736	0.000207	21.084888
1825.533764	-2.999000	3.396100	-10.184000	26.211585	0.000208	21.088550
1826.530668	-2.984700	3.396500	-10.137000	26.206685	0.000208	21.099744
1827.534644	-3.026300	3.396200	-10.277000	26.155195	0.000210	21.108220
1828.535715	-3.014000	3.394600	-10.230000	26.165230	0.000208	21.100288
1829.539044	-2.978500	3.394100	-10.108000	26.199676	0.000208	21.107398
1830.534782	-3.001200	3.393800	-10.183000	26.217792	0.000207	21.072507
1831.534693	-2.976900	3.394500	-10.104000	26.225965	0.000208	21.068866
1832.534750	-2.983800	3.395100	-10.129000	26.240462	0.000208	21.088171
1833.563348	-2.985800	3.393600	-10.131000	26.212671	0.000207	21.079686
1834.537348	-2.987400	3.395000	-10.141000	26.210679	0.000206	21.073420
1835.540417	-2.986500	3.394400	-10.136000	26.226250	0.000205	21.074842
1836.535190	-2.994000	3.392900	-10.158000	26.212904	0.000205	21.063804
1837.537250	-3.003500	3.393500	-10.191000	26.245513	0.000206	21.064804
1838.537057	-3.006000	3.392600	-10.197000	26.275057	0.000206	21.058933
1839.535015	-3.020400	3.391500	-10.243000	26.283493	0.000206	21.080682
1840.554371	-2.973900	3.392600	-10.088000	26.333686	0.000203	21.082761
1841.564049	-2.995500	3.391800	-10.160000	26.341655	0.000205	21.073702
1842.535326	-3.009600	3.390700	-10.204000	26.343304	0.000205	21.054501
1843.534727	-3.016800	3.391500	-10.231000	26.399653	0.000205	21.064665
1844.535517	-3.025300	3.391200	-10.258000	26.371663	0.000204	21.068300
1845.535668	-3.001600	3.388400	-10.170000	26.334599	0.000203	21.068983
1846.538420	-3.000000	3.388100	-10.163000	26.272611	0.000202	21.058372
1847.537047	-2.995000	3.387900	-10.146000	26.233159	0.000201	21.057132
1848.537177	-2.992000	3.388900	-10.139000	26.222696	0.000202	21.057523
1849.538420	-3.015100	3.387500	-10.213000	26.214731	0.000201	21.076068
1850.558680	-2.996100	3.388200	-10.151000	26.189567	0.000200	21.063112
1851.567129	-2.986800	3.387700	-10.117000	26.177792	0.000202	21.068822
1852.563242	-3.003800	3.387700	-10.175000	26.220813	0.000201	21.061320
1853.563975	-2.986600	3.387300	-10.116000	26.216432	0.000200	21.063555
1854.544326	-2.999100	3.387100	-10.158000	26.220596	0.000200	21.047829
1855.543789	-2.985200	3.386000	-10.107000	26.203692	0.000200	21.054549
1856.565916	-3.014400	3.385700	-10.205000	26.215120	0.000201	21.046120
1857.542154	-2.974800	3.385500	-10.070000	26.180878	0.000200	21.063390
1858.554059	-2.967300	3.385700	-10.045000	26.210423	0.000199	21.044719
1859.568454	-2.977300	3.387200	-10.084000	26.255538	0.000201	21.047855
1860.565740	-2.983600	3.386300	-10.103000	26.257213	0.000197	21.052857
1861.544117	-3.009900	3.383100	-10.182000	26.201692	0.000198	21.064864
1862.575769	-2.973200	3.385600	-10.065000	26.194168	0.000198	21.040714
1863.554453	-2.975600	3.385000	-10.071000	26.210549	0.000199	21.052904
1864.571797	-3.009100	3.383700	-10.181000	26.264940	0.000199	21.042131
1865.550394	-3.004500	3.382600	-10.162000	26.297936	0.000197	21.046841
1866.547706	-3.002800	3.382500	-10.156000	26.346636	0.000196	21.039835
1867.562330	-3.012800	3.383900	-10.194000	26.369675	0.000194	21.044023
1868.564265	-2.989600	3.382500	-10.110000	26.363148	0.000197	21.034620
1869.573614	-3.003700	3.382800	-10.159000	26.366472	0.000196	21.040805
1870.576207	-3.017800	3.381300	-10.203000	26.306792	0.000194	21.036777
1871.550840	-3.003400	3.381700	-10.154000	26.285929	0.000195	21.030984
1872.580826	-2.985700	3.380000	-10.091000	26.289647	0.000195	21.031876
1873.573356	-3.009000	3.381400	-10.174000	26.306399	0.000195	21.027849
1874.572299	-3.035900	3.380300	-10.261000	26.331374	0.000195	21.033507
1875.554436	-3.016700	3.378900	-10.192000	26.322409	0.000195	21.041566
1876.553296	-3.000000	3.379900	-10.138000	26.353812	0.000194	21.027135
1877.549257	-3.042000	3.377600	-10.273000	26.362356	0.000193	21.051364
1878.557131	-3.018000	3.378700	-10.196000	26.354175	0.000194	21.044566
1879.553687	-2.976800	3.379500	-10.059000	26.327703	0.000192	21.049729
1880.552289	-3.012900	3.377800	-10.175000	26.373934	0.000193	21.029814
1881.555012	-2.980000	3.378100	-10.066000	26.364580	0.000193	21.033215
1882.557167	-3.008800	3.378800	-10.165000	26.314800	0.000192	21.045297
1883.554887	-3.002000	3.377600	-10.138000	26.319938	0.000192	21.025808
1884.557106	-2.994500	3.377100	-10.112000	26.322582	0.000192	21.028940
1885.551437	-2.969500	3.378900	-10.032000	26.375184	0.000192	21.023012
1886.550714	-2.986400	3.376900	-10.084000	26.356988	0.000191	21.024638
1887.556123	-2.981700	3.377400	-10.070000	26.332771	0.000193	21.053873
1888.560624	-3.005500	3.377500	-10.150000	26.344172	0.000190	21.041152
1889.556958	-3.012000	3.377100	-10.171000	26.337247	0.000189	21.047467
1890.555884	-3.005900	3.376300	-10.148000	26.279479	0.000192	21.034933
1891.572118	-3.019600	3.376500	-10.195000	26.293105	0.000190	21.038668
1892.575230	-2.986100	3.374900	-10.077000	26.283327	0.000189	21.034532
1893.557610	-3.049200	3.373700	-10.286000	26.297109	0.000191	21.013774
1894.552829	-2.999100	3.374400	-10.119000	26.322478	0.000191	21.025516
1895.552941	-3.008300	3.373400	-10.147000	26.344310	0.000187	21.028017
1896.557436	-3.012600	3.373700	-10.163000	26.346509	0.000190	21.043500
1897.561243	-3.008900	3.374400	-10.152000	26.341289	0.000188	21.024981
1898.583556	-3.001700	3.372300	-10.122000	26.391579	0.000189	21.030952
1899.570886	-3.002300	3.373600	-10.128000	26.397742	0.000187	21.020080
1900.551812	-2.987400	3.373400	-10.077000	26.430968	0.000186	21.032135
1901.555236	-3.000200	3.372700	-10.118000	26.443333	0.000188	21.039346
1902.558472	-2.986900	3.372800	-10.074000	26.351075	0.000188	21.034340
1903.555532	-3.012900	3.370300	-10.153000	26.387138	0.000186	21.013216
1904.557939	-3.000000	3.370800	-10.112000	26.395811	0.000186	21.020510
1905.572223	-3.003000	3.370800	-10.122000	26.391877	0.000186	21.037415
1906.556725	-2.984500	3.370600	-10.059000	26.357749	0.000186	21.011655
1907.556411	-3.012200	3.370100	-10.151000	26.349802	0.000184	21.032587
1908.555759	-3.006700	3.370800	-10.134000	26.313214	0.000187	21.042756
1909.560297	-3.041200	3.369000	-10.245000	26.307440	0.000187	21.025576
1910.560099	-3.002500	3.369500	-10.116000	26.326442	0.000184	21.025233
1911.560683	-2.994700	3.370000	-10.091000	26.305626	0.000185	21.026124
1912.558633	-3.004400	3.369600	-10.122000	26.268535	0.000184	21.033418
1913.563260	-3.016000	3.369200	-10.160000	26.281088	0.000184	21.011424
1914.569170	-3.007900	3.367700	-10.129000	26.364492	0.000184	21.032652
1915.582119	-2.984400	3.368900	-10.053000	26.390280	0.000182	21.018270
1916.584753	-2.985200	3.369000	-10.056000	26.401541	0.000181	21.046652
1917.564417	-2.983400	3.368300	-10.048000	26.352503	0.000182	21.026768
1918.581387	-2.993700	3.368400	-10.083000	26.323853	0.000181	21.021684
1919.563228	-2.983200	3.365800	-10.040000	26.305293	0.000182	21.004456
1920.583432	-3.008300	3.366300	-10.126000	26.296986	0.000182	21.025502
1921.578229	-3.005900	3.365700	-10.116000	26.319789	0.000184	21.028503
1922.562697	-2.977800	3.367100	-10.025000	26.329350	0.000181	21.010615
1923.566699	-2.993300	3.364900	-10.071000	26.375031	0.000181	21.030917
1924.564265	-2.994700	3.365800	-10.078000	26.407687	0.000181	21.013481
1925.584546	-2.991400	3.364600	-10.064000	26.427345	0.000181	21.046509
1926.583388	-2.987600	3.365900	-10.055000	26.402442	0.000178	21.027172
1927.588372	-3.007500	3.364500	-10.118000	26.353403	0.000178	21.033835
1928.587423	-2.993300	3.365500	-10.073000	26.321161	0.000178	21.027986
1929.585011	-2.995400	3.362700	-10.072000	26.339479	0.000180	21.021740
1930.589423	-2.990300	3.364000	-10.059000	26.365371	0.000177	21.026898
1931.587174	-3.016000	3.363900	-10.145000	26.405783	0.000180	21.019627
1932.590126	-3.006300	3.363500	-10.110000	26.448262	0.000179	21.018226
1933.588694	-2.996700	3.362200	-10.074000	26.428315	0.000180	21.015247
1934.569807	-3.012500	3.361500	-10.126000	26.411461	0.000178	21.005896
1935.566812	-3.005200	3.363200	-10.106000	26.409232	0.000177	21.016930
1936.593482	-3.001500	3.362200	-10.091000	26.396542	0.000176	21.015082
1937.567314	-3.000200	3.361200	-10.083000	26.420286	0.000176	21.023771
1938.605126	-3.000400	3.361900	-10.086000	26.439992	0.000175	21.052580
1939.596765	-3.009100	3.360100	-10.110000	26.449583	0.000175	21.016708
1940.572712	-2.994700	3.360800	-10.063000	26.431414	0.000176	21.024524
1941.593867	-2.995500	3.361100	-10.067000	26.475104	0.000175	21.021497
1942.593626	-3.001700	3.360800	-10.086000	26.493103	0.000174	21.017778
1943.596872	-2.999000	3.360800	-10.078000	26.529451	0.000177	21.041981
1944.586023	-2.993200	3.360100	-10.057000	26.562596	0.000172	21.001338
1945.574683	-3.002200	3.359100	-10.084000	26.564712	0.000174	21.031909
1946.575300	-2.990300	3.359300	-10.044000	26.571160	0.000174	21.013264
1947.577272	-2.998500	3.358200	-10.069000	26.548696	0.000175	21.012020
1948.605617	-3.023700	3.356300	-10.147000	26.484725	0.000173	21.012677
1949.582854	-2.989200	3.357600	-10.036000	26.466038	0.000173	21.021867
1950.600177	-3.023300	3.356400	-10.146000	26.466271	0.000173	21.016413
1951.577169	-2.990600	3.356300	-10.036000	26.435894	0.000172	21.033292
1952.575463	-2.996400	3.355900	-10.055000	26.488257	0.000174	21.012434
1953.593885	-2.998800	3.356700	-10.065000	26.508407	0.000172	21.035528
1954.598373	-3.005600	3.354500	-10.081000	26.437776	0.000170	21.024755
1955.595490	-3.006600	3.356300	-10.090000	26.414976	0.000172	21.019384
1956.602335	-3.007000	3.354300	-10.086000	26.417249	0.000169	21.021667
1957.606075	-3.017900	3.353100	-10.119000	26.381845	0.000170	21.029704
1958.598366	-2.985800	3.354800	-10.016000	26.400845	0.000168	21.006132
1959.599545	-2.954600	3.355600	-9.913300	26.425039	0.000170	21.000104
1960.595649	-2.992700	3.355200	-10.040000	26.433102	0.000168	21.012473
1961.599446	-3.010800	3.354100	-10.098000	26.418612	0.000168	21.025881
1962.604661	-2.993100	3.354000	-10.038000	26.397071	0.000169	21.019880
1963.597598	-3.002300	3.352800	-10.065000	26.371829	0.000170	21.017270
1964.600426	-2.996800	3.353900	-10.050000	26.403044	0.000166	21.040103
1965.598218	-2.993300	3.353300	-10.037000	26.430016	0.000167	21.016009
1966.600418	-2.999500	3.353000	-10.057000	26.430618	0.000168	21.020406
1967.605354	-2.998600	3.352200	-10.051000	26.452028	0.000170	21.010159
1968.597727	-2.994900	3.352300	-10.039000	26.474438	0.000167	21.009924
1969.601902	-3.010600	3.351800	-10.091000	26.476875	0.000168	21.010477
1970.583379	-3.018800	3.350900	-10.115000	26.498968	0.000167	21.013717
1971.583381	-3.007100	3.351700	-10.077000	26.524441	0.000165	21.017509
1972.581970	-3.016300	3.349900	-10.103000	26.530863	0.000166	21.010216
1973.586104	-3.017300	3.349200	-10.105000	26.565271	0.000165	21.005449
1974.586286	-3.017300	3.349200	-10.104000	26.576829	0.000165	21.020858
1975.581410	-2.970600	3.349400	-9.948000	26.638883	0.000165	21.021123
1976.584898	-2.993400	3.349100	-10.025000	26.631258	0.000165	21.018675
1977.583691	-2.997200	3.348600	-10.035000	26.559009	0.000163	21.007215
1978.608372	-3.010400	3.348600	-10.080000	26.525652	0.000166	21.032949
1979.586213	-3.017600	3.348400	-10.103000	26.510350	0.000163	21.003348
1980.603949	-2.986800	3.347800	-9.998000	26.485400	0.000162	21.003400
1981.609072	-2.999500	3.347800	-10.040000	26.563051	0.000164	20.999425
1982.590769	-2.994600	3.348300	-10.026000	26.603278	0.000162	21.001930
1983.588231	-3.002200	3.346700	-10.047000	26.588288	0.000162	21.009145
1984.591955	-2.995800	3.347100	-10.026000	26.597172	0.000163	21.023763
1985.595813	-2.993000	3.347200	-10.018000	26.629484	0.000162	21.008832
1986.586188	-2.989500	3.346000	-10.002000	26.625710	0.000162	21.010729
1987.612289	-3.007400	3.345800	-10.061000	26.627234	0.000160	21.001356
1988.608462	-3.017400	3.344300	-10.090000	26.574800	0.000161	21.005070
1989.614317	-2.986800	3.345000	-9.990000	26.516676	0.000162	21.015869
1990.609236	-3.005000	3.343500	-10.047000	26.456953	0.000160	20.980501
1991.590927	-3.012900	3.344300	-10.075000	26.426078	0.000158	21.011577
1992.590658	-2.983800	3.344300	-9.977900	26.394946	0.000161	21.004470
1993.614050	-2.993000	3.344400	-10.008000	26.441754	0.000159	20.994145
1994.594047	-2.971200	3.344900	-9.937500	26.487460	0.000160	20.983663
1995.595481	-3.002100	3.343300	-10.036000	26.519883	0.000162	21.002500
1996.598312	-2.985300	3.344000	-9.982100	26.555157	0.000159	21.000973
1997.592906	-3.006200	3.342000	-10.046000	26.532593	0.000159	20.996785
1998.621047	-2.992000	3.343400	-10.003000	26.527850	0.000157	20.983010
1999.616866	-2.990100	3.342700	-9.993900	26.542945	0.000158	20.993914
2000.614563	-2.996800	3.341800	-10.014000	26.597899	0.000156	21.001738
2001.612629	-3.005400	3.342300	-10.043000	26.561921	0.000157	20.990230
2002.596651	-2.999900	3.341400	-10.023000	26.581208	0.000156	20.994445
2003.644114	-3.004600	3.341200	-10.039000	26.584904	0.000157	21.000529
2004.618407	-2.997100	3.340500	-10.011000	26.582493	0.000157	20.988625
2005.626227	-2.989000	3.341800	-9.987800	26.566166	0.000156	20.999238
2006.621822	-2.977500	3.341600	-9.949100	26.586635	0.000155	20.977617
2007.628013	-3.004200	3.339000	-10.030000	26.611686	0.000155	21.009432
2008.636303	-2.992600	3.339900	-9.993700	26.606129	0.000157	20.974929
2009.643887	-3.026500	3.338700	-10.104000	26.601248	0.000154	20.993253
2010.642162	-2.992000	3.338800	-9.988900	26.560190	0.000154	20.988016
2011.643466	-2.998300	3.338400	-10.009000	26.510319	0.000155	20.971554
2012.642194	-2.986700	3.337700	-9.968500	26.492735	0.000155	20.982327
2013.643489	-2.992500	3.337800	-9.987200	26.484482	0.000156	20.961707
2014.655284	-2.993200	3.336300	-9.985100	26.411778	0.000154	20.982984
2015.652871	-2.996500	3.336900	-9.997800	26.453002	0.000154	20.959937
2016.649350	-2.993700	3.336500	-9.987700	26.469932	0.000154	21.003500
2017.636783	-2.987000	3.336800	-9.965800	26.485915	0.000154	20.975947
2018.644109	-3.005600	3.336300	-10.027000	26.523051	0.000153	20.991461
2019.658414	-2.993500	3.335300	-9.982700	26.473910	0.000153	20.972415
2020.627018	-2.990300	3.335000	-9.972000	26.488979	0.000151	20.981397
2021.625180	-3.019100	3.333900	-10.065000	26.489607	0.000152	20.973968
2022.628467	-3.016800	3.333800	-10.056000	26.519905	0.000152	20.981188
2023.626213	-3.007500	3.332800	-10.023000	26.537124	0.000151	20.979531
2024.626144	-3.006100	3.334400	-10.023000	26.568040	0.000151	20.991165
2025.622651	-3.018300	3.332100	-10.056000	26.616597	0.000149	20.980710
2026.653879	-2.990400	3.334100	-9.970100	26.637169	0.000149	20.972468
2027.643621	-3.006400	3.333800	-10.022000	26.662400	0.000151	20.980288
2028.620041	-3.028000	3.332000	-10.087000	26.693818	0.000149	20.970149
2029.625267	-3.004800	3.331900	-10.011000	26.701256	0.000149	20.960085
2030.620699	-3.005500	3.332600	-10.016000	26.728533	0.000148	20.943413
2031.623094	-2.978500	3.331000	-9.920600	26.732912	0.000148	20.951608
2032.624300	-3.000700	3.330900	-9.994200	26.763510	0.000149	20.973359
2033.620977	-2.993800	3.331700	-9.974100	26.765816	0.000148	20.985633
2034.626235	-3.009000	3.330500	-10.021000	26.680266	0.000144	20.988765
2035.628625	-3.022000	3.330500	-10.064000	26.626974	0.000147	20.960324
2036.627654	-3.030500	3.330000	-10.090000	26.619449	0.000147	20.972198
2037.630303	-2.983600	3.330800	-9.937100	26.576894	0.000146	20.967827
2038.630592	-2.955200	3.330900	-9.843000	26.649817	0.000146	20.966692
2039.629561	-3.009100	3.328600	-10.015000	26.647433	0.000145	20.976621
2040.626806	-2.991500	3.328800	-9.956200	26.686004	0.000143	20.959924
2041.632786	-3.001300	3.328100	-9.987700	26.691690	0.000144	20.976069
2042.626175	-3.001100	3.328200	-9.987800	26.729550	0.000145	20.960081
2043.634902	-3.006900	3.328100	-10.006000	26.712156	0.000145	20.952078
2044.630392	-3.000400	3.328700	-9.985100	26.753524	0.000143	20.948150
2045.630420	-3.014500	3.326900	-10.028000	26.750171	0.000143	20.956632
2046.641459	-2.993400	3.328200	-9.961400	26.712571	0.000143	20.969562
2047.639215	-3.010000	3.326300	-10.011000	26.646386	0.000144	20.965613
2048.623914	-3.000900	3.327400	-9.983400	26.665883	0.000143	20.966722
2049.643261	-3.016900	3.326500	-10.035000	26.698219	0.000144	20.956557
2050.633032	-3.002600	3.325900	-9.985900	26.688938	0.000144	20.961451
2051.646914	-3.003700	3.324800	-9.985900	26.703667	0.000141	20.952552
2052.635309	-3.012800	3.325000	-10.017000	26.702801	0.000142	20.965904
2053.634396	-2.981500	3.324600	-9.911500	26.698872	0.000141	20.960533
2054.636753	-3.017800	3.323500	-10.028000	26.762095	0.000141	20.966248
2055.627707	-3.008000	3.323600	-9.996200	26.779073	0.000141	20.945862
2056.662611	-3.009600	3.324000	-10.003000	26.832466	0.000141	20.947389
2057.618303	-2.981000	3.324900	-9.910800	26.872627	0.000143	20.962638
2058.613384	-2.993200	3.322900	-9.945700	26.904662	0.000139	20.943170
2059.609111	-3.002800	3.322700	-9.976200	26.902201	0.000140	20.944962
2060.611003	-2.976600	3.324000	-9.893500	26.890442	0.000138	20.941200
2061.646338	-3.017300	3.322300	-10.024000	26.871736	0.000139	20.948942
2062.626185	-3.028000	3.320800	-10.053000	26.873436	0.000139	20.951125
2063.634935	-3.004300	3.321300	-9.976800	26.859134	0.000140	20.951443
2064.615750	-2.997600	3.321200	-9.954700	26.862197	0.000139	20.945514
2065.613543	-3.012200	3.321000	-10.003000	26.862435	0.000139	20.981784
2066.641003	-3.007800	3.320400	-9.986400	26.846869	0.000140	20.939586
2067.617145	-3.000200	3.320600	-9.961700	26.809856	0.000138	20.938407
2068.618499	-3.009600	3.320600	-9.992800	26.789310	0.000136	20.930552
2069.617270	-3.012100	3.319000	-9.996300	26.757185	0.000135	20.941874
2070.617339	-3.010000	3.318900	-9.988900	26.711858	0.000138	20.952726
2071.612168	-2.994400	3.319000	-9.937700	26.720455	0.000138	20.940034
2072.616659	-3.001500	3.317900	-9.957900	26.714531	0.000137	20.924598
2073.627970	-3.007100	3.319600	-9.981300	26.728892	0.000136	20.945671
2074.619481	-2.998500	3.318300	-9.949200	26.766435	0.000135	20.935054
2075.640938	-3.009500	3.319000	-9.986800	26.779926	0.000135	20.938660
2076.614070	-2.996700	3.318400	-9.942700	26.796167	0.000135	20.938394
2077.643808	-3.016000	3.316900	-10.003000	26.798530	0.000134	20.916116
2078.636948	-3.005000	3.315100	-9.960700	26.754273	0.000134	20.935154
2079.629753	-2.998600	3.315900	-9.942400	26.749189	0.000134	20.928621
2080.640504	-2.996800	3.315200	-9.934100	26.788276	0.000135	20.908652
2081.614902	-3.001600	3.316500	-9.953900	26.830771	0.000133	20.957062
2082.633680	-2.971000	3.315800	-9.850100	26.860267	0.000134	20.914181
2083.644725	-3.004500	3.315500	-9.960700	26.826133	0.000132	20.925376
2084.644266	-2.996300	3.315100	-9.932500	26.769148	0.000132	20.912180
2085.645167	-2.991600	3.315200	-9.917100	26.775668	0.000131	20.917786
2086.648094	-3.003800	3.315400	-9.958000	26.788164	0.000132	20.908065
2087.618142	-3.000900	3.314400	-9.945400	26.802095	0.000132	20.924916
2088.638353	-3.010200	3.313200	-9.972800	26.828638	0.000133	20.949229
2089.638334	-2.986700	3.313900	-9.896900	26.899887	0.000132	20.935050
2090.624502	-3.016800	3.312000	-9.990600	26.919774	0.000131	20.919962
2091.622775	-2.978300	3.312900	-9.865700	26.964668	0.000131	20.922906
2092.621696	-3.004100	3.310800	-9.945100	26.946803	0.000131	20.925803
2093.623647	-2.994900	3.312000	-9.918200	26.913925	0.000130	20.936838
2094.620035	-2.990400	3.311300	-9.901500	26.886290	0.000132	20.919009
2095.622070	-3.018300	3.311700	-9.993600	26.848873	0.000130	20.929274
2096.656259	-2.963100	3.311200	-9.810800	26.877742	0.000130	20.926534
2097.619215	-3.003200	3.310600	-9.942200	26.855496	0.000130	20.910806
2098.622105	-3.021000	3.310200	-9.998900	26.861099	0.000129	20.922602
2099.630905	-2.984500	3.309400	-9.876200	26.885196	0.000129	20.917435
2100.644521	-3.004600	3.311100	-9.948300	26.866230	0.000130	20.938665
2101.644578	-2.978000	3.309700	-9.854900	26.842989	0.000128	20.920041
2102.625082	-3.000800	3.308100	-9.925800	26.824598	0.000128	20.937108
2103.647227	-2.992500	3.308200	-9.899200	26.876336	0.000126	20.899519
2104.624681	-2.983900	3.307300	-9.867900	26.851132	0.000128	20.928701
2105.645743	-3.003700	3.307400	-9.933600	26.845447	0.000126	20.918719
2106.622242	-2.978500	3.308600	-9.852800	26.904283	0.000127	20.897275
2107.629178	-3.009600	3.306900	-9.951800	26.905218	0.000125	20.936617
2108.626357	-3.013600	3.306900	-9.964600	26.912377	0.000128	20.927222
2109.653736	-3.004600	3.306300	-9.932400	26.906347	0.000124	20.911677
2110.650590	-3.016400	3.305500	-9.969100	26.942759	0.000125	20.926478
2111.656235	-3.005700	3.305500	-9.934300	26.944040	0.000124	20.936774
2112.627917	-3.003300	3.305000	-9.924800	26.914882	0.000125	20.888019
2113.627113	-2.987100	3.306200	-9.875700	26.897803	0.000123	20.904035
2114.652269	-2.978600	3.305200	-9.844200	26.893088	0.000124	20.918258
2115.627113	-3.004100	3.303900	-9.924500	26.899110	0.000122	20.908193
2116.650517	-2.991000	3.304100	-9.881700	26.911314	0.000125	20.911455
2117.672774	-3.003000	3.304600	-9.922600	26.881896	0.000122	20.918858
2118.645188	-2.988400	3.304000	-9.872500	26.804243	0.000124	20.910955
2119.646569	-2.988900	3.303800	-9.873400	26.818550	0.000123	20.900686
2120.649517	-2.996400	3.302300	-9.893700	26.861303	0.000125	20.922334
2121.647278	-3.014500	3.303200	-9.956800	26.838214	0.000122	20.883474
2122.663752	-3.010000	3.302200	-9.938700	26.823206	0.000123	20.916745
2123.630679	-3.013200	3.300200	-9.943600	26.846495	0.000123	20.918350
2124.628591	-3.004800	3.300800	-9.917900	26.914554	0.000122	20.899068
2125.631541	-3.003900	3.301200	-9.915400	26.955525	0.000122	20.901860
2126.654742	-3.006600	3.300900	-9.923700	26.970090	0.000121	20.918402
2127.648821	-2.966200	3.302000	-9.793800	27.012180	0.000122	20.921847
2128.655663	-2.983700	3.299600	-9.844500	27.026143	0.000121	20.903648
2129.660191	-3.017000	3.299000	-9.951900	27.009455	0.000120	20.890186
2130.655559	-2.996600	3.298900	-9.884300	27.014096	0.000118	20.890586
2131.654531	-3.001600	3.298700	-9.900400	27.038294	0.000120	20.904962
2132.655597	-2.976600	3.298000	-9.815700	27.072210	0.000119	20.894501
2133.636797	-2.982600	3.298300	-9.835900	27.088663	0.000118	20.880230
2134.634685	-2.985700	3.299500	-9.850500	27.092539	0.000118	20.896928
2135.633425	-3.018000	3.297100	-9.949400	27.041144	0.000120	20.895502
2136.634242	-2.990500	3.298400	-9.863100	27.049397	0.000117	20.905223
2137.634342	-2.998500	3.296700	-9.884200	26.962668	0.000118	20.881544
2138.655050	-2.990400	3.296200	-9.855100	26.952978	0.000116	20.904514
2139.631294	-3.003700	3.297300	-9.904200	26.939849	0.000116	20.887520
2140.629718	-2.989900	3.295700	-9.852900	26.917743	0.000118	20.883309
2141.634071	-3.017000	3.294600	-9.938700	26.922878	0.000117	20.895110
2142.633407	-3.004900	3.296000	-9.902600	26.909177	0.000116	20.892713
2143.632970	-2.978600	3.295600	-9.815600	26.973461	0.000116	20.898559
2144.633004	-3.008800	3.294800	-9.912400	27.022185	0.000116	20.904410
2145.630495	-2.990200	3.294600	-9.850600	27.081851	0.000118	20.863897
2146.632926	-2.978000	3.293900	-9.808100	27.136254	0.000113	20.878307
2147.640243	-3.012000	3.292800	-9.917200	27.111683	0.000112	20.892000
2148.654456	-3.003100	3.293300	-9.889100	27.058827	0.000115	20.883888
2149.653193	-2.983500	3.292700	-9.822600	27.047645	0.000113	20.863635
2150.657207	-3.005700	3.293600	-9.899200	27.026476	0.000113	20.887390
2151.667769	-3.013400	3.292000	-9.919600	27.044579	0.000114	20.884258
2152.663470	-2.994900	3.292700	-9.860200	27.053848	0.000113	20.889312
2153.635323	-3.008000	3.289100	-9.892800	27.079178	0.000112	20.894871
2154.642214	-2.998100	3.289900	-9.862200	27.111263	0.000114	20.882570
2155.636060	-3.019200	3.290200	-9.932600	27.155185	0.000111	20.883123
2156.661650	-2.982900	3.290600	-9.815200	27.094416	0.000113	20.876059
2157.634015	-2.998400	3.290700	-9.866000	27.061124	0.000113	20.894258
2158.632935	-3.002600	3.290700	-9.880300	27.030296	0.000112	20.889334
2159.639225	-3.007900	3.289100	-9.892400	27.032052	0.000112	20.871187
2160.637113	-2.987900	3.289300	-9.826900	27.073668	0.000111	20.883166
2161.642019	-2.978100	3.287500	-9.789600	27.099287	0.000111	20.881431
2162.637881	-2.984800	3.288700	-9.814900	27.089096	0.000109	20.885881
2163.641166	-2.983300	3.289600	-9.813800	27.108292	0.000110	20.873893
2164.666589	-2.964800	3.288300	-9.748400	27.084879	0.000108	20.901553
2165.659547	-3.011500	3.287300	-9.898800	27.070995	0.000108	20.880478
2166.654112	-2.981300	3.286500	-9.796600	27.068430	0.000110	20.892597
2167.660006	-2.997000	3.286000	-9.845900	27.052897	0.000107	20.882192
2168.661804	-3.013300	3.286100	-9.901600	27.042706	0.000107	20.901814
2169.638251	-2.990000	3.285600	-9.823300	27.012925	0.000108	20.874237
2170.640728	-2.980100	3.285000	-9.789100	27.056877	0.000107	20.883823
2171.637013	-3.009200	3.284200	-9.882200	27.027147	0.000107	20.866729
2172.657078	-2.992200	3.283500	-9.823500	27.018630	0.000106	20.884241
2173.660434	-2.998000	3.284000	-9.844700	27.061120	0.000106	20.889039
2174.659759	-2.976200	3.283700	-9.771800	27.070022	0.000107	20.887086
2175.658745	-3.002000	3.283500	-9.856300	27.102133	0.000106	20.878130
2176.669270	-3.012200	3.282400	-9.886600	27.106324	0.000107	20.891353
2177.658700	-2.970700	3.283400	-9.753000	27.131415	0.000107	20.890983
2178.662131	-2.994800	3.282700	-9.830400	27.150558	0.000103	20.902649
2179.668622	-2.981400	3.281600	-9.782400	27.144607	0.000106	20.874381
2180.640596	-2.999700	3.280300	-9.838800	27.174913	0.000103	20.893006
2181.644680	-2.991500	3.281100	-9.813900	27.217262	0.000105	20.887238
2182.643085	-2.990600	3.280700	-9.811100	27.274927	0.000103	20.886447
2183.640476	-2.987300	3.280900	-9.799900	27.277206	0.000105	20.872145
2184.640990	-2.994900	3.279900	-9.822600	27.275369	0.000104	20.886891
2185.643038	-3.021600	3.278600	-9.905200	27.317135	0.000104	20.879118
2186.647340	-3.004300	3.279600	-9.851900	27.287810	0.000103	20.882336
2187.645530	-2.999000	3.277100	-9.827100	27.317424	0.000103	20.888417
2188.644224	-2.999000	3.277700	-9.829000	27.321537	0.000101	20.895399
2189.643567	-3.019200	3.276900	-9.892300	27.341070	0.000103	20.881384
2190.644359	-3.000100	3.277200	-9.830900	27.320590	0.000104	20.889231
2191.665183	-2.996200	3.276600	-9.816400	27.337433	0.000101	20.889579
2192.657507	-2.995200	3.277500	-9.816300	27.337900	0.000101	20.891945
2193.642716	-3.021500	3.276300	-9.898600	27.347639	0.000102	20.897474
2194.646194	-2.999800	3.277100	-9.829900	27.358921	0.000100	20.891280
2195.663194	-2.993900	3.275800	-9.806100	27.338368	0.000100	20.875347
2196.683889	-2.996500	3.276400	-9.816600	27.330013	0.000101	20.920518
2197.672193	-2.983400	3.275500	-9.771300	27.319302	0.000103	20.900262
2198.678031	-2.993900	3.274600	-9.802800	27.243462	9.902376E-5	20.892254
2199.647635	-3.000700	3.272900	-9.819300	27.277298	9.773667E-5	20.903529
2200.647665	-2.994400	3.274900	-9.805800	27.270145	9.582253E-5	20.893016
2201.660682	-3.010000	3.273900	-9.853400	27.297489	9.971681E-5	20.907717
2202.654905	-3.005100	3.274000	-9.837600	27.300629	9.565751E-5	20.892859
2203.655670	-2.999100	3.271300	-9.809400	27.267918	9.928778E-5	20.913059
2204.650133	-2.991800	3.274000	-9.793800	27.296153	9.803369E-5	20.905899
2205.672387	-2.981300	3.272100	-9.753800	27.306627	9.948579E-5	20.887987
2206.670997	-3.019800	3.270900	-9.876800	27.326865	9.928778E-5	20.896491
2207.655083	-3.006900	3.271400	-9.836000	27.319401	9.859473E-5	20.905103
2208.650572	-2.977000	3.271300	-9.737600	27.328409	9.842972E-5	20.876235
2209.651542	-2.990200	3.269900	-9.777400	27.317576	9.598754E-5	20.911327
2210.676671	-2.985000	3.270600	-9.761200	27.297169	9.836371E-5	20.917352
2211.674840	-3.020400	3.270200	-9.876700	27.318726	9.724163E-5	20.903002
2212.653400	-3.007400	3.269000	-9.831100	27.365542	9.621856E-5	20.908370
2213.651661	-2.986100	3.269300	-9.761300	27.374026	9.578952E-5	20.885613
2214.655130	-3.011700	3.267700	-9.840600	27.397385	9.542650E-5	20.914325
2215.652174	-2.996800	3.268000	-9.792500	27.326294	9.701061E-5	20.897339
2216.652822	-3.012000	3.265300	-9.834500	27.358605	9.575652E-5	20.916090
2217.653502	-3.046700	3.267600	-9.954900	27.331998	9.552551E-5	20.905921
2218.657165	-3.007000	3.265900	-9.820500	27.297143	9.427141E-5	20.909266
2219.650249	-3.016500	3.266800	-9.854200	27.273445	9.526149E-5	20.924781
2220.654408	-3.016200	3.265800	-9.849500	27.283711	9.351236E-5	20.912824
2221.661705	-3.023200	3.265700	-9.872200	27.237386	9.578952E-5	20.910323
2222.653359	-3.002500	3.265600	-9.804300	27.239981	9.526149E-5	20.896813
2223.675601	-2.986200	3.264700	-9.748200	27.175969	9.611955E-5	20.926782
2224.670045	-2.990800	3.263600	-9.759900	27.166700	9.466744E-5	20.896600
2225.654279	-3.014200	3.264700	-9.840000	27.180371	9.410640E-5	20.906082
2226.650338	-2.997900	3.263400	-9.782500	27.187810	9.413940E-5	20.899340
2227.655729	-2.972100	3.265200	-9.703900	27.247419	9.397439E-5	20.919940
2228.689715	-2.984800	3.264100	-9.740700	27.235660	9.298432E-5	20.908113
2229.658574	-3.008300	3.263800	-9.816800	27.242286	9.440342E-5	20.905769
2230.658204	-2.990900	3.262700	-9.756500	27.237334	9.420541E-5	20.915486
2231.661967	-3.001200	3.262400	-9.790100	27.208894	9.229127E-5	20.902528
2232.657460	-3.001300	3.262100	-9.789500	27.219057	9.437042E-5	20.923654
2233.658907	-3.008800	3.260700	-9.809600	27.254174	9.113618E-5	20.920096
2234.660912	-2.989100	3.260500	-9.745100	27.294241	9.318233E-5	20.911562
2235.657673	-3.011300	3.259900	-9.816100	27.276904	9.156522E-5	20.900762
2236.660047	-2.997400	3.259600	-9.769700	27.286098	9.262129E-5	20.919017
2237.664283	-2.986200	3.259000	-9.731000	27.341455	9.437042E-5	20.900736
2238.680382	-2.994500	3.261400	-9.765900	27.378613	9.047614E-5	20.921044
2239.681698	-3.000600	3.259900	-9.781000	27.382937	9.140020E-5	20.904533
2240.682087	-3.005800	3.257000	-9.788700	27.251977	9.258829E-5	20.923102
2241.682919	-2.992700	3.258000	-9.749700	27.250325	8.928805E-5	20.920018
2242.690333	-3.009200	3.257100	-9.800200	27.263974	8.975008E-5	20.935641
2243.662872	-2.976500	3.256100	-9.691400	27.349057	9.064115E-5	20.911227
2244.662412	-2.977500	3.257300	-9.697400	27.385921	9.153221E-5	20.913224
2245.667790	-2.977300	3.256600	-9.694300	27.353325	8.879301E-5	20.932114
2246.664038	-2.991500	3.256500	-9.741400	27.331881	8.842999E-5	20.912915
2247.664345	-3.003400	3.255200	-9.775400	27.410905	9.064115E-5	20.920814
2248.667643	-2.995300	3.254800	-9.748300	27.368486	8.981609E-5	20.921288
2249.662088	-3.018400	3.254200	-9.821200	27.328655	8.720890E-5	20.938590
2250.686504	-2.988300	3.254300	-9.723600	27.341403	8.727490E-5	20.929604
2251.661128	-3.012500	3.254800	-9.803300	27.335622	8.714289E-5	20.925211
2252.664550	-2.977200	3.253100	-9.684600	27.356732	8.859500E-5	20.940282
2253.687586	-2.989000	3.255600	-9.730600	27.349213	8.701088E-5	20.910435
2254.682549	-2.992200	3.252200	-9.729700	27.329576	8.737391E-5	20.912967
2255.690954	-2.987700	3.252200	-9.715700	27.367959	8.684587E-5	20.927395
2256.660178	-3.001100	3.253400	-9.763000	27.436568	8.770393E-5	20.941887
2257.663236	-2.995000	3.253100	-9.742300	27.463164	8.981609E-5	20.928817
2258.666990	-2.986100	3.251200	-9.707500	27.455520	8.869401E-5	20.927764
2259.668670	-2.990700	3.251900	-9.724700	27.451101	8.631783E-5	20.949394
2260.682232	-3.019000	3.249100	-9.808000	27.487831	8.664786E-5	20.926607
2261.683778	-3.012500	3.250600	-9.791200	27.496656	8.595481E-5	20.925054
2262.680742	-2.980500	3.248900	-9.682800	27.515399	8.714289E-5	20.945332
2263.688560	-3.003100	3.250300	-9.760300	27.461936	8.476672E-5	20.941330
2264.666082	-3.005000	3.248800	-9.761400	27.421244	8.621883E-5	20.914146
2265.668258	-2.990600	3.248400	-9.713700	27.441796	8.413967E-5	20.928656
2266.672538	-2.997500	3.247600	-9.733700	27.413491	8.404067E-5	20.936690
2267.664753	-2.981400	3.248300	-9.683200	27.434363	8.390866E-5	20.915964
2268.665741	-3.007200	3.246200	-9.760600	27.461487	8.437069E-5	20.931396
2269.662369	-2.998700	3.246000	-9.732500	27.493664	8.400766E-5	20.925838
2270.665303	-2.989600	3.246100	-9.703900	27.481147	8.440369E-5	20.938847
2271.681811	-3.018300	3.245600	-9.794700	27.429278	8.262156E-5	20.939295
2272.698039	-2.981700	3.244800	-9.674700	27.421422	8.371064E-5	20.918591
2273.684285	-3.009700	3.244800	-9.764100	27.447050	8.347963E-5	20.947690
2274.661017	-3.012400	3.245400	-9.776100	27.507483	8.380965E-5	20.964392
2275.677269	-2.990400	3.244000	-9.700400	27.591289	8.400766E-5	20.942505
2276.688602	-3.025900	3.242900	-9.811900	27.583589	8.248955E-5	20.955145
2277.683008	-2.998800	3.244800	-9.729700	27.541358	8.417268E-5	20.965758
2278.680562	-3.021900	3.241700	-9.795000	27.480460	8.087243E-5	20.935786
2279.691169	-3.007800	3.241800	-9.749400	27.407927	8.110345E-5	20.936308
2280.685599	-2.999400	3.242000	-9.723100	27.386722	8.103745E-5	20.962861
2281.667407	-3.009900	3.241600	-9.756000	27.403374	8.377665E-5	20.930305
2282.670215	-2.976100	3.241700	-9.646800	27.402301	8.222553E-5	20.958620
2283.690564	-3.014900	3.239000	-9.765100	27.452520	8.070742E-5	20.944185
2284.667752	-3.008500	3.240900	-9.749300	27.471895	7.955234E-5	20.939496
2285.667600	-2.993600	3.240700	-9.700200	27.514284	8.130147E-5	20.946581
2286.691422	-2.984300	3.239000	-9.665200	27.506117	8.021239E-5	20.961121
2287.693350	-2.996600	3.239700	-9.706100	27.539262	8.037740E-5	20.959382
2288.688694	-3.021400	3.239800	-9.788100	27.571463	8.199452E-5	20.961435
2289.698993	-2.993400	3.238800	-9.694400	27.571778	8.027839E-5	20.952270
2290.672190	-2.999900	3.238800	-9.715400	27.589106	7.909030E-5	20.952162
2291.690566	-2.985000	3.236900	-9.660800	27.528760	7.869428E-5	20.967780
2292.697500	-2.997500	3.238000	-9.703800	27.538972	8.004737E-5	20.951505
2293.694411	-2.993100	3.238800	-9.693300	27.547900	7.948633E-5	20.960012
2294.698258	-3.008600	3.235200	-9.732100	27.623614	8.064142E-5	20.983086
2295.695737	-3.020200	3.234800	-9.769000	27.648740	7.961834E-5	20.953371
2296.674640	-3.000500	3.235600	-9.707500	27.674657	7.958534E-5	20.969016
2297.674199	-3.008100	3.234400	-9.728600	27.674004	8.050941E-5	20.954610
2298.690011	-2.998700	3.233800	-9.696300	27.630337	7.925532E-5	20.976101
2299.696961	-3.002300	3.233100	-9.706200	27.631984	7.866127E-5	20.970173
2300.675879	-2.997000	3.234200	-9.692200	27.643583	7.697815E-5	20.966672
2301.676854	-3.023700	3.232400	-9.772700	27.664921	7.661512E-5	20.965384
2302.675993	-2.970900	3.233900	-9.606300	27.624678	7.737418E-5	20.983208
2303.684480	-3.004600	3.231600	-9.709200	27.583110	7.542704E-5	20.966989
2304.681726	-3.009300	3.231400	-9.723400	27.602634	7.661512E-5	20.974305
2305.691144	-2.984700	3.231100	-9.643100	27.658921	7.691214E-5	20.977362
2306.701560	-3.009300	3.230100	-9.719400	27.640440	7.542704E-5	20.960665
2307.699527	-2.994800	3.230400	-9.673500	27.646428	7.549304E-5	21.000823
2308.693474	-3.013500	3.230500	-9.734500	27.621695	7.532803E-5	20.954606
2309.700010	-2.997300	3.230700	-9.681700	27.655307	7.367791E-5	20.976571
2310.680035	-3.001300	3.229500	-9.691800	27.668367	7.357890E-5	20.984022
2311.703293	-3.015300	3.230300	-9.739600	27.702268	7.417294E-5	20.964558
2312.702954	-2.986600	3.228600	-9.641800	27.640306	7.522902E-5	20.965271
2313.680985	-3.012300	3.227500	-9.721500	27.635067	7.196178E-5	20.982756
2314.678668	-2.992000	3.226800	-9.653800	27.620515	7.400793E-5	20.967168
2315.680121	-2.993200	3.226000	-9.655400	27.634544	7.367791E-5	20.972748
2316.678865	-3.014400	3.226400	-9.724800	27.694780	7.651612E-5	20.973144
2317.697707	-2.995900	3.227000	-9.667600	27.740848	7.278684E-5	20.985835
2318.718917	-3.000300	3.227200	-9.682200	27.800819	7.252282E-5	20.983126
2319.705268	-3.004900	3.224400	-9.688400	27.810450	7.331488E-5	20.981912
2320.704622	-3.006100	3.224900	-9.693700	27.813674	7.182977E-5	20.994164
2321.684525	-2.983500	3.224600	-9.618400	27.809723	7.305086E-5	20.993507
2322.687015	-3.019000	3.223000	-9.729200	27.794245	7.380992E-5	20.987414
2323.680561	-2.987700	3.224000	-9.631300	27.729177	7.100471E-5	20.999218
2324.686295	-2.984200	3.223300	-9.617800	27.754568	7.143374E-5	20.998218
2325.683575	-2.990500	3.224600	-9.642400	27.743598	7.103771E-5	21.002350
2326.691014	-3.001700	3.221800	-9.670500	27.755956	7.080670E-5	20.999614
2327.687378	-2.991500	3.222900	-9.639900	27.791894	7.176377E-5	20.983152
2328.687985	-3.014600	3.222100	-9.712000	27.768336	7.090571E-5	20.990263
2329.688895	-3.008800	3.220200	-9.688400	27.713420	7.390893E-5	20.983839
2330.690693	-3.015100	3.219000	-9.704800	27.622162	7.146675E-5	21.005329
2331.694001	-2.997800	3.221300	-9.656000	27.621242	7.222580E-5	21.004877
2332.685811	-2.980800	3.219700	-9.596500	27.656375	7.156575E-5	21.001823
2333.716077	-3.009400	3.220000	-9.689600	27.710611	7.311687E-5	21.006138
2334.687134	-2.980500	3.220300	-9.597500	27.740455	7.215980E-5	20.982595
2335.695570	-2.995100	3.218400	-9.637400	27.733677	7.229181E-5	20.992368
2336.689470	-2.990900	3.217100	-9.621100	27.703781	7.159876E-5	21.022970
2337.710705	-3.019100	3.216000	-9.708600	27.713857	7.173077E-5	20.999923
2338.713859	-3.023400	3.216800	-9.724900	27.758040	7.123573E-5	21.023992
2339.690850	-3.008800	3.217500	-9.679800	27.783297	7.044367E-5	20.993939
2340.710452	-3.039600	3.215900	-9.773700	27.832974	6.849653E-5	20.986563
2341.687479	-2.987700	3.215900	-9.607100	27.852480	7.242382E-5	21.010457
2342.692896	-3.022100	3.216400	-9.718600	27.817613	7.186278E-5	21.015194
2343.690261	-2.997300	3.214000	-9.632500	27.827481	6.988263E-5	21.021330
2344.690269	-3.001200	3.214600	-9.646300	27.870924	7.146675E-5	21.014320
2345.698060	-3.013800	3.212400	-9.680600	27.864436	6.905757E-5	21.006369
2346.703316	-3.006600	3.213600	-9.660800	27.848807	6.971762E-5	21.014820
2347.696425	-2.989300	3.212200	-9.601500	27.805644	6.836452E-5	21.017373
2348.696192	-2.992300	3.215300	-9.620500	27.743006	6.859554E-5	21.017873
2349.702668	-2.989400	3.211700	-9.600100	27.739497	6.757246E-5	21.010075
2350.716180	-3.009900	3.211200	-9.664600	27.628735	6.965161E-5	21.002934
2351.703138	-3.013000	3.210500	-9.672900	27.647242	6.889256E-5	21.017287
2352.717498	-2.997800	3.209700	-9.620800	27.674602	6.658239E-5	21.037701
2353.699656	-3.010800	3.208800	-9.660100	27.774484	6.720943E-5	21.017309
2354.740494	-2.992300	3.211000	-9.607800	27.731876	6.892556E-5	21.028481
2355.713571	-3.009200	3.209200	-9.656600	27.657739	6.641738E-5	21.025476
2356.712511	-2.971600	3.209000	-9.535100	27.697238	6.806750E-5	21.029186
2357.738132	-3.016500	3.208100	-9.676500	27.744671	6.671440E-5	21.045147
2358.714193	-2.984000	3.210600	-9.579600	27.781366	6.767147E-5	21.026603
2359.724375	-3.004100	3.206400	-9.631600	27.836438	6.532830E-5	21.035084
2360.715766	-3.003500	3.207200	-9.632600	27.888283	6.565832E-5	21.018040
2361.724995	-3.009400	3.205100	-9.644300	27.902260	6.612035E-5	21.029261
2362.720782	-3.031000	3.207100	-9.718600	27.946383	6.651638E-5	21.029100
2363.700076	-2.996100	3.204500	-9.600500	27.934610	6.509728E-5	21.023889
2364.697466	-2.995800	3.204400	-9.599000	27.907049	6.651638E-5	21.053990
2365.700340	-3.009300	3.204700	-9.643300	27.849496	6.671440E-5	21.030209
2366.703773	-2.991200	3.204600	-9.584600	27.810206	6.529529E-5	21.043769
2367.707290	-3.016800	3.203900	-9.664500	27.816538	6.414021E-5	21.041134
2368.698353	-3.006500	3.204500	-9.632900	27.831118	6.509728E-5	21.037315
2369.700223	-3.018800	3.201200	-9.663300	27.854177	6.780348E-5	21.034919
2370.738131	-3.010800	3.201000	-9.637100	27.837420	6.661539E-5	21.048397
2371.702185	-3.014300	3.200400	-9.646400	27.850015	6.760546E-5	21.048271
2372.705914	-2.986000	3.201400	-9.559200	27.904975	6.565832E-5	21.053799
2373.726520	-3.011800	3.199700	-9.636400	27.955300	6.417321E-5	21.049450
2374.703914	-3.009500	3.200000	-9.630000	27.877387	6.156602E-5	21.053060
2375.723736	-2.997300	3.200800	-9.592700	27.878749	6.546031E-5	21.038786
2376.721174	-2.971200	3.199800	-9.506800	27.908528	6.404120E-5	21.045049
2377.737109	-2.980900	3.197700	-9.531600	27.937424	6.697842E-5	21.055639
2378.699334	-2.998200	3.198800	-9.589800	27.865450	6.417321E-5	21.053373
2379.725735	-3.024400	3.197100	-9.668300	27.863509	6.394220E-5	21.051895
2380.703662	-2.988700	3.196000	-9.551100	27.860946	6.407421E-5	21.041731
2381.736009	-2.999700	3.196500	-9.588400	27.871622	6.249009E-5	21.054369
2382.729693	-2.994900	3.194900	-9.567100	27.822310	6.503128E-5	21.058318
2383.722538	-3.005400	3.197600	-9.609300	27.827963	6.196205E-5	21.027505
2384.730567	-2.991600	3.193900	-9.553900	27.840005	6.239108E-5	21.064746
2385.710815	-2.965200	3.195400	-9.473800	27.856257	6.169803E-5	21.069247
2386.707604	-2.998100	3.193900	-9.574700	27.835709	6.225907E-5	21.055209
2387.711355	-2.995900	3.192400	-9.563200	27.835186	6.196205E-5	21.077437
2388.712641	-2.986200	3.192600	-9.532500	27.838877	6.067496E-5	21.071196
2389.705744	-2.987900	3.191900	-9.536500	27.821026	6.156602E-5	21.062241
2390.721022	-3.026800	3.190900	-9.656600	27.848949	6.222607E-5	21.045302
2391.735833	-3.012600	3.191000	-9.611900	27.805790	6.159902E-5	21.052600
2392.733658	-3.014900	3.188800	-9.613200	27.816466	6.166503E-5	21.069505
2393.731865	-2.974900	3.189500	-9.487800	27.850993	6.050994E-5	21.078172
2394.726100	-3.017100	3.188800	-9.619800	27.882060	5.945387E-5	21.084782
2395.704317	-2.993500	3.189800	-9.546600	27.910171	6.229207E-5	21.063294
2396.730343	-3.018100	3.188100	-9.621200	27.897136	6.216006E-5	21.071035
2397.712539	-3.023200	3.186100	-9.631400	27.919667	6.282011E-5	21.072849
2398.714186	-2.989500	3.186800	-9.526500	27.983682	5.885982E-5	21.078011
2399.704798	-3.033400	3.187900	-9.669500	28.057373	6.017992E-5	21.076798
2400.736063	-2.977100	3.186400	-9.485900	28.064809	6.143401E-5	21.074327
2401.708031	-3.033900	3.183900	-9.658100	28.091706	5.958588E-5	21.080064
2402.705818	-3.018200	3.183900	-9.608500	28.084774	6.044394E-5	21.076406
2403.713660	-2.997700	3.184600	-9.545700	28.051249	5.684668E-5	21.078220
2404.708982	-2.994000	3.182800	-9.527600	28.032801	5.674767E-5	21.078616
2405.710267	-2.976900	3.183400	-9.476100	28.070402	5.843079E-5	21.077111
2406.732735	-3.013200	3.182000	-9.587200	28.079040	5.866181E-5	21.044563
2407.732037	-2.988400	3.183200	-9.511900	28.084243	5.869481E-5	21.067813
2408.733470	-3.001900	3.180400	-9.546200	28.062554	5.882682E-5	21.054992
2409.737114	-2.965700	3.181600	-9.434500	28.040122	5.648365E-5	21.069392
2410.711079	-2.983300	3.180900	-9.488300	28.061686	5.780375E-5	21.066443
2411.709851	-3.007400	3.179000	-9.558800	28.089372	5.819977E-5	21.066813
2412.713056	-3.007700	3.178700	-9.559500	28.121583	5.793576E-5	21.063203
2413.713791	-3.021700	3.176600	-9.597400	28.145552	5.777074E-5	21.031864
2414.716751	-3.015300	3.177900	-9.581900	28.140189	5.852980E-5	21.068657
2415.712161	-3.002500	3.176800	-9.537400	28.110798	5.638464E-5	21.050452
2416.714778	-2.985600	3.177600	-9.485000	28.122128	5.651665E-5	21.046212
2417.716959	-3.015100	3.175400	-9.572400	28.094049	5.598861E-5	21.037862
2418.713173	-2.999100	3.174700	-9.519900	28.050714	5.724270E-5	21.066305
2419.745945	-2.988900	3.175400	-9.489900	28.084598	5.539457E-5	21.068645
2420.731828	-3.000900	3.174000	-9.524300	28.078212	5.697869E-5	21.026189
2421.737381	-2.959300	3.174000	-9.391400	28.075226	5.707769E-5	21.043569
2422.712675	-2.971000	3.174100	-9.429800	28.051986	5.635164E-5	21.057155
2423.738567	-2.976600	3.173200	-9.444900	28.042354	5.694568E-5	21.043195
2424.746372	-2.984700	3.171600	-9.465700	27.992656	5.503154E-5	21.023046
2425.718468	-2.992000	3.171100	-9.487300	27.996420	5.473452E-5	21.046744
2426.738150	-2.988400	3.172500	-9.479700	28.032743	5.381045E-5	21.039686
2427.749021	-3.001200	3.169200	-9.511000	28.105437	5.526256E-5	21.026569
2428.718467	-2.989300	3.170900	-9.477900	28.155415	5.394246E-5	21.029940
2429.716737	-2.977000	3.168900	-9.432500	28.094470	5.443750E-5	21.024064
2430.719182	-2.995200	3.167800	-9.487400	28.012929	5.037820E-5	21.039656
2431.735405	-2.998100	3.166600	-9.492900	27.982229	5.120326E-5	21.045262
2432.745863	-3.030900	3.166000	-9.594200	28.019546	5.423948E-5	21.040152
2433.741826	-2.981600	3.166000	-9.439200	28.089544	5.447050E-5	21.053239
2434.735862	-3.017600	3.164300	-9.547700	28.150537	5.305140E-5	21.015549
2435.734568	-2.971000	3.164000	-9.398900	28.229268	5.390946E-5	21.024161
2436.714456	-2.994300	3.164100	-9.473700	28.246382	5.239135E-5	21.014366
2437.740631	-2.996100	3.164300	-9.480000	28.286922	5.291939E-5	21.022940
2438.746734	-2.990900	3.162400	-9.456800	28.203175	5.282038E-5	21.027762
2439.716085	-3.021000	3.160100	-9.545400	28.208671	5.159929E-5	21.040879
2440.728379	-3.007700	3.160700	-9.505600	28.136819	5.166530E-5	21.016437
2441.729905	-2.996500	3.159300	-9.465700	28.175462	5.100525E-5	21.028311
2442.721563	-2.980900	3.160400	-9.419900	28.179100	5.268837E-5	21.001633
2443.729157	-2.997600	3.159100	-9.467700	28.144848	4.985016E-5	21.025467
2444.729400	-3.004300	3.157700	-9.486300	28.115512	4.988317E-5	21.024858
2445.725824	-2.994200	3.158300	-9.455500	28.061631	5.159929E-5	21.013768
2446.731243	-3.003800	3.156900	-9.481500	28.065948	5.018019E-5	21.004365
2447.726345	-2.964900	3.158000	-9.362500	28.122573	5.014718E-5	21.008262
2448.757511	-2.977200	3.156200	-9.395200	28.154182	5.176430E-5	20.991247
2449.730536	-2.954300	3.155800	-9.322200	28.110665	4.770501E-5	21.018083
2450.748838	-2.987600	3.153000	-9.419300	28.040538	5.021319E-5	21.020035
2451.745633	-3.007200	3.152700	-9.480200	28.103154	4.892610E-5	21.007679
2452.758831	-3.032800	3.151600	-9.557300	28.126571	5.077423E-5	21.015130
2453.753814	-2.998000	3.150900	-9.445500	28.145411	5.060922E-5	21.012285
2454.752069	-3.021600	3.149800	-9.516700	28.236802	4.654992E-5	21.013730
2455.752187	-2.994400	3.149800	-9.430000	28.191226	5.004818E-5	21.029956
2456.749078	-2.988600	3.150000	-9.413500	28.088705	4.991617E-5	20.994558
2457.757472	-2.999900	3.148400	-9.443700	28.132353	4.902510E-5	20.996772
2458.729053	-2.992500	3.147700	-9.419200	28.131618	5.001517E-5	20.993188
2459.755045	-3.020700	3.147100	-9.505400	28.101051	4.773801E-5	20.987074
2460.754903	-2.998300	3.146600	-9.432300	28.129649	4.536183E-5	21.010169
2461.751210	-3.007200	3.145400	-9.457500	28.144750	4.737498E-5	20.995976
2462.751921	-3.018700	3.143600	-9.488100	28.203808	4.598888E-5	21.029822
2463.755106	-2.983300	3.145000	-9.381800	28.192475	4.813404E-5	21.016518
2464.752402	-3.009500	3.142500	-9.457200	28.224138	4.585687E-5	20.997664
2465.752239	-3.008800	3.141700	-9.451600	28.305528	4.773801E-5	21.005641
2466.747931	-2.984600	3.143700	-9.382300	28.333001	4.770501E-5	21.015757
2467.762733	-3.007800	3.140800	-9.445800	28.366331	4.892610E-5	20.997164
2468.757941	-2.994900	3.140400	-9.404200	28.277506	4.588987E-5	21.010616
2469.753157	-2.978600	3.139900	-9.351500	28.224104	4.707796E-5	21.009956
2470.733321	-3.022800	3.138900	-9.487400	28.212490	4.473479E-5	20.988309
2471.735134	-3.004000	3.136200	-9.420600	28.247444	4.602188E-5	20.996473
2472.732021	-2.978200	3.137800	-9.343800	28.249042	4.516382E-5	20.982437
2473.730303	-2.989300	3.135600	-9.371900	28.312329	4.859607E-5	20.983094
2474.732693	-3.022600	3.134200	-9.472600	28.336583	4.621990E-5	20.995185
2475.733134	-3.019600	3.134400	-9.463700	28.375089	4.582387E-5	20.995551
2476.736783	-2.999000	3.133400	-9.395100	28.405960	4.480079E-5	20.995816
2477.734687	-3.010600	3.132500	-9.430000	28.374592	4.480079E-5	20.997895
2478.738514	-3.007700	3.131000	-9.415600	28.365986	4.447077E-5	20.989231
2479.735299	-2.969400	3.132100	-9.300000	28.381893	4.496580E-5	20.986756
2480.742761	-3.004000	3.130000	-9.401200	28.384481	4.295266E-5	20.978458
2481.759227	-2.999400	3.129800	-9.386900	28.295483	4.311767E-5	20.992210
2482.754818	-2.997800	3.127700	-9.375400	28.274788	4.572486E-5	20.959050
2483.758885	-2.982400	3.128000	-9.328200	28.340376	4.371171E-5	20.975300
2484.758856	-3.025300	3.126700	-9.458000	28.319786	4.199559E-5	21.002453
2485.734730	-3.016300	3.125300	-9.425500	28.246762	4.390973E-5	20.973030
2486.737669	-3.003800	3.124100	-9.383300	28.195694	4.390973E-5	20.986573
2487.741044	-3.012300	3.124400	-9.410500	28.200564	4.453677E-5	20.985312
2488.736233	-2.994100	3.123100	-9.350100	28.251401	4.301866E-5	20.977226
2489.738645	-2.974200	3.122500	-9.286100	28.259770	4.245762E-5	20.996081
2490.738178	-3.007900	3.120100	-9.383900	28.276572	4.262263E-5	20.975069
2491.740876	-3.000500	3.120700	-9.363200	28.252347	4.371171E-5	20.970119
2492.738371	-3.031600	3.118200	-9.452200	28.221238	4.183057E-5	20.980049
2493.735296	-2.989100	3.118100	-9.319000	28.275297	4.410774E-5	20.989904
2494.739812	-2.980500	3.119000	-9.295900	28.263104	4.318367E-5	20.999437
2495.737298	-3.007600	3.116600	-9.372200	28.299314	4.146755E-5	20.978052
2496.734282	-3.011200	3.115200	-9.379100	28.325293	4.206159E-5	21.005152
2497.739008	-3.003200	3.114700	-9.353600	28.381593	4.140154E-5	20.982662
2498.734793	-2.988900	3.114500	-9.308100	28.422615	4.126953E-5	20.976555
2499.737920	-3.015400	3.112400	-9.384000	28.495097	4.150055E-5	20.955191
2500.739566	-3.002900	3.112200	-9.345300	28.450370	4.044447E-5	20.992648
2501.739662	-2.997900	3.112400	-9.329100	28.360826	4.064249E-5	20.986880
2502.746944	-3.009400	3.111100	-9.361000	28.392401	4.163256E-5	20.990699
2503.742883	-3.001700	3.109000	-9.330900	28.405401	3.952041E-5	20.970601
2504.737832	-2.987100	3.108700	-9.285700	28.383922	4.146755E-5	20.998754
2505.747062	-2.984800	3.108900	-9.277900	28.389075	4.021346E-5	20.987350
2506.742050	-3.026200	3.106200	-9.398800	28.388082	3.991643E-5	20.986350
2507.740052	-3.030100	3.105800	-9.409700	28.385831	4.222660E-5	20.978395
2508.742373	-3.032000	3.103500	-9.408800	28.354882	4.146755E-5	20.983267
2509.741673	-2.999700	3.103300	-9.308700	28.387270	3.909137E-5	20.984110
2510.768677	-2.974400	3.103400	-9.230300	28.434150	4.209459E-5	20.974420
2511.762429	-2.991500	3.101900	-9.278500	28.420279	3.895936E-5	20.981314
2512.744408	-2.983100	3.101300	-9.250800	28.454838	4.001544E-5	20.973916
2513.769436	-3.013700	3.098700	-9.337200	28.441312	3.909137E-5	20.982580
2514.745297	-2.982600	3.098800	-9.241100	28.457136	4.034547E-5	20.979548
2515.740234	-3.025200	3.097200	-9.368400	28.394592	3.796929E-5	20.963986
2516.743382	-3.011300	3.096600	-9.323800	28.422033	3.813430E-5	20.981183
2517.744370	-2.982600	3.094800	-9.230100	28.454389	3.859634E-5	20.993375
2518.764727	-3.002600	3.094500	-9.290900	28.485802	3.862934E-5	20.984233
2519.743334	-2.992400	3.094100	-9.257300	28.471858	3.622016E-5	20.992475
2520.743388	-3.006400	3.092700	-9.297000	28.468666	3.651718E-5	20.989735
2521.742388	-2.978000	3.092600	-9.208400	28.502355	3.872835E-5	20.980041
2522.763710	-3.015400	3.089800	-9.314700	28.520536	4.051048E-5	20.969902
2523.757090	-3.004900	3.089400	-9.281300	28.518860	3.988343E-5	20.997134
2524.743231	-2.988400	3.088400	-9.228800	28.578127	3.714423E-5	20.965788
2525.745185	-3.008900	3.088200	-9.291200	28.604936	3.552711E-5	20.960547
2526.743751	-2.975000	3.085900	-9.179400	28.635144	3.697922E-5	20.963944
2527.745836	-2.986600	3.086000	-9.215400	28.665062	3.902537E-5	20.977954
2528.744344	-2.975300	3.083600	-9.173900	28.606059	3.787028E-5	20.966893
2529.744681	-2.984200	3.083400	-9.200100	28.539517	3.928939E-5	20.963414
2530.747802	-3.022200	3.081200	-9.311000	28.480767	3.803530E-5	20.979163
2531.754961	-2.992600	3.081800	-9.221500	28.515579	3.787028E-5	20.973444
2532.750838	-2.968900	3.080700	-9.144600	28.515427	3.697922E-5	20.987514
2533.745563	-3.002800	3.077600	-9.239800	28.488093	3.737525E-5	20.978480
2534.747435	-2.979500	3.077900	-9.169000	28.424705	3.615416E-5	20.976763
2535.744993	-2.988500	3.077200	-9.195600	28.333482	3.622016E-5	20.962671
2536.749012	-3.002900	3.075600	-9.234900	28.348184	3.622016E-5	20.992642
2537.753879	-2.986900	3.074000	-9.180500	28.417931	3.608815E-5	20.970417
2538.753773	-2.989300	3.074600	-9.190200	28.438223	3.691321E-5	20.974728
2539.748930	-3.004800	3.073300	-9.233800	28.494513	3.796929E-5	20.965982
2540.772667	-2.986600	3.072200	-9.174600	28.492267	3.727624E-5	20.976994
2541.754152	-3.006900	3.069300	-9.227600	28.465896	3.724324E-5	20.980783
2542.767859	-2.990800	3.069400	-9.178100	28.375804	3.668220E-5	20.979204
2543.755479	-3.007900	3.068600	-9.229300	28.364524	3.595614E-5	20.971167
2544.750307	-2.994900	3.068900	-9.189900	28.387335	3.717723E-5	20.981805
2545.750622	-2.999500	3.065900	-9.195600	28.441459	3.496607E-5	20.964712
2546.752927	-3.021000	3.064700	-9.258000	28.466181	3.760626E-5	20.957840
2547.751218	-2.996500	3.063300	-9.177500	28.415328	3.450404E-5	20.951677
2548.752355	-2.970200	3.063700	-9.099000	28.437321	3.301893E-5	20.968131
2549.754511	-3.002900	3.061200	-9.191700	28.492385	3.539510E-5	20.970002
2550.750737	-2.981100	3.061100	-9.124900	28.560551	3.493307E-5	20.970845
2551.747087	-3.001800	3.059600	-9.183600	28.620808	3.496607E-5	20.971790
2552.752121	-3.015700	3.057900	-9.220900	28.635225	3.592314E-5	20.959759
2553.752650	-3.008700	3.056700	-9.195800	28.602318	3.301893E-5	20.962651
2554.753787	-3.021700	3.055000	-9.230600	28.611055	3.453704E-5	20.973346
2555.774127	-3.007800	3.053300	-9.182500	28.587201	3.414101E-5	20.958806
2556.754134	-3.021800	3.053300	-9.226200	28.520691	3.367898E-5	20.976221
2557.760497	-3.004100	3.051400	-9.166000	28.530782	3.562612E-5	20.951299
2558.775702	-3.004100	3.049700	-9.161100	28.606689	3.361297E-5	20.973690
2559.783890	-2.997100	3.049900	-9.139600	28.621806	3.493307E-5	20.969475
2560.751670	-3.003200	3.048000	-9.153200	28.565047	3.499907E-5	20.954514
2561.753980	-2.992600	3.046600	-9.116900	28.540224	3.262290E-5	20.974082
2562.755908	-3.016800	3.044900	-9.185200	28.563294	3.433902E-5	20.951800
2563.754926	-2.987600	3.044900	-9.095300	28.615474	3.473505E-5	20.955514
2564.767474	-3.014300	3.042500	-9.170000	28.665039	3.437203E-5	20.959915
2565.758388	-2.980300	3.042000	-9.065200	28.657006	3.404200E-5	20.952300
2566.775779	-2.985300	3.041400	-9.078500	28.567872	3.470205E-5	20.954988
2567.783066	-3.005200	3.040200	-9.135500	28.563164	3.463605E-5	20.961151
2568.777767	-3.017600	3.037300	-9.163400	28.605243	3.367898E-5	20.958485
2569.774838	-3.002700	3.036200	-9.114800	28.579038	3.480106E-5	20.955327
2570.775177	-2.996700	3.036200	-9.098000	28.484588	3.420702E-5	20.964522
2571.786263	-3.014000	3.034700	-9.145500	28.549981	3.381099E-5	20.963995
2572.756157	-3.007300	3.032900	-9.119800	28.588847	3.460304E-5	20.972790
2573.787907	-2.993100	3.031500	-9.072200	28.546949	3.506508E-5	20.970898
2574.775762	-3.007900	3.031000	-9.116300	28.539697	3.357997E-5	20.963122
2575.779374	-3.014600	3.029400	-9.130700	28.562849	3.417401E-5	20.939499
2576.756304	-2.987400	3.028900	-9.048100	28.654571	3.394300E-5	20.970707
2577.802267	-3.025900	3.026900	-9.157900	28.676800	3.308493E-5	20.948055
2578.776978	-3.002500	3.026100	-9.085100	28.624337	3.268890E-5	20.949269
2579.764318	-2.999900	3.025200	-9.074200	28.669475	3.476806E-5	20.964857
2580.759228	-2.995100	3.024500	-9.057800	28.651716	3.450404E-5	20.959299
2581.758771	-2.992400	3.021200	-9.039900	28.704752	3.387699E-5	20.945390
2582.759742	-3.015300	3.018300	-9.099700	28.649410	3.196285E-5	20.947021
2583.760258	-2.995100	3.020000	-9.044400	28.698814	3.424002E-5	20.954580
2584.760835	-3.017100	3.016100	-9.099000	28.706083	3.282091E-5	20.941515
2585.757671	-3.028100	3.015600	-9.130200	28.780980	3.344796E-5	20.939197
2586.764212	-2.993600	3.015400	-9.025900	28.704930	3.357997E-5	20.940354
2587.762721	-2.995900	3.014500	-9.030100	28.689443	3.381099E-5	20.920016
2588.761228	-3.028400	3.011400	-9.118900	28.708770	3.262290E-5	20.949910
2589.759625	-3.003200	3.011300	-9.041500	28.743081	3.354697E-5	20.928524
2590.784073	-2.997800	3.010200	-9.023200	28.773152	3.397600E-5	20.946009
2591.770022	-2.993100	3.009300	-9.005800	28.728952	3.232588E-5	20.944635
2592.764946	-3.033700	3.007100	-9.121500	28.712817	3.417401E-5	20.944979
2593.765402	-2.982500	3.005900	-8.964300	28.706275	3.232588E-5	20.930804
2594.762581	-3.025100	3.004100	-9.086900	28.656531	3.523009E-5	20.950873
2595.772257	-3.000200	3.004100	-9.011700	28.661109	3.245789E-5	20.922771
2596.770948	-3.002500	3.001500	-9.010300	28.656393	3.315094E-5	20.940779
2597.768254	-3.004200	2.999300	-9.009400	28.733070	3.361297E-5	20.920810
2598.763336	-3.011700	2.998900	-9.030500	28.766754	3.282091E-5	20.929609
2599.767663	-3.001700	2.997800	-8.997700	28.814106	3.430602E-5	20.937953
2600.767202	-3.044800	2.994600	-9.117100	28.888814	3.318394E-5	20.942563
2601.767431	-3.007100	2.994800	-9.005000	28.907270	3.427302E-5	20.945034
2602.769679	-2.992800	2.992600	-8.955300	28.852465	3.470205E-5	20.942929
2603.767148	-2.974500	2.992200	-8.899100	28.802391	3.252389E-5	20.931842
2604.791403	-2.977300	2.991500	-8.905700	28.768781	3.291992E-5	20.958200
2605.772659	-2.970000	2.989800	-8.879000	28.768337	3.394300E-5	20.942581
2606.794399	-2.970500	2.987800	-8.874600	28.685695	3.209486E-5	20.932360
2607.780624	-2.995300	2.986300	-8.943600	28.698898	3.176484E-5	20.957035
2608.772365	-3.007700	2.984200	-8.974500	28.728477	3.077476E-5	20.941786
2609.773135	-3.038600	2.983800	-9.065600	28.706141	3.209486E-5	20.926402
2610.771999	-2.996300	2.981100	-8.931500	28.639812	3.433902E-5	20.942096
2611.773182	-3.013000	2.979800	-8.977400	28.665704	3.199585E-5	20.934036
2612.771574	-3.030900	2.978900	-9.027300	28.725463	3.440503E-5	20.951078
2613.772204	-2.998600	2.977800	-8.928100	28.811549	3.367898E-5	20.932058
2614.801037	-3.013200	2.976900	-8.969200	28.826607	3.321694E-5	20.929683
2615.776051	-3.006300	2.974500	-8.941700	28.900818	3.503208E-5	20.927630
2616.776834	-2.983800	2.974300	-8.873100	28.940371	3.305193E-5	20.941872
2617.792033	-3.019300	2.972700	-8.973700	28.900710	3.466905E-5	20.917092
2618.802569	-3.004700	2.970900	-8.925400	28.852832	3.229287E-5	20.939505
2619.772874	-2.985200	2.969900	-8.864400	28.840279	3.367898E-5	20.944403
2620.773262	-2.991500	2.968600	-8.879800	28.850578	3.225987E-5	20.926331
2621.792231	-2.998900	2.965800	-8.893000	28.771086	3.262290E-5	20.931602
2622.793221	-2.989100	2.965500	-8.863200	28.818624	3.150082E-5	20.941080
2623.774851	-2.988200	2.963900	-8.855300	28.846787	3.549411E-5	20.949062
2624.793202	-2.991100	2.961000	-8.856000	28.905617	3.344796E-5	20.919664
2625.793948	-3.035300	2.958900	-8.980000	28.927919	3.315094E-5	20.942129
2626.797453	-2.990600	2.958200	-8.845800	28.886687	3.183084E-5	20.932834
2627.791163	-2.994900	2.958100	-8.857300	28.849007	3.387699E-5	20.935653
2628.791920	-2.985900	2.956300	-8.825700	28.894532	3.344796E-5	20.930781
2629.773330	-2.996400	2.956200	-8.856500	28.934797	3.371198E-5	20.945739
2630.775329	-2.999500	2.953300	-8.857900	28.954879	3.354697E-5	20.938945
2631.776397	-3.006100	2.951400	-8.870700	28.969364	3.328295E-5	20.925566
2632.779598	-2.993200	2.951000	-8.831000	28.996890	3.126980E-5	20.912996
2633.788529	-2.991900	2.948900	-8.821900	29.032845	3.054375E-5	20.934996
2634.777625	-2.996500	2.947100	-8.830100	29.028399	3.374498E-5	20.929094
2635.780122	-3.012600	2.946300	-8.874900	28.942068	3.374498E-5	20.933625
2636.780537	-3.007200	2.943900	-8.852600	28.934693	3.275491E-5	20.919085
2637.776914	-2.986100	2.941600	-8.783200	28.955220	3.222687E-5	20.924117
2638.796795	-2.994600	2.940300	-8.804500	28.947690	3.443803E-5	20.920799
2639.779225	-3.013700	2.940300	-8.859900	28.907581	3.054375E-5	20.912160
2640.779846	-3.004200	2.938200	-8.826100	28.926459	3.232588E-5	20.912687
2641.803515	-3.005200	2.935000	-8.819600	28.951166	3.176484E-5	20.923826
2642.783012	-3.007400	2.934200	-8.823300	28.903082	3.239188E-5	20.921851
2643.782678	-3.019300	2.933400	-8.856500	28.942042	3.173183E-5	20.924117
2644.782522	-2.974000	2.932000	-8.719000	29.036032	3.242488E-5	20.926828
2645.785452	-2.994100	2.930500	-8.773600	29.108898	3.308493E-5	20.939079
2646.778184	-3.000900	2.928300	-8.786800	29.108349	3.192985E-5	20.914822
2647.781572	-2.992900	2.926200	-8.756600	29.057368	3.192985E-5	20.915136
2648.782906	-2.961300	2.926200	-8.663700	28.962961	3.202886E-5	20.915322
2649.787052	-2.993400	2.923800	-8.750500	28.937654	3.463605E-5	20.905000
2650.783346	-2.985500	2.922600	-8.724200	28.980296	3.146781E-5	20.908132
2651.811334	-2.997000	2.920300	-8.751200	28.981134	3.255689E-5	20.909450
2652.790485	-2.984600	2.918500	-8.709400	28.973889	3.239188E-5	20.918745
2653.806560	-3.009700	2.916500	-8.776600	28.943850	3.384399E-5	20.916457
2654.797618	-2.987100	2.914800	-8.705900	29.005817	3.572513E-5	20.914404
2655.781579	-2.980600	2.913100	-8.681900	29.032482	3.427302E-5	20.927044
2656.803176	-2.992300	2.910900	-8.709200	28.985658	3.143481E-5	20.905000
2657.780601	-2.992300	2.908800	-8.703000	29.025582	3.126980E-5	20.904448
2658.780838	-2.989500	2.907100	-8.689500	28.983646	3.354697E-5	20.920515
2659.793040	-2.976800	2.906000	-8.650000	28.952896	3.311794E-5	20.912295
2660.793786	-2.996100	2.904400	-8.700800	28.979018	3.480106E-5	20.912534
2661.784190	-3.007400	2.902100	-8.727300	28.999414	3.318394E-5	20.921702
2662.803330	-2.977400	2.901200	-8.637100	29.042891	3.070876E-5	20.923781
2663.805035	-3.016800	2.900200	-8.747900	29.114052	3.183084E-5	20.909189
2664.783865	-3.018300	2.897700	-8.745000	29.058680	3.100578E-5	20.904130
2665.788278	-3.004500	2.895100	-8.697600	29.010393	3.126980E-5	20.923755
2666.786875	-2.974100	2.894300	-8.607500	28.963698	3.265590E-5	20.917013
2667.799371	-2.999500	2.892500	-8.675400	28.992069	3.074176E-5	20.932319
2668.791470	-3.000500	2.890900	-8.672800	29.034605	3.143481E-5	20.932502
2669.788117	-3.013500	2.887400	-8.699700	29.070211	3.199585E-5	20.909110
2670.789336	-2.972900	2.886600	-8.580300	29.102810	3.011471E-5	20.922516
2671.794331	-3.021200	2.883500	-8.710300	29.109035	3.275491E-5	20.914090
2672.787387	-2.993900	2.882900	-8.630400	29.089004	3.291992E-5	20.918563
2673.812749	-2.993100	2.882400	-8.626900	29.070578	3.123680E-5	20.934607
2674.812447	-3.013200	2.880800	-8.678900	29.012561	3.196285E-5	20.922620
2675.809965	-3.006700	2.878200	-8.652300	29.056638	3.146781E-5	20.917245
2676.822033	-2.981000	2.876100	-8.572700	29.048115	3.361297E-5	20.919089
2677.813204	-2.991600	2.874700	-8.599200	29.101109	3.216086E-5	20.902312
2678.816058	-3.009300	2.871600	-8.640800	29.137628	3.117079E-5	20.924409
2679.790235	-2.989000	2.871400	-8.581900	29.127876	3.311794E-5	20.916479
2680.786948	-3.009600	2.868500	-8.632200	29.200494	3.282091E-5	20.899094
2681.795388	-2.985400	2.868100	-8.561000	29.183396	3.351396E-5	20.934492
2682.805151	-3.007500	2.863100	-8.610100	29.240514	3.232588E-5	20.908603
2683.791754	-2.995600	2.863600	-8.577600	29.214451	3.057675E-5	20.924061
2684.791774	-3.026200	2.860800	-8.656500	29.222005	3.258990E-5	20.924562
2685.792510	-3.010400	2.858400	-8.604300	29.242000	3.176484E-5	20.932856
2686.798764	-2.986300	2.857600	-8.532000	29.265158	3.249089E-5	20.911626
2687.798547	-2.988900	2.856400	-8.536500	29.193640	3.272191E-5	20.915419
2688.789854	-2.971500	2.854100	-8.480200	29.187916	3.331595E-5	20.938572
2689.797183	-2.986300	2.851500	-8.514300	29.115556	3.113779E-5	20.906911
2690.792668	-2.993900	2.849200	-8.528600	29.139788	3.209486E-5	20.921844
2691.793716	-2.978400	2.847400	-8.479400	29.183937	3.437203E-5	20.917495
2692.799514	-3.006400	2.843800	-8.549200	29.226491	3.321694E-5	20.930030
2693.794806	-2.993700	2.842500	-8.507900	29.198445	3.285392E-5	20.912201
2694.807160	-2.990000	2.841700	-8.495900	29.141585	3.390999E-5	20.917491
2695.798295	-3.020300	2.837800	-8.569800	29.085717	3.229287E-5	20.929000
2696.797361	-3.003400	2.836500	-8.518500	29.118527	3.321694E-5	20.917491
2697.798038	-3.023400	2.833400	-8.564900	29.200113	3.321694E-5	20.939483
2698.791430	-3.007000	2.833000	-8.516800	29.194963	3.060975E-5	20.925286
2699.800445	-3.000300	2.829900	-8.489600	29.167746	3.397600E-5	20.952384
2700.802145	-3.023300	2.827400	-8.547400	29.246034	3.255689E-5	20.932655
2701.796150	-3.008800	2.825900	-8.502100	29.316370	3.447103E-5	20.925778
2702.822893	-3.013600	2.821900	-8.503000	29.359182	3.559312E-5	20.939053
2703.823294	-3.008700	2.820300	-8.483900	29.368046	3.318394E-5	20.928074
2704.816111	-2.982400	2.818800	-8.406000	29.374159	3.189685E-5	20.949879
2705.829150	-3.010300	2.815600	-8.474800	29.325935	3.367898E-5	20.932573
2706.818456	-3.011400	2.813600	-8.471900	29.295302	3.466905E-5	20.936787
2707.836854	-2.996400	2.810500	-8.420200	29.329487	3.229287E-5	20.924774
2708.823785	-2.983400	2.809000	-8.379400	29.311191	3.311794E-5	20.934783
2709.819608	-2.990700	2.806700	-8.393700	29.279587	3.410801E-5	20.945131
2710.818902	-3.009200	2.803400	-8.434800	29.356959	3.410801E-5	20.941554
2711.820761	-3.022700	2.800800	-8.465400	29.363779	3.084077E-5	20.937997
2712.824218	-3.027700	2.800100	-8.476800	29.373866	3.189685E-5	20.945317
2713.824283	-2.989400	2.797000	-8.360500	29.339678	3.196285E-5	20.942630
2714.818111	-2.981500	2.794500	-8.331100	29.333196	3.159982E-5	20.943208
2715.821943	-2.996900	2.792600	-8.368300	29.338923	3.080777E-5	20.951824
2716.833053	-2.999700	2.788100	-8.362600	29.337667	3.107178E-5	20.927802
2717.823147	-2.994000	2.786800	-8.342700	29.308131	3.351396E-5	20.953507
2718.824436	-2.987200	2.784000	-8.315300	29.362416	3.417401E-5	20.936149
2719.819255	-3.005200	2.780800	-8.356200	29.443719	3.295292E-5	20.939860
2720.818790	-3.000400	2.777900	-8.334400	29.453520	3.516409E-5	20.945944
2721.809098	-2.994000	2.774500	-8.305400	29.489530	3.225987E-5	20.942413
2722.823085	-2.975800	2.773100	-8.251200	29.521464	3.466905E-5	20.929086
2723.822144	-3.009600	2.768600	-8.331000	29.540513	3.410801E-5	20.963930
2724.826857	-3.007700	2.765100	-8.316000	29.555931	3.232588E-5	20.943440
2725.827350	-3.005800	2.763500	-8.305700	29.500397	3.123680E-5	20.939143
2726.821926	-3.013700	2.761300	-8.321100	29.425077	3.077476E-5	20.958525
2727.803437	-2.997900	2.757700	-8.266700	29.418883	3.443803E-5	20.957024
2728.796989	-3.027200	2.754200	-8.336800	29.446245	3.321694E-5	20.971799
2729.804453	-3.002500	2.751100	-8.259600	29.386968	3.278791E-5	20.949987
2730.818669	-2.949300	2.750100	-8.110500	29.327039	3.041174E-5	20.945064
2731.826986	-3.019200	2.745500	-8.288900	29.302626	2.971869E-5	20.952701
2732.830324	-3.005800	2.740500	-8.236300	29.309472	3.100578E-5	20.961022
2733.817655	-3.010100	2.738600	-8.242800	29.336652	3.199585E-5	20.952380
2734.828258	-2.987600	2.735600	-8.171600	29.363361	3.311794E-5	20.965546
2735.824001	-3.016400	2.731300	-8.238000	29.454439	3.222687E-5	20.957300
2736.829385	-2.999400	2.729000	-8.184000	29.550243	3.321694E-5	20.962359
2737.825189	-3.020300	2.724400	-8.227400	29.571905	3.245789E-5	20.962859
2738.826170	-3.010600	2.720300	-8.188800	29.543602	3.189685E-5	20.948080
2739.825932	-3.001200	2.717700	-8.155600	29.569161	3.103878E-5	20.960567
2740.834070	-2.971400	2.714900	-8.066300	29.639446	3.285392E-5	20.971676
2741.819559	-2.999300	2.711800	-8.132300	29.658203	3.453704E-5	20.972568
2742.828443	-2.992200	2.707000	-8.099400	29.622536	3.186384E-5	20.951787
2743.826084	-2.998200	2.703700	-8.105600	29.578794	3.156682E-5	20.948942
2744.822679	-2.997700	2.700200	-8.093200	29.569831	3.278791E-5	20.957924
2745.835754	-2.990400	2.695900	-8.061000	29.522768	3.093978E-5	20.964535
2746.828411	-2.981300	2.692000	-8.024100	29.522057	3.143481E-5	20.974722
2747.826559	-2.967100	2.688800	-7.977500	29.526343	3.229287E-5	20.968611
2748.827278	-3.002500	2.682900	-8.054500	29.569539	3.070876E-5	20.986548
2749.813826	-2.973900	2.680200	-7.969900	29.669772	3.288692E-5	20.978067
2750.806461	-2.992500	2.676200	-8.007500	29.690621	2.994970E-5	20.976802
2751.809905	-2.998400	2.671100	-8.008700	29.708726	3.103878E-5	20.968503
2752.814249	-2.997600	2.667900	-7.996600	29.678679	3.318394E-5	20.976615
2753.805876	-3.018100	2.661600	-8.031200	29.632509	3.305193E-5	20.977959
2754.811223	-2.967500	2.658900	-7.888700	29.647897	3.407501E-5	20.961706
2755.810920	-3.021900	2.653300	-8.017600	29.682571	3.285392E-5	20.982435
2756.813989	-3.006900	2.649400	-7.966100	29.609041	3.262290E-5	20.970422
2757.808364	-2.987600	2.646200	-7.905400	29.625032	3.235888E-5	20.975163
2758.811103	-3.002100	2.640000	-7.923800	29.666184	3.381099E-5	20.994835
2759.811143	-3.003600	2.636900	-7.919000	29.729708	3.222687E-5	20.987758
2760.810857	-3.024800	2.629900	-7.953100	29.698087	3.285392E-5	20.983379
2761.824491	-3.002200	2.625700	-7.882400	29.655185	3.397600E-5	20.968104
2762.808180	-3.025000	2.620200	-7.925500	29.695787	3.384399E-5	20.991017
2763.813992	-3.038800	2.614900	-7.945600	29.745509	3.252389E-5	20.993256
2764.814813	-2.992200	2.611400	-7.813600	29.775632	3.291992E-5	20.998497
2765.815294	-2.990000	2.606100	-7.791200	29.736940	3.305193E-5	20.984144
2766.812464	-2.983200	2.600500	-7.756700	29.750182	3.189685E-5	20.982323
2767.833671	-3.000200	2.594800	-7.783600	29.720947	3.232588E-5	20.997889
2768.837351	-2.989300	2.589300	-7.738600	29.694406	3.503208E-5	20.976824
2769.850572	-3.018000	2.583800	-7.797300	29.683408	3.268890E-5	20.991337
2770.839838	-3.029600	2.577600	-7.807600	29.681678	3.503208E-5	20.992439
2771.816490	-2.999400	2.571900	-7.712600	29.738925	3.605515E-5	20.979982
2772.848279	-3.006700	2.567200	-7.717700	29.763483	3.470205E-5	20.993835
2773.844819	-2.994000	2.560200	-7.663500	29.776499	3.529610E-5	20.976615
2774.843977	-2.995100	2.555700	-7.653700	29.776232	3.344796E-5	20.998154
2775.817233	-2.991400	2.549900	-7.627000	29.786163	3.549411E-5	20.988254
2776.848087	-3.024200	2.542500	-7.687700	29.781620	3.447103E-5	20.981303
2777.850466	-2.999600	2.537800	-7.611500	29.790447	3.235888E-5	21.006795
2778.850165	-2.973200	2.532800	-7.530100	29.865975	3.493307E-5	20.998553
2779.848878	-3.018700	2.524400	-7.618100	29.903618	3.381099E-5	20.992890
2780.824878	-2.995800	2.520100	-7.549100	29.938539	3.585714E-5	21.011980
2781.826316	-3.002800	2.514700	-7.549700	29.981252	3.529610E-5	21.010009
2782.826201	-2.996600	2.506700	-7.511000	29.997030	3.447103E-5	21.012170
2783.830105	-3.008900	2.500400	-7.522400	30.043235	3.367898E-5	21.006612
2784.824474	-2.985800	2.495800	-7.450600	30.052790	3.506508E-5	21.017669
