LabVIEW Measurement	
Writer_Version	2
Reader_Version	2
Separator	Tab
Decimal_Separator	.
Multi_Headings	No
X_Columns	One
Time_Pref	Absolute
Operator	admin
Description	Clolumns are: time, Current, Voltage, Power, Battery Temp, and Chamber Temp
Date	2024/08/16
Time	13:07:17.8513970375061035156
***End_of_Header***	
	
Channels	6						
Samples	1	1	1	1	1	1	
Date	2024/09/16	2024/09/16	2024/09/16	2024/09/16	2024/09/16	2024/09/16	
Time	12:09:30.9011673927307128907	12:09:30.9091706275939941407	12:09:30.9184122085571289063	12:09:30.8844838142395019531	12:09:30.8844838142395019531	12:09:30.8844838142395019531	
X_Dimension	Time	Time	Time	Time	Time	Time	
X0	0.0000000000000000E+0	0.0000000000000000E+0	0.0000000000000000E+0	0.0000000000000000E+0	0.0000000000000000E+0	0.0000000000000000E+0	
Delta_X	1.000000	1.000000	1.000000	1.000000	1.000000	1.000000	
***End_of_Header***							
X_Value	Untitled	Untitled 1	Untitled 2	Untitled 3	Untitled 4	Untitled 5	Comment
0.000000	-0.002739	4.085700	-0.011043	20.785547	0.000471	20.737656
1.002566	-2.991800	3.916500	-11.716000	20.800616	0.000472	20.721904
2.003048	-3.000100	3.909400	-11.728000	20.786164	0.000469	20.716461
3.004162	-3.005500	3.904800	-11.735000	20.803050	0.000470	20.722442
4.002728	-2.980000	3.902100	-11.627000	20.811604	0.000470	20.715348
5.004768	-2.978300	3.899300	-11.613000	20.808033	0.000470	20.735960
6.004102	-2.974500	3.896100	-11.589000	20.831839	0.000467	20.746965
7.001731	-2.989300	3.894100	-11.640000	20.824124	0.000470	20.720282
8.008798	-3.007400	3.892200	-11.704000	20.851342	0.000464	20.704352
9.002474	-2.967600	3.889900	-11.543000	20.830752	0.000466	20.725488
10.007096	-3.001000	3.887900	-11.666000	20.839785	0.000464	20.727883
11.002746	-3.007200	3.887900	-11.691000	20.851030	0.000466	20.738181
12.005960	-3.011000	3.885400	-11.698000	20.852724	0.000463	20.715692
13.007027	-2.993300	3.882400	-11.620000	20.852521	0.000463	20.727344
14.011886	-3.014300	3.881500	-11.699000	20.871456	0.000463	20.713563
15.004478	-2.995100	3.883200	-11.630000	20.879462	0.000463	20.724414
16.003790	-2.991100	3.881500	-11.608000	20.872695	0.000463	20.711483
17.003305	-3.005600	3.879300	-11.659000	20.889690	0.000462	20.723737
18.006577	-2.996800	3.879200	-11.624000	20.910797	0.000462	20.720665
19.003833	-3.012500	3.877600	-11.680000	20.904683	0.000459	20.730198
20.009975	-3.018600	3.877600	-11.704000	20.915410	0.000461	20.718640
21.009482	-2.988800	3.875500	-11.582000	20.932497	0.000458	20.719607
22.013011	-3.006600	3.876600	-11.653000	20.946147	0.000459	20.719034
23.011132	-3.001500	3.875700	-11.632000	20.943075	0.000459	20.727342
24.007757	-3.004600	3.873400	-11.636000	20.954779	0.000459	20.728143
25.020118	-3.008000	3.874600	-11.654000	20.965229	0.000457	20.714885
26.012874	-2.994400	3.874000	-11.599000	20.967218	0.000458	20.722091
27.011050	-2.995700	3.873400	-11.602000	20.978300	0.000459	20.687653
28.018536	-3.029300	3.872500	-11.731000	20.978621	0.000455	20.714529
29.014379	-3.015600	3.871900	-11.676000	20.990177	0.000458	20.729881
30.012025	-3.002800	3.872900	-11.629000	21.002413	0.000457	20.731214
31.011636	-3.016100	3.870400	-11.673000	21.007085	0.000455	20.709806
32.020547	-2.996100	3.870000	-11.594000	21.034526	0.000456	20.707855
33.014824	-3.007900	3.869100	-11.636000	21.017529	0.000455	20.717408
34.016009	-3.003000	3.870100	-11.620000	21.040111	0.000453	20.721503
35.015569	-3.009500	3.869300	-11.644000	21.028457	0.000454	20.714587
36.022479	-2.986600	3.869800	-11.556000	21.049567	0.000454	20.721004
37.012426	-3.018900	3.867700	-11.675000	21.064460	0.000453	20.721201
38.013581	-3.011500	3.867400	-11.645000	21.068296	0.000454	20.711762
39.013735	-3.001600	3.868700	-11.612000	21.084592	0.000454	20.714310
40.015650	-3.006500	3.867300	-11.626000	21.086063	0.000452	20.706773
41.014751	-3.015300	3.867400	-11.661000	21.101104	0.000453	20.721344
42.015527	-2.972300	3.867000	-11.493000	21.117793	0.000454	20.715278
43.016275	-3.008600	3.865400	-11.628000	21.117991	0.000454	20.726382
44.018234	-3.006100	3.865800	-11.620000	21.140343	0.000453	20.716498
45.027844	-2.987700	3.865800	-11.549000	21.129189	0.000454	20.713875
46.017742	-3.000000	3.865700	-11.596000	21.129732	0.000455	20.704460
47.020723	-2.983300	3.864600	-11.528000	21.162063	0.000454	20.715940
48.020542	-2.973800	3.866300	-11.496000	21.160469	0.000455	20.725250
49.026235	-2.998700	3.863900	-11.585000	21.160093	0.000454	20.719185
50.021623	-2.993900	3.864400	-11.568000	21.159392	0.000452	20.722751
51.026459	-3.001100	3.863800	-11.595000	21.183265	0.000455	20.720079
52.020916	-3.006900	3.862600	-11.613000	21.187901	0.000453	20.723294
53.020864	-2.992700	3.865500	-11.567000	21.208806	0.000457	20.732827
54.019282	-3.007100	3.863200	-11.616000	21.198773	0.000453	20.723264
55.025945	-3.003600	3.863100	-11.603000	21.203488	0.000452	20.726559
56.025402	-2.983700	3.863600	-11.527000	21.221489	0.000455	20.711374
57.023192	-2.992300	3.861600	-11.555000	21.252574	0.000453	20.697899
58.024021	-2.983400	3.862600	-11.523000	21.256810	0.000453	20.704982
59.026695	-2.990300	3.860900	-11.545000	21.262388	0.000454	20.719573
60.021722	-3.009600	3.861400	-11.620000	21.281845	0.000452	20.704898
61.026006	-3.009500	3.861500	-11.620000	21.271719	0.000452	20.712312
62.032082	-2.990900	3.861100	-11.547000	21.274257	0.000452	20.703945
63.022212	-2.992500	3.861200	-11.554000	21.301711	0.000453	20.693003
64.021172	-2.993400	3.861500	-11.558000	21.286194	0.000454	20.716362
65.021389	-2.993500	3.860000	-11.554000	21.300758	0.000452	20.723346
66.022210	-3.002000	3.860200	-11.587000	21.323581	0.000452	20.717730
67.022184	-2.980700	3.860300	-11.505000	21.327017	0.000454	20.720219
68.023866	-2.992700	3.860200	-11.552000	21.352303	0.000453	20.726551
69.020618	-3.026900	3.860200	-11.684000	21.342573	0.000452	20.728670
70.024094	-2.990300	3.860100	-11.542000	21.352772	0.000452	20.721804
71.027896	-2.993700	3.860600	-11.556000	21.384648	0.000453	20.709599
72.028045	-2.987700	3.860800	-11.534000	21.375984	0.000451	20.735545
73.021089	-3.009800	3.859000	-11.614000	21.390250	0.000452	20.707143
74.023775	-2.994900	3.857800	-11.553000	21.419030	0.000451	20.740208
75.026149	-2.979800	3.858600	-11.496000	21.432467	0.000454	20.734685
76.022684	-3.014500	3.856900	-11.626000	21.432417	0.000451	20.729420
77.025848	-3.001000	3.857000	-11.574000	21.424011	0.000454	20.723853
78.022581	-3.011500	3.857200	-11.615000	21.447522	0.000454	20.747379
79.025272	-3.003800	3.859600	-11.593000	21.464409	0.000451	20.746732
80.023393	-3.011000	3.858000	-11.615000	21.453308	0.000452	20.747952
81.025954	-2.995000	3.857300	-11.552000	21.462060	0.000452	20.719723
82.024073	-3.027100	3.856700	-11.674000	21.482806	0.000453	20.721990
83.031143	-2.986500	3.857900	-11.520000	21.491741	0.000455	20.728560
84.027484	-2.986600	3.857400	-11.520000	21.483201	0.000454	20.730447
85.024980	-3.006300	3.856400	-11.593000	21.505300	0.000454	20.744025
86.030005	-2.985200	3.855800	-11.508000	21.505418	0.000454	20.726124
87.024454	-3.016900	3.855900	-11.632000	21.509412	0.000454	20.717318
88.029237	-3.017300	3.855800	-11.633000	21.527413	0.000452	20.744341
89.022904	-3.012800	3.855900	-11.616000	21.518282	0.000453	20.756066
90.026457	-3.001100	3.856500	-11.573000	21.539901	0.000453	20.743086
91.027407	-2.984100	3.856800	-11.508000	21.547182	0.000456	20.729033
92.025456	-3.005900	3.855900	-11.590000	21.550750	0.000455	20.744459
93.030289	-2.971500	3.856600	-11.459000	21.575834	0.000453	20.735420
94.026297	-2.979000	3.856400	-11.487000	21.595360	0.000453	20.733148
95.027526	-2.978300	3.855300	-11.482000	21.602215	0.000456	20.733844
96.027410	-2.994500	3.855200	-11.544000	21.598745	0.000454	20.747442
97.028224	-2.985800	3.854600	-11.508000	21.627268	0.000455	20.745165
98.026069	-2.990100	3.853600	-11.521000	21.624356	0.000456	20.765959
99.028946	-2.996500	3.854500	-11.549000	21.632781	0.000454	20.735034
100.030478	-2.992100	3.854300	-11.531000	21.625274	0.000455	20.757395
101.028078	-2.977900	3.855600	-11.480000	21.650830	0.000454	20.730337
102.028887	-2.994900	3.855100	-11.545000	21.640086	0.000456	20.728593
103.028874	-3.009400	3.853800	-11.597000	21.658663	0.000455	20.742443
104.031515	-3.015800	3.853400	-11.620000	21.665567	0.000455	20.739396
105.028469	-2.983700	3.855000	-11.501000	21.697933	0.000456	20.743811
106.028798	-2.993600	3.852900	-11.533000	21.694839	0.000454	20.741663
107.027920	-2.992800	3.854000	-11.533000	21.698185	0.000455	20.730786
108.028137	-3.005700	3.853500	-11.582000	21.698609	0.000456	20.735005
109.032065	-2.998000	3.853200	-11.549000	21.699552	0.000456	20.767717
110.037148	-2.986400	3.852500	-11.504000	21.703594	0.000457	20.747106
111.039004	-3.006600	3.852100	-11.580000	21.719974	0.000456	20.756861
112.031342	-2.993800	3.853200	-11.534000	21.739226	0.000458	20.752895
113.031488	-3.034500	3.852000	-11.688000	21.735287	0.000458	20.774558
114.034328	-3.009800	3.851300	-11.591000	21.748178	0.000459	20.759958
115.033637	-2.990000	3.852700	-11.519000	21.760476	0.000459	20.748084
116.031271	-2.983200	3.852600	-11.492000	21.754638	0.000459	20.756466
117.045776	-2.982900	3.851900	-11.489000	21.790322	0.000457	20.759938
118.035846	-3.002800	3.851200	-11.564000	21.773292	0.000456	20.737203
119.032769	-3.000300	3.850700	-11.552000	21.789873	0.000458	20.732935
120.038815	-2.999400	3.850900	-11.549000	21.775138	0.000460	20.734308
121.034465	-2.993100	3.851800	-11.528000	21.779554	0.000456	20.740626
122.035196	-2.999100	3.851500	-11.550000	21.782126	0.000457	20.750786
123.032559	-2.992200	3.849800	-11.518000	21.816383	0.000459	20.728648
124.034060	-2.999700	3.850300	-11.548000	21.815391	0.000459	20.760847
125.034557	-3.027200	3.848100	-11.648000	21.823716	0.000458	20.758748
126.039486	-3.007600	3.848900	-11.575000	21.847180	0.000461	20.732446
127.034894	-3.009800	3.849700	-11.585000	21.843218	0.000461	20.754560
128.036888	-2.992800	3.848700	-11.517000	21.861767	0.000460	20.756530
129.045240	-3.007300	3.849500	-11.576000	21.865483	0.000460	20.747447
130.036685	-3.003700	3.848600	-11.559000	21.869899	0.000462	20.752816
131.039989	-3.023000	3.847900	-11.631000	21.891966	0.000460	20.751670
132.042238	-2.998800	3.848700	-11.541000	21.916791	0.000461	20.740957
133.036844	-2.968400	3.849500	-11.426000	21.886509	0.000460	20.751898
134.037880	-3.004500	3.848500	-11.562000	21.923531	0.000462	20.760033
135.036669	-3.020700	3.848500	-11.625000	21.929818	0.000461	20.754471
136.038211	-3.009100	3.847700	-11.577000	21.914961	0.000462	20.741021
137.042895	-2.972200	3.849700	-11.441000	21.916031	0.000462	20.762008
138.037700	-2.983000	3.847700	-11.477000	21.945153	0.000462	20.751330
139.042161	-2.998800	3.848000	-11.538000	21.942336	0.000462	20.776960
140.040319	-2.995700	3.848600	-11.528000	21.967095	0.000464	20.748638
141.048008	-2.982000	3.849800	-11.479000	21.966419	0.000465	20.758867
142.042070	-3.015200	3.846600	-11.596000	21.983669	0.000461	20.769971
143.042177	-2.988700	3.847200	-11.497000	22.006410	0.000464	20.747216
144.056155	-2.988900	3.847000	-11.498000	22.001495	0.000464	20.761737
145.043776	-2.996800	3.847900	-11.530000	22.016707	0.000464	20.740928
146.044743	-3.013500	3.846100	-11.589000	22.004318	0.000466	20.757924
147.047111	-2.999200	3.846100	-11.535000	22.026530	0.000464	20.754081
148.044924	-3.005200	3.846100	-11.557000	22.035228	0.000463	20.763263
149.044565	-3.007600	3.845000	-11.562000	22.028197	0.000465	20.764760
150.050729	-2.978600	3.845400	-11.453000	22.030610	0.000466	20.759588
151.045775	-2.999600	3.845000	-11.532000	22.033057	0.000467	20.752555
152.049933	-2.987500	3.846700	-11.491000	22.079370	0.000466	20.760038
153.049731	-3.030900	3.844100	-11.650000	22.071866	0.000469	20.762957
154.044902	-3.008600	3.845200	-11.567000	22.111398	0.000468	20.767921
155.047994	-2.998300	3.844600	-11.527000	22.108803	0.000468	20.776228
156.048637	-3.005800	3.844000	-11.554000	22.110692	0.000466	20.771007
157.047423	-2.998600	3.843900	-11.525000	22.115103	0.000466	20.783958
158.049957	-3.002300	3.844100	-11.540000	22.119938	0.000467	20.786427
159.050245	-3.007200	3.844500	-11.560000	22.118290	0.000467	20.781933
160.051829	-2.973900	3.843800	-11.430000	22.144412	0.000467	20.782955
161.053535	-2.994500	3.843500	-11.509000	22.163203	0.000469	20.769525
162.049602	-2.984600	3.843500	-11.470000	22.148847	0.000467	20.785025
163.057016	-2.991700	3.844000	-11.498000	22.168486	0.000467	20.773867
164.058465	-3.002100	3.844000	-11.538000	22.166710	0.000470	20.795322
165.052563	-3.002900	3.843400	-11.541000	22.162472	0.000469	20.792976
166.054534	-2.998500	3.843900	-11.525000	22.180316	0.000469	20.747778
167.052570	-2.979600	3.842900	-11.450000	22.189166	0.000471	20.760432
168.073365	-3.002400	3.843200	-11.537000	22.200724	0.000470	20.772004
169.053000	-2.976200	3.843400	-11.437000	22.191381	0.000470	20.776875
170.061798	-2.988500	3.843600	-11.486000	22.198479	0.000473	20.779714
171.054036	-2.999100	3.841200	-11.519000	22.196486	0.000472	20.781987
172.053626	-3.008000	3.841700	-11.554000	22.215528	0.000474	20.800577
173.058022	-2.992800	3.842300	-11.498000	22.230400	0.000472	20.779433
174.060898	-3.020200	3.840900	-11.599000	22.242496	0.000473	20.778741
175.055517	-3.006100	3.840400	-11.544000	22.256170	0.000472	20.782001
176.055709	-3.003000	3.842100	-11.537000	22.260210	0.000474	20.793633
177.058422	-2.991700	3.840400	-11.488000	22.281495	0.000473	20.781754
178.053432	-3.009400	3.840300	-11.556000	22.288765	0.000473	20.777655
179.068930	-2.984700	3.840800	-11.464000	22.302621	0.000475	20.791054
180.057726	-2.983100	3.841500	-11.458000	22.293974	0.000475	20.777655
181.056333	-2.978200	3.840500	-11.436000	22.305216	0.000474	20.764254
182.058251	-3.002700	3.839900	-11.529000	22.318672	0.000474	20.797169
183.058831	-2.992900	3.839300	-11.489000	22.353589	0.000477	20.782347
184.057092	-2.992400	3.840500	-11.491000	22.340325	0.000475	20.777126
185.056971	-3.010200	3.838800	-11.555000	22.351315	0.000476	20.789079
186.057742	-3.003800	3.839500	-11.532000	22.338708	0.000479	20.782144
187.065625	-2.993200	3.840500	-11.494000	22.328709	0.000475	20.767391
188.058884	-2.990900	3.839800	-11.484000	22.350289	0.000478	20.787103
189.058899	-3.001100	3.839100	-11.521000	22.372470	0.000477	20.796512
190.062634	-2.985600	3.838100	-11.458000	22.362871	0.000479	20.813927
191.062413	-2.987500	3.838600	-11.466000	22.341588	0.000478	20.791667
192.058741	-2.985500	3.838400	-11.459000	22.375730	0.000479	20.777491
193.059257	-2.990400	3.838600	-11.478000	22.374980	0.000479	20.780060
194.058332	-3.002000	3.838700	-11.522000	22.388791	0.000476	20.798631
195.061294	-2.983000	3.838800	-11.450000	22.411834	0.000480	20.799421
196.060739	-3.025300	3.837600	-11.609000	22.441914	0.000481	20.805837
197.062051	-3.007900	3.837200	-11.540000	22.417417	0.000481	20.798848
198.059816	-3.022000	3.837200	-11.596000	22.436361	0.000482	20.787473
199.062057	-3.009500	3.838000	-11.550000	22.458486	0.000480	20.800147
200.061313	-3.011500	3.836700	-11.554000	22.459906	0.000481	20.798725
201.063793	-2.997800	3.837100	-11.502000	22.458910	0.000483	20.791089
202.060204	-2.992400	3.836000	-11.478000	22.504189	0.000480	20.788545
203.060554	-2.987300	3.836900	-11.461000	22.467679	0.000483	20.805560
204.060570	-2.998200	3.836700	-11.502000	22.477449	0.000482	20.804913
205.063658	-3.001700	3.834300	-11.507000	22.489009	0.000481	20.811275
206.065922	-2.988700	3.835600	-11.463000	22.502019	0.000482	20.826675
207.061651	-2.994800	3.834900	-11.484000	22.516967	0.000483	20.801342
208.062309	-3.017300	3.834500	-11.569000	22.526717	0.000483	20.811107
209.065159	-2.987000	3.836200	-11.458000	22.564666	0.000484	20.800750
210.063411	-3.021800	3.834100	-11.585000	22.568675	0.000485	20.806187
211.065212	-2.988200	3.833300	-11.454000	22.561376	0.000484	20.808835
212.062316	-2.989800	3.834000	-11.462000	22.576047	0.000485	20.809304
213.061434	-3.000800	3.834900	-11.507000	22.594565	0.000486	20.810307
214.063473	-2.995800	3.834800	-11.488000	22.590580	0.000487	20.782134
215.062761	-2.989500	3.833200	-11.459000	22.589209	0.000485	20.816797
216.064762	-2.999100	3.832600	-11.493000	22.606578	0.000488	20.823286
217.069352	-3.005100	3.833200	-11.518000	22.597361	0.000485	20.787503
218.066143	-3.002600	3.833600	-11.510000	22.599955	0.000486	20.810490
219.063565	-3.005700	3.833100	-11.520000	22.616174	0.000487	20.817725
220.067881	-2.995000	3.834100	-11.482000	22.610764	0.000488	20.832221
221.065136	-2.974900	3.832700	-11.401000	22.615400	0.000489	20.841131
222.069956	-2.987700	3.832000	-11.448000	22.596335	0.000487	20.823459
223.065044	-2.978100	3.832300	-11.411000	22.616248	0.000488	20.804049
224.064432	-2.993200	3.830800	-11.465000	22.631722	0.000487	20.808642
225.066482	-2.975400	3.833400	-11.406000	22.662241	0.000488	20.799382
226.065917	-3.006900	3.831700	-11.520000	22.641880	0.000489	20.822136
227.071177	-2.992300	3.831600	-11.465000	22.652970	0.000489	20.814278
228.066998	-3.005600	3.831500	-11.514000	22.659129	0.000491	20.814757
229.065414	-2.996900	3.830000	-11.477000	22.685589	0.000490	20.809492
230.064032	-3.016000	3.829700	-11.550000	22.692985	0.000492	20.844400
231.066322	-3.008600	3.830000	-11.522000	22.688700	0.000490	20.820195
232.069295	-3.016900	3.829400	-11.552000	22.720342	0.000491	20.843828
233.069053	-3.000100	3.830600	-11.491000	22.710598	0.000490	20.830275
234.069653	-2.995800	3.830000	-11.473000	22.724000	0.000492	20.835165
235.066743	-2.993300	3.830000	-11.464000	22.720287	0.000493	20.820066
236.072107	-3.038200	3.829100	-11.631000	22.731894	0.000489	20.820313
237.068582	-3.006300	3.828900	-11.510000	22.753816	0.000494	20.830418
238.068560	-2.983000	3.829000	-11.421000	22.754590	0.000493	20.830720
239.068241	-3.003600	3.828200	-11.497000	22.773351	0.000494	20.826754
240.068037	-3.001700	3.829100	-11.493000	22.783612	0.000492	20.830868
241.070632	-2.995200	3.828300	-11.465000	22.774545	0.000492	20.803293
242.070398	-3.009200	3.829000	-11.522000	22.754689	0.000493	20.842672
243.073686	-3.011300	3.826400	-11.521000	22.797812	0.000493	20.815221
244.071139	-3.006000	3.827700	-11.505000	22.799281	0.000495	20.822857
245.073152	-2.992300	3.827700	-11.452000	22.816296	0.000494	20.838953
246.072070	-3.018000	3.828200	-11.552000	22.818485	0.000495	20.835456
247.073191	-3.014400	3.828400	-11.539000	22.826358	0.000496	20.831964
248.078290	-3.014000	3.826300	-11.531000	22.824169	0.000496	20.814125
249.071523	-2.986300	3.826500	-11.426000	22.830796	0.000496	20.851107
250.072083	-2.954100	3.827700	-11.306000	22.840637	0.000496	20.803120
251.073124	-3.027200	3.825300	-11.579000	22.844872	0.000496	20.827751
252.073367	-3.019800	3.825300	-11.551000	22.856152	0.000497	20.834310
253.077034	-3.018000	3.825500	-11.544000	22.841978	0.000497	20.844292
254.074787	-2.983900	3.825900	-11.416000	22.864499	0.000498	20.838879
255.073698	-3.001500	3.826800	-11.485000	22.872367	0.000498	20.859563
256.078479	-2.993200	3.826100	-11.452000	22.880892	0.000497	20.851033
257.074380	-3.008900	3.824500	-11.506000	22.912725	0.000499	20.836459
258.077909	-2.988400	3.825100	-11.430000	22.915461	0.000501	20.820234
259.076451	-3.004000	3.823100	-11.484000	22.932627	0.000498	20.838854
260.077724	-2.994400	3.823900	-11.450000	22.926050	0.000499	20.855498
261.078662	-3.009700	3.823700	-11.507000	22.939671	0.000502	20.853024
262.077278	-2.997400	3.825200	-11.464000	22.936659	0.000502	20.836730
263.079432	-3.005000	3.823100	-11.487000	22.949068	0.000502	20.853429
264.079968	-2.964500	3.823800	-11.334000	22.963118	0.000501	20.832419
265.079380	-3.019000	3.821700	-11.537000	22.969694	0.000502	20.874093
266.075103	-2.999700	3.822200	-11.465000	22.954096	0.000501	20.844716
267.079340	-3.002800	3.822400	-11.476000	22.940376	0.000501	20.857997
268.077270	-3.003200	3.821700	-11.476000	22.980105	0.000502	20.844697
269.080919	-3.011400	3.820800	-11.505000	22.977537	0.000502	20.855873
270.093527	-2.983500	3.822200	-11.403000	22.977216	0.000503	20.818570
271.081210	-3.009300	3.821900	-11.500000	22.994682	0.000502	20.855034
272.083585	-3.007800	3.821400	-11.493000	22.990670	0.000504	20.852910
273.080669	-3.016200	3.820500	-11.522000	22.982255	0.000505	20.842583
274.087854	-3.002300	3.822400	-11.475000	23.009979	0.000503	20.854239
275.083880	-3.007700	3.821900	-11.494000	23.016037	0.000504	20.863628
276.081211	-3.016100	3.821600	-11.525000	23.021637	0.000504	20.846006
277.080097	-3.005700	3.821300	-11.485000	23.073021	0.000506	20.842963
278.081799	-2.995900	3.820100	-11.444000	23.054713	0.000506	20.837896
279.084997	-3.010500	3.821000	-11.501000	23.066445	0.000506	20.872409
280.083183	-2.954700	3.820900	-11.288000	23.074465	0.000507	20.853893
281.080696	-3.010300	3.820500	-11.499000	23.082189	0.000508	20.857365
282.080466	-3.004100	3.820100	-11.475000	23.089238	0.000506	20.852575
283.083657	-3.000300	3.819000	-11.457000	23.084575	0.000507	20.866393
284.085970	-2.996100	3.819000	-11.441000	23.066524	0.000508	20.826971
285.085229	-2.996700	3.820100	-11.447000	23.078152	0.000509	20.872285
286.081013	-2.965400	3.820300	-11.328000	23.085225	0.000509	20.870364
287.083120	-2.993800	3.818000	-11.429000	23.096735	0.000508	20.852975
288.081348	-2.981300	3.818800	-11.384000	23.103882	0.000509	20.878627
289.082402	-2.994700	3.818200	-11.433000	23.117206	0.000509	20.856891
290.090159	-3.001300	3.818400	-11.458000	23.117156	0.000508	20.863005
291.082993	-3.010300	3.816200	-11.487000	23.134590	0.000509	20.865776
292.086241	-2.993000	3.818800	-11.429000	23.128237	0.000510	20.869367
293.085703	-3.016600	3.818400	-11.517000	23.133318	0.000510	20.864028
294.089376	-3.004500	3.816700	-11.466000	23.131105	0.000510	20.869870
295.086522	-3.016900	3.816400	-11.513000	23.139470	0.000509	20.846485
296.087798	-3.022500	3.816500	-11.535000	23.143733	0.000510	20.860240
297.085934	-3.011900	3.816100	-11.492000	23.147494	0.000510	20.877758
298.085456	-3.004500	3.815600	-11.462000	23.147617	0.000510	20.845641
299.084900	-3.024400	3.816500	-11.542000	23.171429	0.000513	20.872819
300.088869	-3.014700	3.815400	-11.501000	23.171424	0.000512	20.865228
301.086014	-3.000000	3.815800	-11.446000	23.190257	0.000513	20.879832
302.085640	-3.010300	3.815400	-11.484000	23.182563	0.000513	20.850313
303.090560	-3.008000	3.815300	-11.475000	23.163365	0.000511	20.886549
304.088309	-3.012200	3.814200	-11.488000	23.200021	0.000513	20.860694
305.092710	-2.995200	3.813800	-11.423000	23.215935	0.000513	20.860522
306.088017	-2.990200	3.813400	-11.402000	23.204235	0.000513	20.853064
307.087628	-2.999800	3.812900	-11.436000	23.237754	0.000512	20.843507
308.085044	-2.999000	3.813900	-11.437000	23.252249	0.000513	20.844283
309.087383	-2.987800	3.812500	-11.390000	23.232924	0.000514	20.858107
310.086216	-2.999700	3.813400	-11.439000	23.239573	0.000514	20.851019
311.090171	-2.979300	3.812900	-11.359000	23.256236	0.000515	20.867718
312.086437	-2.986900	3.812900	-11.388000	23.277374	0.000513	20.859978
313.086641	-2.980000	3.813200	-11.363000	23.259676	0.000514	20.847933
314.088737	-2.990400	3.811100	-11.396000	23.237666	0.000516	20.843419
315.086506	-3.000500	3.812000	-11.437000	23.263294	0.000515	20.845868
316.090785	-3.003300	3.811400	-11.444000	23.276093	0.000516	20.853479
317.088308	-2.978100	3.812000	-11.352000	23.269390	0.000518	20.832064
318.087378	-2.997000	3.811300	-11.422000	23.274225	0.000517	20.822685
319.086098	-2.995500	3.811500	-11.416000	23.293973	0.000515	20.851484
320.090349	-3.008600	3.810700	-11.463000	23.310438	0.000518	20.832899
321.091332	-3.001300	3.810100	-11.435000	23.340987	0.000516	20.843602
322.101340	-3.019300	3.810100	-11.503000	23.361759	0.000517	20.826014
323.089836	-3.000700	3.809600	-11.431000	23.361439	0.000517	20.836124
324.092920	-2.982100	3.809500	-11.359000	23.350809	0.000518	20.818833
325.093863	-3.002900	3.809100	-11.436000	23.341421	0.000516	20.826968
326.090835	-2.999300	3.809100	-11.424000	23.339332	0.000519	20.818236
327.096675	-3.008000	3.808400	-11.453000	23.338312	0.000519	20.827644
328.093770	-3.014200	3.808800	-11.480000	23.333931	0.000519	20.844590
329.092981	-3.010900	3.808100	-11.465000	23.317052	0.000520	20.831941
330.092430	-3.012600	3.808400	-11.472000	23.336878	0.000518	20.818621
331.092147	-2.998600	3.808200	-11.419000	23.331994	0.000518	20.829373
332.095026	-3.000500	3.806300	-11.420000	23.333290	0.000520	20.840629
333.094944	-3.012100	3.807800	-11.469000	23.374730	0.000522	20.849445
334.093544	-3.035600	3.806400	-11.554000	23.398832	0.000521	20.823343
335.094014	-3.004400	3.806800	-11.436000	23.377002	0.000522	20.810946
336.094872	-2.989300	3.807000	-11.379000	23.422239	0.000521	20.827838
337.095565	-2.979200	3.808200	-11.344000	23.420672	0.000522	20.833853
338.097488	-2.985000	3.806700	-11.361000	23.407377	0.000521	20.834752
339.095977	-3.017700	3.805200	-11.482000	23.391771	0.000522	20.823852
340.095458	-3.015700	3.804900	-11.473000	23.387686	0.000524	20.848680
341.099390	-3.003300	3.805500	-11.428000	23.392540	0.000523	20.831735
342.095258	-2.992100	3.806400	-11.388000	23.389854	0.000524	20.829991
343.099557	-2.994100	3.804800	-11.391000	23.416149	0.000524	20.822682
344.100753	-2.975900	3.805100	-11.323000	23.414976	0.000524	20.824351
345.096780	-3.006500	3.805800	-11.441000	23.429518	0.000524	20.830391
346.096587	-2.997600	3.805200	-11.405000	23.410226	0.000524	20.812952
347.097268	-2.977000	3.805800	-11.329000	23.435919	0.000523	20.824005
348.098931	-3.007800	3.805500	-11.446000	23.474629	0.000524	20.819185
349.107785	-3.014200	3.804300	-11.466000	23.462808	0.000524	20.813500
350.097072	-3.008200	3.802800	-11.438000	23.481902	0.000524	20.803242
351.098022	-2.995900	3.804800	-11.398000	23.495921	0.000526	20.822035
352.105989	-2.989900	3.803100	-11.370000	23.469382	0.000525	20.812502
353.098268	-2.988100	3.802500	-11.360000	23.472915	0.000525	20.798500
354.102244	-3.006800	3.803100	-11.432000	23.467938	0.000526	20.799202
355.099235	-2.992600	3.803400	-11.382000	23.474142	0.000525	20.816800
356.098392	-2.997700	3.802200	-11.397000	23.477478	0.000526	20.812083
357.100594	-2.999600	3.802600	-11.406000	23.478621	0.000524	20.808961
358.099196	-3.019700	3.801000	-11.477000	23.516512	0.000526	20.819916
359.098859	-2.999100	3.801000	-11.399000	23.535517	0.000527	20.793448
360.112374	-2.992900	3.800600	-11.373000	23.530185	0.000527	20.832199
361.099701	-2.994100	3.801200	-11.380000	23.522735	0.000529	20.812404
362.102207	-3.005000	3.800200	-11.419000	23.493886	0.000528	20.806719
363.100959	-2.992600	3.800700	-11.373000	23.499464	0.000528	20.803775
364.108251	-3.013500	3.799700	-11.449000	23.521420	0.000530	20.817723
365.110288	-2.990900	3.800100	-11.365000	23.547485	0.000527	20.811609
366.111041	-3.013400	3.798500	-11.446000	23.536206	0.000529	20.814053
367.103593	-3.010000	3.799700	-11.436000	23.552269	0.000528	20.803128
368.108755	-3.016300	3.799200	-11.459000	23.571608	0.000530	20.812557
369.105200	-3.012300	3.798900	-11.443000	23.596523	0.000530	20.801024
370.115876	-2.991100	3.799000	-11.362000	23.605589	0.000529	20.800629
371.103917	-3.012300	3.798100	-11.440000	23.624330	0.000530	20.796658
372.108828	-3.002800	3.797100	-11.401000	23.657684	0.000530	20.790741
373.104585	-2.964300	3.800200	-11.264000	23.663586	0.000528	20.809460
374.113293	-3.017400	3.798000	-11.459000	23.638367	0.000529	20.801720
375.122253	-2.987300	3.798000	-11.345000	23.590847	0.000531	20.788696
376.109821	-3.009100	3.795600	-11.420000	23.598440	0.000531	20.791092
377.121218	-3.007000	3.794900	-11.411000	23.613422	0.000531	20.810379
378.104924	-3.001400	3.798100	-11.398000	23.608619	0.000532	20.788493
379.113114	-2.970800	3.797000	-11.280000	23.647378	0.000533	20.777089
380.109957	-2.999000	3.796500	-11.385000	23.639559	0.000534	20.777311
381.109912	-3.025800	3.795900	-11.485000	23.656039	0.000534	20.808531
382.107778	-2.998400	3.794700	-11.377000	23.631267	0.000534	20.768998
383.107156	-3.020600	3.794700	-11.462000	23.656955	0.000533	20.793803
384.110518	-2.976400	3.794400	-11.293000	23.688317	0.000532	20.797744
385.109877	-2.973100	3.796600	-11.287000	23.666660	0.000535	20.790731
386.112899	-2.995500	3.794400	-11.365000	23.662325	0.000534	20.802031
387.116559	-2.998400	3.794300	-11.376000	23.644480	0.000535	20.779874
388.121338	-2.992600	3.795200	-11.356000	23.648885	0.000534	20.802782
389.134525	-2.989400	3.793500	-11.340000	23.641465	0.000534	20.800559
390.109140	-3.004600	3.793000	-11.395000	23.677011	0.000533	20.792099
391.108520	-3.008700	3.793900	-11.414000	23.702397	0.000535	20.800480
392.112185	-2.982900	3.793900	-11.316000	23.735803	0.000535	20.801256
393.112769	-2.979800	3.794500	-11.306000	23.757729	0.000534	20.787204
394.111697	-3.003700	3.793000	-11.392000	23.734881	0.000535	20.780417
395.120301	-2.967800	3.792700	-11.255000	23.735645	0.000533	20.784028
396.111861	-2.979100	3.793100	-11.299000	23.751877	0.000537	20.792716
397.114746	-2.983200	3.792800	-11.313000	23.755912	0.000534	20.790597
398.111925	-2.994900	3.791000	-11.353000	23.760069	0.000534	20.781963
399.113448	-2.996400	3.790300	-11.356000	23.752773	0.000533	20.788399
400.111613	-3.014500	3.790700	-11.425000	23.721787	0.000533	20.789575
401.111596	-3.014400	3.791600	-11.428000	23.750360	0.000534	20.790720
402.112480	-3.008000	3.789400	-11.397000	23.747399	0.000535	20.770208
403.113618	-2.994200	3.791600	-11.352000	23.791084	0.000536	20.776076
404.131289	-3.013400	3.790600	-11.421000	23.779557	0.000534	20.795813
405.113811	-3.000300	3.789800	-11.369000	23.776927	0.000535	20.800762
406.113235	-3.011500	3.789700	-11.412000	23.810325	0.000535	20.783040
407.112416	-3.011000	3.789900	-11.411000	23.840989	0.000535	20.772060
408.114135	-3.007300	3.789600	-11.396000	23.863066	0.000535	20.801310
409.113949	-3.000100	3.789500	-11.368000	23.849900	0.000536	20.791427
410.113713	-2.996100	3.789600	-11.353000	23.828305	0.000535	20.767403
411.117968	-3.007400	3.789100	-11.394000	23.817005	0.000538	20.781677
412.116811	-2.982900	3.789200	-11.301000	23.819892	0.000537	20.778882
413.117175	-3.009000	3.787200	-11.395000	23.850659	0.000537	20.774170
414.115510	-3.013100	3.786600	-11.409000	23.856604	0.000539	20.770174
415.114821	-2.987500	3.788900	-11.319000	23.824429	0.000539	20.772999
416.114769	-2.989500	3.787800	-11.323000	23.815222	0.000536	20.782260
417.115633	-2.989600	3.788400	-11.325000	23.845009	0.000539	20.775617
418.114810	-3.000300	3.786400	-11.360000	23.821419	0.000536	20.799854
419.121659	-2.985000	3.787600	-11.305000	23.817907	0.000537	20.761244
420.114735	-3.005900	3.786800	-11.382000	23.831975	0.000537	20.754487
421.115974	-2.996400	3.787400	-11.348000	23.860146	0.000538	20.766139
422.118419	-3.003400	3.786600	-11.372000	23.865722	0.000536	20.791645
423.115853	-2.983900	3.784900	-11.293000	23.862037	0.000539	20.774200
424.118811	-3.004100	3.784900	-11.370000	23.859151	0.000540	20.766090
425.116405	-3.004800	3.784400	-11.371000	23.877322	0.000538	20.780991
426.117158	-2.986600	3.786300	-11.307000	23.871672	0.000539	20.769636
427.117778	-2.981500	3.784300	-11.282000	23.846541	0.000539	20.772412
428.117748	-2.995500	3.784400	-11.335000	23.833522	0.000540	20.767893
429.120569	-2.983900	3.784800	-11.293000	23.814533	0.000537	20.784414
430.121565	-3.001300	3.783700	-11.355000	23.862521	0.000541	20.766623
431.121371	-3.015200	3.783200	-11.406000	23.870609	0.000539	20.776630
432.120366	-2.991000	3.784300	-11.317000	23.875761	0.000539	20.772313
433.118506	-3.027200	3.782600	-11.450000	23.922032	0.000541	20.764658
434.126387	-3.007500	3.782200	-11.374000	23.961775	0.000543	20.761363
435.119629	-3.018400	3.782600	-11.416000	23.948609	0.000540	20.772817
436.119509	-3.005000	3.781900	-11.364000	23.936542	0.000539	20.766406
437.118833	-2.986700	3.783100	-11.298000	23.927435	0.000539	20.767705
438.119202	-3.001700	3.781100	-11.349000	23.929400	0.000542	20.747390
439.120954	-3.014300	3.781300	-11.396000	23.895355	0.000542	20.781530
440.121903	-3.005700	3.782100	-11.367000	23.933178	0.000543	20.747859
441.123233	-3.011900	3.780600	-11.385000	23.892592	0.000541	20.755051
442.120677	-3.007900	3.781700	-11.375000	23.889055	0.000542	20.760040
443.126698	-2.991700	3.780600	-11.309000	23.922283	0.000543	20.777238
444.122566	-3.005600	3.781600	-11.365000	23.984446	0.000544	20.744268
445.122718	-3.024500	3.779000	-11.428000	23.991587	0.000542	20.762336
446.121575	-2.999000	3.779400	-11.334000	23.968695	0.000544	20.744595
447.121598	-3.000100	3.780500	-11.340000	23.929622	0.000542	20.745716
448.122086	-3.002600	3.778800	-11.345000	23.948585	0.000541	20.752403
449.129561	-3.013800	3.778600	-11.387000	23.983175	0.000541	20.767177
450.127036	-3.006600	3.780100	-11.364000	23.996162	0.000543	20.746535
451.126900	-3.019900	3.777200	-11.406000	24.001604	0.000545	20.743932
452.125628	-3.014100	3.777200	-11.384000	24.002604	0.000544	20.749677
453.123273	-2.996000	3.777900	-11.318000	23.967542	0.000542	20.743438
454.125916	-3.003000	3.778500	-11.346000	23.990686	0.000543	20.747207
455.125507	-2.973300	3.778200	-11.232000	24.000954	0.000545	20.755609
456.127032	-3.009000	3.776000	-11.362000	24.028850	0.000545	20.744228
457.126258	-2.997400	3.778200	-11.324000	24.025392	0.000542	20.743132
458.126265	-3.002100	3.776600	-11.336000	24.015409	0.000542	20.750664
459.130187	-3.012200	3.776100	-11.374000	24.019443	0.000544	20.731475
460.127236	-3.035900	3.774500	-11.458000	24.020364	0.000544	20.736192
461.134223	-3.001200	3.776700	-11.334000	24.014862	0.000544	20.740632
462.128737	-3.013400	3.774400	-11.373000	24.025663	0.000543	20.747197
463.129806	-2.995100	3.775000	-11.306000	24.032804	0.000543	20.748669
464.129688	-3.001500	3.775700	-11.332000	24.010381	0.000544	20.749889
465.127932	-2.975100	3.775100	-11.230000	24.033247	0.000542	20.736310
466.129119	-2.986200	3.773900	-11.270000	24.044319	0.000546	20.721334
467.131155	-2.978800	3.774200	-11.242000	24.035912	0.000545	20.733767
468.130486	-3.007000	3.774200	-11.348000	24.054548	0.000544	20.736335
469.131442	-2.986900	3.774600	-11.274000	24.037300	0.000544	20.760765
470.135365	-2.998500	3.773400	-11.314000	24.037153	0.000544	20.754927
471.130412	-3.010900	3.773400	-11.360000	24.033917	0.000543	20.733189
472.132617	-2.986800	3.773100	-11.269000	24.057857	0.000548	20.739180
473.131372	-2.988100	3.772300	-11.271000	24.094059	0.000545	20.734236
474.132450	-2.982600	3.772800	-11.251000	24.085421	0.000546	20.732685
475.152442	-2.989000	3.771900	-11.274000	24.061738	0.000544	20.741650
476.135138	-3.002900	3.772400	-11.327000	24.077856	0.000544	20.754022
477.134649	-2.987600	3.773200	-11.272000	24.098954	0.000545	20.722549
478.134858	-2.994600	3.772400	-11.296000	24.100003	0.000544	20.733085
479.134017	-2.995200	3.771400	-11.295000	24.055409	0.000545	20.743838
480.134845	-2.990900	3.771300	-11.278000	24.094128	0.000543	20.734305
481.138353	-2.986600	3.771000	-11.262000	24.091119	0.000544	20.730338
482.134794	-2.993100	3.771000	-11.286000	24.113304	0.000545	20.720346
483.137258	-3.001900	3.769900	-11.315000	24.109926	0.000545	20.731183
484.134568	-2.984300	3.771000	-11.253000	24.114575	0.000546	20.735371
485.134919	-2.974700	3.769900	-11.214000	24.104223	0.000542	20.723092
486.139542	-2.991200	3.770500	-11.278000	24.152936	0.000544	20.732121
487.136621	-3.010100	3.769400	-11.346000	24.152488	0.000545	20.725507
488.138784	-3.001500	3.768200	-11.310000	24.172718	0.000545	20.729676
489.137326	-2.996600	3.767800	-11.289000	24.175485	0.000544	20.720598
490.138117	-3.006700	3.767500	-11.327000	24.143156	0.000544	20.723260
491.141136	-3.003700	3.767400	-11.315000	24.160101	0.000544	20.717021
492.139956	-3.005000	3.768800	-11.324000	24.130545	0.000543	20.734319
493.141404	-3.008900	3.767800	-11.336000	24.114171	0.000546	20.716473
494.144396	-3.004300	3.767900	-11.319000	24.152464	0.000545	20.745872
495.142673	-2.998600	3.768100	-11.298000	24.190184	0.000543	20.729651
496.141119	-3.003700	3.767600	-11.316000	24.197423	0.000544	20.716997
497.141820	-2.994300	3.767400	-11.280000	24.195389	0.000544	20.729656
498.143697	-3.006300	3.766700	-11.323000	24.193094	0.000546	20.719768
499.142047	-2.996200	3.766500	-11.284000	24.189741	0.000545	20.723043
500.143367	-2.984000	3.765400	-11.235000	24.193843	0.000543	20.729054
501.145821	-2.980100	3.765500	-11.220000	24.187077	0.000544	20.705671
502.144237	-2.994600	3.764500	-11.272000	24.200762	0.000543	20.731726
503.148000	-3.002400	3.764600	-11.302000	24.205390	0.000545	20.714082
504.145333	-3.024200	3.763600	-11.381000	24.264706	0.000543	20.712413
505.150785	-2.997800	3.763500	-11.280000	24.242114	0.000546	20.732902
506.145450	-2.997700	3.763300	-11.279000	24.239603	0.000545	20.703354
507.145795	-3.006600	3.763900	-11.316000	24.232414	0.000545	20.706575
508.149374	-2.997800	3.764300	-11.284000	24.208109	0.000546	20.708748
509.146309	-2.999200	3.763700	-11.288000	24.215150	0.000545	20.710121
510.145198	-2.997900	3.762300	-11.278000	24.234871	0.000544	20.703823
511.147492	-3.012800	3.762600	-11.334000	24.253716	0.000545	20.712295
512.150649	-2.994700	3.763100	-11.268000	24.282422	0.000545	20.696518
513.148008	-3.006700	3.762900	-11.313000	24.291201	0.000543	20.709118
514.150010	-2.991300	3.761100	-11.250000	24.310207	0.000543	20.709691
515.149249	-3.013400	3.760700	-11.331000	24.299936	0.000544	20.717407
516.149824	-3.005300	3.760200	-11.300000	24.311472	0.000545	20.717125
517.149367	-3.006800	3.761400	-11.309000	24.350384	0.000544	20.708269
518.150304	-3.028300	3.759800	-11.385000	24.334933	0.000544	20.709839
519.151631	-3.005300	3.759800	-11.299000	24.303190	0.000545	20.716878
520.152505	-2.991800	3.760000	-11.248000	24.262066	0.000546	20.708343
521.150535	-2.994600	3.760700	-11.261000	24.260323	0.000546	20.724613
522.150164	-2.991400	3.759900	-11.247000	24.278231	0.000547	20.706066
523.152130	-3.011200	3.759200	-11.319000	24.290024	0.000545	20.698454
524.156740	-3.025700	3.758500	-11.371000	24.295470	0.000544	20.712926
525.151587	-3.011900	3.757900	-11.318000	24.316991	0.000546	20.670975
526.150776	-2.982900	3.759000	-11.211000	24.314475	0.000547	20.697377
527.150496	-2.987200	3.758400	-11.226000	24.339674	0.000547	20.695154
528.153430	-3.002000	3.757500	-11.279000	24.351786	0.000546	20.696873
529.151064	-3.018800	3.758200	-11.344000	24.350196	0.000546	20.709029
530.154108	-3.017600	3.756100	-11.334000	24.353450	0.000545	20.715613
531.151400	-3.011300	3.757300	-11.314000	24.363155	0.000547	20.675559
532.150973	-3.008900	3.757600	-11.306000	24.335637	0.000547	20.691103
533.152921	-3.000000	3.757400	-11.272000	24.325785	0.000546	20.716784
534.150903	-2.984800	3.756200	-11.211000	24.283593	0.000544	20.695796
535.151960	-2.992400	3.755800	-11.238000	24.299039	0.000543	20.691375
536.156872	-2.984500	3.756900	-11.211000	24.305159	0.000544	20.726914
537.152112	-2.986000	3.757100	-11.218000	24.280698	0.000544	20.703798
538.151244	-2.987300	3.755600	-11.217000	24.263828	0.000544	20.717223
539.153940	-2.992100	3.756200	-11.238000	24.295651	0.000545	20.707893
540.150686	-2.995100	3.755600	-11.248000	24.295129	0.000545	20.713059
541.153425	-2.996200	3.755400	-11.251000	24.327567	0.000546	20.719520
542.150790	-2.975100	3.755700	-11.173000	24.357669	0.000545	20.704672
543.150796	-3.000900	3.754800	-11.267000	24.348241	0.000545	20.705645
544.149713	-3.004200	3.753100	-11.275000	24.331053	0.000548	20.715904
545.152413	-2.996100	3.754600	-11.249000	24.352145	0.000547	20.699604
546.152916	-2.977300	3.754600	-11.178000	24.357044	0.000547	20.708312
547.152839	-3.019300	3.753700	-11.332000	24.326818	0.000544	20.708811
548.154858	-3.003000	3.752700	-11.269000	24.382144	0.000547	20.714526
549.160198	-3.001000	3.752800	-11.261000	24.428364	0.000548	20.700202
550.154537	-3.009500	3.752300	-11.292000	24.413958	0.000547	20.701871
551.153997	-3.012200	3.751500	-11.299000	24.421447	0.000546	20.718868
552.154820	-3.008500	3.752000	-11.286000	24.377265	0.000546	20.696828
553.152356	-2.995300	3.752300	-11.238000	24.397190	0.000547	20.686944
554.153664	-2.992900	3.752200	-11.229000	24.404653	0.000547	20.727151
555.157224	-3.011400	3.750000	-11.292000	24.425031	0.000548	20.713928
556.154969	-2.977500	3.752200	-11.171000	24.432361	0.000546	20.712274
557.159890	-2.997600	3.750500	-11.242000	24.441617	0.000547	20.708757
558.157154	-2.987200	3.750600	-11.203000	24.403481	0.000549	20.714595
559.159828	-3.004500	3.750500	-11.268000	24.383857	0.000547	20.688268
560.158119	-3.010800	3.750100	-11.290000	24.360968	0.000547	20.716042
561.158303	-2.992200	3.750500	-11.221000	24.376314	0.000547	20.708678
562.160112	-2.996300	3.749600	-11.235000	24.404378	0.000548	20.720236
563.157736	-3.016100	3.749700	-11.308000	24.424351	0.000550	20.709453
564.159004	-3.019600	3.748000	-11.317000	24.451886	0.000547	20.698196
565.159225	-3.020600	3.748600	-11.322000	24.467783	0.000545	20.722681
566.159317	-3.002100	3.748200	-11.252000	24.467256	0.000546	20.703185
567.162808	-2.999700	3.747700	-11.241000	24.455741	0.000547	20.714392
568.162691	-2.988700	3.749100	-11.204000	24.437063	0.000546	20.712723
569.160798	-2.991600	3.747700	-11.211000	24.408104	0.000548	20.689359
570.159668	-3.005200	3.747700	-11.261000	24.402206	0.000546	20.722325
571.163893	-2.974400	3.748400	-11.148000	24.410965	0.000546	20.708351
572.161026	-3.005800	3.746800	-11.261000	24.376511	0.000545	20.707927
573.161281	-2.995700	3.747800	-11.226000	24.424174	0.000546	20.707378
574.161812	-2.995500	3.746900	-11.223000	24.442532	0.000544	20.730065
575.162079	-2.995300	3.746200	-11.220000	24.468846	0.000546	20.722799
576.162542	-3.008500	3.747300	-11.273000	24.466931	0.000547	20.708075
577.162616	-3.008300	3.746000	-11.268000	24.475911	0.000545	20.712343
578.165413	-3.007100	3.745100	-11.261000	24.461831	0.000547	20.725718
579.162615	-3.013100	3.746000	-11.286000	24.454343	0.000546	20.730060
580.164789	-2.988800	3.744000	-11.188000	24.414495	0.000547	20.715687
581.164638	-2.994300	3.745800	-11.215000	24.436979	0.000546	20.721174
582.164847	-2.991300	3.743700	-11.197000	24.473867	0.000546	20.724518
583.167982	-2.988200	3.744800	-11.189000	24.484516	0.000545	20.709596
584.165834	-3.011700	3.742800	-11.271000	24.494115	0.000546	20.721599
585.163836	-3.003100	3.743700	-11.242000	24.491575	0.000546	20.706721
586.165446	-2.994000	3.742900	-11.206000	24.509239	0.000545	20.723496
587.167864	-3.010400	3.742800	-11.267000	24.498940	0.000546	20.716956
588.166368	-3.014400	3.741800	-11.278000	24.537441	0.000544	20.722868
589.168813	-2.999400	3.742400	-11.224000	24.511867	0.000544	20.723762
590.165700	-3.013500	3.741800	-11.275000	24.498511	0.000546	20.724587
591.166446	-3.000000	3.742100	-11.225000	24.473666	0.000546	20.720996
592.168365	-3.017800	3.741300	-11.290000	24.479356	0.000545	20.706316
593.169061	-3.005800	3.741900	-11.246000	24.483762	0.000546	20.715479
594.168207	-3.003300	3.741900	-11.237000	24.483186	0.000543	20.735765
595.169238	-2.991600	3.741800	-11.194000	24.507018	0.000544	20.722216
596.169462	-2.989400	3.742000	-11.185000	24.566031	0.000544	20.717415
597.168662	-3.001700	3.739900	-11.225000	24.592918	0.000544	20.704088
598.168505	-2.983500	3.740600	-11.159000	24.621020	0.000545	20.728968
599.169579	-3.010000	3.740600	-11.259000	24.640044	0.000544	20.744739
600.171597	-3.009200	3.739500	-11.252000	24.645164	0.000544	20.711468
601.169701	-3.000200	3.740400	-11.221000	24.618829	0.000547	20.713967
602.170174	-3.002600	3.739200	-11.227000	24.623378	0.000547	20.740343
603.173088	-3.006200	3.739100	-11.240000	24.605844	0.000543	20.714214
604.170853	-2.986000	3.739300	-11.165000	24.582069	0.000543	20.723075
605.174237	-2.974300	3.739400	-11.121000	24.559701	0.000543	20.734772
606.177300	-2.997700	3.738500	-11.205000	24.638070	0.000546	20.726162
607.174562	-2.999000	3.737900	-11.209000	24.627123	0.000543	20.738412
608.173962	-2.990500	3.739100	-11.181000	24.615162	0.000544	20.731151
609.175958	-3.015200	3.737400	-11.268000	24.598298	0.000544	20.748844
610.177800	-3.002200	3.739100	-11.225000	24.552563	0.000544	20.725713
611.178035	-2.978600	3.737900	-11.132000	24.522687	0.000542	20.727032
612.177670	-2.990300	3.734800	-11.167000	24.535944	0.000544	20.739859
613.178459	-2.985800	3.736800	-11.156000	24.539222	0.000543	20.742674
614.179406	-3.001100	3.736900	-11.214000	24.554423	0.000543	20.725209
615.178026	-3.006900	3.735200	-11.230000	24.567079	0.000542	20.740753
616.179406	-3.005400	3.736400	-11.229000	24.554197	0.000541	20.744423
617.176312	-2.986900	3.735400	-11.155000	24.605509	0.000542	20.748967
618.178937	-3.010000	3.735800	-11.244000	24.632523	0.000541	20.722966
619.179749	-2.977700	3.735900	-11.123000	24.610043	0.000543	20.744507
620.177854	-3.008600	3.734300	-11.234000	24.611382	0.000541	20.733048
621.181293	-2.995500	3.735200	-11.189000	24.569900	0.000542	20.733152
622.182017	-3.009500	3.734100	-11.237000	24.587858	0.000542	20.743109
623.180956	-3.000400	3.733300	-11.201000	24.582684	0.000544	20.731754
624.181436	-2.991400	3.733300	-11.167000	24.569723	0.000542	20.745302
625.179614	-3.003500	3.733000	-11.212000	24.595443	0.000543	20.744556
626.181427	-3.022400	3.732100	-11.279000	24.648668	0.000544	20.760980
627.185792	-2.978400	3.733100	-11.118000	24.649490	0.000542	20.742838
628.182404	-2.996900	3.731300	-11.181000	24.699110	0.000542	20.766551
629.180271	-3.000800	3.732500	-11.199000	24.716587	0.000541	20.740941
630.183892	-2.984600	3.732700	-11.140000	24.715741	0.000541	20.742462
631.182121	-2.972600	3.734200	-11.100000	24.747546	0.000539	20.744033
632.185215	-3.021800	3.732700	-11.278000	24.718950	0.000541	20.738096
633.186681	-2.987800	3.733100	-11.154000	24.704755	0.000543	20.744241
634.182774	-3.004700	3.730300	-11.208000	24.667599	0.000540	20.743939
635.186377	-2.991700	3.731600	-11.163000	24.687494	0.000539	20.744463
636.186061	-3.007900	3.730800	-11.221000	24.668642	0.000542	20.733606
637.186059	-3.002700	3.729100	-11.195000	24.722612	0.000539	20.751729
638.185634	-3.002400	3.730500	-11.199000	24.718733	0.000541	20.739775
639.185066	-3.006100	3.730200	-11.212000	24.751016	0.000538	20.748938
640.184261	-2.995500	3.729600	-11.172000	24.702723	0.000540	20.745520
641.187597	-2.988100	3.730000	-11.145000	24.713044	0.000540	20.747343
642.190326	-3.000400	3.728500	-11.186000	24.692652	0.000540	20.766709
643.186471	-2.995200	3.729400	-11.169000	24.711503	0.000539	20.734891
644.185862	-2.993200	3.728900	-11.160000	24.694567	0.000541	20.743026
645.184241	-3.000700	3.729100	-11.189000	24.666442	0.000541	20.754633
646.187707	-3.010700	3.727400	-11.221000	24.682606	0.000540	20.735291
647.186771	-3.006900	3.728800	-11.212000	24.715411	0.000539	20.740235
648.189554	-2.996100	3.728600	-11.170000	24.723518	0.000538	20.743154
649.186322	-3.008400	3.727200	-11.212000	24.709791	0.000541	20.734594
650.185088	-3.002600	3.727800	-11.192000	24.705981	0.000538	20.755428
651.194280	-3.019600	3.727300	-11.254000	24.677163	0.000538	20.757330
652.185052	-3.008200	3.727300	-11.212000	24.716302	0.000538	20.760096
653.189434	-2.993200	3.726800	-11.154000	24.726771	0.000540	20.738832
654.185098	-3.003700	3.725900	-11.191000	24.744155	0.000541	20.768606
655.190115	-2.991700	3.726700	-11.148000	24.736792	0.000539	20.760743
656.186117	-2.991400	3.725700	-11.144000	24.746690	0.000539	20.751235
657.186929	-3.007300	3.725900	-11.204000	24.757877	0.000538	20.768152
658.189315	-3.002800	3.725500	-11.185000	24.725526	0.000541	20.772671
659.188360	-3.027400	3.725300	-11.277000	24.707915	0.000539	20.770646
660.188304	-2.985000	3.726400	-11.121000	24.726840	0.000540	20.762610
661.187229	-2.990900	3.723500	-11.136000	24.726042	0.000537	20.757068
662.191400	-2.998700	3.723900	-11.166000	24.726018	0.000539	20.764156
663.192551	-3.000500	3.724900	-11.175000	24.714604	0.000537	20.760762
664.195783	-2.997500	3.723300	-11.159000	24.761105	0.000539	20.781349
665.192902	-2.994900	3.723800	-11.152000	24.765407	0.000538	20.786140
666.194969	-2.994500	3.722900	-11.148000	24.752920	0.000538	20.761755
667.196990	-3.012700	3.722200	-11.213000	24.791639	0.000538	20.763153
668.194791	-2.994400	3.723000	-11.147000	24.789001	0.000538	20.763825
669.196077	-3.019700	3.721500	-11.237000	24.790891	0.000536	20.762876
670.194325	-2.996100	3.722600	-11.152000	24.765426	0.000536	20.758658
671.194858	-2.970400	3.722500	-11.055000	24.758118	0.000536	20.775506
672.195541	-2.992700	3.722500	-11.140000	24.791063	0.000536	20.765894
673.195359	-2.974500	3.723100	-11.074000	24.809464	0.000537	20.768714
674.197273	-2.978800	3.722900	-11.089000	24.807698	0.000535	20.772631
675.202349	-3.015000	3.721700	-11.220000	24.839829	0.000536	20.784490
676.197548	-3.001800	3.721700	-11.171000	24.852138	0.000537	20.765074
677.198854	-3.005900	3.721300	-11.185000	24.846695	0.000535	20.774785
678.203906	-3.004900	3.721000	-11.180000	24.885061	0.000535	20.777729
679.202247	-3.000500	3.718900	-11.158000	24.889913	0.000536	20.777383
680.202643	-3.010700	3.721300	-11.203000	24.878747	0.000536	20.787513
681.200240	-3.004300	3.719900	-11.175000	24.844357	0.000537	20.775758
682.199625	-2.995200	3.719700	-11.140000	24.836926	0.000535	20.780628
683.201108	-2.994100	3.720200	-11.137000	24.836631	0.000535	20.775116
684.203030	-2.992600	3.720400	-11.133000	24.857664	0.000535	20.776311
685.204820	-3.025400	3.716400	-11.243000	24.832330	0.000533	20.790714
686.204456	-2.972500	3.718400	-11.052000	24.869559	0.000534	20.794888
687.207869	-2.994200	3.718800	-11.134000	24.853821	0.000535	20.788101
688.204887	-3.022200	3.717600	-11.234000	24.813884	0.000533	20.770779
689.220376	-3.009600	3.718200	-11.190000	24.847532	0.000535	20.784160
690.204170	-2.992900	3.718300	-11.128000	24.895002	0.000533	20.787706
691.205463	-2.991100	3.717400	-11.118000	24.906040	0.000535	20.763697
692.203258	-2.996900	3.718200	-11.143000	24.908279	0.000533	20.790126
693.204297	-3.006200	3.716300	-11.170000	24.888570	0.000532	20.768923
694.212693	-2.986600	3.716600	-11.098000	24.859501	0.000533	20.783370
695.204142	-3.007000	3.716700	-11.175000	24.813348	0.000533	20.800113
696.205116	-2.987100	3.717400	-11.103000	24.832276	0.000533	20.783073
697.208518	-3.000800	3.716600	-11.152000	24.835313	0.000534	20.789440
698.205742	-3.028700	3.713700	-11.247000	24.867291	0.000534	20.779335
699.205830	-3.008700	3.715600	-11.178000	24.842178	0.000532	20.763139
700.206814	-3.010600	3.715900	-11.186000	24.810646	0.000535	20.781281
701.216558	-3.023100	3.714000	-11.227000	24.799362	0.000533	20.805991
702.205254	-3.006300	3.715100	-11.168000	24.776781	0.000533	20.788546
703.210571	-3.009000	3.713100	-11.172000	24.817837	0.000533	20.787074
704.208218	-2.987500	3.713700	-11.094000	24.797718	0.000531	20.810031
705.208946	-2.995800	3.713500	-11.124000	24.814062	0.000530	20.785183
706.212164	-2.997500	3.714500	-11.134000	24.835096	0.000530	20.811508
707.208711	-2.986900	3.713500	-11.091000	24.840864	0.000531	20.776045
708.209609	-3.008800	3.713800	-11.172000	24.875598	0.000532	20.778189
709.209807	-2.996500	3.711800	-11.122000	24.911955	0.000531	20.784807
710.209946	-3.015700	3.712000	-11.194000	24.923918	0.000532	20.792547
711.206833	-3.000700	3.711600	-11.136000	24.982117	0.000531	20.799753
712.237488	-3.005100	3.711900	-11.154000	24.968250	0.000533	20.783464
713.211385	-2.989600	3.713300	-11.100000	24.998188	0.000530	20.790280
714.208484	-3.004700	3.712300	-11.152000	24.988735	0.000528	20.807345
715.209351	-2.994500	3.712800	-11.116000	24.991545	0.000530	20.796889
716.208615	-2.979200	3.711700	-11.056000	24.990954	0.000530	20.800089
717.207427	-3.007200	3.712000	-11.161000	24.970844	0.000530	20.789861
718.209800	-2.990300	3.710100	-11.093000	24.996771	0.000529	20.805453
719.211164	-2.990900	3.710200	-11.096000	24.945059	0.000527	20.810447
720.212109	-3.007100	3.709200	-11.153000	24.911316	0.000530	20.790330
721.211884	-3.013200	3.709700	-11.177000	24.898639	0.000527	20.807478
722.213145	-3.011100	3.709700	-11.169000	24.874152	0.000529	20.793807
723.213662	-3.003400	3.710400	-11.143000	24.879472	0.000528	20.791560
724.214097	-3.022100	3.709400	-11.209000	24.899264	0.000529	20.806209
725.216330	-3.000000	3.708400	-11.123000	24.926670	0.000528	20.787722
726.214209	-3.012000	3.708600	-11.169000	24.927639	0.000526	20.792488
727.212320	-3.007100	3.708700	-11.150000	24.941447	0.000528	20.821995
728.217932	-2.993400	3.709600	-11.103000	24.933490	0.000527	20.810215
729.213120	-2.994700	3.708800	-11.106000	24.960914	0.000526	20.790325
730.216694	-2.988500	3.707800	-11.079000	24.978919	0.000527	20.809820
731.216752	-2.981600	3.709500	-11.059000	24.990704	0.000527	20.817856
732.211606	-2.982000	3.707400	-11.054000	24.993888	0.000528	20.804930
733.213912	-3.019700	3.706400	-11.192000	24.992973	0.000525	20.812547
734.216854	-2.990600	3.707300	-11.086000	24.992850	0.000527	20.806259
735.214921	-3.002200	3.707700	-11.131000	24.978157	0.000526	20.802891
736.214026	-3.006700	3.706700	-11.144000	24.971174	0.000526	20.825280
737.219295	-3.020500	3.706000	-11.192000	24.937541	0.000526	20.819022
738.214714	-2.979700	3.705900	-11.041000	24.959970	0.000524	20.818301
739.217087	-2.996200	3.706400	-11.104000	24.976676	0.000525	20.808043
740.217676	-2.996100	3.706000	-11.103000	25.007908	0.000527	20.805252
741.214750	-2.988500	3.706000	-11.075000	25.006840	0.000526	20.800387
742.214214	-3.004600	3.704800	-11.131000	25.010324	0.000525	20.794876
743.219639	-2.999300	3.704900	-11.110000	25.020539	0.000525	20.802758
744.215121	-2.983000	3.705600	-11.053000	25.043316	0.000525	20.813767
745.215330	-2.996200	3.705300	-11.101000	25.008120	0.000525	20.832017
746.217379	-2.996300	3.706100	-11.103000	25.008499	0.000524	20.816751
747.231233	-3.009400	3.704700	-11.148000	24.981568	0.000524	20.815324
748.217057	-3.010000	3.703600	-11.147000	24.940598	0.000524	20.812607
749.215379	-3.031400	3.702900	-11.224000	24.938812	0.000524	20.820772
750.219959	-2.995300	3.703200	-11.091000	24.893558	0.000523	20.822767
751.217633	-2.992000	3.702100	-11.076000	24.853377	0.000524	20.802354
752.222293	-2.992200	3.702800	-11.079000	24.877949	0.000522	20.813739
753.217607	-3.012800	3.702300	-11.154000	24.885581	0.000524	20.816183
754.220122	-2.969700	3.704400	-11.000000	24.913380	0.000523	20.837920
755.221136	-3.001900	3.702500	-11.113000	24.932946	0.000522	20.842385
756.217927	-3.005400	3.701500	-11.124000	24.971540	0.000523	20.807629
757.222709	-2.989200	3.702100	-11.065000	24.989265	0.000522	20.828264
758.223208	-2.980000	3.702200	-11.032000	25.030066	0.000522	20.818485
759.222617	-2.959600	3.702500	-10.957000	25.038072	0.000523	20.829366
760.224221	-2.990500	3.701600	-11.069000	25.004504	0.000521	20.824121
761.230491	-3.004800	3.701300	-11.121000	24.970325	0.000522	20.823479
762.219920	-2.990500	3.700900	-11.067000	25.025987	0.000520	20.835727
763.234083	-3.006000	3.700200	-11.121000	24.979448	0.000523	20.807032
764.223501	-3.005900	3.700700	-11.123000	24.971939	0.000519	20.817512
765.224875	-2.994100	3.700300	-11.079000	24.970399	0.000520	20.848208
766.225943	-2.993400	3.699900	-11.074000	24.984723	0.000520	20.851680
767.222964	-2.973600	3.700700	-11.003000	24.959809	0.000521	20.834261
768.226487	-2.980900	3.700200	-11.029000	24.949815	0.000519	20.851730
769.224438	-2.980900	3.699100	-11.025000	24.967821	0.000518	20.842776
770.230311	-3.002400	3.698400	-11.103000	24.962324	0.000518	20.848164
771.226511	-3.002700	3.698100	-11.103000	24.939329	0.000519	20.860644
772.225301	-2.997700	3.698300	-11.085000	24.922475	0.000519	20.822867
773.226177	-3.012600	3.697600	-11.138000	24.930108	0.000520	20.814880
774.229685	-3.049900	3.696200	-11.272000	24.914818	0.000520	20.831777
775.227448	-2.986500	3.697600	-11.041000	24.944255	0.000518	20.846149
776.227241	-2.995200	3.698600	-11.077000	24.981752	0.000519	20.821672
777.228171	-2.987700	3.697300	-11.046000	25.027749	0.000520	20.844608
778.230260	-2.991700	3.697900	-11.062000	25.039185	0.000518	20.827638
779.231070	-2.986600	3.696300	-11.038000	25.027454	0.000517	20.826769
780.229180	-3.007400	3.697200	-11.118000	25.010793	0.000516	20.829485
781.228527	-2.997500	3.696500	-11.080000	25.037674	0.000517	20.846984
782.229035	-2.991700	3.696400	-11.057000	25.044705	0.000518	20.863998
783.230661	-3.000200	3.695100	-11.085000	25.027026	0.000518	20.847675
784.227602	-2.979700	3.695100	-11.010000	25.072550	0.000517	20.829362
785.228555	-3.015300	3.694900	-11.141000	25.083714	0.000516	20.850999
786.229274	-3.027600	3.694700	-11.185000	25.066852	0.000517	20.825539
787.230387	-3.005300	3.695400	-11.105000	25.063496	0.000515	20.857731
788.232450	-2.990500	3.695800	-11.051000	25.079285	0.000517	20.841339
789.236910	-2.974000	3.695900	-10.990000	25.053030	0.000515	20.855760
790.233761	-2.990900	3.695000	-11.050000	25.026652	0.000516	20.843507
791.238878	-3.007300	3.693800	-11.107000	24.979439	0.000516	20.834997
792.234659	-3.003900	3.694200	-11.096000	25.000248	0.000517	20.848298
793.231790	-3.000700	3.693800	-11.082000	25.021308	0.000515	20.853316
794.234682	-2.997300	3.693000	-11.067000	25.046841	0.000514	20.847651
795.235595	-3.001600	3.692500	-11.083000	25.071752	0.000513	20.846105
796.235247	-2.986400	3.692200	-11.025000	25.048902	0.000515	20.849720
797.236565	-2.989000	3.693900	-11.040000	25.038909	0.000515	20.859603
798.236049	-3.004600	3.692700	-11.094000	25.074109	0.000517	20.851789
799.235720	-3.011800	3.692900	-11.122000	25.109215	0.000514	20.839141
800.244761	-3.010000	3.691600	-11.111000	25.132231	0.000514	20.834745
801.235167	-3.006400	3.691600	-11.098000	25.157391	0.000514	20.850046
802.236486	-3.028200	3.691200	-11.176000	25.203652	0.000515	20.848125
803.236274	-3.009600	3.690500	-11.105000	25.196218	0.000514	20.824541
804.235198	-2.997500	3.690700	-11.062000	25.181976	0.000517	20.846752
805.238199	-3.004700	3.690800	-11.088000	25.154006	0.000513	20.847596
806.239891	-3.015400	3.689600	-11.125000	25.154257	0.000512	20.817029
807.237423	-3.005000	3.689500	-11.086000	25.147069	0.000512	20.835891
808.241456	-3.001000	3.691100	-11.076000	25.184485	0.000513	20.843581
809.235978	-2.999400	3.689500	-11.066000	25.186871	0.000513	20.829856
810.240834	-3.035500	3.688700	-11.196000	25.178468	0.000512	20.842756
811.238373	-2.965100	3.690600	-10.942000	25.199568	0.000513	20.844973
812.237660	-2.998200	3.689500	-11.061000	25.184854	0.000514	20.834943
813.240282	-2.970400	3.690300	-10.960000	25.183014	0.000513	20.836414
814.238154	-3.015100	3.687500	-11.118000	25.199219	0.000511	20.853157
815.239981	-3.004500	3.688300	-11.080000	25.176898	0.000511	20.829327
816.237680	-2.986400	3.688100	-11.013000	25.192956	0.000512	20.825534
817.238337	-2.997400	3.688500	-11.055000	25.164318	0.000512	20.822862
818.243181	-3.015400	3.687000	-11.117000	25.162631	0.000510	20.837763
819.243420	-2.986300	3.686900	-11.009000	25.139335	0.000510	20.839980
820.242490	-3.030900	3.687000	-11.174000	25.100432	0.000511	20.850238
821.248893	-2.985900	3.688700	-11.013000	25.103364	0.000509	20.848915
822.244390	-3.001500	3.687800	-11.068000	25.056007	0.000508	20.818446
823.239766	-3.023400	3.687200	-11.147000	25.071324	0.000509	20.848994
824.245304	-3.010600	3.686100	-11.096000	25.081214	0.000507	20.842326
825.246172	-3.002300	3.685200	-11.063000	25.136929	0.000507	20.821444
826.243715	-3.022900	3.685100	-11.139000	25.114828	0.000510	20.826285
827.245809	-2.982300	3.684900	-10.989000	25.149303	0.000508	20.843823
828.249013	-2.983700	3.685700	-10.996000	25.154473	0.000509	20.823410
829.243743	-2.978900	3.685000	-10.976000	25.133052	0.000507	20.818027
830.249215	-3.005800	3.684200	-11.073000	25.132777	0.000507	20.823914
831.244603	-3.004500	3.683300	-11.065000	25.109584	0.000507	20.798735
832.242270	-2.981900	3.683500	-10.983000	25.111945	0.000506	20.829554
833.248260	-2.989600	3.683700	-11.011000	25.122637	0.000505	20.821795
834.244167	-2.976000	3.684500	-10.963000	25.095591	0.000504	20.826887
835.243710	-2.985800	3.683700	-10.998000	25.139064	0.000504	20.820743
836.244990	-2.992200	3.683300	-11.020000	25.144836	0.000507	20.793820
837.242368	-2.986700	3.683300	-11.000000	25.137726	0.000504	20.806598
838.248145	-2.981300	3.683900	-10.982000	25.149480	0.000504	20.810336
839.247916	-3.003900	3.682000	-11.060000	25.150927	0.000502	20.832177
840.248807	-2.988900	3.681800	-11.004000	25.174315	0.000504	20.810613
841.247404	-2.977200	3.682500	-10.963000	25.206186	0.000505	20.811315
842.249116	-3.005000	3.682800	-11.065000	25.198108	0.000504	20.804153
843.245007	-2.993600	3.680800	-11.018000	25.182822	0.000503	20.803980
844.249057	-3.014700	3.681200	-11.097000	25.221127	0.000501	20.816832
845.250525	-2.996200	3.680600	-11.026000	25.237081	0.000504	20.820521
846.245798	-3.010700	3.680800	-11.081000	25.211878	0.000503	20.797589
847.248699	-3.004900	3.679900	-11.056000	25.151374	0.000503	20.811290
848.250449	-3.019700	3.680000	-11.112000	25.137603	0.000503	20.815009
849.253721	-2.998300	3.679600	-11.032000	25.170586	0.000501	20.814930
850.248803	-2.989600	3.680200	-11.002000	25.196071	0.000504	20.794996
851.252516	-3.004600	3.680200	-11.056000	25.168599	0.000500	20.784011
852.248369	-3.008400	3.679400	-11.069000	25.191067	0.000501	20.794240
853.251881	-3.024800	3.678100	-11.125000	25.221643	0.000501	20.828255
854.250134	-3.002800	3.678400	-11.044000	25.218258	0.000500	20.819641
855.251177	-2.981600	3.678900	-10.968000	25.266263	0.000499	20.800508
856.252674	-2.994300	3.678500	-11.013000	25.215681	0.000500	20.803778
857.249983	-3.010300	3.677700	-11.070000	25.205339	0.000499	20.796715
858.252996	-3.009800	3.677700	-11.069000	25.239019	0.000499	20.786906
859.249557	-3.005900	3.677300	-11.053000	25.234847	0.000500	20.786985
860.254092	-2.981700	3.677300	-10.963000	25.207283	0.000498	20.798192
861.253042	-2.985800	3.677200	-10.979000	25.208675	0.000497	20.789158
862.254561	-2.993100	3.677500	-11.005000	25.277179	0.000498	20.788709
863.253016	-3.013200	3.676100	-11.075000	25.239590	0.000497	20.798858
864.256509	-2.998500	3.676300	-11.023000	25.215213	0.000495	20.803783
865.256096	-2.984600	3.676200	-10.971000	25.230676	0.000495	20.781848
866.255567	-3.019900	3.674700	-11.095000	25.208233	0.000496	20.791085
867.256640	-2.980100	3.676600	-10.956000	25.207411	0.000496	20.790734
868.254856	-2.965800	3.676900	-10.903000	25.245071	0.000496	20.790610
869.254994	-2.991700	3.674100	-10.990000	25.255141	0.000496	20.792660
870.259289	-3.026300	3.674500	-11.119000	25.235232	0.000496	20.785948
871.255270	-2.986600	3.676000	-10.978000	25.222111	0.000495	20.799802
872.254949	-3.016700	3.674400	-11.083000	25.234071	0.000494	20.793318
873.262143	-3.012800	3.672700	-11.065000	25.243143	0.000494	20.796261
874.261611	-3.014300	3.673800	-11.072000	25.298102	0.000493	20.802603
875.258438	-2.992100	3.673700	-10.991000	25.281027	0.000494	20.783089
876.260956	-3.010900	3.672800	-11.058000	25.292263	0.000492	20.767817
877.254606	-3.035200	3.673600	-11.149000	25.242263	0.000492	20.762661
878.258449	-3.009500	3.671400	-11.048000	25.243625	0.000494	20.795323
879.256678	-2.991300	3.674500	-10.991000	25.252604	0.000492	20.775888
880.256623	-3.001600	3.672700	-11.023000	25.248629	0.000495	20.768104
881.256777	-2.988400	3.672700	-10.975000	25.254566	0.000492	20.795877
882.258712	-2.985400	3.672800	-10.964000	25.240925	0.000490	20.768430
883.257663	-3.014900	3.670900	-11.067000	25.237177	0.000492	20.782685
884.258078	-2.991900	3.672200	-10.985000	25.205288	0.000493	20.771058
885.263028	-2.995800	3.672200	-11.001000	25.128725	0.000492	20.777647
886.257425	-2.980300	3.670800	-10.940000	25.120745	0.000491	20.794766
887.268961	-2.988400	3.670600	-10.969000	25.159706	0.000491	20.797844
888.258113	-3.019500	3.670400	-11.082000	25.147470	0.000490	20.770861
889.258255	-2.998100	3.670200	-11.003000	25.101985	0.000491	20.773563
890.259186	-3.005100	3.669600	-11.027000	25.125252	0.000491	20.759935
891.261794	-2.989000	3.668400	-10.964000	25.199036	0.000489	20.775213
892.260492	-2.996000	3.669400	-10.993000	25.229980	0.000488	20.773089
893.259480	-2.986700	3.667900	-10.954000	25.255556	0.000489	20.780749
894.263284	-2.997700	3.669600	-11.000000	25.243405	0.000488	20.769024
895.263253	-2.991500	3.667700	-10.971000	25.222699	0.000487	20.771943
896.266146	-2.999700	3.667200	-10.999000	25.226128	0.000486	20.772541
897.266093	-3.008200	3.667000	-11.031000	25.272642	0.000489	20.778937
898.265063	-3.000200	3.666400	-10.998000	25.250165	0.000485	20.789561
899.261509	-3.014600	3.666800	-11.054000	25.224269	0.000487	20.759294
900.266021	-3.006800	3.666600	-11.024000	25.253973	0.000488	20.782004
901.263976	-3.012100	3.666800	-11.044000	25.224716	0.000488	20.782029
902.270912	-2.993000	3.666800	-10.974000	25.265656	0.000483	20.754379
903.270214	-2.996600	3.666300	-10.986000	25.224613	0.000485	20.769123
904.264026	-3.007200	3.665300	-11.021000	25.205953	0.000485	20.760346
905.268610	-2.978500	3.666800	-10.921000	25.219895	0.000485	20.756325
906.269670	-2.966000	3.665900	-10.872000	25.192429	0.000486	20.768580
907.266858	-3.026200	3.663700	-11.086000	25.226684	0.000484	20.749865
908.270528	-2.993400	3.666700	-10.975000	25.211768	0.000483	20.766184
909.274909	-2.981700	3.665000	-10.928000	25.207070	0.000485	20.766209
910.264993	-2.971000	3.666100	-10.891000	25.202893	0.000484	20.760593
911.273423	-2.990200	3.664600	-10.957000	25.168243	0.000483	20.785551
912.268591	-3.017000	3.664700	-11.055000	25.196428	0.000484	20.750783
913.272707	-2.992700	3.664500	-10.965000	25.231451	0.000484	20.761763
914.273293	-3.009400	3.663400	-11.024000	25.236149	0.000482	20.778809
915.267632	-3.011200	3.664100	-11.032000	25.232248	0.000481	20.760193
916.269204	-2.998000	3.662200	-10.978000	25.158024	0.000481	20.751109
917.275952	-2.998800	3.662300	-10.981000	25.183056	0.000482	20.768654
918.273510	-2.990300	3.661200	-10.947000	25.217583	0.000480	20.736934
919.266415	-2.995400	3.661100	-10.966000	25.242117	0.000480	20.751134
920.272957	-2.992400	3.662700	-10.959000	25.241625	0.000480	20.755856
921.274495	-2.990300	3.662400	-10.951000	25.278033	0.000482	20.754952
922.272116	-2.999800	3.662000	-10.985000	25.333439	0.000480	20.757951
923.273671	-2.988500	3.661100	-10.939000	25.288434	0.000478	20.766343
924.276280	-3.006000	3.661500	-11.006000	25.315051	0.000481	20.778844
925.270957	-2.989000	3.661500	-10.943000	25.331506	0.000480	20.779718
926.277899	-3.000300	3.661000	-10.983000	25.286067	0.000478	20.768234
927.276052	-2.991500	3.660600	-10.949000	25.294690	0.000479	20.748442
928.272055	-2.995700	3.660000	-10.963000	25.295236	0.000476	20.748517
929.271400	-3.008600	3.658000	-11.005000	25.269863	0.000479	20.757180
930.273631	-3.001000	3.659200	-10.981000	25.223261	0.000479	20.748324
931.277161	-3.004700	3.659900	-10.996000	25.226021	0.000479	20.752518
932.279725	-2.993700	3.658400	-10.950000	25.244985	0.000476	20.765869
933.274835	-3.019400	3.659600	-11.049000	25.307722	0.000478	20.752992
934.275230	-2.964400	3.659500	-10.848000	25.352358	0.000477	20.755135
935.277813	-2.989400	3.658800	-10.937000	25.335810	0.000477	20.748003
936.280232	-2.997800	3.658600	-10.967000	25.352019	0.000476	20.743415
937.275584	-2.996900	3.657900	-10.961000	25.320399	0.000477	20.763350
938.279620	-3.002200	3.657800	-10.981000	25.243770	0.000475	20.749475
939.282005	-3.009300	3.656300	-11.002000	25.264954	0.000472	20.751303
940.279615	-2.995700	3.657100	-10.954000	25.232864	0.000473	20.748957
941.294024	-2.986300	3.656400	-10.919000	25.201054	0.000474	20.741203
942.283149	-2.978600	3.657000	-10.891000	25.253270	0.000475	20.752849
943.281729	-2.997800	3.656400	-10.961000	25.241597	0.000474	20.761992
944.283833	-2.993900	3.655100	-10.942000	25.210402	0.000473	20.747268
945.282802	-3.009800	3.654700	-10.999000	25.185493	0.000475	20.716570
946.284268	-3.012200	3.654500	-11.007000	25.198969	0.000473	20.759024
947.282709	-3.017000	3.655900	-11.029000	25.212739	0.000474	20.730173
948.284386	-3.002500	3.655100	-10.974000	25.251446	0.000473	20.750069
949.280930	-3.011100	3.655500	-11.006000	25.281573	0.000473	20.721994
950.283307	-2.988100	3.654200	-10.919000	25.274213	0.000474	20.753961
951.284198	-2.987000	3.654900	-10.916000	25.254698	0.000470	20.750963
952.281623	-2.990500	3.653700	-10.925000	25.294323	0.000473	20.749496
953.285418	-3.008800	3.654200	-10.992000	25.273894	0.000471	20.734199
954.287108	-3.007000	3.653600	-10.985000	25.298022	0.000471	20.738511
955.285836	-3.001500	3.653800	-10.965000	25.274513	0.000475	20.725812
956.288047	-2.986500	3.653300	-10.909000	25.299494	0.000472	20.737617
957.288737	-2.969600	3.653200	-10.847000	25.277371	0.000471	20.733424
958.288136	-2.969200	3.653400	-10.847000	25.243486	0.000473	20.748716
959.288000	-2.982900	3.652100	-10.893000	25.226312	0.000471	20.725782
960.289566	-3.006100	3.651500	-10.976000	25.194221	0.000472	20.746671
961.287674	-2.985300	3.651800	-10.900000	25.225815	0.000471	20.734293
962.288274	-3.002100	3.651000	-10.960000	25.287505	0.000472	20.747866
963.287993	-2.989400	3.651500	-10.915000	25.344714	0.000470	20.709526
964.288295	-3.019200	3.650700	-11.021000	25.350651	0.000470	20.737300
965.286738	-3.010000	3.650600	-10.987000	25.339165	0.000468	20.735250
966.292421	-3.009000	3.648300	-10.977000	25.362801	0.000469	20.730533
967.287756	-3.019300	3.649000	-11.017000	25.351635	0.000468	20.729278
968.300430	-2.997200	3.650100	-10.939000	25.385462	0.000468	20.735270
969.291647	-2.998900	3.649600	-10.943000	25.394724	0.000468	20.732241
970.291045	-2.986700	3.649500	-10.900000	25.323664	0.000466	20.735333
971.295148	-2.991000	3.649600	-10.916000	25.303732	0.000467	20.734286
972.293450	-3.002900	3.648300	-10.955000	25.298060	0.000467	20.705830
973.289124	-2.997400	3.648700	-10.935000	25.347718	0.000468	20.716810
974.288806	-2.993700	3.648600	-10.922000	25.372563	0.000465	20.721843
975.293100	-2.993500	3.648100	-10.920000	25.370724	0.000466	20.723315
976.291708	-3.001700	3.648400	-10.951000	25.369337	0.000465	20.717180
977.292345	-2.994100	3.647100	-10.919000	25.277289	0.000463	20.712003
978.293944	-3.014100	3.646000	-10.988000	25.252486	0.000464	20.714127
979.290449	-3.008300	3.647100	-10.970000	25.259589	0.000466	20.713198
980.289180	-3.003600	3.646300	-10.951000	25.244649	0.000463	20.720484
981.292109	-2.981400	3.645000	-10.866000	25.312452	0.000463	20.726446
982.290720	-3.004000	3.645900	-10.951000	25.326073	0.000463	20.745813
983.289627	-3.009900	3.644000	-10.967000	25.334593	0.000462	20.710269
984.293193	-2.973300	3.644900	-10.836000	25.342788	0.000463	20.729404
985.288457	-3.016000	3.644500	-10.991000	25.381111	0.000463	20.722365
986.289671	-2.987000	3.643900	-10.884000	25.361578	0.000462	20.722666
987.293716	-3.000500	3.644500	-10.934000	25.342384	0.000460	20.723782
988.291815	-3.022400	3.643500	-11.012000	25.330559	0.000461	20.713805
989.289284	-3.006200	3.642900	-10.951000	25.309928	0.000459	20.730075
990.296079	-3.012700	3.643500	-10.975000	25.340888	0.000461	20.703787
991.292440	-3.004500	3.643900	-10.947000	25.339821	0.000459	20.723106
992.296572	-3.013900	3.643500	-10.980000	25.306440	0.000458	20.720409
993.291848	-3.016100	3.642600	-10.986000	25.292223	0.000459	20.722730
994.290870	-3.002200	3.642400	-10.934000	25.308304	0.000459	20.718487
995.294781	-2.996700	3.641800	-10.911000	25.273677	0.000458	20.695099
996.290547	-2.999500	3.641100	-10.921000	25.296842	0.000457	20.712194
997.293998	-2.995300	3.641400	-10.906000	25.270169	0.000457	20.723347
998.293552	-2.980200	3.641200	-10.851000	25.304024	0.000456	20.710396
999.294297	-3.003400	3.640600	-10.932000	25.346004	0.000457	20.705131
1000.294403	-2.993800	3.641600	-10.901000	25.370879	0.000457	20.705926
1001.295467	-3.011800	3.640500	-10.963000	25.434479	0.000456	20.714787
1002.296843	-3.010600	3.639400	-10.956000	25.464177	0.000457	20.712367
1003.294828	-3.010100	3.639600	-10.955000	25.459849	0.000457	20.723668
1004.294582	-3.002100	3.640200	-10.927000	25.441139	0.000457	20.704879
1005.295362	-2.990300	3.639600	-10.882000	25.427494	0.000456	20.708247
1006.297365	-2.991300	3.639400	-10.885000	25.442722	0.000455	20.707417
1007.292827	-2.986800	3.638300	-10.866000	25.449663	0.000453	20.716758
1008.295632	-3.010400	3.638200	-10.952000	25.466115	0.000453	20.705303
1009.293589	-2.980800	3.638300	-10.844000	25.451399	0.000452	20.712337
1010.295694	-2.982600	3.638100	-10.850000	25.411956	0.000454	20.741010
1011.302821	-3.024100	3.636300	-10.996000	25.389236	0.000452	20.702072
1012.301034	-3.019100	3.636200	-10.977000	25.373928	0.000452	20.705668
1013.295513	-3.002000	3.637100	-10.917000	25.406088	0.000454	20.709986
1014.296140	-2.994900	3.635800	-10.888000	25.454099	0.000452	20.714574
1015.301427	-3.003600	3.635300	-10.917000	25.462917	0.000453	20.707782
1016.295607	-2.996500	3.636100	-10.895000	25.523531	0.000454	20.703692
1017.300466	-3.000200	3.634600	-10.903000	25.519577	0.000450	20.693556
1018.300097	-3.005300	3.635700	-10.925000	25.494203	0.000451	20.705061
1019.297737	-2.990000	3.635100	-10.868000	25.449465	0.000449	20.708972
1020.301524	-2.991400	3.634400	-10.872000	25.407268	0.000450	20.698841
1021.299741	-2.995900	3.633600	-10.885000	25.404582	0.000450	20.680496
1022.298353	-3.010300	3.635100	-10.942000	25.395482	0.000448	20.707871
1023.300384	-3.001100	3.633700	-10.905000	25.358625	0.000448	20.693146
1024.299810	-2.994200	3.634500	-10.881000	25.380617	0.000449	20.717601
1025.296221	-3.013300	3.633600	-10.948000	25.395059	0.000448	20.729258
1026.303973	-3.012900	3.632700	-10.944000	25.386854	0.000447	20.692568
1027.302932	-2.985200	3.633500	-10.846000	25.355088	0.000450	20.702397
1028.304680	-3.011500	3.632900	-10.940000	25.305503	0.000448	20.715200
1029.299651	-3.004800	3.632300	-10.913000	25.370469	0.000449	20.705040
1030.303622	-3.016300	3.631300	-10.952000	25.401119	0.000448	20.706418
1031.301506	-2.981000	3.633400	-10.831000	25.440055	0.000448	20.706635
1032.298703	-3.009900	3.630700	-10.927000	25.421167	0.000448	20.681503
1033.300938	-3.022700	3.630500	-10.972000	25.361713	0.000445	20.679176
1034.298977	-2.997700	3.631600	-10.886000	25.355530	0.000447	20.673916
1035.301610	-2.961600	3.631700	-10.754000	25.343798	0.000445	20.698174
1036.303104	-2.995900	3.630500	-10.876000	25.362461	0.000444	20.714069
1037.300493	-2.998600	3.631000	-10.887000	25.382638	0.000444	20.712992
1038.300378	-3.000600	3.630000	-10.891000	25.429293	0.000445	20.706734
1039.308655	-3.017000	3.627400	-10.943000	25.440571	0.000445	20.708102
1040.303109	-3.003600	3.629700	-10.901000	25.427669	0.000444	20.682816
1041.308762	-3.008500	3.628000	-10.914000	25.398491	0.000444	20.703306
1042.307022	-3.011600	3.627000	-10.923000	25.422150	0.000444	20.718529
1043.305464	-2.987800	3.627800	-10.839000	25.457117	0.000442	20.716657
1044.306191	-3.009400	3.627200	-10.914000	25.417006	0.000442	20.708146
1045.305857	-2.992900	3.627900	-10.857000	25.370129	0.000442	20.686205
1046.305826	-3.006400	3.627000	-10.903000	25.391630	0.000440	20.698786
1047.307106	-2.994600	3.627000	-10.861000	25.460196	0.000442	20.712636
1048.313508	-3.001100	3.625800	-10.881000	25.459669	0.000441	20.723014
1049.319871	-2.998300	3.626800	-10.872000	25.449955	0.000438	20.700455
1050.312763	-3.004800	3.625500	-10.893000	25.443541	0.000440	20.701127
1051.315149	-3.004800	3.625100	-10.892000	25.398855	0.000439	20.704619
1052.308757	-3.018100	3.625200	-10.940000	25.383326	0.000438	20.697087
1053.310077	-3.006000	3.624100	-10.892000	25.407729	0.000439	20.713530
1054.314065	-2.995800	3.625500	-10.860000	25.430246	0.000439	20.710063
1055.306314	-3.010100	3.624300	-10.908000	25.377802	0.000438	20.712878
1056.307930	-2.974900	3.625300	-10.784000	25.324790	0.000438	20.700900
1057.313091	-3.003300	3.624500	-10.885000	25.294217	0.000438	20.701023
1058.311609	-3.023200	3.622800	-10.951000	25.346808	0.000435	20.722534
1059.312321	-2.980800	3.623700	-10.800000	25.362588	0.000438	20.726051
1060.309769	-2.993000	3.623900	-10.846000	25.388860	0.000436	20.725404
1061.308816	-2.997500	3.622000	-10.855000	25.430094	0.000436	20.718445
1062.313317	-2.994500	3.621900	-10.844000	25.444038	0.000436	20.724861
1063.311706	-2.978400	3.623300	-10.790000	25.486431	0.000435	20.703419
1064.307964	-2.979700	3.622000	-10.792000	25.508671	0.000434	20.699200
1065.313595	-2.976200	3.621800	-10.778000	25.426041	0.000435	20.711529
1066.312635	-2.981400	3.621700	-10.797000	25.413518	0.000432	20.711283
1067.310882	-2.992500	3.620600	-10.834000	25.402382	0.000435	20.703893
1068.314162	-2.994900	3.620800	-10.843000	25.444884	0.000435	20.705321
1069.310969	-2.969200	3.621500	-10.751000	25.463343	0.000434	20.729548
1070.312734	-2.981800	3.621300	-10.797000	25.485191	0.000435	20.718771
1071.321287	-3.013700	3.619700	-10.907000	25.476668	0.000434	20.714953
1072.318718	-3.012200	3.619600	-10.902000	25.460166	0.000435	20.711184
1073.314618	-3.017200	3.617700	-10.914000	25.477258	0.000433	20.723606
1074.320578	-3.028100	3.619300	-10.958000	25.490306	0.000433	20.714424
1075.318271	-3.014900	3.617800	-10.906000	25.472816	0.000435	20.722465
1076.310440	-3.003400	3.617600	-10.865000	25.472364	0.000433	20.706837
1077.314903	-3.018300	3.619100	-10.922000	25.474454	0.000433	20.698978
1078.319877	-3.007900	3.619400	-10.885000	25.517396	0.000431	20.716973
1079.311239	-3.004400	3.617400	-10.867000	25.572539	0.000431	20.727306
1080.312344	-3.003800	3.617700	-10.866000	25.575770	0.000431	20.704945
1081.317890	-2.980600	3.617800	-10.782000	25.543261	0.000430	20.730146
1082.316322	-2.995700	3.616200	-10.832000	25.528925	0.000430	20.739931
1083.318733	-2.994600	3.617200	-10.831000	25.531261	0.000431	20.712878
1084.319090	-2.987300	3.616300	-10.802000	25.523884	0.000429	20.713056
1085.316330	-3.019900	3.615600	-10.918000	25.537797	0.000430	20.716597
1086.317317	-3.007700	3.614900	-10.872000	25.576635	0.000427	20.721463
1087.315459	-2.972500	3.615900	-10.747000	25.582050	0.000429	20.736384
1088.316756	-2.984400	3.614400	-10.786000	25.578868	0.000427	20.721334
1089.315875	-3.011500	3.614000	-10.882000	25.538520	0.000428	20.727281
1090.316645	-2.992100	3.613000	-10.810000	25.528374	0.000428	20.729420
1091.315655	-3.008500	3.614800	-10.873000	25.521744	0.000425	20.730823
1092.317220	-2.989600	3.614300	-10.804000	25.525025	0.000426	20.734592
1093.320521	-3.010300	3.613600	-10.877000	25.507009	0.000426	20.696583
1094.317740	-3.019100	3.612600	-10.906000	25.498903	0.000427	20.725903
1095.319186	-3.003000	3.613700	-10.851000	25.490877	0.000425	20.733490
1096.317775	-3.014000	3.612000	-10.886000	25.493931	0.000425	20.732290
1097.314342	-2.977100	3.613000	-10.755000	25.516767	0.000425	20.729617
1098.317545	-3.028100	3.612100	-10.937000	25.546291	0.000425	20.738405
1099.319262	-3.014900	3.611700	-10.888000	25.551026	0.000424	20.736996
1100.313974	-2.997400	3.612800	-10.828000	25.538338	0.000424	20.739427
1101.320190	-2.998200	3.610400	-10.824000	25.515571	0.000422	20.755445
1102.321321	-3.005400	3.609800	-10.848000	25.487310	0.000423	20.756936
1103.319572	-2.981600	3.610800	-10.765000	25.499218	0.000423	20.744238
1104.321456	-3.000000	3.609800	-10.828000	25.524936	0.000423	20.735925
1105.326591	-2.995700	3.608600	-10.809000	25.535741	0.000422	20.732551
1106.322707	-3.005800	3.609400	-10.848000	25.525476	0.000421	20.742632
1107.319173	-2.993100	3.609100	-10.801000	25.467607	0.000421	20.732408
1108.326652	-3.010600	3.608900	-10.864000	25.468699	0.000421	20.727814
1109.316516	-3.004700	3.608300	-10.840000	25.484330	0.000419	20.735451
1110.323356	-2.983300	3.607900	-10.762000	25.492302	0.000419	20.737767
1111.322388	-2.993100	3.608200	-10.799000	25.505725	0.000417	20.730857
1112.319890	-2.994500	3.606900	-10.800000	25.532760	0.000419	20.736196
1113.323187	-2.996900	3.607200	-10.810000	25.559697	0.000420	20.735747
1114.325113	-3.002200	3.605400	-10.823000	25.553613	0.000418	20.742914
1115.328561	-3.007300	3.606600	-10.845000	25.578129	0.000418	20.718696
1116.323019	-3.004700	3.605400	-10.832000	25.577087	0.000417	20.738987
1117.326673	-3.011800	3.605300	-10.857000	25.577166	0.000419	20.729582
1118.324157	-2.995300	3.606900	-10.802000	25.555270	0.000417	20.735569
1119.337182	-3.000500	3.605000	-10.816000	25.564266	0.000417	20.752190
1120.324143	-3.011800	3.604200	-10.854000	25.536404	0.000413	20.730847
1121.324336	-3.015300	3.604500	-10.868000	25.565131	0.000416	20.752585
1122.327826	-3.007300	3.605500	-10.842000	25.529298	0.000414	20.747418
1123.326370	-3.010800	3.603200	-10.847000	25.534044	0.000415	20.734640
1124.327027	-3.008600	3.602900	-10.839000	25.516795	0.000414	20.733440
1125.328069	-3.004600	3.604500	-10.830000	25.535760	0.000413	20.762443
1126.326037	-2.988800	3.604200	-10.772000	25.535258	0.000415	20.742973
1127.321109	-3.014900	3.603800	-10.864000	25.482200	0.000415	20.731414
1128.326837	-2.990400	3.601300	-10.768000	25.485008	0.000412	20.738028
1129.328116	-2.997400	3.603200	-10.799000	25.548719	0.000414	20.755069
1130.326198	-2.978200	3.602900	-10.730000	25.550834	0.000415	20.758615
1131.324301	-3.012200	3.600800	-10.845000	25.591432	0.000412	20.744385
1132.329791	-3.010500	3.602000	-10.843000	25.521133	0.000412	20.761505
1133.332133	-3.002100	3.601200	-10.811000	25.525707	0.000412	20.756141
1134.326173	-2.979500	3.601500	-10.730000	25.537088	0.000412	20.738645
1135.333269	-3.001500	3.600800	-10.806000	25.549909	0.000411	20.767644
1136.329961	-2.982400	3.600900	-10.738000	25.543053	0.000410	20.757440
1137.334537	-2.990100	3.600300	-10.764000	25.518246	0.000408	20.770459
1138.334312	-2.994200	3.599400	-10.777000	25.547794	0.000410	20.761727
1139.332606	-2.995700	3.600400	-10.785000	25.562455	0.000410	20.761751
1140.331594	-3.025000	3.598600	-10.885000	25.508827	0.000408	20.756733
1141.333833	-3.018800	3.597700	-10.860000	25.543565	0.000410	20.750840
1142.339277	-3.000600	3.599500	-10.800000	25.565307	0.000407	20.766513
1143.336936	-2.980600	3.599400	-10.727000	25.539089	0.000410	20.759622
1144.334651	-3.002200	3.598500	-10.802000	25.590551	0.000408	20.753458
1145.332892	-3.008500	3.596700	-10.819000	25.545778	0.000408	20.750218
1146.335071	-3.016200	3.597600	-10.850000	25.517247	0.000406	20.747645
1147.333813	-2.981200	3.596800	-10.721000	25.538961	0.000407	20.762813
1148.331956	-3.008700	3.597300	-10.822000	25.512054	0.000406	20.764715
1149.335310	-2.998500	3.596500	-10.784000	25.516322	0.000406	20.742448
1150.335888	-2.992800	3.598100	-10.768000	25.537889	0.000405	20.759365
1151.332254	-3.002100	3.596400	-10.796000	25.584404	0.000406	20.749655
1152.336268	-3.007900	3.594900	-10.812000	25.576550	0.000404	20.766423
1153.334900	-3.007700	3.595800	-10.814000	25.572350	0.000405	20.775008
1154.332973	-2.992000	3.596200	-10.759000	25.565912	0.000403	20.780396
1155.335871	-2.999200	3.593700	-10.777000	25.526124	0.000405	20.770785
1156.340518	-2.962900	3.595300	-10.652000	25.589410	0.000404	20.748992
1157.334374	-2.983700	3.594700	-10.725000	25.629038	0.000402	20.756549
1158.334370	-2.977400	3.595200	-10.703000	25.662876	0.000403	20.783424
1159.335967	-2.982900	3.593600	-10.718000	25.667469	0.000402	20.754371
1160.332969	-2.975600	3.594400	-10.694000	25.639758	0.000401	20.761627
1161.333924	-3.005800	3.594000	-10.802000	25.650818	0.000403	20.764200
1162.336442	-3.010100	3.592900	-10.814000	25.676286	0.000402	20.776504
1163.334689	-2.983800	3.591000	-10.714000	25.665915	0.000403	20.785527
1164.335588	-3.002400	3.591100	-10.781000	25.639669	0.000402	20.780978
1165.336829	-3.012600	3.591500	-10.819000	25.620637	0.000401	20.794106
1166.336082	-3.018300	3.590400	-10.837000	25.633851	0.000400	20.777032
1167.335404	-2.991500	3.591100	-10.742000	25.558785	0.000398	20.776083
1168.335737	-3.007800	3.589500	-10.796000	25.543224	0.000400	20.790802
1169.332937	-3.009000	3.589500	-10.799000	25.552391	0.000399	20.777249
1170.337518	-3.003600	3.590500	-10.783000	25.580886	0.000401	20.776468
1171.338986	-3.016600	3.589800	-10.829000	25.602181	0.000400	20.789320
1172.335306	-2.994600	3.588000	-10.745000	25.659453	0.000397	20.748690
1173.337930	-2.989400	3.589600	-10.729000	25.658233	0.000398	20.773070
1174.340571	-2.990600	3.589200	-10.733000	25.665806	0.000398	20.795375
1175.337740	-2.986500	3.588600	-10.717000	25.660539	0.000397	20.774912
1176.336586	-3.002200	3.588500	-10.772000	25.701354	0.000395	20.790777
1177.342286	-3.011300	3.588400	-10.805000	25.697529	0.000397	20.785038
1178.339019	-3.001000	3.587000	-10.763000	25.666691	0.000396	20.777298
1179.339255	-3.008300	3.587500	-10.792000	25.676575	0.000394	20.785803
1180.341023	-3.014000	3.586700	-10.810000	25.670015	0.000393	20.780163
1181.336982	-3.001300	3.586600	-10.763000	25.646032	0.000395	20.781205
1182.338791	-3.005700	3.586400	-10.778000	25.627325	0.000395	20.772373
1183.343774	-2.998400	3.585600	-10.750000	25.586866	0.000396	20.792906
1184.338026	-2.987700	3.584300	-10.708000	25.599048	0.000393	20.783803
1185.337162	-3.002900	3.584800	-10.764000	25.589399	0.000394	20.786440
1186.341312	-3.001600	3.585000	-10.760000	25.566338	0.000395	20.802161
1187.338925	-2.987700	3.584800	-10.709000	25.575854	0.000395	20.784218
1188.339662	-2.996900	3.584100	-10.740000	25.556448	0.000393	20.780849
1189.340191	-3.000100	3.583600	-10.750000	25.553325	0.000393	20.769178
1190.339322	-2.998700	3.583100	-10.744000	25.603636	0.000391	20.792678
1191.338363	-3.017700	3.583500	-10.812000	25.663219	0.000393	20.799415
1192.342524	-2.986300	3.584900	-10.705000	25.664984	0.000390	20.794076
1193.339693	-3.023000	3.580900	-10.824000	25.676585	0.000393	20.820900
1194.339604	-2.999800	3.582600	-10.746000	25.678847	0.000392	20.807525
1195.342856	-2.992500	3.582100	-10.718000	25.612896	0.000391	20.797237
1196.338397	-3.021600	3.581200	-10.819000	25.592600	0.000392	20.804828
1197.341060	-2.990700	3.582200	-10.712000	25.601172	0.000390	20.796368
1198.347578	-3.002600	3.580700	-10.750000	25.601246	0.000391	20.791700
1199.341717	-2.969900	3.582600	-10.639000	25.619161	0.000388	20.804952
1200.344517	-2.997200	3.580400	-10.730000	25.660932	0.000389	20.808972
1201.349084	-3.004400	3.581300	-10.758000	25.679117	0.000389	20.813487
1202.339696	-2.995600	3.580300	-10.724000	25.670522	0.000387	20.781620
1203.343391	-2.995600	3.580300	-10.725000	25.628628	0.000387	20.788855
1204.343991	-2.998100	3.579300	-10.730000	25.622387	0.000387	20.793967
1205.342396	-3.001800	3.580100	-10.745000	25.586659	0.000386	20.792224
1206.344479	-2.986800	3.579300	-10.690000	25.632474	0.000386	20.791295
1207.344634	-3.001800	3.579200	-10.743000	25.577807	0.000385	20.805619
1208.346888	-2.987000	3.578200	-10.687000	25.556782	0.000386	20.792090
1209.343805	-2.992000	3.578200	-10.706000	25.534567	0.000384	20.813403
1210.345353	-3.006200	3.577000	-10.752000	25.587121	0.000385	20.814499
1211.345168	-2.978100	3.577800	-10.654000	25.584785	0.000384	20.822584
1212.346587	-3.019600	3.576300	-10.798000	25.591021	0.000384	20.807036
1213.342563	-2.986400	3.575500	-10.677000	25.600311	0.000384	20.815892
1214.344011	-3.007000	3.575800	-10.751000	25.580881	0.000384	20.814869
1215.346948	-3.005900	3.575500	-10.746000	25.613058	0.000384	20.813995
1216.344854	-2.998500	3.575900	-10.721000	25.666902	0.000382	20.803589
1217.352803	-2.979600	3.575800	-10.653000	25.623941	0.000383	20.818761
1218.346833	-2.986600	3.576600	-10.681000	25.623169	0.000383	20.806606
1219.344695	-3.004200	3.574100	-10.736000	25.603837	0.000382	20.816588
1220.350436	-2.994800	3.575200	-10.706000	25.622023	0.000380	20.823947
1221.349089	-2.998600	3.574400	-10.717000	25.666155	0.000382	20.838873
1222.349667	-3.004100	3.573000	-10.733000	25.666253	0.000381	20.809101
1223.351477	-3.008000	3.573200	-10.747000	25.610988	0.000381	20.830407
1224.349068	-3.013100	3.573100	-10.766000	25.625377	0.000379	20.819729
1225.347802	-3.018300	3.572400	-10.782000	25.606193	0.000380	20.824170
1226.351696	-3.022000	3.571200	-10.791000	25.633649	0.000380	20.834201
1227.355362	-2.976500	3.572700	-10.633000	25.607929	0.000383	20.819749
1228.353154	-2.982700	3.571900	-10.653000	25.529029	0.000378	20.829652
1229.353813	-2.991000	3.572000	-10.683000	25.529629	0.000378	20.812237
1230.357776	-3.024100	3.570400	-10.797000	25.531709	0.000378	20.839456
1231.358033	-2.981300	3.572000	-10.648000	25.547866	0.000378	20.840508
1232.356608	-2.992800	3.570900	-10.686000	25.556035	0.000379	20.820263
1233.354248	-2.989300	3.571400	-10.675000	25.602175	0.000378	20.827246
1234.357045	-2.991600	3.570400	-10.679000	25.669464	0.000377	20.837929
1235.370264	-3.013500	3.569400	-10.755000	25.652739	0.000378	20.824451
1236.356348	-2.997900	3.569100	-10.699000	25.629705	0.000378	20.836403
1237.368884	-2.989700	3.569900	-10.671000	25.604241	0.000375	20.829795
1238.356024	-2.990300	3.568700	-10.671000	25.610570	0.000376	20.830936
1239.359799	-2.984900	3.568700	-10.652000	25.630600	0.000374	20.841095
1240.361476	-2.998900	3.568300	-10.700000	25.675665	0.000374	20.838468
1241.358896	-2.996100	3.568600	-10.691000	25.679521	0.000377	20.812943
1242.360977	-3.007300	3.567300	-10.727000	25.628608	0.000374	20.848104
1243.359799	-3.005600	3.566100	-10.717000	25.651318	0.000373	20.833455
1244.355276	-2.977000	3.567600	-10.620000	25.680091	0.000373	20.850973
1245.356667	-2.988900	3.567300	-10.661000	25.703769	0.000373	20.841564
1246.358357	-2.976300	3.567200	-10.617000	25.682432	0.000371	20.834359
1247.359082	-3.010900	3.565000	-10.732000	25.649258	0.000372	20.846084
1248.358910	-3.001800	3.565100	-10.701000	25.628259	0.000372	20.838270
1249.357546	-3.002200	3.565800	-10.703000	25.583187	0.000370	20.840419
1250.358508	-3.003900	3.564700	-10.706000	25.595939	0.000369	20.847536
1251.361017	-2.978000	3.565900	-10.618000	25.611514	0.000371	20.836626
1252.361683	-2.996500	3.565000	-10.682000	25.617184	0.000371	20.858441
1253.360906	-3.008300	3.562800	-10.716000	25.606375	0.000368	20.816766
1254.359986	-3.008600	3.564000	-10.721000	25.608490	0.000367	20.844967
1255.357610	-2.995600	3.564100	-10.676000	25.641237	0.000370	20.852726
1256.364115	-3.019200	3.562700	-10.756000	25.599367	0.000368	20.839599
1257.362072	-3.006200	3.563100	-10.710000	25.590992	0.000369	20.851576
1258.362696	-3.004300	3.562100	-10.701000	25.635100	0.000367	20.831390
1259.362067	-3.010300	3.560900	-10.719000	25.634529	0.000370	20.855946
1260.360567	-3.000500	3.562500	-10.688000	25.683007	0.000366	20.856272
1261.360365	-3.005500	3.561300	-10.702000	25.673841	0.000366	20.843747
1262.361246	-3.003800	3.561800	-10.698000	25.687138	0.000365	20.853309
1263.363050	-2.977400	3.561600	-10.603000	25.708529	0.000367	20.854406
1264.359786	-3.014200	3.560400	-10.731000	25.692208	0.000364	20.864091
1265.360013	-3.003500	3.560600	-10.693000	25.689995	0.000365	20.856179
1266.362618	-2.992700	3.560800	-10.656000	25.681768	0.000366	20.842700
1267.371946	-2.982600	3.559800	-10.617000	25.677322	0.000362	20.855779
1268.362640	-2.984400	3.560000	-10.624000	25.684079	0.000364	20.850237
1269.361086	-3.007100	3.558500	-10.700000	25.695266	0.000366	20.850094
1270.362696	-3.003000	3.557800	-10.683000	25.654593	0.000364	20.851442
1271.363369	-2.999400	3.559100	-10.675000	25.673300	0.000362	20.837515
1272.364348	-2.992000	3.557900	-10.645000	25.687689	0.000365	20.868086
1273.367005	-3.003100	3.557700	-10.683000	25.729378	0.000363	20.861122
1274.367846	-3.014000	3.557100	-10.720000	25.715742	0.000361	20.813763
1275.363401	-2.990500	3.557000	-10.636000	25.759821	0.000361	20.841915
1276.363730	-3.005300	3.556000	-10.686000	25.732540	0.000364	20.840117
1277.364614	-3.009500	3.556600	-10.703000	25.719740	0.000362	20.843382
1278.365264	-2.969400	3.556200	-10.559000	25.714951	0.000358	20.847580
1279.366652	-3.000000	3.556500	-10.668000	25.693408	0.000362	20.851546
1280.363115	-2.990400	3.556500	-10.633000	25.664266	0.000360	20.834131
1281.367659	-3.000900	3.555100	-10.668000	25.683499	0.000358	20.848232
1282.366799	-3.018200	3.555100	-10.729000	25.665658	0.000359	20.856865
1283.368171	-3.006400	3.554700	-10.686000	25.695448	0.000357	20.842216
1284.368201	-2.996100	3.554100	-10.647000	25.719106	0.000359	20.837529
1285.365313	-3.003500	3.553600	-10.673000	25.702367	0.000360	20.822614
1286.370086	-2.978200	3.553900	-10.583000	25.681743	0.000356	20.845521
1287.370229	-3.020000	3.552500	-10.728000	25.659182	0.000358	20.821912
1288.372125	-3.010400	3.552300	-10.693000	25.641242	0.000359	20.845619
1289.368384	-3.005800	3.551100	-10.674000	25.647261	0.000356	20.857354
1290.370942	-3.016300	3.552200	-10.714000	25.661768	0.000355	20.841105
1291.372498	-3.022300	3.551300	-10.733000	25.617593	0.000357	20.844153
1292.371212	-3.004100	3.551900	-10.670000	25.617991	0.000357	20.844078
1293.373354	-3.017300	3.549900	-10.710000	25.665127	0.000355	20.838789
1294.370859	-3.015500	3.551300	-10.708000	25.671687	0.000354	20.819300
1295.372657	-2.989500	3.551900	-10.617000	25.697455	0.000355	20.834275
1296.369222	-2.987500	3.550900	-10.607000	25.712915	0.000353	20.823725
1297.369815	-3.013600	3.549900	-10.697000	25.697730	0.000354	20.825543
1298.371470	-3.017300	3.550100	-10.711000	25.670153	0.000353	20.824397
1299.370129	-2.990600	3.550000	-10.616000	25.694829	0.000355	20.809353
1300.372596	-3.001100	3.549700	-10.652000	25.736621	0.000354	20.813872
1301.373866	-2.998800	3.549200	-10.642000	25.773815	0.000353	20.828946
1302.371508	-3.017200	3.548300	-10.706000	25.760627	0.000352	20.829450
1303.372725	-2.977800	3.548400	-10.566000	25.746264	0.000353	20.817868
1304.377376	-2.969800	3.547800	-10.534000	25.740905	0.000351	20.821967
1305.372346	-2.999900	3.546900	-10.640000	25.720114	0.000350	20.797292
1306.372877	-2.983100	3.547300	-10.581000	25.736808	0.000351	20.791775
1307.376421	-2.999700	3.546300	-10.636000	25.774577	0.000350	20.810746
1308.372426	-3.001600	3.545600	-10.641000	25.786904	0.000349	20.787092
1309.372538	-3.019500	3.545300	-10.703000	25.787903	0.000348	20.786199
1310.374622	-3.004700	3.546500	-10.655000	25.734911	0.000350	20.799351
1311.376241	-3.003200	3.546200	-10.650000	25.722490	0.000347	20.785453
1312.374400	-2.982100	3.546300	-10.575000	25.736681	0.000347	20.779318
1313.379026	-2.990000	3.544900	-10.598000	25.746097	0.000349	20.818648
1314.377769	-3.023400	3.543300	-10.712000	25.767866	0.000349	20.805901
1315.372831	-2.990000	3.543700	-10.595000	25.769557	0.000347	20.795746
1316.376393	-2.991700	3.543900	-10.602000	25.773737	0.000347	20.818910
1317.374218	-2.994500	3.544800	-10.614000	25.769759	0.000347	20.773663
1318.374290	-3.013600	3.542800	-10.675000	25.688919	0.000346	20.818115
1319.394323	-3.002100	3.543500	-10.637000	25.661690	0.000347	20.817794
1320.375911	-2.994900	3.542100	-10.607000	25.647361	0.000348	20.783013
1321.378041	-3.000700	3.543800	-10.634000	25.632131	0.000346	20.785261
1322.382198	-2.997700	3.543200	-10.621000	25.661523	0.000344	20.784436
1323.379787	-3.000700	3.543100	-10.631000	25.660933	0.000345	20.786214
1324.377998	-3.001300	3.540800	-10.625000	25.738206	0.000346	20.785118
1325.376234	-3.013300	3.541600	-10.671000	25.735005	0.000346	20.773367
1326.377706	-3.005500	3.540800	-10.642000	25.723730	0.000345	20.766784
1327.376288	-3.019000	3.539600	-10.685000	25.714608	0.000344	20.784174
1328.376608	-3.009700	3.540600	-10.656000	25.763033	0.000345	20.777339
1329.377548	-3.015100	3.538800	-10.669000	25.792004	0.000343	20.773723
1330.377712	-2.984300	3.539000	-10.560000	25.787063	0.000342	20.782984
1331.382191	-2.992700	3.540100	-10.593000	25.767458	0.000343	20.761395
1332.377817	-3.028200	3.538800	-10.716000	25.730270	0.000343	20.789000
1333.376983	-2.988900	3.539600	-10.579000	25.718517	0.000340	20.786679
1334.379967	-2.997600	3.538700	-10.606000	25.735959	0.000341	20.785232
1335.379192	-3.009400	3.537500	-10.645000	25.767537	0.000341	20.792769
1336.378163	-2.975900	3.538800	-10.530000	25.756562	0.000342	20.770365
1337.387901	-2.967700	3.537000	-10.495000	25.711643	0.000340	20.774084
1338.381254	-2.992200	3.537600	-10.584000	25.692957	0.000340	20.793248
1339.382941	-3.006400	3.536400	-10.631000	25.707537	0.000341	20.763795
1340.389308	-2.988400	3.536600	-10.567000	25.725953	0.000339	20.778500
1341.379022	-2.985900	3.536300	-10.558000	25.773979	0.000340	20.779325
1342.383975	-3.006900	3.535400	-10.629000	25.803073	0.000339	20.772513
1343.387668	-2.986200	3.536900	-10.561000	25.797114	0.000339	20.764156
1344.382653	-2.984400	3.535800	-10.550000	25.798077	0.000339	20.792626
1345.381158	-2.991900	3.534600	-10.573000	25.746177	0.000335	20.755191
1346.386673	-2.983900	3.534800	-10.547000	25.735173	0.000337	20.761208
1347.382330	-2.977200	3.533400	-10.519000	25.731696	0.000338	20.775260
1348.383141	-3.007100	3.532200	-10.620000	25.687518	0.000336	20.762655
1349.383902	-2.986300	3.533300	-10.550000	25.684765	0.000335	20.753725
1350.380688	-2.986600	3.534600	-10.556000	25.669107	0.000334	20.783992
1351.386703	-2.989500	3.531800	-10.557000	25.621302	0.000335	20.760160
1352.384904	-2.992400	3.531300	-10.566000	25.704169	0.000335	20.763257
1353.383485	-2.989400	3.532000	-10.558000	25.711024	0.000336	20.756392
1354.381502	-3.010200	3.530500	-10.627000	25.681829	0.000335	20.759785
1355.389018	-3.016600	3.531700	-10.653000	25.705634	0.000333	20.757617
1356.381133	-3.011400	3.531900	-10.635000	25.733235	0.000333	20.770641
1357.381101	-3.028300	3.529300	-10.687000	25.709735	0.000334	20.766478
1358.384170	-2.998200	3.530300	-10.583000	25.660118	0.000332	20.752203
1359.380501	-3.004500	3.530000	-10.605000	25.712145	0.000332	20.750880
1360.381496	-3.019500	3.528800	-10.654000	25.723229	0.000334	20.757271
1361.390932	-2.985300	3.528900	-10.534000	25.667297	0.000331	20.765105
1362.383042	-3.007400	3.529300	-10.613000	25.701961	0.000332	20.769575
1363.386711	-3.007100	3.528400	-10.609000	25.744771	0.000330	20.779858
1364.389784	-3.014100	3.527900	-10.633000	25.753666	0.000332	20.746592
1365.382937	-3.007900	3.528300	-10.612000	25.725013	0.000331	20.732036
1366.385123	-2.969900	3.527000	-10.474000	25.716221	0.000329	20.764458
1367.390713	-2.969800	3.527300	-10.474000	25.694088	0.000328	20.754555
1368.386528	-2.992800	3.526600	-10.553000	25.657310	0.000328	20.742270
1369.385566	-3.003300	3.526800	-10.591000	25.749069	0.000329	20.750983
1370.386970	-3.035700	3.524900	-10.699000	25.747721	0.000328	20.737301
1371.389383	-3.018700	3.526300	-10.644000	25.737587	0.000329	20.755572
1372.384999	-2.996000	3.525800	-10.562000	25.741963	0.000328	20.733888
1373.393079	-2.970000	3.525300	-10.470000	25.773266	0.000329	20.756323
1374.385396	-3.005700	3.525700	-10.596000	25.780543	0.000330	20.748459
1375.393742	-2.998500	3.526000	-10.571000	25.824319	0.000329	20.747388
1376.391842	-3.019600	3.524500	-10.642000	25.876363	0.000328	20.750356
1377.389924	-2.982200	3.524300	-10.509000	25.848888	0.000329	20.740300
1378.391525	-2.974200	3.524200	-10.481000	25.776492	0.000328	20.739648
1379.396516	-2.963500	3.524600	-10.443000	25.748223	0.000327	20.736857
1380.392848	-2.992800	3.522800	-10.542000	25.738531	0.000326	20.734234
1381.390151	-3.016600	3.521400	-10.621000	25.775100	0.000327	20.756742
1382.394297	-2.999900	3.520700	-10.561000	25.739396	0.000325	20.735577
1383.400265	-3.001100	3.521900	-10.569000	25.742529	0.000325	20.744414
1384.391593	-2.986600	3.521500	-10.516000	25.728087	0.000325	20.771160
1385.389773	-2.990100	3.521800	-10.529000	25.713649	0.000325	20.737217
1386.390342	-2.994300	3.520400	-10.540000	25.722938	0.000325	20.725684
1387.389526	-3.011000	3.520500	-10.599000	25.745646	0.000324	20.722414
1388.389174	-3.004800	3.521000	-10.579000	25.735905	0.000323	20.752934
1389.390420	-2.999500	3.519500	-10.556000	25.805437	0.000324	20.766354
1390.389522	-2.999700	3.519700	-10.558000	25.849782	0.000324	20.729818
1391.389876	-3.014900	3.517900	-10.606000	25.817558	0.000321	20.764778
1392.391030	-3.007500	3.519200	-10.582000	25.751418	0.000320	20.729161
1393.389081	-3.002800	3.518900	-10.566000	25.719092	0.000321	20.733675
1394.390578	-3.006000	3.517500	-10.573000	25.727068	0.000320	20.745954
1395.391231	-2.997400	3.518000	-10.544000	25.711136	0.000320	20.755082
1396.391753	-3.008400	3.518300	-10.584000	25.764827	0.000319	20.752114
1397.392919	-2.979100	3.517300	-10.477000	25.768299	0.000321	20.745169
1398.393349	-3.010000	3.517600	-10.587000	25.781565	0.000320	20.720087
1399.393330	-2.980800	3.517900	-10.485000	25.813511	0.000320	20.739375
1400.394104	-2.983900	3.516000	-10.490000	25.826580	0.000320	20.733062
1401.394694	-2.999100	3.516700	-10.545000	25.829697	0.000320	20.742358
1402.392180	-3.000100	3.515900	-10.547000	25.785307	0.000316	20.752296
1403.396797	-2.999700	3.515200	-10.544000	25.780630	0.000317	20.732425
1404.394365	-2.987400	3.514200	-10.498000	25.787937	0.000316	20.718901
1405.394634	-2.995700	3.514700	-10.529000	25.844221	0.000316	20.735137
1406.394429	-2.998300	3.514800	-10.537000	25.848100	0.000320	20.725757
1407.394631	-2.991800	3.513700	-10.512000	25.795185	0.000317	20.732346
1408.394392	-2.984000	3.513000	-10.482000	25.730239	0.000316	20.731121
1409.392365	-3.014500	3.512200	-10.586000	25.761911	0.000313	20.729743
1410.395508	-3.012000	3.512700	-10.579000	25.741495	0.000315	20.724882
1411.395762	-2.984600	3.513700	-10.486000	25.770186	0.000318	20.730469
1412.395782	-3.001400	3.511900	-10.539000	25.760003	0.000314	20.723084
1413.396830	-2.997600	3.511500	-10.525000	25.722209	0.000315	20.723055
1414.396686	-2.991600	3.511100	-10.503000	25.763927	0.000315	20.734613
1415.399254	-2.994800	3.512100	-10.517000	25.797540	0.000315	20.727125
1416.400665	-3.004800	3.510300	-10.547000	25.813240	0.000313	20.720610
1417.398815	-2.996800	3.510100	-10.517000	25.763701	0.000312	20.746714
1418.399368	-3.003800	3.509600	-10.542000	25.749938	0.000313	20.730044
1419.406552	-3.012300	3.510200	-10.572000	25.725214	0.000313	20.749307
1420.403477	-3.006600	3.510300	-10.552000	25.697740	0.000311	20.736885
1421.402772	-3.007900	3.508100	-10.551000	25.764197	0.000313	20.746265
1422.404850	-3.012700	3.509300	-10.571000	25.749048	0.000310	20.719666
1423.403534	-3.012800	3.508600	-10.570000	25.750213	0.000312	20.729846
1424.403139	-2.984400	3.508900	-10.471000	25.750636	0.000310	20.736910
1425.403438	-2.982300	3.508400	-10.462000	25.747214	0.000309	20.714979
1426.403086	-2.990500	3.508600	-10.491000	25.748404	0.000312	20.730874
1427.402556	-3.010600	3.507600	-10.559000	25.713029	0.000311	20.720946
1428.403372	-2.998200	3.507600	-10.515000	25.689868	0.000308	20.732296
1429.403601	-2.988800	3.507400	-10.482000	25.712857	0.000312	20.725989
1430.402472	-2.997000	3.506600	-10.508000	25.768062	0.000309	20.713635
1431.403882	-3.008500	3.505100	-10.543000	25.791787	0.000308	20.716604
1432.404716	-3.013800	3.504800	-10.562000	25.789157	0.000307	20.740042
1433.407961	-2.990900	3.505000	-10.482000	25.825301	0.000305	20.714707
1434.404924	-3.003400	3.505500	-10.528000	25.824834	0.000307	20.711867
1435.404613	-2.990100	3.503900	-10.475000	25.833055	0.000306	20.705426
1436.406444	-3.003800	3.504500	-10.526000	25.854055	0.000306	20.718461
1437.404913	-3.017400	3.503300	-10.569000	25.873230	0.000306	20.715438
1438.406432	-3.004500	3.502800	-10.524000	25.849974	0.000306	20.726690
1439.410769	-2.987500	3.501700	-10.460000	25.809656	0.000304	20.741667
1440.407443	-2.996200	3.502600	-10.494000	25.801833	0.000303	20.729066
1441.408781	-3.015400	3.501300	-10.556000	25.797186	0.000303	20.725821
1442.412997	-3.003000	3.502000	-10.515000	25.796419	0.000306	20.720309
1443.410328	-3.003100	3.502100	-10.516000	25.830852	0.000305	20.711749
1444.410680	-2.982100	3.501300	-10.440000	25.854281	0.000304	20.725801
1445.418773	-3.024300	3.500500	-10.585000	25.868815	0.000303	20.694880
1446.413109	-2.994700	3.501000	-10.484000	25.861115	0.000304	20.714174
1447.413562	-3.012600	3.499700	-10.541000	25.900959	0.000302	20.708207
1448.417276	-3.014000	3.499500	-10.546000	25.886455	0.000300	20.714026
1449.415219	-3.005800	3.499500	-10.517000	25.870978	0.000303	20.708909
1450.413069	-2.985800	3.498600	-10.445000	25.790986	0.000302	20.718644
1451.413136	-3.001400	3.499200	-10.502000	25.800476	0.000303	20.710633
1452.415425	-3.014800	3.497200	-10.543000	25.802217	0.000301	20.713330
1453.413101	-3.010800	3.498400	-10.532000	25.755637	0.000302	20.694041
1454.413097	-2.999000	3.498900	-10.492000	25.736903	0.000300	20.703199
1455.413764	-2.993300	3.497900	-10.469000	25.766716	0.000301	20.721766
1456.415367	-2.992400	3.498200	-10.467000	25.794050	0.000298	20.702280
1457.415138	-2.996400	3.497200	-10.479000	25.817602	0.000298	20.707921
1458.417423	-2.999700	3.497100	-10.489000	25.765629	0.000298	20.713088
1459.418819	-3.001400	3.497100	-10.496000	25.765929	0.000299	20.708647
1460.414525	-3.022400	3.495400	-10.563000	25.751590	0.000295	20.710366
1461.416994	-3.000700	3.496500	-10.490000	25.782426	0.000299	20.713839
1462.415174	-3.014900	3.495900	-10.539000	25.801233	0.000300	20.709023
1463.413850	-3.008500	3.495900	-10.516000	25.835421	0.000297	20.709225
1464.414502	-2.990400	3.496300	-10.454000	25.891367	0.000297	20.698571
1465.414225	-3.010400	3.493800	-10.516000	25.876706	0.000296	20.707551
1466.415658	-3.005700	3.494800	-10.504000	25.827622	0.000297	20.722255
1467.414570	-2.978700	3.494200	-10.407000	25.797344	0.000296	20.698003
1468.416594	-3.002300	3.493600	-10.488000	25.861116	0.000297	20.713700
1469.418371	-2.990300	3.494400	-10.448000	25.884833	0.000295	20.708129
1470.415591	-2.999200	3.493600	-10.478000	25.882311	0.000295	20.695163
1471.416516	-3.005600	3.492600	-10.497000	25.873540	0.000296	20.705318
1472.420597	-3.005200	3.492300	-10.494000	25.895350	0.000295	20.704943
1473.416157	-2.977300	3.493600	-10.401000	25.919770	0.000294	20.707665
1474.416441	-3.010000	3.491200	-10.508000	25.961942	0.000293	20.698823
1475.421558	-3.007700	3.492400	-10.503000	25.960359	0.000292	20.692016
1476.417937	-2.994500	3.490600	-10.452000	25.903251	0.000294	20.705294
1477.416760	-2.976100	3.492500	-10.393000	25.866062	0.000292	20.697331
1478.417670	-2.998900	3.490600	-10.467000	25.889490	0.000291	20.719919
1479.418565	-3.006400	3.489500	-10.490000	25.906058	0.000293	20.698156
1480.419958	-2.982700	3.490300	-10.409000	25.894957	0.000293	20.711661
1481.419761	-3.035300	3.487200	-10.584000	25.840751	0.000293	20.696086
1482.420802	-3.003500	3.490200	-10.482000	25.860973	0.000292	20.706919
1483.419784	-2.988000	3.488700	-10.423000	25.821767	0.000291	20.695983
1484.421462	-3.018300	3.487400	-10.525000	25.794242	0.000291	20.702947
1485.421361	-3.001500	3.488400	-10.470000	25.767390	0.000289	20.688302
1486.420632	-3.016500	3.487300	-10.518000	25.793027	0.000291	20.691769
1487.422107	-2.981100	3.489100	-10.400000	25.784752	0.000290	20.703372
1488.422959	-3.006700	3.486700	-10.483000	25.795638	0.000290	20.708144
1489.422317	-3.005200	3.487500	-10.480000	25.819215	0.000287	20.679193
1490.422837	-3.012400	3.485500	-10.498000	25.813644	0.000288	20.715326
1491.423654	-2.980200	3.486800	-10.390000	25.829024	0.000288	20.716076
1492.423374	-3.005000	3.485300	-10.472000	25.842983	0.000287	20.716348
1493.424267	-3.003000	3.485200	-10.465000	25.828178	0.000290	20.704795
1494.426137	-2.989600	3.485000	-10.418000	25.796548	0.000290	20.695780
1495.427378	-2.982500	3.485400	-10.394000	25.819377	0.000289	20.704963
1496.424321	-2.996300	3.483200	-10.435000	25.866903	0.000288	20.686321
1497.424031	-3.004900	3.483400	-10.466000	25.889578	0.000287	20.710524
1498.423809	-2.983800	3.483600	-10.393000	25.906446	0.000288	20.696649
1499.426785	-2.990300	3.483900	-10.415000	25.955409	0.000287	20.701742
1500.424959	-2.992700	3.482600	-10.422000	25.964150	0.000286	20.698195
1501.424335	-2.988100	3.482500	-10.405000	25.923659	0.000287	20.686439
1502.426895	-3.002300	3.482400	-10.454000	25.916525	0.000286	20.706301
1503.424355	-2.985700	3.481400	-10.393000	25.904106	0.000285	20.699988
1504.427789	-3.009200	3.480600	-10.473000	25.877252	0.000283	20.699089
1505.429126	-2.988300	3.481300	-10.402000	25.867782	0.000285	20.723717
1506.426277	-2.993000	3.480400	-10.416000	25.856135	0.000286	20.707748
1507.428470	-2.999400	3.480900	-10.440000	25.868426	0.000282	20.709190
1508.429193	-3.001200	3.480000	-10.443000	25.887581	0.000283	20.696664
1509.430663	-2.976900	3.480100	-10.359000	25.876027	0.000284	20.693117
1510.428239	-3.020700	3.478500	-10.506000	25.867064	0.000282	20.716832
1511.430163	-2.988400	3.479100	-10.396000	25.886411	0.000281	20.706869
1512.427553	-2.986100	3.479900	-10.391000	25.835165	0.000281	20.695217
1513.428270	-2.990500	3.478400	-10.401000	25.813653	0.000281	20.707274
1514.428668	-3.004000	3.478100	-10.448000	25.818275	0.000282	20.700537
1515.429044	-3.008300	3.476800	-10.458000	25.808387	0.000282	20.702458
1516.429674	-2.974000	3.477600	-10.342000	25.837053	0.000278	20.707546
1517.429821	-3.005200	3.476900	-10.448000	25.881102	0.000280	20.723347
1518.432305	-3.012400	3.476800	-10.473000	25.894745	0.000280	20.697222
1519.430577	-2.972300	3.477300	-10.335000	25.944725	0.000279	20.721831
1520.432231	-2.987600	3.476600	-10.386000	25.852315	0.000279	20.718610
1521.432299	-2.999500	3.476000	-10.425000	25.830302	0.000277	20.719731
1522.432217	-2.983000	3.474900	-10.364000	25.869513	0.000278	20.706489
1523.434681	-2.993100	3.477000	-10.406000	25.868736	0.000278	20.718511
1524.431505	-3.003700	3.474600	-10.436000	25.831630	0.000276	20.722488
1525.432900	-2.980300	3.475800	-10.358000	25.798215	0.000277	20.713577
1526.433247	-2.986500	3.474800	-10.376000	25.838907	0.000277	20.715098
1527.434985	-3.003800	3.473800	-10.434000	25.853569	0.000274	20.712283
1528.434184	-2.999800	3.474000	-10.420000	25.862065	0.000275	20.701851
1529.434430	-3.006200	3.473800	-10.443000	25.900198	0.000278	20.710287
1530.435980	-3.009200	3.472500	-10.449000	25.896550	0.000275	20.709942
1531.434763	-2.999700	3.472100	-10.414000	25.866003	0.000276	20.694427
1532.434888	-3.003200	3.472600	-10.428000	25.822150	0.000275	20.709171
1533.434962	-3.008500	3.471900	-10.444000	25.807719	0.000272	20.719806
1534.435434	-3.003400	3.470900	-10.424000	25.784767	0.000273	20.709552
1535.435251	-2.979800	3.472500	-10.347000	25.810483	0.000273	20.705037
1536.437802	-2.985500	3.472300	-10.365000	25.848569	0.000272	20.714847
1537.438433	-3.007600	3.471500	-10.440000	25.840122	0.000271	20.690713
1538.433866	-3.006500	3.470900	-10.435000	25.818886	0.000272	20.696882
1539.438829	-2.996900	3.470600	-10.400000	25.787713	0.000272	20.723891
1540.439034	-3.034800	3.468000	-10.523000	25.744953	0.000273	20.716028
1541.435603	-2.964600	3.470000	-10.286000	25.796883	0.000274	20.722197
1542.435391	-3.006800	3.469100	-10.430000	25.890838	0.000272	20.715109
1543.438840	-3.016000	3.468800	-10.461000	25.884677	0.000271	20.715559
1544.438385	-3.002200	3.467700	-10.410000	25.844734	0.000271	20.725694
1545.437505	-2.984000	3.467800	-10.346000	25.821384	0.000272	20.715040
1546.436008	-3.006200	3.466900	-10.421000	25.887067	0.000270	20.719382
1547.439454	-2.996700	3.467700	-10.391000	25.897628	0.000268	20.728095
1548.436832	-3.012900	3.468200	-10.449000	25.896684	0.000270	20.695376
1549.436713	-2.988200	3.466800	-10.359000	25.903390	0.000268	20.722504
1550.435934	-3.014700	3.466200	-10.449000	25.947657	0.000271	20.733785
1551.439841	-2.999100	3.465300	-10.392000	25.936856	0.000270	20.694008
1552.436437	-3.017800	3.465600	-10.458000	25.888414	0.000269	20.717890
1553.436718	-2.998500	3.466300	-10.392000	25.887549	0.000269	20.740256
1554.438731	-3.017900	3.466000	-10.459000	25.858506	0.000269	20.730521
1555.437352	-3.013800	3.465800	-10.444000	25.851952	0.000266	20.722040
1556.437158	-3.005800	3.464300	-10.412000	25.849863	0.000266	20.728476
1557.439884	-3.000200	3.465500	-10.396000	25.815351	0.000267	20.710402
1558.438066	-3.025900	3.462100	-10.475000	25.780254	0.000267	20.733470
1559.438515	-2.999600	3.465000	-10.393000	25.729696	0.000266	20.714927
1560.442634	-2.996600	3.462300	-10.374000	25.812401	0.000265	20.726880
1561.438520	-3.024100	3.462100	-10.468000	25.849066	0.000265	20.735262
1562.438153	-2.987000	3.463300	-10.344000	25.862366	0.000265	20.733450
1563.442876	-3.014300	3.461400	-10.433000	25.806693	0.000266	20.724465
1564.440340	-3.010900	3.462300	-10.424000	25.834169	0.000266	20.739738
1565.440013	-3.013900	3.462400	-10.434000	25.852803	0.000265	20.708195
1566.442523	-3.020900	3.461200	-10.455000	25.857548	0.000266	20.746628
1567.439322	-3.026200	3.462200	-10.476000	25.837901	0.000263	20.734477
1568.442105	-3.001900	3.460400	-10.386000	25.869795	0.000264	20.727162
1569.446117	-3.027600	3.460200	-10.475000	25.951871	0.000263	20.723793
1570.442184	-2.998400	3.459300	-10.370000	25.943105	0.000263	20.742015
1571.441340	-3.000500	3.459200	-10.379000	25.984514	0.000262	20.743314
1572.445193	-2.986800	3.458700	-10.329000	25.966280	0.000262	20.734003
1573.441895	-2.988500	3.459600	-10.338000	26.002424	0.000263	20.747083
1574.441564	-2.984300	3.460500	-10.326000	26.030917	0.000262	20.740622
1575.443544	-2.989800	3.458200	-10.338000	26.009282	0.000261	20.736903
1576.445880	-3.004000	3.457400	-10.385000	25.960720	0.000261	20.740746
1577.444113	-2.977300	3.458500	-10.296000	25.976791	0.000262	20.747883
1578.443515	-3.008700	3.457700	-10.402000	25.942240	0.000260	20.744465
1579.445276	-2.991600	3.457400	-10.342000	25.927756	0.000258	20.726120
1580.444055	-3.000000	3.456500	-10.368000	25.935859	0.000263	20.735683
1581.447938	-3.012400	3.458200	-10.417000	25.919536	0.000260	20.736355
1582.446141	-2.997800	3.455600	-10.358000	25.979953	0.000259	20.745369
1583.443608	-3.000200	3.454600	-10.363000	26.017752	0.000256	20.747310
1584.446908	-3.022000	3.455400	-10.441000	26.048825	0.000258	20.736804
1585.445015	-3.013100	3.454500	-10.406000	26.029010	0.000258	20.723058
1586.444170	-3.002100	3.456100	-10.375000	26.022825	0.000257	20.751933
1587.444692	-3.015500	3.454000	-10.414000	26.003722	0.000259	20.740800
1588.446887	-3.013000	3.454600	-10.408000	25.983502	0.000258	20.773592
1589.446344	-3.003700	3.454300	-10.376000	26.006829	0.000258	20.734913
1590.444883	-3.009700	3.453500	-10.394000	26.002036	0.000257	20.735787
1591.444974	-3.015400	3.453900	-10.414000	26.015924	0.000256	20.748318
1592.446350	-2.981200	3.453300	-10.294000	25.985714	0.000257	20.746416
1593.446970	-2.985500	3.452800	-10.307000	25.901483	0.000256	20.737659
1594.447175	-2.991700	3.452000	-10.325000	25.860848	0.000257	20.754211
1595.449569	-2.994700	3.453100	-10.339000	25.861841	0.000253	20.739086
1596.447818	-3.013600	3.451200	-10.400000	25.905913	0.000257	20.741635
1597.445620	-3.002900	3.450700	-10.362000	25.978596	0.000252	20.746377
1598.449903	-3.003000	3.450800	-10.361000	25.963651	0.000254	20.757441
1599.448206	-3.002800	3.451400	-10.362000	25.955844	0.000253	20.752443
1600.447613	-3.004500	3.449700	-10.364000	25.923259	0.000253	20.760484
1601.450018	-2.986100	3.450500	-10.302000	25.917747	0.000252	20.750205
1602.449339	-3.012400	3.448100	-10.386000	25.934119	0.000250	20.765705
1603.448764	-3.006000	3.449400	-10.368000	25.927089	0.000252	20.754374
1604.452381	-3.006100	3.448900	-10.366000	25.889556	0.000251	20.762188
1605.449976	-3.001600	3.448500	-10.350000	25.850086	0.000252	20.752409
1606.451473	-3.016000	3.448500	-10.400000	25.900147	0.000251	20.745800
1607.456534	-3.008300	3.446900	-10.368000	25.905191	0.000251	20.759403
1608.451554	-2.979500	3.447700	-10.271000	25.869074	0.000251	20.772907
1609.451072	-2.992100	3.447100	-10.313000	25.873726	0.000251	20.764777
1610.451514	-3.001800	3.446100	-10.344000	25.947851	0.000251	20.751051
1611.451599	-2.985200	3.445200	-10.284000	25.988567	0.000252	20.774414
1612.452408	-2.985100	3.447800	-10.291000	25.953122	0.000252	20.758243
1613.450775	-3.018300	3.444300	-10.395000	25.949946	0.000250	20.755526
1614.452511	-2.997600	3.445000	-10.325000	25.925433	0.000248	20.756979
1615.452725	-3.005600	3.445200	-10.354000	25.966175	0.000248	20.755709
1616.454154	-3.001000	3.444300	-10.335000	25.992880	0.000248	20.743658
1617.454828	-3.023400	3.445100	-10.414000	26.000878	0.000247	20.772557
1618.454132	-3.006100	3.443600	-10.351000	25.996764	0.000247	20.761311
1619.455334	-3.009900	3.442900	-10.362000	26.019515	0.000250	20.758565
1620.456078	-3.015600	3.443400	-10.383000	26.008444	0.000247	20.749339
1621.454892	-3.019300	3.443400	-10.396000	25.999728	0.000245	20.765238
1622.458703	-3.041600	3.441500	-10.467000	25.962169	0.000248	20.760694
1623.457513	-2.966400	3.444600	-10.217000	25.961157	0.000248	20.749245
1624.454696	-2.995800	3.442900	-10.313000	25.975984	0.000244	20.761297
1625.455671	-2.988700	3.441100	-10.284000	25.984661	0.000246	20.763851
1626.456917	-2.998300	3.441500	-10.318000	25.967278	0.000245	20.756818
1627.456548	-2.973200	3.441100	-10.230000	25.925401	0.000247	20.762162
1628.457078	-2.999100	3.441000	-10.319000	25.981663	0.000244	20.765580
1629.458365	-2.996200	3.441500	-10.310000	25.966462	0.000244	20.765955
1630.457196	-2.988700	3.440100	-10.281000	25.953877	0.000243	20.768011
1631.468350	-2.984700	3.439900	-10.266000	25.945976	0.000245	20.772401
1632.459157	-2.996900	3.438900	-10.305000	25.931645	0.000243	20.776496
1633.460389	-3.009300	3.438700	-10.347000	25.941041	0.000242	20.766020
1634.460800	-3.021700	3.438900	-10.390000	25.999789	0.000243	20.769567
1635.464767	-2.996100	3.438900	-10.302000	26.051260	0.000244	20.772916
1636.463726	-2.993800	3.438600	-10.294000	26.058117	0.000243	20.781229
1637.461303	-2.991000	3.438700	-10.284000	26.043861	0.000242	20.759793
1638.461555	-2.996000	3.438000	-10.299000	26.042072	0.000241	20.748037
1639.461981	-2.985600	3.438500	-10.265000	26.004298	0.000242	20.765562
1640.462998	-3.004500	3.437000	-10.325000	25.998517	0.000243	20.756435
1641.460932	-2.992900	3.438200	-10.289000	25.978469	0.000241	20.763320
1642.461222	-3.010500	3.435900	-10.343000	25.936416	0.000240	20.803100
1643.464694	-2.977300	3.437600	-10.234000	25.902310	0.000240	20.756034
1644.461565	-2.996800	3.436100	-10.296000	25.888077	0.000240	20.777298
1645.461360	-3.006900	3.435500	-10.329000	25.905742	0.000240	20.769440
1646.466332	-2.998700	3.435700	-10.302000	25.893446	0.000239	20.780795
1647.463676	-2.981700	3.436600	-10.246000	25.901519	0.000240	20.777525
1648.462172	-2.990700	3.434100	-10.270000	25.926160	0.000239	20.785211
1649.467419	-3.002100	3.433900	-10.308000	25.969630	0.000238	20.773880
1650.463540	-3.004600	3.435500	-10.322000	26.015704	0.000237	20.775599
1651.465119	-2.999100	3.434000	-10.298000	26.064282	0.000239	20.773672
1652.469865	-3.022300	3.432000	-10.371000	26.005719	0.000236	20.772680
1653.464850	-3.019700	3.432400	-10.363000	26.004254	0.000235	20.785907
1654.466978	-3.013400	3.431500	-10.339000	26.051688	0.000237	20.778562
1655.464452	-3.004800	3.432400	-10.312000	26.094593	0.000238	20.784687
1656.464681	-3.006800	3.430400	-10.314000	26.091107	0.000235	20.792090
1657.465266	-2.999000	3.431100	-10.289000	26.049952	0.000235	20.776344
1658.464986	-2.998200	3.432300	-10.289000	26.042053	0.000236	20.785951
1659.464395	-3.000000	3.431900	-10.294000	26.010851	0.000234	20.793957
1660.465698	-3.004000	3.430400	-10.304000	26.012168	0.000234	20.793384
1661.467074	-2.996200	3.429700	-10.275000	26.056156	0.000233	20.782103
1662.466393	-2.998900	3.431100	-10.289000	26.031935	0.000235	20.790010
1663.467163	-3.015200	3.429500	-10.340000	26.049868	0.000235	20.766302
1664.466293	-3.043000	3.428500	-10.431000	26.033700	0.000235	20.788465
1665.468548	-3.001500	3.429200	-10.292000	26.006377	0.000233	20.772392
1666.467556	-3.010600	3.428000	-10.320000	26.002174	0.000233	20.803731
1667.467897	-3.017000	3.427700	-10.340000	26.013023	0.000232	20.803726
1668.470309	-2.989400	3.428600	-10.248000	26.027653	0.000234	20.788079
1669.467232	-3.012800	3.427100	-10.324000	26.041491	0.000232	20.802931
1670.468946	-3.014100	3.427300	-10.330000	26.013618	0.000231	20.803849
1671.475594	-3.012100	3.427700	-10.324000	26.016321	0.000233	20.802772
1672.469268	-3.004100	3.426500	-10.292000	26.008048	0.000232	20.794460
1673.470193	-2.985800	3.426500	-10.229000	26.012020	0.000231	20.801769
1674.470479	-3.009200	3.425400	-10.307000	26.042469	0.000229	20.801068
1675.471090	-3.005800	3.426500	-10.298000	26.043860	0.000229	20.808630
1676.470656	-3.004400	3.425900	-10.292000	26.056553	0.000229	20.816167
1677.471943	-3.017000	3.424600	-10.331000	26.063852	0.000231	20.796474
1678.472606	-3.008300	3.423300	-10.298000	26.030818	0.000230	20.796949
1679.473548	-2.984000	3.425100	-10.220000	26.054340	0.000230	20.802564
1680.472461	-3.014600	3.423700	-10.320000	26.033944	0.000229	20.805779
1681.474876	-2.991200	3.423600	-10.239000	26.025897	0.000230	20.809074
1682.473161	-2.989600	3.424800	-10.238000	26.039485	0.000227	20.794751
1683.473708	-2.995500	3.424600	-10.258000	26.024353	0.000226	20.808471
1684.473969	-3.001300	3.423600	-10.275000	25.979666	0.000225	20.817154
1685.472507	-2.989600	3.423000	-10.233000	25.993481	0.000227	20.823446
1686.473789	-2.990800	3.422900	-10.236000	26.053612	0.000226	20.820325
1687.474023	-3.013100	3.420500	-10.306000	26.078929	0.000228	20.802140
1688.474561	-2.995300	3.422000	-10.250000	26.006100	0.000228	20.816211
1689.474798	-2.995400	3.420900	-10.247000	25.988712	0.000225	20.831931
1690.474619	-2.998200	3.421300	-10.257000	26.039062	0.000223	20.788636
1691.475998	-3.003100	3.420500	-10.272000	26.046637	0.000228	20.828489
1692.475860	-3.002500	3.421700	-10.273000	26.051553	0.000224	20.807824
1693.474369	-2.988400	3.420500	-10.221000	26.026546	0.000224	20.813519
1694.479760	-3.003900	3.420300	-10.274000	26.007767	0.000226	20.819308
1695.474308	-3.009100	3.418800	-10.287000	25.966781	0.000223	20.824597
1696.476120	-2.952300	3.421000	-10.099000	25.991893	0.000223	20.817584
1697.479867	-2.999300	3.419800	-10.256000	26.033330	0.000222	20.825077
1698.475021	-3.001600	3.417900	-10.259000	26.022250	0.000223	20.820582
1699.477001	-2.991000	3.418200	-10.223000	26.015244	0.000223	20.822078
1700.478745	-3.016200	3.417100	-10.306000	26.048549	0.000220	20.840367
1701.476223	-3.007500	3.417400	-10.277000	26.083520	0.000222	20.816709
1702.477353	-3.012900	3.417000	-10.293000	26.076201	0.000221	20.819313
1703.477046	-2.990800	3.417900	-10.221000	26.088141	0.000222	20.827042
1704.480986	-3.015400	3.416600	-10.302000	26.071673	0.000221	20.826617
1705.476466	-3.013800	3.416700	-10.297000	26.039244	0.000220	20.828648
1706.478608	-3.003100	3.415700	-10.257000	26.015962	0.000220	20.832282
1707.480852	-3.022800	3.415500	-10.323000	26.025283	0.000220	20.837379
1708.477948	-2.990100	3.416400	-10.215000	26.026772	0.000221	20.831764
1709.477943	-3.020500	3.414000	-10.311000	26.076747	0.000220	20.829818
1710.481092	-2.999600	3.415100	-10.243000	26.090383	0.000220	20.810329
1711.477902	-3.007900	3.413100	-10.266000	26.126669	0.000221	20.834935
1712.478209	-2.983900	3.413800	-10.186000	26.115369	0.000220	20.835908
1713.480674	-2.997300	3.413600	-10.231000	26.100440	0.000219	20.834658
1714.478143	-3.009000	3.414000	-10.272000	26.100745	0.000219	20.824534
1715.477905	-2.989900	3.412500	-10.202000	26.125027	0.000219	20.830914
1716.478956	-2.993300	3.411900	-10.212000	26.085713	0.000217	20.849258
1717.478404	-3.006000	3.411700	-10.255000	26.093961	0.000218	20.821037
1718.479418	-2.994000	3.412300	-10.216000	26.131162	0.000220	20.844190
1719.479980	-3.000500	3.412600	-10.237000	26.129648	0.000217	20.845988
1720.480065	-2.995900	3.411500	-10.220000	26.137798	0.000215	20.826677
1721.480271	-3.002600	3.410900	-10.240000	26.081820	0.000217	20.838708
1722.480353	-2.984900	3.410800	-10.180000	26.061228	0.000219	20.831769
1723.481696	-2.991500	3.410600	-10.202000	26.113285	0.000217	20.853727
1724.481734	-2.981100	3.410700	-10.167000	26.151605	0.000215	20.857619
1725.484877	-2.983100	3.410100	-10.171000	26.134304	0.000217	20.844976
1726.481560	-2.997100	3.409300	-10.217000	26.136909	0.000215	20.826732
1727.480847	-3.013700	3.408800	-10.272000	26.146199	0.000215	20.843178
1728.486732	-2.999800	3.408400	-10.224000	26.086097	0.000214	20.844902
1729.484143	-3.021700	3.408800	-10.300000	26.048619	0.000214	20.867463
1730.482985	-3.020200	3.406800	-10.288000	26.058009	0.000214	20.848922
1731.483652	-2.998600	3.408000	-10.219000	26.071424	0.000214	20.845806
1732.485728	-3.009500	3.405900	-10.249000	26.091661	0.000213	20.823941
1733.486229	-2.999100	3.408200	-10.220000	26.139377	0.000211	20.869987
1734.485674	-2.997900	3.406200	-10.210000	26.155696	0.000212	20.846083
1735.486701	-3.001200	3.408000	-10.226000	26.133419	0.000212	20.841243
1736.488164	-2.992100	3.405700	-10.188000	26.083576	0.000211	20.835257
1737.487393	-3.015700	3.406800	-10.273000	26.084170	0.000211	20.849130
1738.486268	-3.011700	3.406100	-10.257000	26.104664	0.000212	20.837954
1739.490540	-3.001300	3.404700	-10.218000	26.162312	0.000210	20.830921
1740.486337	-2.976300	3.405000	-10.134000	26.183620	0.000211	20.840478
1741.489222	-3.006600	3.404900	-10.235000	26.202151	0.000212	20.827331
1742.491376	-2.996800	3.405200	-10.204000	26.153819	0.000212	20.835188
1743.487176	-2.987500	3.404000	-10.169000	26.140336	0.000208	20.824960
1744.488294	-2.990900	3.403000	-10.178000	26.094587	0.000211	20.827355
1745.490679	-2.977800	3.404600	-10.138000	26.072339	0.000210	20.842933
1746.488008	-2.980100	3.403200	-10.141000	26.079069	0.000210	20.832151
1747.487777	-2.994000	3.403500	-10.189000	26.118487	0.000209	20.839041
1748.493730	-2.989700	3.402400	-10.171000	26.160834	0.000209	20.843659
1749.489900	-3.003900	3.401500	-10.217000	26.197541	0.000207	20.829336
1750.493124	-2.995000	3.401400	-10.187000	26.141934	0.000208	20.834626
1751.492612	-3.009200	3.400900	-10.233000	26.140125	0.000208	20.820481
1752.489841	-3.001800	3.400400	-10.207000	26.119657	0.000207	20.825519
1753.489962	-2.987800	3.401100	-10.161000	26.187637	0.000207	20.808953
1754.490274	-2.988200	3.400900	-10.162000	26.189205	0.000208	20.846090
1755.492940	-2.990300	3.399900	-10.166000	26.167401	0.000206	20.824655
1756.489465	-2.991900	3.400100	-10.172000	26.097243	0.000208	20.831446
1757.490806	-3.005600	3.399000	-10.215000	26.100069	0.000206	20.848984
1758.496133	-2.992500	3.398600	-10.170000	26.126525	0.000206	20.815824
1759.490473	-3.018100	3.399100	-10.258000	26.132065	0.000207	20.836089
1760.490722	-3.019300	3.398800	-10.261000	26.073722	0.000204	20.807813
1761.490672	-3.015800	3.397100	-10.244000	26.018684	0.000204	20.820319
1762.490466	-3.002300	3.397300	-10.199000	26.026737	0.000203	20.807547
1763.491197	-2.985500	3.398200	-10.144000	26.086468	0.000203	20.795016
1764.491882	-3.017000	3.396200	-10.246000	26.132242	0.000205	20.813982
1765.494054	-2.997300	3.397300	-10.182000	26.185386	0.000203	20.802424
1766.492839	-2.996100	3.396800	-10.176000	26.229721	0.000203	20.807147
1767.500721	-2.979000	3.397100	-10.119000	26.292572	0.000202	20.811513
1768.494968	-3.000200	3.396500	-10.189000	26.292847	0.000203	20.803729
1769.492613	-3.000300	3.396500	-10.189000	26.233201	0.000203	20.804480
1770.492998	-3.001000	3.394400	-10.186000	26.158495	0.000202	20.819973
1771.495826	-2.998000	3.395400	-10.179000	26.136450	0.000201	20.794503
1772.491769	-3.014400	3.394900	-10.233000	26.172007	0.000202	20.807947
1773.493149	-2.999600	3.395100	-10.181000	26.159641	0.000202	20.823495
1774.493359	-2.981100	3.394300	-10.118000	26.138559	0.000200	20.819381
1775.492557	-3.013700	3.392600	-10.223000	26.126462	0.000200	20.794424
1776.493923	-2.987000	3.394000	-10.137000	26.146649	0.000199	20.814708
1777.494038	-3.004700	3.392900	-10.194000	26.150331	0.000200	20.811296
1778.494851	-3.008000	3.391300	-10.200000	26.133914	0.000197	20.809498
1779.494022	-2.999100	3.391800	-10.171000	26.071623	0.000198	20.792903
1780.494204	-3.015800	3.392800	-10.231000	26.044552	0.000196	20.797946
1781.497921	-3.013200	3.392500	-10.221000	26.024456	0.000195	20.802885
1782.495185	-3.026500	3.390700	-10.261000	26.054885	0.000199	20.798845
1783.499389	-3.008000	3.390900	-10.199000	26.074632	0.000196	20.800667
1784.497048	-3.002500	3.390700	-10.180000	26.097436	0.000196	20.820261
1785.495106	-3.000300	3.389600	-10.168000	26.100317	0.000195	20.789964
1786.496230	-3.007200	3.388900	-10.189000	26.101285	0.000197	20.808955
1787.496674	-2.992500	3.391400	-10.147000	26.126369	0.000195	20.813771
1788.499070	-3.002800	3.389600	-10.177000	26.133300	0.000194	20.796079
1789.497702	-2.986300	3.390000	-10.122000	26.143883	0.000195	20.778264
1790.496701	-3.002700	3.389600	-10.177000	26.125425	0.000194	20.785796
1791.499193	-2.987800	3.389900	-10.127000	26.163200	0.000194	20.798622
1792.497118	-3.011500	3.388100	-10.201000	26.173335	0.000193	20.803117
1793.501418	-2.984600	3.387900	-10.111000	26.182920	0.000196	20.790937
1794.501841	-2.992300	3.388400	-10.139000	26.214436	0.000194	20.812175
1795.498150	-3.016400	3.387600	-10.216000	26.226502	0.000192	20.797748
1796.499727	-3.012800	3.387000	-10.204000	26.238195	0.000192	20.793377
1797.505533	-3.001900	3.387400	-10.167000	26.242299	0.000190	20.806036
1798.501479	-3.014600	3.387700	-10.212000	26.199681	0.000192	20.776485
1799.500961	-3.006800	3.385800	-10.180000	26.168164	0.000190	20.791757
1800.499487	-2.988900	3.385700	-10.118000	26.180801	0.000191	20.784066
1801.502869	-2.987400	3.385900	-10.114000	26.175095	0.000189	20.783548
1802.500364	-2.985700	3.386400	-10.110000	26.147102	0.000190	20.806628
1803.511730	-2.991400	3.385900	-10.128000	26.147996	0.000188	20.782871
1804.502900	-2.990100	3.385000	-10.120000	26.171094	0.000188	20.789485
1805.502236	-2.979900	3.386100	-10.089000	26.143479	0.000190	20.794454
1806.501925	-3.023600	3.382900	-10.226000	26.156687	0.000188	20.807725
1807.506833	-3.010500	3.383100	-10.184000	26.130591	0.000189	20.790038
1808.502789	-3.007600	3.383900	-10.176000	26.187761	0.000189	20.775888
1809.503572	-3.002700	3.383300	-10.158000	26.249745	0.000188	20.787440
1810.503152	-3.003800	3.381800	-10.156000	26.287024	0.000186	20.776066
1811.502472	-3.016800	3.381200	-10.200000	26.331821	0.000187	20.773670
1812.502748	-3.005800	3.381900	-10.165000	26.335964	0.000187	20.767876
1813.503924	-2.993100	3.382600	-10.124000	26.273961	0.000184	20.784749
1814.508227	-2.987900	3.382300	-10.105000	26.307637	0.000185	20.768331
1815.504478	-2.968600	3.381900	-10.038000	26.266461	0.000186	20.791910
1816.509213	-2.974000	3.382400	-10.058000	26.230184	0.000183	20.791491
1817.506615	-3.002900	3.380800	-10.150000	26.212524	0.000185	20.783701
1818.504610	-3.009100	3.379900	-10.169000	26.241833	0.000185	20.785179
1819.506207	-3.008700	3.379500	-10.167000	26.273917	0.000183	20.774273
1820.506912	-2.992000	3.379300	-10.110000	26.201475	0.000184	20.766908
1821.505682	-3.010600	3.378900	-10.172000	26.192190	0.000186	20.791244
1822.505975	-2.965000	3.379100	-10.018000	26.204257	0.000184	20.800050
1823.506545	-3.014400	3.378600	-10.183000	26.164345	0.000181	20.793609
1824.507482	-3.010000	3.378400	-10.168000	26.165889	0.000181	20.783307
1825.507281	-2.994500	3.378100	-10.115000	26.170534	0.000182	20.784181
1826.507502	-2.999300	3.379500	-10.135000	26.186995	0.000180	20.793135
1827.506501	-3.015900	3.376300	-10.181000	26.207113	0.000181	20.768780
1828.507248	-3.011100	3.377600	-10.169000	26.225490	0.000180	20.789619
1829.506934	-3.010500	3.375800	-10.161000	26.219681	0.000181	20.783781
1830.506721	-3.001800	3.375500	-10.132000	26.212829	0.000179	20.772628
1831.512973	-3.028100	3.375000	-10.219000	26.247696	0.000180	20.769734
1832.507112	-3.001300	3.375900	-10.131000	26.278365	0.000182	20.787278
1833.509105	-3.005600	3.375700	-10.145000	26.288273	0.000177	20.772105
1834.507651	-2.992800	3.374400	-10.098000	26.274448	0.000180	20.765324
1835.508945	-2.982800	3.375100	-10.066000	26.228828	0.000180	20.778274
1836.512621	-2.985900	3.374200	-10.074000	26.221008	0.000178	20.753346
1837.508154	-2.984500	3.374500	-10.071000	26.254086	0.000177	20.780423
1838.508559	-2.980100	3.374000	-10.053000	26.334845	0.000179	20.755846
1839.511016	-2.970200	3.373600	-10.020000	26.373929	0.000179	20.777109
1840.508348	-3.017000	3.373800	-10.178000	26.353869	0.000177	20.776388
1841.513244	-3.010200	3.373400	-10.153000	26.279698	0.000176	20.781505
1842.511594	-2.992500	3.372800	-10.092000	26.275476	0.000176	20.759718
1843.508649	-2.977800	3.373800	-10.046000	26.292363	0.000175	20.772896
1844.510135	-3.014300	3.371500	-10.162000	26.338851	0.000177	20.787373
1845.512028	-2.989400	3.372700	-10.081000	26.322883	0.000176	20.755204
1846.510062	-2.995000	3.370600	-10.094000	26.305328	0.000176	20.759373
1847.512292	-2.995200	3.370700	-10.095000	26.285537	0.000172	20.762243
1848.511441	-3.008600	3.371200	-10.142000	26.269702	0.000173	20.763873
1849.511158	-2.990900	3.371400	-10.082000	26.269942	0.000173	20.779762
1850.512119	-2.996100	3.370700	-10.098000	26.326461	0.000172	20.757378
1851.511232	-3.012000	3.370700	-10.152000	26.308661	0.000173	20.765567
1852.511288	-2.979900	3.369200	-10.039000	26.332900	0.000173	20.740614
1853.512740	-3.035600	3.367400	-10.221000	26.371188	0.000171	20.772932
1854.513390	-3.003900	3.367700	-10.115000	26.345019	0.000174	20.776503
1855.516756	-2.997900	3.367400	-10.095000	26.271693	0.000170	20.751649
1856.513396	-2.977800	3.367600	-10.027000	26.253941	0.000171	20.778380
1857.513144	-2.990100	3.367600	-10.068000	26.216292	0.000171	20.761409
1858.515457	-2.994600	3.367700	-10.084000	26.275546	0.000169	20.750780
1859.512033	-2.985500	3.367200	-10.052000	26.318358	0.000169	20.759666
1860.514574	-2.997400	3.366500	-10.089000	26.366088	0.000170	20.755003
1861.516683	-3.000400	3.367100	-10.101000	26.399486	0.000168	20.764862
1862.515820	-3.029600	3.364800	-10.193000	26.424317	0.000167	20.761370
1863.516416	-3.012400	3.364900	-10.135000	26.393756	0.000169	20.768113
1864.516255	-3.002300	3.365100	-10.102000	26.331658	0.000170	20.766394
1865.517338	-2.997600	3.365100	-10.086000	26.280005	0.000169	20.758580
1866.516912	-2.986900	3.364500	-10.048000	26.287958	0.000168	20.782219
1867.516170	-2.995100	3.366300	-10.081000	26.277529	0.000169	20.758936
1868.517502	-2.967300	3.365300	-9.984400	26.251982	0.000168	20.752703
1869.516892	-2.983000	3.365100	-10.037000	26.230626	0.000166	20.755425
1870.517513	-2.989700	3.363900	-10.056000	26.217366	0.000165	20.753479
1871.517605	-2.999000	3.363000	-10.085000	26.233954	0.000165	20.759717
1872.518673	-3.007400	3.361800	-10.109000	26.268599	0.000166	20.761816
1873.520463	-2.977700	3.363400	-10.014000	26.284396	0.000167	20.758725
1874.518692	-2.988000	3.362900	-10.047000	26.268924	0.000165	20.763565
1875.517457	-2.998100	3.361200	-10.076000	26.334603	0.000165	20.735213
1876.519989	-2.995000	3.361000	-10.066000	26.325118	0.000166	20.757924
1877.520605	-2.998900	3.361200	-10.079000	26.312183	0.000165	20.765314
1878.518612	-2.993900	3.359600	-10.057000	26.352089	0.000165	20.749943
1879.522040	-3.001300	3.359900	-10.083000	26.417543	0.000163	20.750768
1880.520210	-3.005500	3.359800	-10.097000	26.392810	0.000163	20.753884
1881.519548	-3.002600	3.359200	-10.085000	26.316307	0.000162	20.757604
1882.520566	-2.979200	3.358800	-10.006000	26.291994	0.000162	20.756403
1883.520923	-3.001900	3.359400	-10.084000	26.313953	0.000161	20.747177
1884.518259	-3.021100	3.358500	-10.145000	26.331483	0.000162	20.742984
1885.519430	-3.008800	3.358000	-10.103000	26.335435	0.000161	20.749326
1886.522135	-2.980900	3.359200	-10.013000	26.366873	0.000162	20.745360
1887.520450	-2.999600	3.358300	-10.073000	26.409504	0.000161	20.738894
1888.520295	-2.982600	3.358200	-10.016000	26.414516	0.000161	20.756260
1889.520202	-2.991400	3.356900	-10.040000	26.481356	0.000160	20.747577
1890.519679	-2.998200	3.356800	-10.064000	26.512618	0.000156	20.757189
1891.519566	-2.994600	3.356600	-10.050000	26.469318	0.000159	20.739270
1892.519395	-2.992300	3.355400	-10.039000	26.431156	0.000160	20.741216
1893.520413	-2.986700	3.356600	-10.024000	26.407219	0.000158	20.741339
1894.520034	-3.000800	3.354900	-10.066000	26.372411	0.000159	20.731485
1895.521628	-3.000400	3.356100	-10.069000	26.391282	0.000158	20.742391
1896.523590	-3.003500	3.354700	-10.075000	26.428846	0.000158	20.724195
1897.521129	-2.988300	3.355000	-10.024000	26.490766	0.000159	20.745656
1898.522568	-2.998500	3.355600	-10.061000	26.512471	0.000158	20.723849
1899.524109	-3.028300	3.354300	-10.157000	26.529398	0.000157	20.738968
1900.522757	-2.995600	3.354400	-10.048000	26.474330	0.000157	20.760903
1901.527487	-3.005500	3.352800	-10.076000	26.452035	0.000155	20.729959
1902.525652	-3.008500	3.354200	-10.090000	26.430708	0.000154	20.740766
1903.524141	-3.018400	3.353100	-10.120000	26.412133	0.000154	20.738217
1904.524410	-2.984200	3.354100	-10.008000	26.445480	0.000154	20.759407
1905.524470	-2.998500	3.353800	-10.055000	26.456207	0.000156	20.732256
1906.526507	-2.997100	3.353500	-10.049000	26.488659	0.000155	20.726467
1907.524650	-2.994400	3.352100	-10.037000	26.478949	0.000153	20.748950
1908.524998	-2.981400	3.351700	-9.992100	26.481155	0.000155	20.715604
1909.528527	-2.981700	3.350100	-9.988300	26.489051	0.000152	20.734448
1910.524148	-2.989900	3.349700	-10.014000	26.484953	0.000154	20.739338
1911.525454	-3.008200	3.350000	-10.077000	26.440939	0.000153	20.721177
1912.527761	-3.014300	3.349800	-10.097000	26.510628	0.000155	20.719151
1913.533931	-3.002600	3.349300	-10.055000	26.555538	0.000151	20.719250
1914.525859	-3.009500	3.348900	-10.078000	26.555189	0.000152	20.739289
1915.527196	-2.980900	3.349800	-9.984900	26.536547	0.000150	20.754690
1916.526926	-2.969800	3.348600	-9.942700	26.479617	0.000152	20.709317
1917.526687	-2.990500	3.348300	-10.013000	26.508166	0.000152	20.695812
1918.531514	-3.002000	3.348500	-10.052000	26.499001	0.000151	20.725009
1919.527238	-3.011600	3.346700	-10.079000	26.535348	0.000149	20.731672
1920.528810	-3.002500	3.348000	-10.052000	26.502480	0.000151	20.719971
1921.527834	-2.997300	3.347500	-10.032000	26.551116	0.000150	20.743255
1922.530058	-2.986800	3.346500	-9.994900	26.549474	0.000149	20.733544
1923.528267	-3.000700	3.346300	-10.040000	26.597238	0.000148	20.719916
1924.527234	-3.017100	3.345600	-10.093000	26.548231	0.000149	20.719491
1925.530439	-3.015700	3.344200	-10.084000	26.541504	0.000147	20.731222
1926.528256	-3.004200	3.345700	-10.049000	26.515683	0.000147	20.718543
1927.529827	-3.000900	3.344600	-10.035000	26.492899	0.000148	20.721720
1928.528745	-3.005500	3.344500	-10.051000	26.474747	0.000147	20.712483
1929.528623	-2.995400	3.344900	-10.018000	26.502549	0.000146	20.721462
1930.527208	-3.009500	3.343800	-10.063000	26.527997	0.000146	20.716221
1931.532429	-3.001200	3.342400	-10.030000	26.507419	0.000145	20.714977
1932.528932	-3.011400	3.343500	-10.068000	26.461636	0.000147	20.724436
1933.528152	-3.008000	3.344400	-10.060000	26.469705	0.000146	20.720218
1934.528590	-3.004100	3.342600	-10.040000	26.486638	0.000144	20.698830
1935.531228	-3.008200	3.342100	-10.053000	26.552304	0.000144	20.712680
1936.529367	-3.021900	3.341100	-10.096000	26.548708	0.000144	20.717600
1937.531681	-3.025000	3.340500	-10.104000	26.557989	0.000143	20.699902
1938.529973	-2.982600	3.342500	-9.968100	26.547317	0.000142	20.715254
1939.531580	-2.992500	3.342000	-9.999900	26.554644	0.000144	20.709341
1940.535130	-2.991300	3.341800	-9.995900	26.529889	0.000144	20.685404
1941.531580	-2.965400	3.342500	-9.910600	26.522170	0.000140	20.704673
1942.530849	-2.998500	3.340500	-10.016000	26.545063	0.000141	20.694968
1943.535188	-2.983300	3.340700	-9.965600	26.583417	0.000143	20.701280
1944.533358	-2.992200	3.340100	-9.993100	26.622143	0.000142	20.714133
1945.531220	-3.005400	3.340000	-10.037000	26.597273	0.000140	20.691026
1946.535093	-2.999600	3.338300	-10.012000	26.521158	0.000141	20.724995
1947.531047	-2.979400	3.340400	-9.951800	26.557376	0.000141	20.737219
1948.536374	-3.011600	3.337500	-10.050000	26.614823	0.000139	20.702505
1949.530393	-3.016300	3.337500	-10.066000	26.575723	0.000137	20.714884
1950.529037	-3.022300	3.337200	-10.085000	26.537840	0.000138	20.697190
1951.530555	-2.990100	3.337600	-9.978800	26.558196	0.000138	20.692523
1952.531208	-3.014300	3.336200	-10.055000	26.506260	0.000139	20.693422
1953.530050	-3.003900	3.337600	-10.025000	26.533472	0.000138	20.710344
1954.531075	-3.005200	3.336900	-10.027000	26.534715	0.000139	20.707327
1955.531067	-3.014000	3.335000	-10.051000	26.500648	0.000138	20.705326
1956.530849	-2.999100	3.334900	-10.001000	26.485057	0.000136	20.709569
1957.532310	-3.007600	3.336000	-10.032000	26.525998	0.000136	20.711367
1958.538034	-2.997100	3.336000	-9.997700	26.545392	0.000137	20.694825
1959.533251	-3.008900	3.334500	-10.033000	26.577364	0.000138	20.709895
1960.531084	-2.990000	3.336800	-9.975200	26.624984	0.000137	20.679527
1961.534669	-3.002100	3.333500	-10.007000	26.600703	0.000135	20.704432
1962.531675	-3.013800	3.333300	-10.045000	26.625352	0.000137	20.697443
1963.532154	-3.013500	3.333200	-10.043000	26.651672	0.000135	20.695452
1964.538407	-2.997200	3.332800	-9.988300	26.615796	0.000136	20.700164
1965.534437	-3.014500	3.332400	-10.045000	26.612647	0.000135	20.701266
1966.534440	-3.006200	3.332000	-10.016000	26.637621	0.000133	20.701241
1967.533938	-2.997800	3.334100	-9.994300	26.569970	0.000135	20.703884
1968.535190	-2.989300	3.331400	-9.957900	26.509223	0.000133	20.705885
1969.534820	-3.021000	3.330900	-10.062000	26.522652	0.000132	20.698994
1970.536408	-2.977300	3.332400	-9.920100	26.534371	0.000133	20.700817
1971.534338	-3.007000	3.331000	-10.015000	26.595391	0.000133	20.694825
1972.536173	-3.016300	3.330500	-10.045000	26.617187	0.000132	20.707727
1973.537196	-2.995700	3.330200	-9.975500	26.568053	0.000132	20.688680
1974.535946	-3.003600	3.331200	-10.005000	26.600776	0.000129	20.692177
1975.538990	-3.006700	3.330200	-10.012000	26.587496	0.000132	20.695422
1976.537297	-3.002400	3.329900	-9.997100	26.564609	0.000131	20.716988
1977.538424	-3.027200	3.327400	-10.072000	26.553760	0.000130	20.694701
1978.537023	-2.994200	3.329200	-9.966800	26.608776	0.000129	20.702116
1979.535460	-3.014800	3.329500	-10.036000	26.666171	0.000127	20.722832
1980.535584	-3.007200	3.327400	-10.005000	26.683469	0.000128	20.702763
1981.537914	-2.987200	3.326400	-9.936100	26.734263	0.000129	20.695981
1982.537324	-3.015100	3.326400	-10.029000	26.726466	0.000128	20.699049
1983.537794	-2.973900	3.327200	-9.894300	26.741539	0.000128	20.700452
1984.538140	-3.000700	3.326700	-9.981800	26.744516	0.000128	20.695858
1985.539983	-2.972700	3.327800	-9.891800	26.764348	0.000125	20.678337
1986.539903	-2.997300	3.326000	-9.968200	26.737600	0.000126	20.687481
1987.539417	-2.994400	3.326800	-9.960800	26.645999	0.000125	20.705397
1988.542257	-2.980200	3.326000	-9.911500	26.672509	0.000126	20.701702
1989.540018	-2.982300	3.324600	-9.914200	26.719604	0.000124	20.697840
1990.540986	-2.985500	3.324500	-9.924300	26.704193	0.000124	20.710796
1991.541046	-2.986700	3.325700	-9.932400	26.693670	0.000125	20.678877
1992.540435	-2.979300	3.324600	-9.903200	26.712211	0.000125	20.697045
1993.540009	-2.967000	3.323800	-9.860900	26.761706	0.000122	20.691804
1994.543729	-2.991300	3.324500	-9.943000	26.789959	0.000124	20.723531
1995.539937	-2.978200	3.322900	-9.895800	26.784122	0.000124	20.701540
1996.540275	-3.001200	3.322800	-9.971200	26.754766	0.000120	20.697154
1997.543258	-3.001400	3.322100	-9.969400	26.708492	0.000123	20.707532
1998.540142	-2.995300	3.321000	-9.946200	26.719223	0.000123	20.703146
1999.540221	-2.975200	3.321800	-9.882000	26.727633	0.000123	20.689789
2000.542685	-2.981500	3.322000	-9.903200	26.765141	0.000121	20.707112
2001.540730	-2.994000	3.321900	-9.944700	26.734064	0.000122	20.684874
2002.541671	-2.991600	3.321100	-9.934200	26.729028	0.000120	20.714902
2003.544670	-2.998100	3.320000	-9.952800	26.759959	0.000120	20.708540
2004.541952	-3.029900	3.318300	-10.053000	26.765771	0.000120	20.697787
2005.544722	-3.006000	3.319500	-9.977400	26.737223	0.000121	20.706070
2006.547178	-2.998600	3.319800	-9.953600	26.728189	0.000119	20.699358
2007.543071	-3.001400	3.318200	-9.957600	26.695077	0.000120	20.704475
2008.542722	-3.026700	3.317700	-10.040000	26.639294	0.000118	20.683008
2009.544960	-2.997100	3.318800	-9.946300	26.684057	0.000117	20.695767
2010.543001	-2.995100	3.318600	-9.938500	26.717641	0.000117	20.693495
2011.541959	-2.996100	3.318400	-9.940500	26.731288	0.000117	20.700578
2012.546789	-3.006400	3.317000	-9.971300	26.778253	0.000118	20.715554
2013.544460	-3.014900	3.316900	-9.999400	26.810719	0.000118	20.692719
2014.550337	-2.993100	3.317400	-9.928200	26.861973	0.000117	20.698735
2015.551585	-2.988000	3.317700	-9.912400	26.859070	0.000116	20.731380
2016.546430	-3.030300	3.314600	-10.044000	26.866070	0.000116	20.698587
2017.545405	-2.999900	3.315800	-9.945600	26.816880	0.000114	20.685636
2018.550867	-3.014800	3.314900	-9.991800	26.813058	0.000113	20.697442
2019.546417	-3.030800	3.314600	-10.045000	26.835517	0.000116	20.688728
2020.545893	-3.012400	3.314500	-9.983900	26.864980	0.000114	20.701285
2021.550957	-2.993800	3.314400	-9.921600	26.919783	0.000114	20.702337
2022.547749	-3.023600	3.313700	-10.018000	26.925913	0.000112	20.697595
2023.548249	-3.025300	3.313400	-10.023000	26.894688	0.000113	20.704604
2024.549914	-2.995300	3.314500	-9.927200	26.831651	0.000112	20.699067
2025.548491	-3.006500	3.313300	-9.959300	26.797427	0.000110	20.715866
2026.547850	-3.027300	3.311800	-10.025000	26.765212	0.000110	20.705760
2027.549201	-2.997800	3.314000	-9.933800	26.767747	0.000112	20.721113
2028.547076	-3.012800	3.311000	-9.974300	26.712690	0.000111	20.697052
2029.547686	-3.015700	3.311900	-9.987000	26.706963	0.000110	20.705045
2030.556029	-2.969700	3.311800	-9.834100	26.668583	0.000110	20.696331
2031.548881	-3.012000	3.310300	-9.970000	26.676699	0.000110	20.706862
2032.549527	-2.979900	3.311700	-9.868200	26.673894	0.000111	20.712103
2033.553377	-2.994500	3.312000	-9.916700	26.708304	0.000110	20.730103
2034.550866	-3.009100	3.310200	-9.959300	26.731065	0.000108	20.690869
2035.552730	-3.010600	3.308900	-9.960500	26.779714	0.000109	20.705643
2036.554565	-2.984600	3.310000	-9.878100	26.864206	0.000107	20.727535
2037.552846	-2.982200	3.309100	-9.867500	26.881849	0.000108	20.717774
2038.554064	-2.995800	3.308500	-9.910200	26.886791	0.000108	20.696663
2039.553808	-2.998300	3.309900	-9.923000	26.923075	0.000109	20.718925
2040.554988	-2.994100	3.309000	-9.906500	26.920339	0.000109	20.726605
2041.554030	-3.012000	3.307300	-9.961000	27.002315	0.000107	20.721795
2042.555622	-2.992200	3.308300	-9.898000	26.972806	0.000106	20.708715
2043.556719	-3.005900	3.306600	-9.938400	26.960075	0.000106	20.712983
2044.555478	-3.021300	3.307400	-9.991600	26.919867	0.000103	20.720441
2045.555605	-3.010600	3.307400	-9.956600	26.884128	0.000104	20.745197
2046.555821	-2.999300	3.305900	-9.914700	26.847494	0.000105	20.717843
2047.557662	-3.011700	3.305300	-9.953100	26.826897	0.000103	20.732696
2048.556838	-3.013500	3.305300	-9.960100	26.808402	0.000102	20.706037
2049.557873	-3.020200	3.303700	-9.976500	26.763448	0.000103	20.726274
2050.560754	-2.988000	3.305300	-9.875700	26.797899	0.000103	20.706383
2051.560241	-2.989800	3.304700	-9.879900	26.885360	0.000104	20.730314
2052.560917	-2.988200	3.304700	-9.874600	26.892979	0.000101	20.726595
2053.564563	-2.979800	3.304200	-9.845300	26.885085	0.000103	20.716760
2054.561739	-2.995500	3.303700	-9.895300	26.955840	0.000102	20.713940
2055.562950	-2.978200	3.304100	-9.838600	26.971964	0.000102	20.732526
2056.564764	-3.001500	3.302800	-9.912700	26.973605	0.000101	20.719951
2057.562906	-2.997700	3.301900	-9.897600	27.011546	0.000101	20.697886
2058.568062	-3.003200	3.302700	-9.917700	27.025912	0.000103	20.725137
2059.570911	-2.988800	3.302200	-9.868600	26.997426	0.000100	20.739639
2060.564362	-2.988400	3.302400	-9.868200	27.003353	9.899076E-5	20.728056
2061.565391	-3.005500	3.301200	-9.920600	26.946252	9.895776E-5	20.727058
2062.565678	-2.997300	3.300500	-9.890900	26.933270	9.902376E-5	20.725857
2063.564521	-2.994500	3.301100	-9.884200	26.929320	9.773667E-5	20.742750
2064.564080	-2.980700	3.299100	-9.833200	26.966993	9.747265E-5	20.725630
2065.567906	-3.000700	3.299800	-9.900700	26.998132	9.852872E-5	20.721856
2066.565117	-2.987900	3.299600	-9.857500	26.985878	9.707662E-5	20.715223
2067.566291	-2.978900	3.299700	-9.828300	27.030793	9.757165E-5	20.741426
2068.567937	-2.989700	3.299200	-9.863000	27.067318	9.496446E-5	20.762512
2069.570696	-2.994100	3.299200	-9.877400	27.083053	9.621856E-5	20.722859
2070.566413	-3.005700	3.297200	-9.909000	27.067102	9.539350E-5	20.736215
2071.567348	-3.011000	3.297400	-9.927600	27.040969	9.321534E-5	20.722736
2072.569685	-2.980700	3.298200	-9.830200	26.992484	9.446943E-5	20.756482
2073.568273	-3.006300	3.297200	-9.912100	26.985633	9.463444E-5	20.749591
2074.569667	-2.994100	3.296300	-9.869000	26.996330	9.156522E-5	20.730950
2075.571352	-2.986600	3.295400	-9.840800	26.938609	9.278631E-5	20.754461
2076.569434	-2.979500	3.297000	-9.822600	26.953275	9.420541E-5	20.719422
2077.571105	-3.012300	3.295800	-9.926500	26.978143	9.288531E-5	20.751068
2078.572638	-3.002800	3.294800	-9.892500	26.950893	9.255529E-5	20.749744
2079.569983	-2.990700	3.295100	-9.853400	26.979116	9.351236E-5	20.746831
2080.570156	-2.980700	3.296600	-9.825300	27.011325	9.173023E-5	20.748876
2081.573846	-2.981100	3.294300	-9.819900	27.033613	9.083916E-5	20.740469
2082.570526	-2.982900	3.293500	-9.823700	27.016713	9.126819E-5	20.740069
2083.569986	-3.011400	3.293500	-9.917100	27.044635	9.077316E-5	20.747760
2084.572070	-2.998600	3.291500	-9.868700	27.015457	8.975008E-5	20.742599
2085.573595	-2.969200	3.293400	-9.778100	27.009052	8.942006E-5	20.739003
2086.572946	-2.959300	3.292900	-9.744100	27.013792	9.021212E-5	20.734414
2087.572216	-2.990500	3.291900	-9.843800	27.042184	9.100417E-5	20.757624
2088.573522	-2.986800	3.292200	-9.832500	27.018223	8.938706E-5	20.756761
2089.573419	-2.979700	3.290900	-9.804800	27.013110	8.839698E-5	20.716530
2090.574925	-2.970300	3.291700	-9.777100	27.034927	8.767093E-5	20.752696
2091.574962	-3.000300	3.289500	-9.868900	27.068175	8.879301E-5	20.746778
2092.575341	-2.987900	3.288800	-9.825700	27.155026	8.833098E-5	20.734080
2093.576619	-3.000400	3.289200	-9.868500	27.140191	8.796795E-5	20.757092
2094.576048	-2.999600	3.289300	-9.865300	27.095978	8.628483E-5	20.742023
2095.573325	-2.996000	3.289300	-9.854100	27.054985	8.750592E-5	20.745841
2096.578432	-2.987300	3.288300	-9.822300	27.029904	8.588880E-5	20.742903
2097.576359	-2.996000	3.288700	-9.852500	27.040135	8.641684E-5	20.751295
2098.574192	-2.997800	3.287900	-9.855900	27.111002	8.806696E-5	20.733425
2099.576090	-2.995500	3.286800	-9.844800	27.154276	8.757192E-5	20.755138
2100.576512	-3.001700	3.287800	-9.868400	27.165473	8.298459E-5	20.763555
2101.574893	-2.993400	3.287100	-9.839100	27.140016	8.598781E-5	20.762133
2102.575783	-3.004500	3.287300	-9.875300	27.123595	8.479972E-5	20.747513
2103.577960	-3.010500	3.285800	-9.890800	27.116498	8.493173E-5	20.737056
2104.576071	-2.987500	3.286700	-9.818400	27.137891	8.575679E-5	20.758572
2105.575794	-2.989200	3.284900	-9.818200	27.123600	8.354563E-5	20.762217
2106.579309	-2.982000	3.285600	-9.796700	27.141869	8.166449E-5	20.767315
2107.575405	-3.034500	3.284400	-9.965300	27.194644	8.097144E-5	20.742160
2108.575607	-3.001700	3.284600	-9.857800	27.156955	8.268757E-5	20.764945
2109.575805	-2.990500	3.284100	-9.820100	27.105794	8.199452E-5	20.768017
2110.576004	-2.988000	3.284500	-9.812600	27.082098	8.258856E-5	20.770739
2111.576493	-3.014700	3.283600	-9.898400	27.085325	7.971735E-5	20.754069
2112.578300	-2.984800	3.282000	-9.795600	27.101979	8.222553E-5	20.757067
2113.577598	-3.012200	3.282200	-9.886100	27.139169	8.011338E-5	20.761280
2114.579426	-2.988300	3.283300	-9.809900	27.109797	7.928832E-5	20.769198
2115.578416	-3.005700	3.280200	-9.858300	27.164037	8.011338E-5	20.754998
2116.582144	-3.000500	3.279600	-9.839500	27.227708	8.008038E-5	20.773046
2117.581172	-2.987500	3.281500	-9.802600	27.247526	8.133447E-5	20.762634
2118.579907	-2.997700	3.281000	-9.833300	27.244501	7.958534E-5	20.770498
2119.579844	-3.005700	3.279900	-9.857300	27.193020	8.004737E-5	20.746690
2120.583359	-3.019700	3.280700	-9.905900	27.173967	8.011338E-5	20.749812
2121.580947	-3.020900	3.278800	-9.903900	27.217313	8.113645E-5	20.780134
2122.582195	-3.004000	3.280000	-9.851700	27.274253	7.783621E-5	20.771975
2123.581888	-3.014100	3.278600	-9.881200	27.273812	7.780321E-5	20.764418
2124.581062	-2.997600	3.277600	-9.824000	27.217760	7.608708E-5	20.778687
2125.582305	-3.003600	3.277900	-9.844200	27.204389	7.588907E-5	20.778514
2126.582742	-3.014700	3.276200	-9.875800	27.207443	7.793522E-5	20.763094
2127.582834	-2.991600	3.276900	-9.802600	27.220490	7.839725E-5	20.766734
2128.585933	-3.000900	3.276700	-9.831800	27.241752	7.506401E-5	20.766310
2129.584555	-3.008200	3.276700	-9.856300	27.309955	7.420595E-5	20.781809
2130.582872	-3.012700	3.276700	-9.870400	27.368102	7.582307E-5	20.771076
2131.583937	-2.984000	3.275400	-9.773100	27.334092	7.631810E-5	20.787597
2132.584105	-2.985400	3.274600	-9.775500	27.344560	7.453597E-5	20.772997
2133.584260	-3.016900	3.273900	-9.875900	27.335629	7.516302E-5	20.771125
2134.585255	-2.998400	3.275100	-9.818500	27.311099	7.351290E-5	20.783434
2135.587306	-2.988700	3.274600	-9.785200	27.349445	7.440396E-5	20.753729
2136.587150	-2.985300	3.275600	-9.777500	27.289337	7.374391E-5	20.767233
2137.585181	-3.014100	3.273200	-9.865100	27.256542	7.311687E-5	20.771703
2138.584463	-3.016700	3.272300	-9.870600	27.284820	7.437096E-5	20.778810
2139.588152	-3.023300	3.271800	-9.890400	27.272117	7.196178E-5	20.778835
2140.585005	-2.997800	3.270900	-9.804500	27.236768	7.107072E-5	20.776470
2141.584965	-2.995200	3.271900	-9.798900	27.224953	7.258883E-5	20.786871
2142.589036	-3.000100	3.271000	-9.812100	27.192628	7.308386E-5	20.780910
2143.584717	-3.019100	3.270400	-9.873200	27.214558	7.110372E-5	20.791114
2144.585119	-3.036700	3.270300	-9.930300	27.283155	7.140074E-5	20.779032
2145.588886	-2.997200	3.271800	-9.805500	27.277149	7.219280E-5	20.787691
2146.584600	-2.994000	3.269800	-9.789100	27.339124	6.991563E-5	20.790763
2147.584306	-3.001400	3.267900	-9.807800	27.384496	7.083970E-5	20.783300
2148.584151	-3.010500	3.269300	-9.841100	27.384962	6.839752E-5	20.792303
2149.584893	-2.979800	3.268700	-9.738800	27.346067	6.780348E-5	20.793005
2150.584364	-2.968300	3.268800	-9.702000	27.296604	6.836452E-5	20.792561
2151.585166	-2.964600	3.268600	-9.689300	27.277847	6.912357E-5	20.790763
2152.587318	-2.983000	3.268200	-9.747700	27.184933	6.786948E-5	20.779808
2153.585413	-2.971400	3.268200	-9.709500	27.151535	6.727544E-5	20.778934
2154.587010	-3.011200	3.267700	-9.839100	27.167588	6.526229E-5	20.787967
2155.590151	-3.001900	3.266000	-9.803500	27.182949	6.763847E-5	20.793934
2156.586260	-3.021700	3.265400	-9.866700	27.256488	6.885956E-5	20.792512
2157.588544	-2.988600	3.265800	-9.759600	27.302737	6.503128E-5	20.797308
2158.591858	-2.994400	3.265200	-9.776100	27.340642	6.816650E-5	20.795135
2159.588402	-3.014800	3.264700	-9.840700	27.379518	6.780348E-5	20.797733
2160.588994	-2.986300	3.264300	-9.747600	27.353197	6.585634E-5	20.804919
2161.594223	-2.975400	3.264400	-9.712000	27.312464	6.664839E-5	20.794290
2162.595304	-3.021800	3.262800	-9.857600	27.387909	6.414021E-5	20.797640
2163.592535	-3.014800	3.261900	-9.833300	27.377987	6.410721E-5	20.813736
2164.594859	-2.990100	3.263600	-9.757400	27.342312	6.288612E-5	20.814358
2165.591782	-3.011200	3.261800	-9.821200	27.335694	6.420621E-5	20.802485
2166.596819	-2.963200	3.262800	-9.666900	27.321774	6.334815E-5	20.804604
2167.591452	-2.981200	3.262700	-9.726200	27.366631	6.394220E-5	20.797571
2168.593884	-3.000700	3.260800	-9.783700	27.410171	6.258910E-5	20.795853
2169.592238	-2.974900	3.260400	-9.698900	27.442500	6.272111E-5	20.793290
2170.595746	-3.000600	3.260900	-9.783800	27.437855	6.189605E-5	20.807109
2171.597144	-2.977100	3.261000	-9.707100	27.360765	6.064195E-5	20.811111
2172.591638	-3.012800	3.259200	-9.818300	27.397181	6.064195E-5	20.801751
2173.592174	-3.005500	3.258800	-9.793300	27.414993	6.159902E-5	20.795488
2174.592070	-2.994700	3.260200	-9.762100	27.430080	6.291912E-5	20.805925
2175.591792	-3.005500	3.258100	-9.791200	27.437401	5.882682E-5	20.790056
2176.591603	-2.989400	3.258600	-9.740500	27.405351	6.037793E-5	20.780573
2177.593442	-3.032000	3.256600	-9.873000	27.421774	6.041094E-5	20.810371
2178.592966	-2.996300	3.257300	-9.759400	27.393800	5.909084E-5	20.800720
2179.592588	-3.008900	3.256400	-9.797900	27.384918	5.889283E-5	20.797001
2180.591802	-3.000500	3.258300	-9.775700	27.399535	6.080697E-5	20.800326
2181.593561	-2.987900	3.255400	-9.725600	27.374132	5.740772E-5	20.812703
2182.595740	-2.992500	3.256900	-9.745300	27.421937	6.008091E-5	20.807690
2183.595449	-2.997200	3.255600	-9.757100	27.423975	5.978389E-5	20.810214
2184.598877	-2.992900	3.255100	-9.741000	27.388326	5.882682E-5	20.826982
2185.596344	-3.015200	3.254100	-9.811400	27.402098	5.793576E-5	20.816181
2186.594881	-3.002800	3.254100	-9.770700	27.414334	5.852980E-5	20.816636
2187.600189	-2.981300	3.256200	-9.706000	27.490954	5.767174E-5	20.806950
2188.597134	-2.989300	3.253900	-9.726400	27.554379	5.681367E-5	20.827615
2189.597879	-2.996800	3.252400	-9.746300	27.612495	5.542757E-5	20.796475
2190.602515	-2.967200	3.252200	-9.649300	27.608254	5.747372E-5	20.809751
2191.597839	-2.994100	3.251000	-9.732800	27.592929	5.648365E-5	20.807134
2192.597986	-3.002700	3.251600	-9.762700	27.620511	5.612062E-5	20.819240
2193.600875	-3.009600	3.251900	-9.785700	27.600548	5.407447E-5	20.821912
2194.597493	-2.987000	3.250400	-9.707800	27.587353	5.664866E-5	20.811481
2195.598411	-3.021600	3.248900	-9.815400	27.553025	5.602162E-5	20.804443
2196.605546	-2.970300	3.251300	-9.655900	27.490254	5.338142E-5	20.826634
2197.599381	-3.017500	3.249000	-9.802800	27.475669	5.532856E-5	20.834245
2198.600842	-2.986700	3.249600	-9.705300	27.531157	5.242435E-5	20.828906
2199.605849	-3.010700	3.248500	-9.779700	27.503120	5.631864E-5	20.823458
2200.601131	-3.000400	3.249200	-9.747700	27.469542	5.140128E-5	20.830452
2201.604259	-3.008300	3.246700	-9.766300	27.420080	5.308440E-5	20.835218
2202.605776	-2.973300	3.247300	-9.653800	27.369599	5.443750E-5	20.829479
2203.603281	-2.991200	3.248000	-9.714600	27.400186	5.252336E-5	20.830852
2204.607589	-3.024900	3.246400	-9.819000	27.391555	5.146728E-5	20.829282
2205.607412	-3.019100	3.245300	-9.797900	27.452899	5.169830E-5	20.836468
2206.606956	-2.986200	3.245800	-9.691700	27.516774	5.377745E-5	20.840987
2207.606437	-2.991600	3.246000	-9.709000	27.604108	5.192932E-5	20.849675
2208.608131	-3.000000	3.245400	-9.734800	27.644628	5.344743E-5	20.834972
2209.607771	-3.003800	3.245700	-9.747900	27.655515	5.275438E-5	20.814633
2210.608048	-3.005800	3.243100	-9.747000	27.652914	5.021319E-5	20.820076
2211.608569	-3.014400	3.243900	-9.777300	27.611024	5.093924E-5	20.812065
2212.607995	-2.990200	3.243200	-9.696300	27.627272	5.130227E-5	20.836948
2213.607028	-2.976000	3.242900	-9.649600	27.672288	4.895910E-5	20.840045
2214.608008	-2.993200	3.242300	-9.704300	27.660477	5.027919E-5	20.837644
2215.609358	-3.015100	3.241200	-9.772100	27.582529	4.932212E-5	20.834602
2216.609268	-3.024000	3.242100	-9.803200	27.582529	4.876108E-5	20.823222
2217.610235	-2.993400	3.242500	-9.705300	27.601948	4.958614E-5	20.848924
2218.611856	-2.995500	3.242900	-9.713300	27.615766	4.952014E-5	20.832483
2219.608406	-3.003000	3.241000	-9.732000	27.569438	5.004818E-5	20.842766
2220.611613	-3.018700	3.240100	-9.779500	27.525886	4.905810E-5	20.867224
2221.613237	-2.990400	3.240200	-9.687600	27.533475	4.836505E-5	20.845463
2222.611111	-2.977900	3.240400	-9.648300	27.578348	4.829905E-5	20.834662
2223.614419	-3.021400	3.239200	-9.786200	27.549253	4.958614E-5	20.814871
2224.611094	-3.011400	3.238800	-9.752500	27.532067	4.740798E-5	20.845469
2225.613304	-3.013100	3.236900	-9.752500	27.539558	4.932212E-5	20.830247
2226.614379	-2.992700	3.236800	-9.686000	27.540996	4.813404E-5	20.844022
2227.617727	-2.990300	3.237900	-9.681700	27.571407	4.770501E-5	20.846170
2228.618081	-3.015500	3.236300	-9.757800	27.586444	4.608789E-5	20.848497
2229.614779	-2.988900	3.236200	-9.672500	27.564320	4.618689E-5	20.841884
2230.619884	-2.993100	3.235200	-9.682300	27.565439	4.602188E-5	20.834002
2231.622538	-3.012100	3.235000	-9.742800	27.567226	4.839806E-5	20.833903
2232.616434	-3.007700	3.234600	-9.727600	27.664152	4.565886E-5	20.839919
2233.623520	-2.994000	3.236600	-9.689400	27.691983	4.687994E-5	20.848010
2234.617821	-3.006500	3.232700	-9.718500	27.711326	4.506481E-5	20.830965
2235.617697	-3.014600	3.234300	-9.748800	27.712819	4.410774E-5	20.834364
2236.617548	-2.998900	3.232600	-9.693800	27.760811	4.555985E-5	20.820545
2237.618608	-3.017200	3.233100	-9.754200	27.767584	4.456978E-5	20.824517
2238.618089	-3.017000	3.231100	-9.747700	27.676567	4.499881E-5	20.843877
2239.618743	-3.014200	3.231000	-9.737200	27.644806	4.542784E-5	20.837521
2240.621757	-3.005800	3.230800	-9.710700	27.647363	4.324968E-5	20.813543
2241.619804	-2.982700	3.231900	-9.638700	27.699416	4.625290E-5	20.824196
2242.624037	-2.991100	3.233000	-9.668100	27.723825	4.532883E-5	20.814146
2243.619844	-2.983700	3.229600	-9.635300	27.730073	4.572486E-5	20.818063
2244.620170	-2.954500	3.230500	-9.543700	27.725263	4.522982E-5	20.826498
2245.620759	-2.997500	3.230600	-9.683200	27.716164	4.265564E-5	20.823032
2246.619554	-2.992700	3.228900	-9.662000	27.688462	4.546084E-5	20.800371
2247.620184	-2.982300	3.228200	-9.626700	27.738364	4.272164E-5	20.806491
2248.619928	-3.008100	3.227700	-9.708200	27.788955	4.212760E-5	20.809040
2249.619849	-2.992400	3.227600	-9.657300	27.797706	4.130254E-5	20.812631
2250.619707	-3.014900	3.227000	-9.728500	27.765520	4.245762E-5	20.828129
2251.619371	-2.997000	3.229000	-9.676700	27.686956	4.308467E-5	20.802649
2252.620350	-3.011900	3.227700	-9.720600	27.676442	4.166556E-5	20.804397
2253.620461	-3.016900	3.226100	-9.731500	27.671681	4.173157E-5	20.808141
2254.621561	-2.992000	3.226300	-9.652300	27.644798	4.196258E-5	20.795315
2255.622295	-2.989600	3.224500	-9.638800	27.702437	4.176457E-5	20.822020
2256.621943	-2.971600	3.224300	-9.580600	27.743302	4.235861E-5	20.806719
2257.623694	-2.987200	3.225400	-9.634200	27.703668	4.252363E-5	20.809509
2258.623440	-3.002300	3.224800	-9.681600	27.714437	3.889336E-5	20.797587
2259.625568	-3.019800	3.223100	-9.732400	27.700198	4.097251E-5	20.797008
2260.623841	-3.014200	3.222300	-9.712100	27.730177	3.889336E-5	20.795408
2261.624865	-3.016900	3.222100	-9.720100	27.725018	3.691321E-5	20.805389
2262.624449	-3.009700	3.221800	-9.695800	27.756764	3.872835E-5	20.793240
2263.624769	-3.003400	3.221500	-9.675000	27.669031	3.836532E-5	20.809742
2264.627292	-3.001900	3.220200	-9.665100	27.640832	3.961941E-5	20.807919
2265.624513	-3.002600	3.220600	-9.669400	27.633568	3.780428E-5	20.802032
2266.624243	-2.982500	3.222800	-9.610900	27.600955	3.780428E-5	20.809994
2267.624480	-3.004700	3.219400	-9.671900	27.618140	3.721024E-5	20.803104
2268.624364	-2.986000	3.219600	-9.613100	27.701672	3.559312E-5	20.801336
2269.626502	-3.004100	3.218700	-9.667700	27.731926	3.711123E-5	20.791003
2270.628027	-2.992000	3.220400	-9.635000	27.797790	3.691321E-5	20.787112
2271.624375	-2.991900	3.218200	-9.627800	27.811110	3.631917E-5	20.808577
2272.624649	-3.000300	3.217300	-9.652300	27.829068	3.674820E-5	20.801994
2273.625071	-3.007400	3.216100	-9.671300	27.766534	3.579113E-5	20.797856
2274.624402	-2.977900	3.216800	-9.578300	27.783049	3.767227E-5	20.772750
2275.626126	-3.009100	3.214500	-9.672600	27.820838	3.572513E-5	20.802246
2276.626373	-2.999100	3.214500	-9.639700	27.809567	3.628617E-5	20.797541
2277.629518	-3.009000	3.214400	-9.671600	27.798828	3.486706E-5	20.800484
2278.628203	-3.022500	3.213500	-9.711800	27.800640	3.589014E-5	20.788557
2279.625737	-2.986400	3.213700	-9.596100	27.815991	3.387699E-5	20.792627
2280.627817	-3.007100	3.212900	-9.660300	27.833007	3.404200E-5	20.814018
2281.625519	-3.006200	3.212200	-9.655500	27.832566	3.173183E-5	20.804092
2282.626535	-3.004800	3.212900	-9.653200	27.766630	3.371198E-5	20.782305
2283.625393	-2.977300	3.212800	-9.564800	27.768098	3.387699E-5	20.769558
2284.625401	-2.980000	3.213800	-9.576800	27.832473	3.470205E-5	20.755634
2285.625790	-2.982700	3.210700	-9.575600	27.879585	3.272191E-5	20.786455
2286.625444	-3.006800	3.209900	-9.650500	27.948292	3.628617E-5	20.780691
2287.626475	-2.988100	3.213500	-9.601000	27.876048	3.463605E-5	20.781947
2288.625840	-2.988100	3.209200	-9.588700	27.810959	3.027973E-5	20.775709
2289.625780	-3.002900	3.209300	-9.636900	27.780139	3.176484E-5	20.777882
2290.626646	-2.995600	3.208500	-9.610400	27.740659	3.103878E-5	20.767549
2291.626321	-3.006700	3.210600	-9.652700	27.793936	3.225987E-5	20.791293
2292.625120	-3.006600	3.208400	-9.646000	27.865218	3.268890E-5	20.773892
2293.630325	-3.009600	3.207100	-9.651000	27.852370	3.282091E-5	20.789884
2294.627088	-3.011200	3.207000	-9.656200	27.833212	3.153382E-5	20.756378
2295.627618	-3.008200	3.206700	-9.645900	27.801278	3.080777E-5	20.775449
2296.627696	-3.025800	3.204100	-9.693400	27.805524	3.097278E-5	20.766919
2297.626819	-3.000000	3.206700	-9.619500	27.793623	3.008171E-5	20.784340
2298.627029	-3.004700	3.206700	-9.634100	27.870417	3.093978E-5	20.758261
2299.627192	-3.015100	3.205000	-9.662200	27.902379	3.014772E-5	20.783792
2300.630107	-3.002900	3.203300	-9.618100	27.923383	3.100578E-5	20.761309
2301.629711	-2.998200	3.204500	-9.606400	27.883045	3.024672E-5	20.782350
2302.630364	-3.022400	3.202400	-9.678100	27.848409	2.991670E-5	20.769302
2303.632486	-3.024400	3.203600	-9.688200	27.855206	2.932266E-5	20.755754
2304.629640	-3.018200	3.202200	-9.664200	27.898548	2.862961E-5	20.762392
2305.630040	-2.973900	3.202500	-9.523100	27.851541	2.806856E-5	20.786679
2306.630388	-3.009000	3.202200	-9.634400	27.851461	2.909164E-5	20.772848
2307.632509	-3.000000	3.201500	-9.603400	27.859231	2.942166E-5	20.783987
2308.630842	-3.000900	3.199300	-9.599600	27.830046	2.938866E-5	20.778322
2309.631696	-2.980700	3.200200	-9.537800	27.839664	2.787055E-5	20.764769
2310.632724	-3.012100	3.198500	-9.632700	27.863098	2.793655E-5	20.779818
2311.631732	-2.992100	3.200100	-9.574000	27.911328	2.958668E-5	20.752969
2312.635752	-2.997200	3.197800	-9.583900	27.950459	3.034573E-5	20.754422
2313.635356	-2.987300	3.197800	-9.552400	27.931438	2.730951E-5	20.731958
2314.632020	-2.985900	3.196900	-9.544300	27.918969	2.645145E-5	20.751651
2315.634191	-3.003200	3.196400	-9.597900	27.995284	2.730951E-5	20.763980
2316.634287	-2.984200	3.196400	-9.538000	27.978276	2.707849E-5	20.747334
2317.632633	-2.991900	3.195300	-9.559600	27.967020	2.846459E-5	20.791007
2318.634262	-3.000400	3.194700	-9.584600	27.946047	2.836559E-5	20.773216
2319.634994	-2.993600	3.194100	-9.560700	27.982216	2.631944E-5	20.758413
2320.632847	-2.992900	3.194400	-9.560100	27.961887	2.552738E-5	20.740320
2321.634961	-2.992800	3.192800	-9.554400	27.988536	2.856360E-5	20.752446
2322.638023	-2.957200	3.193200	-9.441300	28.038076	2.684747E-5	20.757741
2323.633556	-2.980700	3.191300	-9.511300	28.056697	2.503234E-5	20.732862
2324.635170	-2.982400	3.191000	-9.515400	28.056196	2.480132E-5	20.749902
2325.637756	-2.980200	3.190400	-9.507400	28.071617	2.443830E-5	20.770642
2326.634187	-2.999700	3.189600	-9.567300	28.052610	2.519735E-5	20.753880
2327.636300	-2.994500	3.190200	-9.553000	27.983488	2.377825E-5	20.757796
2328.636369	-3.010400	3.190000	-9.602300	27.909229	2.513135E-5	20.768401
2329.636918	-3.005300	3.189700	-9.584600	27.872232	2.542837E-5	20.752027
2330.636146	-3.010700	3.187600	-9.596700	27.922322	2.509835E-5	20.752654
2331.645125	-2.995700	3.188400	-9.550600	27.929944	2.430629E-5	20.749421
2332.638759	-2.996200	3.187100	-9.548400	27.976355	2.470232E-5	20.763418
2333.636226	-3.025500	3.186000	-9.638400	27.942590	2.397626E-5	20.758830
2334.637994	-3.023800	3.185600	-9.631500	27.870261	2.351423E-5	20.750043
2335.641409	-2.991000	3.186200	-9.528800	27.814772	2.417428E-5	20.757734
2336.637631	-3.007700	3.185500	-9.580000	27.838279	2.358023E-5	20.750572
2337.637819	-3.019100	3.184600	-9.612800	27.952189	2.295319E-5	20.726764
2338.641594	-3.012600	3.184100	-9.591200	27.955786	2.496634E-5	20.758836
2339.638586	-3.024700	3.182800	-9.626200	27.930347	2.364624E-5	20.760258
2340.638923	-3.023600	3.182500	-9.622400	27.915719	2.206212E-5	20.745060
2341.642418	-3.003800	3.183200	-9.561000	27.935529	2.229314E-5	20.747930
2342.639604	-3.022900	3.180200	-9.612300	27.948493	2.285418E-5	20.747228
2343.640821	-2.976700	3.180700	-9.466800	27.997686	2.259016E-5	20.756440
2344.642349	-2.995500	3.182700	-9.532300	27.992927	2.136907E-5	20.739321
2345.641787	-2.999800	3.180200	-9.538500	27.962307	2.130307E-5	20.763978
2346.642165	-2.967700	3.179300	-9.433900	27.983805	2.094004E-5	20.755744
2347.641405	-3.009400	3.178100	-9.563500	28.006960	2.156709E-5	20.753922
2348.642320	-2.984500	3.178400	-9.483800	28.048883	2.397626E-5	20.736377
2349.641746	-2.981100	3.178800	-9.475500	28.075255	2.080803E-5	20.741587
2350.646013	-2.966200	3.179200	-9.429500	28.055546	2.133607E-5	20.719375
2351.643292	-3.003000	3.176000	-9.537000	28.072209	2.031299E-5	20.732830
2352.642846	-3.002600	3.175500	-9.533400	28.096892	2.166609E-5	20.739186
2353.647800	-2.994300	3.175900	-9.508000	28.164539	2.186411E-5	20.737111
2354.645639	-2.990700	3.174700	-9.493100	28.139233	2.044500E-5	20.745301
2355.643824	-2.982300	3.175000	-9.467600	28.122345	2.133607E-5	20.766707
2356.643619	-3.009500	3.172300	-9.546000	28.129533	2.107205E-5	20.726525
2357.646387	-3.003500	3.172300	-9.527300	28.134959	2.156709E-5	20.733885
2358.646388	-3.037300	3.169800	-9.627300	28.091131	1.836585E-5	20.738128
2359.645593	-2.992200	3.171800	-9.489500	28.101414	1.628670E-5	20.743738
2360.646883	-3.018400	3.170800	-9.570300	28.119110	1.952094E-5	20.723145
2361.646411	-3.002000	3.169200	-9.513200	28.063255	1.780481E-5	20.728085
2362.646425	-2.991200	3.168600	-9.476900	28.023315	2.018098E-5	20.701155
2363.649564	-2.996100	3.169100	-9.493800	28.040915	1.678173E-5	20.746375
2364.648372	-3.005400	3.168500	-9.521600	28.082336	1.780481E-5	20.736861
2365.648024	-3.013500	3.166700	-9.541800	28.051615	1.971895E-5	20.742446
2366.647561	-2.988200	3.167000	-9.462600	28.098375	1.872888E-5	20.764387
2367.649559	-3.007200	3.165800	-9.519400	28.122916	1.790382E-5	20.727925
2368.650117	-2.993200	3.163900	-9.469200	28.078483	1.968595E-5	20.734404
2369.650901	-3.002100	3.165000	-9.500400	28.051114	1.532963E-5	20.749055
2370.651293	-2.986000	3.163100	-9.444200	28.009466	1.688074E-5	20.741270
2371.651721	-2.983200	3.164400	-9.439100	28.024009	1.707876E-5	20.734097
2372.651574	-2.997600	3.162400	-9.479200	28.121590	1.589067E-5	20.723745
2373.652825	-2.969000	3.162300	-9.388200	28.195156	1.605568E-5	20.723838
2374.656353	-2.986000	3.160800	-9.436200	28.213102	1.833285E-5	20.733371
2375.654343	-2.985800	3.160500	-9.435800	28.205841	1.460357E-5	20.727957
2376.653441	-3.018800	3.159300	-9.536800	28.229482	1.582466E-5	20.760294
2377.657255	-2.999700	3.157900	-9.471800	28.209927	1.414154E-5	20.737762
2378.653853	-2.989500	3.159600	-9.445100	28.190593	1.648471E-5	20.732521
2379.653738	-2.991600	3.157100	-9.443600	28.200796	1.493360E-5	20.730465
2380.657113	-3.012500	3.157000	-9.509000	28.238601	1.737578E-5	20.739129
2381.655006	-3.003100	3.156900	-9.479300	28.282919	1.711176E-5	20.724953
2382.655669	-2.994700	3.155000	-9.447500	28.269659	1.483459E-5	20.735785
2383.660523	-3.023200	3.154300	-9.534700	28.146065	1.318447E-5	20.736057
2384.656567	-2.989900	3.154100	-9.429900	28.159051	1.437256E-5	20.723999
2385.656746	-2.983000	3.153100	-9.405500	28.178160	1.292045E-5	20.725693
2386.660909	-3.015700	3.153400	-9.508300	28.191891	1.414154E-5	20.732405
2387.660109	-2.992300	3.153300	-9.434800	28.129868	1.364650E-5	20.729234
2388.659388	-3.010700	3.150700	-9.485100	28.189537	1.473558E-5	20.727664
2389.662880	-3.013500	3.148900	-9.488500	28.142610	1.542864E-5	20.710766
2390.659227	-2.977000	3.150500	-9.378200	28.192956	1.509861E-5	20.732054
2391.660178	-3.000600	3.148100	-9.445500	28.267391	1.589067E-5	20.714060
2392.663789	-2.994500	3.149200	-9.428200	28.272571	1.407554E-5	20.740140
2393.659424	-2.993900	3.147500	-9.422600	28.199176	1.420755E-5	20.731205
2394.661702	-2.972100	3.147400	-9.353300	28.198180	1.387752E-5	20.729727
2395.669054	-2.990300	3.145800	-9.406000	28.188412	1.358050E-5	20.726057
2396.660934	-2.977500	3.145800	-9.365700	28.177683	1.295345E-5	20.715729
2397.664848	-2.995100	3.144500	-9.417400	28.150066	1.061028E-5	20.737714
2398.666297	-3.009200	3.144400	-9.461800	28.140567	1.173236E-5	20.722935
2399.662867	-3.003300	3.143400	-9.440000	28.168900	1.358050E-5	20.727277
2400.664969	-2.979000	3.141400	-9.356800	28.215973	1.024725E-5	20.720613
2401.662987	-2.984900	3.141600	-9.375900	28.248341	1.427355E-5	20.715269
2402.664052	-3.010100	3.138900	-9.447200	28.280071	1.136934E-5	20.730146
2403.665111	-2.997200	3.140000	-9.409800	28.283765	1.179837E-5	20.711579
2404.665517	-2.992300	3.139900	-9.394900	28.289386	1.160035E-5	20.728620
2405.665317	-2.972200	3.138300	-9.326400	28.287453	9.686213E-6	20.719087
2406.664856	-3.014100	3.135700	-9.449900	28.296052	1.117132E-5	20.721107
2407.667090	-3.008300	3.134900	-9.430100	28.297068	1.103931E-5	20.721181
2408.667631	-2.988800	3.134200	-9.367000	28.241992	1.051127E-5	20.721205
2409.666184	-3.011700	3.133000	-9.435400	28.174369	1.011524E-5	20.705754
2410.666542	-3.001300	3.133500	-9.403200	28.176376	9.521201E-6	20.718207
2411.668401	-2.992400	3.134000	-9.376900	28.224066	1.011524E-5	20.708846
2412.667095	-3.002700	3.132100	-9.404700	28.259608	1.044527E-5	20.717129
2413.667116	-3.035500	3.130700	-9.502600	28.327024	1.094031E-5	20.731429
2414.669394	-3.030700	3.129600	-9.483900	28.365406	9.092169E-6	20.711754
2415.667744	-2.998900	3.129700	-9.384800	28.263890	8.960159E-6	20.715276
2416.668684	-3.018700	3.129600	-9.446500	28.173582	6.980014E-6	20.711126
2417.670386	-3.005900	3.128800	-9.404100	28.137885	7.706067E-6	20.712173
2418.668997	-3.011900	3.126400	-9.415700	28.135475	8.861152E-6	20.720654
2419.670037	-3.023700	3.124700	-9.446300	28.143580	1.160035E-5	20.718856
2420.674361	-2.998900	3.125100	-9.371300	28.130166	8.432121E-6	20.719576
2421.671515	-2.983200	3.123500	-9.317600	28.133409	7.739070E-6	20.704822
2422.671935	-3.014900	3.123600	-9.416300	28.182887	8.630135E-6	20.733772
2423.677122	-3.037700	3.123200	-9.486200	28.257641	7.079021E-6	20.735539
2424.671243	-3.012800	3.122100	-9.405800	28.316532	7.277036E-6	20.717071
2425.671156	-3.013700	3.121600	-9.406200	28.306564	9.587206E-6	20.723156
2426.671503	-3.012900	3.119600	-9.398300	28.289439	6.187956E-6	20.712551
2427.672915	-3.009000	3.119100	-9.384300	28.368865	9.092169E-6	20.711918
2428.673875	-2.999700	3.119500	-9.356400	28.330825	6.517980E-6	20.704435
2429.674812	-2.992500	3.118400	-9.330600	28.296620	7.871079E-6	20.727843
2430.675328	-2.988300	3.116200	-9.311100	28.275221	8.036092E-6	20.711986
2431.674521	-3.002900	3.115700	-9.355700	28.348488	5.923936E-6	20.710366
2432.673584	-3.003700	3.113400	-9.350300	28.344299	5.890934E-6	20.728909
2433.675496	-3.013100	3.112900	-9.378500	28.348660	5.956939E-6	20.738041
2434.674327	-3.014900	3.112900	-9.384700	28.304040	4.636841E-6	20.708286
2435.677912	-2.995000	3.111900	-9.319800	28.290756	6.682992E-6	20.743276
2436.676951	-3.014200	3.110100	-9.373600	28.293331	5.791926E-6	20.716944
2437.674345	-3.002200	3.109200	-9.333700	28.254959	6.682992E-6	20.716243
2438.675206	-2.987000	3.109400	-9.286200	28.256348	5.296890E-6	20.710053
2439.674971	-2.978900	3.108000	-9.257900	28.256696	3.019722E-6	20.718940
2440.673710	-3.000300	3.105900	-9.318300	28.281729	2.986720E-6	20.720910
2441.674292	-3.014100	3.105400	-9.359200	28.248287	4.405824E-6	20.727543
2442.675076	-3.018200	3.104400	-9.368800	28.290402	5.164880E-6	20.713047
2443.675687	-3.004700	3.103900	-9.325100	28.375803	5.725922E-6	20.718904
2444.675706	-3.004400	3.102900	-9.321600	28.379502	6.253960E-6	20.728319
2445.676317	-2.991200	3.102200	-9.278900	28.388296	3.415751E-6	20.696869
2446.678047	-2.998500	3.100700	-9.296700	28.482292	3.184734E-6	20.727987
2447.677210	-3.035300	3.099000	-9.404700	28.518821	3.811781E-6	20.707874
2448.678567	-2.987100	3.099300	-9.257100	28.540264	4.768851E-6	20.701968
2449.681232	-3.005600	3.098100	-9.310600	28.415466	1.897640E-6	20.726126
2450.678159	-3.000900	3.098300	-9.296700	28.358312	3.481756E-6	20.713145
2451.678379	-3.008400	3.095800	-9.312200	28.384853	2.920715E-6	20.692453
2452.680622	-2.998600	3.094900	-9.279500	28.390705	2.326671E-6	20.704037
2453.679110	-3.001700	3.093500	-9.284500	28.423666	7.079021E-6	20.710676
2454.681097	-2.992200	3.091800	-9.250400	28.462576	2.359674E-6	20.722358
2455.680396	-2.994100	3.091600	-9.254500	28.473082	3.712773E-6	20.709228
2456.683729	-3.000200	3.092100	-9.275000	28.478542	5.197883E-6	20.723262
2457.680982	-2.993100	3.090700	-9.250400	28.476579	4.636841E-6	20.712276
2458.682046	-2.992200	3.089100	-9.242400	28.475864	3.151732E-6	20.741429
2459.681681	-3.021200	3.086100	-9.321500	28.458693	4.636841E-6	20.713230
2460.682266	-2.995200	3.087700	-9.247200	28.444695	2.029649E-6	20.703875
2461.682094	-2.992600	3.084300	-9.229500	28.522242	2.260666E-6	20.724123
2462.681802	-3.001200	3.083700	-9.254200	28.605202	1.963645E-6	20.708099
2463.685977	-3.017200	3.083500	-9.302600	28.562488	2.986720E-6	20.721031
2464.683815	-3.002200	3.082900	-9.254600	28.507976	3.448754E-6	20.704539
2465.684225	-2.997700	3.082200	-9.238500	28.473183	1.072579E-6	20.724030
2466.685000	-3.003300	3.080800	-9.251600	28.456146	1.897640E-6	20.725839
2467.684517	-3.018700	3.078400	-9.291100	28.415426	2.260666E-6	20.724189
2468.685172	-3.014100	3.078700	-9.278900	28.416005	2.722700E-6	20.694425
2469.687300	-3.014300	3.076600	-9.273400	28.492951	1.468608E-6	20.721651
2470.688518	-2.993200	3.075200	-9.204400	28.547689	1.831635E-6	20.723671
2471.686599	-3.017600	3.073700	-9.273600	28.539519	-4.950365E-8	20.704063
2472.688268	-3.020800	3.072600	-9.281200	28.546043	1.699625E-6	20.729600
2473.693417	-3.014600	3.072500	-9.261400	28.563953	1.699625E-6	20.744319
2474.688448	-2.986300	3.071400	-9.170800	28.600607	-4.950365E-8	20.719593
2475.694294	-3.023700	3.071100	-9.285400	28.583884	5.775425E-7	20.720769
2476.692032	-2.995000	3.069100	-9.190400	28.561561	1.336598E-6	20.721046
2477.688966	-2.990300	3.069200	-9.176300	28.518667	8.415620E-7	20.723368
2478.690583	-3.024900	3.066300	-9.274500	28.507575	-8.415620E-7	20.713144
2479.693192	-3.021800	3.064700	-9.259700	28.573660	1.963645E-6	20.717584
2480.691036	-2.989200	3.064300	-9.159200	28.622005	1.039577E-6	20.719807
2481.695290	-2.987200	3.064400	-9.153700	28.614998	1.666623E-6	20.718440
2482.692793	-3.003300	3.061600	-9.194300	28.620647	2.475182E-7	20.724604
2483.696657	-2.964700	3.061800	-9.076400	28.512087	1.006574E-6	20.729069
2484.692904	-3.000400	3.060600	-9.182400	28.545129	1.402603E-6	20.722990
2485.697101	-3.017400	3.059100	-9.229500	28.576796	1.831635E-6	20.731649
2486.694787	-3.007500	3.056700	-9.192600	28.532025	6.765498E-7	20.707896
2487.693695	-2.985000	3.056700	-9.123200	28.522108	7.425547E-7	20.728730
2488.694914	-2.999900	3.054500	-9.162400	28.531927	1.485109E-7	20.721549
2489.695471	-2.981500	3.054900	-9.107200	28.570314	-1.435606E-6	20.718956
2490.695395	-2.996100	3.052500	-9.143700	28.591995	5.445401E-7	20.716609
2491.696375	-2.987700	3.051900	-9.117100	28.652696	1.864637E-6	20.722269
2492.697278	-3.015000	3.050100	-9.194900	28.721254	6.105450E-7	20.729209
2493.702985	-3.035600	3.048300	-9.252900	28.713600	6.105450E-7	20.740941
2494.697361	-3.008000	3.047700	-9.166500	28.631639	2.145158E-7	20.731408
2495.699019	-3.007600	3.047500	-9.164700	28.677053	1.039577E-6	20.704601
2496.701974	-3.004100	3.046200	-9.150300	28.726157	1.485109E-7	20.736519
2497.700284	-2.987900	3.044300	-9.095400	28.755794	-8.415620E-7	20.720378
2498.700066	-2.994300	3.042900	-9.110500	28.722740	7.095522E-7	20.737344
2499.704027	-2.980400	3.041000	-9.062600	28.709009	6.435474E-7	20.720668
2500.701892	-2.986900	3.040300	-9.080600	28.700933	-2.524686E-6	20.722017
2501.701522	-2.984100	3.038400	-9.066100	28.700762	-1.171586E-6	20.719948
2502.702145	-3.003700	3.037500	-9.123000	28.612209	-1.798632E-6	20.738391
2503.702497	-2.969500	3.037600	-9.019100	28.524059	-2.821708E-6	20.719314
2504.707583	-3.013400	3.035000	-9.144800	28.574265	-2.425679E-6	20.727203
2505.704848	-3.009200	3.034900	-9.131700	28.635669	-8.250608E-8	20.748269
2506.712317	-2.981400	3.033300	-9.043100	28.648820	-7.755571E-7	20.744920
2507.705621	-3.009100	3.031100	-9.119200	28.690620	-8.415620E-7	20.722535
2508.705269	-2.986900	3.030700	-9.050900	28.734227	-1.105581E-6	20.731372
2509.704725	-3.011400	3.029600	-9.122500	28.807365	-1.600618E-6	20.732973
2510.705843	-3.003800	3.027200	-9.091300	28.857924	-9.735717E-7	20.733644
2511.708022	-3.001100	3.027200	-9.084000	28.859208	-9.075668E-7	20.746318
2512.706609	-2.986800	3.026400	-9.037500	28.902436	-1.600618E-6	20.754779
2513.705103	-3.017300	3.023300	-9.121400	28.846157	-1.633620E-6	20.736963
2514.705479	-3.023900	3.022000	-9.137200	28.839269	-5.115377E-7	20.743300
2515.708089	-3.024300	3.020600	-9.134700	28.755160	1.155085E-7	20.744396
2516.707406	-3.022200	3.019600	-9.124800	28.709670	-1.600618E-6	20.744569
2517.706694	-3.045300	3.016500	-9.185700	28.727044	-4.950365E-8	20.751164
2518.708405	-2.989400	3.017600	-9.019700	28.677616	3.795279E-7	20.743577
2519.706197	-3.006300	3.015900	-9.066200	28.631921	-2.128657E-6	20.725054
2520.706460	-3.019800	3.014600	-9.102600	28.616856	-1.963645E-6	20.750185
2521.708695	-3.000700	3.014400	-9.044500	28.682201	-2.260666E-6	20.744876
2522.708151	-3.018400	3.010300	-9.085000	28.759598	-1.105581E-6	20.765463
2523.708590	-3.010800	3.010200	-9.061900	28.853139	-1.831635E-6	20.738306
2524.707325	-3.023600	3.009600	-9.098800	28.804291	-2.854710E-6	20.763542
2525.708652	-3.010500	3.006900	-9.051700	28.775504	-1.699625E-6	20.748294
2526.707434	-3.029900	3.006600	-9.108200	28.727245	-1.798632E-6	20.771282
2527.708112	-3.015600	3.004900	-9.060100	28.669711	-3.514759E-6	20.752211
2528.707802	-3.001600	3.004200	-9.017100	28.662135	-3.646769E-6	20.763547
2529.708582	-2.998700	3.003700	-9.005400	28.679480	9.735717E-7	20.754464
2530.707850	-2.986800	3.000900	-8.962700	28.759255	-3.547761E-6	20.742832
2531.710705	-3.018400	2.999000	-9.051400	28.730913	-2.029649E-6	20.763122
2532.708014	-3.002900	2.997400	-9.000000	28.738176	-7.755571E-7	20.755739
2533.710292	-3.005100	2.997600	-9.007700	28.823246	-1.435606E-6	20.766990
2534.712953	-2.984100	2.996900	-8.941700	28.829793	-2.128657E-6	20.753669
2535.713336	-2.962100	2.994000	-8.867500	28.790621	1.485109E-7	20.737917
2536.711765	-2.996400	2.992100	-8.964200	28.737033	-3.795279E-7	20.753639
2537.711819	-3.010300	2.990700	-9.001400	28.759549	-2.293669E-6	20.740757
2538.715127	-2.982000	2.990600	-8.916900	28.836254	-1.864637E-6	20.759230
2539.713457	-2.991200	2.989300	-8.940700	28.784404	-1.930642E-6	20.762001
2540.713976	-2.995500	2.986500	-8.944900	28.775608	-1.633620E-6	20.775900
2541.715219	-3.011200	2.985200	-8.988300	28.730290	-3.415752E-6	20.752537
2542.713076	-2.984400	2.984800	-8.906900	28.703978	1.534613E-6	20.754957
2543.714206	-3.011500	2.982000	-8.979600	28.756621	-7.425547E-7	20.770525
2544.713737	-2.993800	2.980800	-8.922500	28.810875	-4.636841E-6	20.768278
2545.715064	-3.000400	2.980100	-8.940600	28.916354	-3.184735E-6	20.773543
2546.714872	-2.979300	2.977700	-8.869400	28.847814	-2.491683E-6	20.778463
2547.714003	-3.008300	2.976300	-8.952800	28.838169	-2.491683E-6	20.745038
2548.714854	-3.002700	2.976000	-8.935800	28.838792	-2.821708E-6	20.763210
2549.714734	-2.979300	2.974900	-8.861900	28.864399	-2.227664E-6	20.784264
2550.715451	-3.027700	2.972900	-9.000300	28.868396	-3.184735E-6	20.762212
2551.714857	-2.994900	2.972500	-8.901000	28.931886	-3.283742E-6	20.764059
2552.714789	-3.016700	2.970800	-8.961600	28.912271	-3.910788E-6	20.766584
2553.716063	-3.017700	2.966500	-8.951600	28.895896	-3.811781E-6	20.752932
2554.715437	-3.003700	2.966200	-8.908400	28.886630	-2.557688E-6	20.760192
2555.715917	-3.034500	2.963600	-8.992100	28.887674	-3.481756E-6	20.789694
2556.718958	-2.981100	2.963900	-8.834200	28.911256	-3.415752E-6	20.779312
2557.719275	-2.978000	2.963200	-8.823500	28.888224	-2.656696E-6	20.776972
2558.717705	-2.987700	2.960300	-8.843600	28.961988	-2.689698E-6	20.778739
2559.719067	-3.025400	2.957600	-8.947000	28.969341	-1.039577E-6	20.768130
2560.720577	-2.997100	2.957400	-8.862800	28.885547	-3.514759E-6	20.770956
2561.720931	-3.035700	2.954400	-8.967600	28.851066	-3.547761E-6	20.766091
2562.720529	-2.992400	2.954300	-8.839000	28.901280	-2.392676E-6	20.792970
2563.721532	-3.006700	2.951700	-8.873700	28.887209	-3.349747E-6	20.769311
2564.720545	-2.977200	2.950800	-8.784500	28.855106	-3.316744E-6	20.769213
2565.722033	-3.015000	2.948600	-8.889100	28.888695	-4.141805E-6	20.783610
2566.723444	-3.017200	2.948300	-8.894800	28.941041	-2.755703E-6	20.762851
2567.721530	-2.992600	2.947200	-8.819000	28.937379	-5.164880E-6	20.794250
2568.721526	-3.011200	2.944900	-8.866600	28.932153	-4.009795E-6	20.767648
2569.727247	-3.038900	2.941800	-8.938300	28.952959	-2.590691E-6	20.767746
2570.723262	-2.996600	2.942200	-8.815400	28.907826	-2.392676E-6	20.795771
2571.723044	-3.020600	2.939200	-8.876900	28.973569	-3.481756E-6	20.770493
2572.722690	-3.010400	2.939500	-8.847400	29.003321	-4.075800E-6	20.779606
2573.722918	-2.983400	2.937500	-8.763000	29.055655	-2.920715E-6	20.768325
2574.723131	-3.003200	2.934600	-8.811400	29.104247	-9.735717E-7	20.787415
2575.727027	-2.975500	2.934500	-8.730600	29.034430	-5.164880E-6	20.785819
2576.723570	-2.995200	2.931300	-8.778400	29.013699	-3.778778E-6	20.788640
2577.724878	-3.018500	2.929300	-8.840400	28.947469	-3.943790E-6	20.791140
2578.724559	-3.032400	2.927800	-8.876900	28.955342	-4.669844E-6	20.771096
2579.725053	-2.998200	2.926800	-8.774600	28.993261	-3.712773E-6	20.776583
2580.725492	-3.032300	2.923100	-8.863000	29.036587	-2.821708E-6	20.806485
2581.725418	-3.003600	2.923900	-8.781100	29.039979	-3.448754E-6	20.792359
2582.724438	-2.989800	2.920700	-8.731300	29.002453	-4.240812E-6	20.798646
2583.725929	-3.005600	2.919900	-8.775300	28.988977	-3.976793E-6	20.795500
2584.729498	-2.991800	2.918400	-8.730300	29.008993	-3.052725E-6	20.801442
2585.728741	-3.009400	2.915800	-8.773800	28.963117	-3.085727E-6	20.779403
2586.725459	-3.007100	2.915000	-8.764500	28.959676	-2.359674E-6	20.800118
2587.725594	-3.011100	2.911600	-8.766600	28.981355	-3.151732E-6	20.789243
2588.728758	-2.959200	2.912500	-8.618200	29.080572	-4.768851E-6	20.804336
2589.726232	-2.976800	2.910300	-8.663200	29.063851	-1.105581E-6	20.794127
2590.725607	-3.007500	2.907400	-8.742900	29.119977	-2.557688E-6	20.797575
2591.726161	-2.996200	2.905400	-8.704600	29.049709	-2.689698E-6	20.796473
2592.727223	-2.986500	2.904500	-8.672900	29.098203	-3.250739E-6	20.795075
2593.726522	-3.004200	2.902700	-8.719300	29.105213	-4.570837E-6	20.812095
2594.726554	-2.991800	2.900300	-8.676400	29.016076	-3.811781E-6	20.784397
2595.729350	-2.986000	2.898400	-8.653900	29.043768	-3.217737E-6	20.814195
2596.729698	-2.972300	2.898000	-8.612500	29.060538	-2.095654E-6	20.812125
2597.730169	-2.990200	2.894300	-8.653700	29.064950	-2.953718E-6	20.791915
2598.730919	-2.996200	2.893700	-8.669700	29.080700	-4.372822E-6	20.792137
2599.729573	-3.019400	2.891100	-8.728600	29.042436	-2.062652E-6	20.808585
2600.732700	-3.008000	2.890000	-8.692100	29.059456	-8.745644E-7	20.786853
2601.733859	-2.977200	2.889600	-8.601300	29.068764	-4.438827E-6	20.803344
2602.729841	-3.002900	2.885700	-8.664600	29.019725	-4.669844E-6	20.800875
2603.730843	-3.000000	2.883400	-8.649500	29.037259	-1.864637E-6	20.816645
2604.729705	-3.002600	2.881500	-8.650900	29.132810	-3.118730E-6	20.826627
2605.730024	-3.008200	2.881600	-8.666700	29.208694	-1.435606E-6	20.797833
2606.731548	-3.044400	2.877800	-8.760100	29.187814	-3.613766E-6	20.805241
2607.730711	-3.002400	2.877200	-8.638100	29.148534	-2.128657E-6	20.805962
2608.734007	-3.005000	2.875800	-8.641500	29.125850	-2.887713E-6	20.833363
2609.730660	-3.018300	2.872300	-8.668500	29.102768	-3.382749E-6	20.792562
2610.730850	-3.031100	2.869900	-8.697900	29.098263	-2.590691E-6	20.814102
2611.734203	-3.010900	2.868800	-8.636800	29.154211	-5.758924E-6	20.818794
2612.735329	-3.006100	2.867500	-8.619000	29.131717	-8.250608E-8	20.813671
2613.732806	-3.030600	2.863600	-8.677700	29.080406	-7.425547E-7	20.807014
2614.732172	-3.009200	2.863800	-8.616500	29.020116	-1.155085E-7	20.819761
2615.732543	-3.021000	2.860900	-8.641400	29.074582	-1.402603E-6	20.823905
2616.732430	-2.988000	2.860500	-8.545800	29.150612	-7.425547E-7	20.804736
2617.736151	-3.024900	2.857700	-8.643400	29.082209	-2.986720E-6	20.840124
2618.735339	-2.976500	2.855500	-8.498600	29.060288	-2.128657E-6	20.810451
2619.733768	-3.031300	2.851800	-8.643100	29.088003	-8.085595E-7	20.801867
2620.736104	-2.969000	2.852000	-8.466300	29.210962	-1.303596E-6	20.805808
2621.735638	-3.007200	2.848100	-8.563700	29.253931	-8.745644E-7	20.816393
2622.736011	-2.988400	2.847000	-8.506800	29.272873	-1.336598E-6	20.816990
2623.738594	-3.005200	2.845100	-8.549400	29.255343	-9.405693E-7	20.823031
2624.736315	-3.028400	2.841600	-8.604800	29.374989	-8.745644E-7	20.824601
2625.734473	-3.012500	2.840900	-8.558200	29.276295	-1.633620E-6	20.817593
2626.735952	-3.004200	2.838700	-8.526500	29.284312	-1.666623E-6	20.823776
2627.736361	-3.009400	2.836000	-8.533400	29.314349	-2.227664E-6	20.829392
2628.744437	-3.009100	2.834200	-8.527800	29.322921	-9.075668E-7	20.826651
2629.736755	-2.997200	2.832200	-8.487700	29.256656	-3.349747E-6	20.837156
2630.739460	-3.021100	2.829800	-8.548400	29.279436	-1.963645E-6	20.836405
2631.741218	-3.009900	2.828400	-8.512400	29.306406	-1.864637E-6	20.849835
2632.738492	-3.031800	2.823100	-8.558900	29.296104	-2.755703E-6	20.826651
2633.740045	-2.990400	2.822600	-8.439600	29.254151	-4.009795E-6	20.831313
2634.740798	-3.026300	2.819200	-8.530800	29.279857	-2.392676E-6	20.849632
2635.739157	-2.987200	2.817800	-8.416400	29.282117	-4.108803E-6	20.831522
2636.739378	-3.005400	2.815100	-8.458400	29.269787	-3.217737E-6	20.826208
2637.740152	-3.003800	2.811600	-8.444900	29.266909	-2.491683E-6	20.827101
2638.739714	-3.034700	2.808800	-8.523000	29.336913	-3.316744E-6	20.841226
2639.740138	-2.992600	2.807800	-8.402000	29.341770	-3.811781E-6	20.833794
2640.739554	-3.038500	2.803200	-8.516200	29.376094	-1.600618E-6	20.810542
2641.741810	-3.007800	2.801500	-8.425400	29.382302	-2.623693E-6	20.844299
2642.739931	-2.977000	2.799300	-8.332500	29.360014	-1.105581E-6	20.873042
2643.739371	-2.985300	2.796500	-8.347400	29.415409	-2.359674E-6	20.856330
2644.740950	-3.017800	2.794100	-8.431100	29.478909	-3.217737E-6	20.846368
2645.742999	-2.976600	2.793600	-8.314400	29.496760	-3.745776E-6	20.839705
2646.740961	-3.029300	2.790300	-8.451800	29.473447	-1.237591E-6	20.841336
2647.745436	-3.004300	2.786000	-8.368100	29.459707	-4.240812E-6	20.847401
2648.742999	-3.008500	2.783400	-8.373000	29.354899	-3.151732E-6	20.857457
2649.741597	-3.018800	2.780200	-8.391900	29.309142	-4.603839E-6	20.854963
2650.746474	-3.007000	2.777900	-8.353000	29.270935	-4.834856E-6	20.847752
2651.743871	-3.012000	2.774800	-8.357000	29.293518	-3.283742E-6	20.851545
2652.744641	-3.002800	2.771600	-8.321700	29.233319	-2.491683E-6	20.844458
2653.745281	-3.013800	2.768400	-8.342800	29.264506	-2.524686E-6	20.854075
2654.746377	-2.993500	2.765300	-8.277200	29.279458	-3.976793E-6	20.850178
2655.749665	-3.020800	2.762800	-8.345100	29.277185	-2.722700E-6	20.846465
2656.745150	-3.006500	2.759600	-8.295700	29.296279	-2.821708E-6	20.858121
2657.746259	-3.003400	2.756900	-8.279000	29.269437	-5.692919E-6	20.869949
2658.746781	-3.021700	2.752800	-8.317100	29.315201	-4.801854E-6	20.869604
2659.747017	-2.976200	2.751400	-8.188000	29.322405	-5.791927E-6	20.853157
2660.746912	-3.030400	2.746500	-8.321600	29.341474	-2.425679E-6	20.854832
2661.747804	-3.018800	2.744400	-8.283600	29.405229	-2.656696E-6	20.839432
2662.751000	-3.025400	2.738500	-8.283800	29.507338	-3.448754E-6	20.856531
2663.749236	-3.040700	2.737300	-8.322300	29.552872	-2.590691E-6	20.861654
2664.748953	-3.000000	2.733600	-8.199400	29.538511	-4.471829E-6	20.848126
2665.749384	-3.006900	2.731400	-8.212000	29.483672	-4.504832E-6	20.860651
2666.755318	-3.013900	2.727100	-8.217900	29.452136	-3.976793E-6	20.863002
2667.750725	-2.992200	2.723800	-8.148200	29.509329	-3.745776E-6	20.844314
2668.749831	-3.001200	2.720300	-8.163400	29.545028	-2.887713E-6	20.867023
2669.754498	-2.957700	2.716600	-8.034200	29.553079	-2.326671E-6	20.842423
2670.750153	-2.988700	2.713400	-8.107900	29.596254	-2.722700E-6	20.844221
2671.752517	-2.989000	2.708900	-8.095700	29.679105	-5.115377E-7	20.875113
2672.751236	-2.994400	2.704800	-8.098400	29.735663	-9.735717E-7	20.870969
2673.750805	-3.012800	2.699400	-8.132100	29.735693	-2.029649E-6	20.864362
2674.752556	-3.003200	2.696800	-8.098200	29.696988	-5.197883E-6	20.877495
2675.751565	-2.988500	2.693000	-8.047700	29.634876	-3.448754E-6	20.854707
2676.751596	-2.977900	2.688800	-8.006200	29.685059	-1.765630E-6	20.877797
2677.751375	-2.982400	2.685800	-8.009700	29.728058	-2.953718E-6	20.870414
2678.751595	-2.987000	2.680300	-8.005700	29.683697	-5.197883E-6	20.869786
2679.754309	-2.979700	2.677900	-7.978800	29.663357	-4.273815E-6	20.869194
2680.751958	-2.997200	2.671700	-8.006900	29.693732	-3.118730E-6	20.859989
2681.758359	-3.002000	2.668200	-8.009200	29.744994	-2.788705E-6	20.871842
2682.754250	-2.953300	2.663900	-7.866500	29.672867	-3.019722E-6	20.865032
2683.752821	-2.981400	2.659500	-7.927300	29.712574	-3.316744E-6	20.853381
2684.757590	-2.979800	2.654200	-7.908100	29.714931	-1.996647E-6	20.875197
2685.754169	-3.018800	2.647800	-7.991400	29.755449	-1.072579E-6	20.863892
2686.752436	-3.018000	2.643900	-7.978200	29.816045	-3.448754E-6	20.878047
2687.759160	-3.005300	2.640400	-7.932900	29.887618	-3.943790E-6	20.851121
2688.754433	-2.979300	2.635700	-7.851500	29.912325	-3.415752E-6	20.849956
2689.754558	-2.965700	2.629800	-7.797900	30.000641	-2.359674E-6	20.829015
2690.758032	-2.980900	2.624000	-7.820500	30.021657	-3.250739E-6	20.855424
2691.754295	-2.989900	2.619600	-7.831800	29.968009	-3.118730E-6	20.856323
2692.756201	-2.973700	2.615700	-7.777200	29.909461	-2.029649E-6	20.836163
2693.756357	-2.992700	2.610200	-7.810400	29.856100	-1.369601E-6	20.855849
2694.756342	-3.027200	2.601900	-7.875600	29.877291	-2.557688E-6	20.838811
2695.755519	-3.005300	2.597900	-7.806500	29.778197	-2.821708E-6	20.832302
2696.755442	-2.999400	2.591900	-7.773500	29.815079	-4.372822E-6	20.826341
2697.754388	-2.994700	2.588400	-7.750600	29.830572	-1.303596E-6	20.851920
2698.756153	-3.024400	2.581200	-7.805400	29.763179	-2.623693E-6	20.836599
2699.755426	-3.011200	2.573900	-7.749700	29.760357	-3.118730E-6	20.844660
2700.754473	-3.001500	2.569800	-7.712400	29.800726	-1.072579E-6	20.856913
2701.762758	-2.988800	2.565100	-7.665300	29.862108	-1.303596E-6	20.833459
2702.756161	-2.991200	2.558600	-7.651800	29.849613	-2.095654E-6	20.841248
2703.759899	-3.016000	2.551500	-7.693300	29.899780	-1.171586E-6	20.833040
2704.760273	-2.973200	2.546700	-7.570800	29.977460	-9.075668E-7	20.825552
2705.757834	-2.996300	2.538800	-7.606500	29.934007	-1.105581E-6	20.843372
2706.759021	-3.018200	2.531700	-7.640400	29.884171	-1.963645E-6	20.845274
2707.763747	-3.016100	2.526400	-7.619300	29.910302	-1.138584E-6	20.853606
2708.760050	-3.008100	2.519700	-7.578200	29.961749	-1.963645E-6	20.829622
2709.759574	-2.980600	2.513000	-7.489600	30.037005	8.250607E-8	20.846721
2710.760897	-3.032600	2.507400	-7.602400	30.096292	-3.877786E-6	20.833021
2711.763058	-3.003700	2.502500	-7.516200	30.099564	7.425547E-7	20.839166
2712.761923	-3.026800	2.496800	-7.556700	30.047599	-1.402603E-6	20.827060
