LabVIEW Measurement	
Writer_Version	2
Reader_Version	2
Separator	Tab
Decimal_Separator	.
Multi_Headings	No
X_Columns	One
Time_Pref	Absolute
Operator	admin
Description	Clolumns are: time, Current, Voltage, Power, Battery Temp, and Chamber Temp
Date	2024/08/16
Time	13:07:17.8513970375061035156
***End_of_Header***	
	
Channels	6						
Samples	1	1	1	1	1	1	
Date	2024/09/02	2024/09/02	2024/09/02	2024/09/02	2024/09/02	2024/09/02	
Time	05:26:08.2799696922302246094	05:26:08.2909646034240722656	05:26:08.2949662208557128906	05:26:08.2544207572937011719	05:26:08.2544207572937011719	05:26:08.2544207572937011719	
X_Dimension	Time	Time	Time	Time	Time	Time	
X0	0.0000000000000000E+0	0.0000000000000000E+0	0.0000000000000000E+0	0.0000000000000000E+0	0.0000000000000000E+0	0.0000000000000000E+0	
Delta_X	1.000000	1.000000	1.000000	1.000000	1.000000	1.000000	
***End_of_Header***							
X_Value	Untitled	Untitled 1	Untitled 2	Untitled 3	Untitled 4	Untitled 5	Comment
0.000000	0.034627	4.091800	0.141790	20.837223	0.000467	20.849551
1.007061	-2.992200	3.928400	-11.754000	20.834656	0.000468	20.849828
2.002441	-3.000500	3.921000	-11.764000	20.833960	0.000466	20.855770
3.010461	-3.024600	3.917200	-11.846000	20.832538	0.000464	20.842969
4.012808	-2.983600	3.914200	-11.678000	20.840845	0.000466	20.848431
5.007815	-3.005300	3.910900	-11.753000	20.876486	0.000464	20.862736
6.004446	-2.987300	3.908200	-11.674000	20.847685	0.000462	20.868073
7.016228	-3.018300	3.905200	-11.786000	20.869646	0.000462	20.848785
8.003893	-3.006800	3.904300	-11.738000	20.877460	0.000462	20.867977
9.012451	-2.985900	3.902500	-11.652000	20.866731	0.000460	20.855352
10.006025	-3.034200	3.900000	-11.833000	20.892227	0.000461	20.876581
11.015248	-3.003000	3.898800	-11.707000	20.906779	0.000460	20.865531
12.003558	-3.002300	3.899200	-11.705000	20.911590	0.000460	20.889781
13.005390	-2.991400	3.898000	-11.659000	20.920553	0.000460	20.857496
14.013552	-3.001500	3.896000	-11.692000	20.929505	0.000458	20.871189
15.003471	-3.000700	3.893700	-11.683000	20.926439	0.000458	20.852003
16.005540	-3.013100	3.893700	-11.731000	20.931603	0.000458	20.876133
17.023022	-2.975600	3.891200	-11.578000	20.953835	0.000459	20.869444
18.007278	-3.010100	3.891600	-11.713000	20.946048	0.000458	20.870665
19.005810	-2.993200	3.890400	-11.644000	20.976390	0.000458	20.879673
20.018714	-3.012200	3.889700	-11.716000	20.970473	0.000456	20.885609
21.006914	-2.979000	3.889000	-11.585000	20.988009	0.000457	20.878018
22.008148	-3.009800	3.887400	-11.699000	21.013861	0.000455	20.881115
23.011874	-2.995700	3.888200	-11.647000	20.999962	0.000458	20.871007
24.008797	-3.005900	3.886800	-11.682000	21.024234	0.000455	20.888645
25.007415	-2.988500	3.886500	-11.614000	21.008122	0.000455	20.882961
26.019881	-2.989600	3.885000	-11.613000	21.032248	0.000458	20.889074
27.009093	-3.022700	3.883200	-11.737000	21.014778	0.000454	20.897678
28.015145	-3.003400	3.883000	-11.662000	21.031648	0.000452	20.879466
29.005761	-2.993200	3.884300	-11.625000	21.048094	0.000454	20.883587
30.011108	-3.001500	3.882700	-11.653000	21.063959	0.000452	20.867214
31.008594	-2.987400	3.882100	-11.597000	21.077479	0.000453	20.876469
32.012993	-3.007300	3.882300	-11.674000	21.089311	0.000452	20.895889
33.013331	-3.013800	3.881200	-11.697000	21.078876	0.000452	20.879763
34.015926	-2.991800	3.881500	-11.611000	21.096472	0.000453	20.876500
35.007189	-2.998900	3.880200	-11.635000	21.115856	0.000452	20.866967
36.012009	-2.978900	3.880200	-11.558000	21.122442	0.000452	20.871658
37.008829	-3.001500	3.880800	-11.648000	21.100390	0.000452	20.877101
38.010965	-2.994400	3.880000	-11.618000	21.140359	0.000451	20.876304
39.008521	-3.015900	3.879100	-11.698000	21.140889	0.000450	20.864033
40.012457	-2.993600	3.879600	-11.613000	21.163914	0.000450	20.867624
41.015052	-3.007600	3.878100	-11.663000	21.171372	0.000452	20.869868
42.013170	-2.984700	3.877500	-11.573000	21.162416	0.000450	20.865651
43.027814	-3.006200	3.877500	-11.656000	21.168331	0.000451	20.872042
44.022127	-2.971100	3.877000	-11.518000	21.185805	0.000449	20.878141
45.020103	-3.009200	3.876400	-11.664000	21.185426	0.000451	20.855005
46.020961	-2.996700	3.877000	-11.618000	21.193041	0.000450	20.864044
47.013477	-2.998300	3.876800	-11.623000	21.234081	0.000450	20.844882
48.018031	-2.988500	3.875200	-11.580000	21.225019	0.000449	20.864740
49.026044	-3.012900	3.875200	-11.674000	21.235458	0.000448	20.870914
50.023207	-2.997200	3.875100	-11.613000	21.245664	0.000451	20.844141
51.025936	-3.004500	3.875400	-11.643000	21.245644	0.000449	20.873044
52.012056	-3.017900	3.874300	-11.692000	21.247293	0.000452	20.849564
53.015713	-3.003900	3.874400	-11.638000	21.249340	0.000452	20.880534
54.012330	-3.004400	3.875100	-11.641000	21.271168	0.000447	20.860646
55.022613	-3.011600	3.874000	-11.666000	21.273588	0.000446	20.848843
56.014526	-3.025100	3.873400	-11.717000	21.280501	0.000448	20.862397
57.010061	-3.009200	3.873700	-11.656000	21.303358	0.000450	20.856340
58.016486	-2.964400	3.873400	-11.481000	21.301790	0.000449	20.861409
59.011193	-3.027200	3.872900	-11.723000	21.294737	0.000447	20.841552
60.019795	-2.968400	3.873400	-11.496000	21.309998	0.000446	20.852078
61.031229	-2.987200	3.873500	-11.571000	21.310181	0.000448	20.867433
62.014150	-3.011200	3.871300	-11.656000	21.341284	0.000446	20.858722
63.026200	-2.994100	3.873100	-11.595000	21.362142	0.000446	20.854460
64.016171	-3.002900	3.872200	-11.627000	21.371273	0.000448	20.845578
65.017529	-3.014600	3.871600	-11.670000	21.365541	0.000447	20.876825
66.020723	-3.009400	3.871900	-11.651000	21.348284	0.000446	20.854819
67.020164	-3.008200	3.870700	-11.642000	21.377420	0.000446	20.858365
68.022461	-3.017600	3.871300	-11.680000	21.382456	0.000446	20.846809
69.025951	-3.005500	3.869600	-11.629000	21.403163	0.000446	20.871792
70.016066	-2.978300	3.870900	-11.527000	21.400375	0.000448	20.856202
71.020043	-2.994800	3.871600	-11.594000	21.404767	0.000446	20.862966
72.020853	-3.003100	3.870700	-11.623000	21.425971	0.000446	20.844355
73.030204	-3.012100	3.869900	-11.656000	21.410857	0.000446	20.853888
74.019981	-3.014000	3.869900	-11.663000	21.445079	0.000446	20.860627
75.020978	-3.006700	3.869100	-11.632000	21.469101	0.000447	20.849102
76.024949	-3.013000	3.869800	-11.659000	21.462865	0.000447	20.833854
77.022559	-2.967500	3.871000	-11.485000	21.464337	0.000449	20.856662
78.028365	-2.972600	3.871300	-11.507000	21.482748	0.000446	20.846161
79.025374	-2.970400	3.870900	-11.498000	21.494424	0.000447	20.854051
80.029290	-2.974100	3.869400	-11.507000	21.492528	0.000444	20.824180
81.025913	-2.988100	3.869900	-11.562000	21.483828	0.000447	20.830647
82.023693	-2.999000	3.868800	-11.602000	21.498492	0.000449	20.822087
83.021850	-2.996000	3.870200	-11.595000	21.522236	0.000447	20.821663
84.020642	-2.992100	3.868400	-11.574000	21.521218	0.000448	20.848145
85.022096	-2.992600	3.868000	-11.574000	21.538997	0.000447	20.846970
86.023086	-3.010800	3.868800	-11.648000	21.541038	0.000446	20.852805
87.023620	-2.996600	3.867300	-11.586000	21.558899	0.000448	20.845547
88.024971	-2.998100	3.868300	-11.596000	21.593489	0.000446	20.839858
89.032364	-2.994400	3.867000	-11.578000	21.571535	0.000449	20.879053
90.029473	-3.015100	3.867100	-11.659000	21.588100	0.000448	20.842051
91.027424	-2.985900	3.867400	-11.547000	21.598645	0.000447	20.840276
92.028898	-2.991600	3.867500	-11.568000	21.586603	0.000449	20.857148
93.034522	-3.007800	3.866500	-11.629000	21.583603	0.000448	20.842293
94.024673	-2.986800	3.866400	-11.547000	21.609397	0.000447	20.851509
95.026714	-3.007800	3.866400	-11.628000	21.600218	0.000448	20.828099
96.028534	-3.004000	3.866800	-11.615000	21.612310	0.000448	20.846838
97.031506	-2.980600	3.867500	-11.527000	21.626777	0.000449	20.846142
98.027955	-3.017200	3.865300	-11.661000	21.618823	0.000448	20.827277
99.030736	-2.993800	3.865900	-11.573000	21.638919	0.000450	20.831741
100.029990	-2.970100	3.866400	-11.482000	21.644156	0.000450	20.854525
101.033184	-2.998400	3.864500	-11.587000	21.650986	0.000448	20.840497
102.032391	-3.009400	3.865100	-11.631000	21.646368	0.000448	20.829713
103.029245	-3.006000	3.864600	-11.616000	21.659217	0.000447	20.845889
104.029445	-3.013000	3.863800	-11.641000	21.699534	0.000450	20.832184
105.036872	-2.996000	3.864600	-11.577000	21.693577	0.000450	20.833335
106.033983	-2.990800	3.864100	-11.556000	21.705769	0.000451	20.832734
107.031693	-3.018100	3.864800	-11.662000	21.706616	0.000450	20.840693
108.029493	-3.017000	3.863900	-11.656000	21.707936	0.000450	20.833006
109.040195	-2.998300	3.863600	-11.583000	21.730304	0.000452	20.827892
110.028729	-3.004700	3.864900	-11.612000	21.745193	0.000450	20.838525
111.031900	-3.022800	3.863800	-11.678000	21.741125	0.000450	20.843463
112.033226	-3.008400	3.863600	-11.622000	21.751573	0.000450	20.823574
113.027300	-2.991200	3.864700	-11.559000	21.762545	0.000452	20.837400
114.047055	-3.005900	3.863200	-11.610000	21.743292	0.000453	20.821924
115.031194	-3.000600	3.864400	-11.595000	21.775059	0.000453	20.833803
116.034873	-2.997400	3.862800	-11.577000	21.771123	0.000451	20.847407
117.041639	-3.018400	3.862700	-11.658000	21.785860	0.000454	20.842716
118.030269	-3.005600	3.863600	-11.611000	21.800692	0.000454	20.838121
119.036225	-3.004700	3.863300	-11.607000	21.808575	0.000454	20.836053
120.035219	-3.004600	3.862700	-11.605000	21.821915	0.000453	20.823801
121.034811	-2.994700	3.862400	-11.566000	21.821346	0.000454	20.814697
122.035208	-2.982300	3.862800	-11.519000	21.810324	0.000452	20.818364
123.036345	-3.002500	3.861200	-11.590000	21.836612	0.000453	20.834718
124.037004	-3.021200	3.860400	-11.662000	21.821074	0.000453	20.822485
125.040833	-3.000000	3.860700	-11.581000	21.826397	0.000454	20.839193
126.033494	-3.005100	3.860000	-11.598000	21.874307	0.000455	20.835464
127.037274	-2.975200	3.861500	-11.488000	21.861674	0.000454	20.835147
128.034886	-3.002700	3.860700	-11.591000	21.888827	0.000454	20.818230
129.033478	-3.007700	3.859900	-11.608000	21.897429	0.000454	20.823521
130.039093	-2.991500	3.861200	-11.550000	21.893589	0.000455	20.828686
131.037849	-3.014500	3.860400	-11.636000	21.903119	0.000455	20.852923
132.043095	-3.024900	3.860200	-11.675000	21.908058	0.000456	20.832737
133.039702	-2.999800	3.861200	-11.581000	21.915991	0.000455	20.832142
134.037491	-2.991500	3.859800	-11.546000	21.909435	0.000456	20.824158
135.039385	-2.996400	3.861700	-11.570000	21.943748	0.000456	20.844279
136.042284	-2.999100	3.861300	-11.579000	21.945965	0.000456	20.831326
137.036630	-2.995600	3.860800	-11.565000	21.972762	0.000458	20.813581
138.042526	-3.009300	3.860600	-11.617000	21.967078	0.000456	20.805046
139.043520	-3.009700	3.860100	-11.617000	21.939958	0.000458	20.807770
140.047393	-3.004400	3.859600	-11.595000	21.988847	0.000459	20.834424
141.037886	-3.003000	3.859600	-11.589000	21.987376	0.000456	20.823468
142.036651	-3.001700	3.859000	-11.582000	21.983018	0.000455	20.817683
143.037112	-3.004400	3.860300	-11.596000	21.986701	0.000458	20.851714
144.035086	-3.007300	3.858000	-11.601000	22.010339	0.000458	20.837445
145.038546	-3.015500	3.856400	-11.628000	22.017413	0.000459	20.833147
146.045805	-3.019600	3.858400	-11.650000	22.021555	0.000459	20.828285
147.041203	-3.022800	3.858100	-11.661000	22.019901	0.000459	20.810035
148.047085	-3.010700	3.857300	-11.612000	22.067946	0.000461	20.841061
149.043974	-2.999200	3.858000	-11.570000	22.067865	0.000459	20.842402
150.040480	-3.024300	3.856300	-11.662000	22.049867	0.000459	20.834816
151.047569	-3.001500	3.857400	-11.577000	22.062958	0.000459	20.822792
152.037991	-2.973800	3.857800	-11.471000	22.050215	0.000460	20.841328
153.048306	-2.976900	3.858300	-11.485000	22.092292	0.000463	20.817545
154.045162	-3.001700	3.857000	-11.576000	22.107548	0.000459	20.815750
155.040105	-3.020700	3.856300	-11.647000	22.107492	0.000460	20.819486
156.046133	-2.985800	3.857800	-11.518000	22.102232	0.000462	20.807108
157.047801	-3.004100	3.858500	-11.590000	22.123842	0.000462	20.803138
158.039990	-3.010000	3.856100	-11.606000	22.104594	0.000460	20.810422
159.046819	-3.003700	3.856500	-11.583000	22.129614	0.000462	20.837840
160.043885	-3.028800	3.856200	-11.678000	22.141687	0.000463	20.820056
161.043254	-3.000700	3.855100	-11.567000	22.160651	0.000460	20.829558
162.051115	-3.013200	3.855400	-11.616000	22.145067	0.000462	20.831974
163.052279	-3.016300	3.854300	-11.625000	22.148982	0.000462	20.808393
164.058972	-2.965200	3.856900	-11.435000	22.158650	0.000462	20.831822
165.053294	-2.981100	3.855600	-11.492000	22.170363	0.000461	20.818894
166.057260	-2.991800	3.854900	-11.532000	22.142573	0.000462	20.805770
167.052376	-3.006600	3.854700	-11.588000	22.157456	0.000464	20.793644
168.044757	-3.007600	3.855100	-11.594000	22.150220	0.000464	20.827651
169.044368	-2.961900	3.855400	-11.418000	22.197528	0.000463	20.804841
170.047505	-2.989600	3.854600	-11.523000	22.210023	0.000464	20.814506
171.048061	-2.995400	3.854400	-11.545000	22.206924	0.000463	20.817093
172.046315	-2.999800	3.854300	-11.561000	22.187407	0.000465	20.807983
173.054355	-3.003800	3.855100	-11.579000	22.211660	0.000466	20.790541
174.046457	-3.007900	3.854300	-11.592000	22.198027	0.000466	20.802970
175.053413	-2.996300	3.852800	-11.544000	22.219856	0.000466	20.818661
176.058534	-2.992000	3.854400	-11.532000	22.224124	0.000467	20.811555
177.054142	-3.027300	3.851400	-11.658000	22.237454	0.000468	20.798823
178.050689	-3.004500	3.853600	-11.578000	22.269263	0.000466	20.813129
179.048470	-2.997100	3.853100	-11.547000	22.255026	0.000467	20.788916
180.055328	-2.990500	3.852400	-11.520000	22.263650	0.000467	20.825527
181.059795	-2.993400	3.852200	-11.530000	22.290889	0.000467	20.794006
182.056839	-2.993400	3.851700	-11.529000	22.286980	0.000469	20.814748
183.058210	-3.003000	3.852600	-11.567000	22.294033	0.000470	20.789567
184.051433	-2.992100	3.851400	-11.524000	22.290194	0.000468	20.811328
185.049918	-2.986800	3.852700	-11.507000	22.324086	0.000469	20.797375
186.052187	-2.990600	3.852100	-11.520000	22.333588	0.000470	20.814476
187.056660	-3.016900	3.851300	-11.617000	22.363369	0.000471	20.800675
188.053306	-3.020400	3.850800	-11.630000	22.367232	0.000470	20.815923
189.052389	-2.999500	3.852000	-11.553000	22.364094	0.000471	20.809462
190.053289	-3.025900	3.849800	-11.648000	22.391930	0.000470	20.794188
191.057969	-2.986800	3.851200	-11.501000	22.362573	0.000471	20.812680
192.065624	-2.978700	3.850500	-11.468000	22.391633	0.000473	20.799106
193.056490	-2.996000	3.850100	-11.534000	22.377725	0.000472	20.801775
194.061297	-3.003600	3.849100	-11.561000	22.369827	0.000472	20.785805
195.054328	-3.001600	3.849600	-11.554000	22.370326	0.000473	20.777769
196.058431	-3.017700	3.848100	-11.611000	22.396620	0.000471	20.796040
197.059387	-3.009300	3.848900	-11.582000	22.403325	0.000472	20.796590
198.056482	-3.030900	3.848000	-11.662000	22.397612	0.000471	20.795136
199.062517	-3.004800	3.848500	-11.562000	22.419468	0.000474	20.799005
200.059673	-3.004100	3.849300	-11.563000	22.430932	0.000474	20.782037
201.059517	-2.996600	3.848700	-11.531000	22.421096	0.000476	20.806325
202.061018	-2.994400	3.849000	-11.524000	22.410850	0.000473	20.803177
203.061403	-3.006500	3.847800	-11.568000	22.435975	0.000475	20.787087
204.060190	-3.009500	3.848800	-11.582000	22.445767	0.000476	20.790255
205.062862	-2.997200	3.849000	-11.536000	22.437415	0.000478	20.803702
206.061629	-3.000000	3.848000	-11.543000	22.462565	0.000474	20.786214
207.060935	-2.991400	3.847900	-11.509000	22.454516	0.000476	20.802336
208.077521	-2.997500	3.846400	-11.528000	22.478159	0.000476	20.793296
209.068485	-2.985900	3.848000	-11.489000	22.452964	0.000476	20.810264
210.064206	-2.985000	3.848100	-11.485000	22.483487	0.000475	20.797210
211.062385	-2.999200	3.848000	-11.540000	22.456152	0.000476	20.794017
212.072331	-3.018300	3.847300	-11.611000	22.483039	0.000477	20.808615
213.069200	-2.999500	3.846100	-11.536000	22.509849	0.000476	20.777618
214.066110	-2.992100	3.847100	-11.509000	22.515682	0.000477	20.798158
215.063340	-2.991800	3.846600	-11.507000	22.531003	0.000478	20.783630
216.073654	-2.997800	3.845400	-11.527000	22.546203	0.000478	20.790319
217.071686	-2.999100	3.845600	-11.532000	22.538805	0.000480	20.777694
218.073216	-3.004700	3.845000	-11.552000	22.546399	0.000480	20.791938
219.063251	-3.022100	3.844900	-11.618000	22.553273	0.000480	20.800245
220.071210	-2.988700	3.845100	-11.491000	22.557464	0.000478	20.774097
221.064913	-2.975900	3.844900	-11.441000	22.535087	0.000479	20.785824
222.068179	-3.010800	3.844600	-11.574000	22.558859	0.000478	20.796357
223.072953	-3.001400	3.844100	-11.537000	22.568574	0.000482	20.798500
224.072110	-3.021200	3.843600	-11.611000	22.576925	0.000482	20.780785
225.069085	-3.004900	3.844300	-11.551000	22.618806	0.000481	20.790964
226.072489	-2.992800	3.843600	-11.502000	22.609565	0.000482	20.796881
227.069474	-2.988900	3.843200	-11.486000	22.609319	0.000483	20.802799
228.069365	-2.999600	3.844400	-11.531000	22.600848	0.000482	20.756381
229.071370	-2.985700	3.843600	-11.474000	22.620327	0.000483	20.776366
230.070810	-2.991000	3.843400	-11.494000	22.620226	0.000482	20.778162
231.076140	-3.007800	3.840900	-11.551000	22.633683	0.000482	20.779312
232.076570	-2.994600	3.844000	-11.510000	22.624437	0.000483	20.759619
233.072194	-2.974900	3.843100	-11.431000	22.657277	0.000485	20.786349
234.083317	-3.012100	3.842600	-11.572000	22.660238	0.000483	20.775564
235.072865	-2.983700	3.841900	-11.462000	22.678302	0.000486	20.784175
236.074439	-2.991700	3.842400	-11.494000	22.689209	0.000486	20.765702
237.075349	-2.997800	3.841200	-11.514000	22.711331	0.000487	20.782171
238.074498	-2.993900	3.841000	-11.499000	22.713527	0.000486	20.786268
239.073106	-3.013000	3.841400	-11.573000	22.686892	0.000486	20.766227
240.075725	-3.020300	3.840400	-11.598000	22.698872	0.000485	20.773485
241.073766	-3.003100	3.841200	-11.534000	22.738060	0.000486	20.768642
242.077211	-2.986200	3.840800	-11.468000	22.739802	0.000484	20.763749
243.074374	-3.000300	3.841200	-11.524000	22.731357	0.000486	20.781843
244.077549	-2.990100	3.840400	-11.482000	22.739107	0.000487	20.759734
245.075250	-3.002900	3.839700	-11.529000	22.726447	0.000488	20.767916
246.075876	-2.989000	3.840600	-11.479000	22.722534	0.000486	20.783437
247.091234	-2.982500	3.839900	-11.452000	22.749913	0.000486	20.763446
248.081509	-3.003700	3.839600	-11.532000	22.742510	0.000487	20.780213
249.078043	-3.006800	3.838600	-11.540000	22.740446	0.000490	20.764394
250.082592	-3.017900	3.838100	-11.582000	22.753725	0.000489	20.764420
251.080017	-2.988600	3.839400	-11.474000	22.759702	0.000488	20.769933
252.077584	-2.993400	3.839700	-11.493000	22.768102	0.000490	20.770761
253.080904	-2.996000	3.837800	-11.497000	22.759077	0.000492	20.769307
254.080160	-2.994900	3.838500	-11.495000	22.767855	0.000491	20.770514
255.079949	-3.006100	3.837600	-11.535000	22.794141	0.000493	20.765550
256.078619	-3.004300	3.837100	-11.527000	22.804794	0.000492	20.764843
257.080774	-3.009900	3.837700	-11.549000	22.794759	0.000492	20.745781
258.080368	-2.999600	3.838600	-11.514000	22.792317	0.000492	20.748076
259.082059	-2.994500	3.836100	-11.487000	22.793169	0.000493	20.745610
260.083625	-2.994700	3.837400	-11.491000	22.831261	0.000493	20.745363
261.083769	-2.992500	3.836900	-11.482000	22.810113	0.000494	20.756895
262.084970	-2.991500	3.837200	-11.479000	22.842052	0.000494	20.751432
263.083309	-3.000200	3.835800	-11.508000	22.848955	0.000494	20.749813
264.082719	-2.977300	3.836000	-11.420000	22.872489	0.000495	20.760113
265.082141	-2.995400	3.836300	-11.491000	22.854963	0.000494	20.753935
266.084605	-3.019600	3.836200	-11.583000	22.890233	0.000495	20.755130
267.083744	-2.991900	3.836400	-11.478000	22.874539	0.000493	20.741777
268.086029	-2.993200	3.836100	-11.482000	22.835033	0.000495	20.740607
269.086139	-3.023100	3.833900	-11.589000	22.833266	0.000495	20.753536
270.084619	-3.019100	3.834500	-11.576000	22.890339	0.000496	20.759504
271.088193	-3.012100	3.834000	-11.548000	22.899679	0.000495	20.771232
272.088326	-3.002300	3.834400	-11.510000	22.910368	0.000494	20.748276
273.088850	-3.016400	3.832900	-11.560000	22.916451	0.000494	20.742990
274.085107	-2.980000	3.834600	-11.426000	22.944992	0.000496	20.741713
275.088242	-3.005300	3.833500	-11.520000	22.948381	0.000497	20.749850
276.085695	-2.984800	3.833100	-11.440000	22.913219	0.000498	20.746864
277.084970	-2.997100	3.833200	-11.488000	22.925227	0.000496	20.756050
278.086534	-3.005400	3.834500	-11.523000	22.920968	0.000497	20.745144
279.088826	-3.003800	3.833800	-11.514000	22.918330	0.000500	20.746295
280.086561	-2.996200	3.833700	-11.486000	22.939980	0.000497	20.765615
281.088348	-3.024300	3.831800	-11.588000	22.931688	0.000498	20.744979
282.087214	-3.005400	3.832000	-11.516000	22.960803	0.000499	20.755658
283.085672	-3.009600	3.832300	-11.532000	22.967656	0.000499	20.772007
284.086257	-3.007100	3.832000	-11.522000	22.995406	0.000499	20.740066
285.087337	-2.980700	3.831900	-11.421000	23.011029	0.000497	20.749081
286.091346	-3.001800	3.831200	-11.500000	23.046319	0.000498	20.743189
287.089665	-2.986700	3.830600	-11.440000	23.012253	0.000499	20.749359
288.088327	-3.011700	3.831000	-11.537000	23.023781	0.000501	20.735779
289.091353	-2.986600	3.831800	-11.442000	23.023207	0.000498	20.751800
290.088336	-2.997400	3.830800	-11.481000	23.021345	0.000501	20.777910
291.091341	-3.010000	3.829400	-11.526000	22.999526	0.000500	20.747513
292.090374	-2.989400	3.830900	-11.450000	22.996863	0.000499	20.760492
293.090803	-3.014300	3.829000	-11.541000	23.017831	0.000502	20.756371
294.091748	-3.008900	3.829800	-11.522000	23.018102	0.000503	20.745263
295.090624	-3.002400	3.828500	-11.494000	23.038275	0.000501	20.748405
296.090795	-3.018700	3.828000	-11.555000	23.021812	0.000503	20.765102
297.093965	-2.996700	3.828900	-11.474000	23.024033	0.000504	20.756895
298.092113	-3.001600	3.830000	-11.495000	23.025719	0.000503	20.754791
299.095003	-3.013500	3.827900	-11.533000	23.000593	0.000502	20.740047
300.093010	-3.023800	3.828900	-11.577000	23.013661	0.000503	20.764521
301.094112	-3.017300	3.827500	-11.547000	23.017971	0.000505	20.742286
302.091508	-2.999900	3.828600	-11.485000	23.051026	0.000504	20.745535
303.092736	-2.989000	3.828100	-11.441000	23.049102	0.000505	20.753091
304.093225	-2.990000	3.828200	-11.444000	23.063218	0.000503	20.774347
305.094401	-2.983900	3.827500	-11.419000	23.065502	0.000504	20.772368
306.093674	-3.000700	3.827000	-11.483000	23.078425	0.000505	20.732210
307.096404	-3.002400	3.826800	-11.489000	23.087138	0.000506	20.741890
308.100278	-3.008400	3.826200	-11.510000	23.119341	0.000505	20.764201
309.095461	-3.008500	3.825500	-11.508000	23.113884	0.000507	20.751146
310.099142	-3.008700	3.824800	-11.507000	23.118811	0.000506	20.762248
311.097270	-2.983500	3.826300	-11.415000	23.153177	0.000506	20.758752
312.096840	-2.993200	3.826200	-11.451000	23.147045	0.000506	20.751185
313.095572	-2.980500	3.826100	-11.403000	23.180514	0.000507	20.750110
314.097402	-2.989700	3.825300	-11.435000	23.181626	0.000508	20.749802
315.098494	-2.995400	3.825200	-11.457000	23.184610	0.000508	20.756586
316.099528	-3.004400	3.825500	-11.492000	23.184238	0.000506	20.758584
317.098935	-3.018500	3.824000	-11.541000	23.177085	0.000508	20.758528
318.097092	-3.000200	3.824100	-11.472000	23.179148	0.000509	20.766760
319.098264	-3.008400	3.824400	-11.504000	23.173042	0.000507	20.755899
320.099106	-2.983400	3.824500	-11.409000	23.182208	0.000507	20.765085
321.100560	-2.991700	3.823200	-11.437000	23.206308	0.000507	20.747984
322.100105	-2.998200	3.823600	-11.464000	23.194449	0.000509	20.756962
323.100009	-2.996100	3.824200	-11.457000	23.201596	0.000509	20.761280
324.101295	-3.002500	3.823300	-11.479000	23.204626	0.000509	20.756255
325.100709	-3.004000	3.823200	-11.484000	23.192172	0.000509	20.771277
326.104583	-3.008100	3.822700	-11.498000	23.217249	0.000513	20.748991
327.100019	-3.012100	3.822400	-11.513000	23.204393	0.000511	20.739426
328.101493	-3.012600	3.822500	-11.514000	23.211062	0.000512	20.766499
329.100224	-3.007700	3.821800	-11.494000	23.226323	0.000510	20.763300
330.103586	-2.999600	3.822700	-11.466000	23.252270	0.000510	20.752318
331.103691	-3.008200	3.820500	-11.492000	23.250467	0.000511	20.750512
332.099910	-3.001900	3.821300	-11.470000	23.255576	0.000510	20.749942
333.102227	-3.009200	3.820400	-11.495000	23.261842	0.000512	20.753850
334.101552	-3.018300	3.819700	-11.529000	23.271752	0.000513	20.768050
335.100033	-3.018600	3.818900	-11.527000	23.292816	0.000514	20.762133
336.104541	-2.994500	3.819300	-11.435000	23.288829	0.000514	20.767147
337.100190	-2.969800	3.820900	-11.347000	23.305041	0.000513	20.760635
338.101694	-2.968000	3.821900	-11.342000	23.291567	0.000515	20.749027
339.101746	-3.002000	3.820600	-11.468000	23.293827	0.000514	20.752714
340.101485	-2.991100	3.819000	-11.422000	23.310758	0.000513	20.795288
341.102225	-2.983200	3.819800	-11.395000	23.327568	0.000515	20.759030
342.100544	-3.005500	3.819400	-11.478000	23.302147	0.000515	20.774804
343.101912	-2.990600	3.819100	-11.421000	23.296590	0.000516	20.764019
344.102058	-3.012300	3.817900	-11.499000	23.304879	0.000516	20.759524
345.102338	-3.011300	3.817600	-11.494000	23.330256	0.000516	20.788277
346.103145	-3.004900	3.818200	-11.472000	23.359089	0.000515	20.769285
347.104999	-3.010900	3.817200	-11.492000	23.349974	0.000519	20.768684
348.105041	-3.003300	3.816900	-11.463000	23.372310	0.000520	20.745551
349.106053	-3.004600	3.817100	-11.468000	23.377937	0.000518	20.790546
350.106085	-2.990000	3.817300	-11.413000	23.385008	0.000517	20.777719
351.105804	-3.015600	3.816500	-11.508000	23.360981	0.000520	20.765492
352.107334	-2.988400	3.816200	-11.404000	23.376170	0.000517	20.767913
353.106423	-2.981100	3.816700	-11.378000	23.363000	0.000517	20.795016
354.106600	-3.000200	3.815900	-11.447000	23.391334	0.000517	20.787379
355.109379	-2.985400	3.817500	-11.396000	23.393674	0.000517	20.785457
356.106637	-2.984200	3.816600	-11.388000	23.390217	0.000519	20.775828
357.109163	-2.989500	3.815300	-11.405000	23.373836	0.000519	20.791178
358.111021	-3.003700	3.815500	-11.460000	23.405898	0.000520	20.780165
359.108593	-2.991800	3.815000	-11.412000	23.424398	0.000520	20.773578
360.118018	-3.002400	3.814300	-11.451000	23.427539	0.000520	20.772932
361.111694	-3.011800	3.813600	-11.485000	23.447205	0.000521	20.786007
362.109218	-2.984900	3.814600	-11.385000	23.438192	0.000519	20.769386
363.111979	-2.977700	3.814100	-11.356000	23.437039	0.000520	20.796205
364.109695	-2.994200	3.813100	-11.416000	23.449520	0.000522	20.788327
365.110116	-2.992100	3.814100	-11.412000	23.433355	0.000521	20.787772
366.111158	-2.989100	3.813600	-11.399000	23.420558	0.000524	20.781582
367.110162	-3.015600	3.812300	-11.495000	23.448569	0.000521	20.793537
368.109647	-3.004500	3.812000	-11.453000	23.435998	0.000521	20.782359
369.108958	-2.998900	3.812000	-11.431000	23.432057	0.000521	20.779832
370.111765	-3.003900	3.811300	-11.448000	23.448991	0.000521	20.793961
371.108878	-3.007100	3.811500	-11.461000	23.459071	0.000521	20.777985
372.108192	-2.980400	3.811700	-11.360000	23.478737	0.000523	20.781103
373.110953	-2.996900	3.810800	-11.420000	23.473855	0.000524	20.785218
374.110245	-3.014200	3.810400	-11.485000	23.496385	0.000523	20.771765
375.109240	-3.007900	3.811000	-11.462000	23.492234	0.000523	20.783252
376.110165	-3.017600	3.809500	-11.495000	23.521928	0.000525	20.802585
377.112810	-2.997700	3.809700	-11.419000	23.547023	0.000523	20.800240
378.110402	-3.027900	3.809000	-11.532000	23.522476	0.000526	20.779428
379.110982	-2.991200	3.811000	-11.399000	23.521379	0.000525	20.780699
380.110085	-2.999000	3.810200	-11.426000	23.512689	0.000524	20.799962
381.109774	-3.009800	3.810000	-11.467000	23.522572	0.000524	20.777152
382.118515	-3.012000	3.809700	-11.474000	23.529099	0.000524	20.797446
383.109618	-3.009900	3.808300	-11.462000	23.561705	0.000525	20.786035
384.113039	-2.975000	3.809600	-11.333000	23.579483	0.000525	20.807650
385.112743	-2.974500	3.809000	-11.329000	23.589214	0.000525	20.807922
386.111106	-3.008100	3.808000	-11.454000	23.590608	0.000526	20.807422
387.110320	-2.975700	3.807200	-11.328000	23.585456	0.000525	20.807947
388.112389	-3.004600	3.807300	-11.438000	23.607781	0.000525	20.804723
389.112473	-2.980200	3.807700	-11.347000	23.585828	0.000527	20.795992
390.114039	-2.983000	3.807300	-11.356000	23.631752	0.000527	20.801727
391.114191	-3.007000	3.806700	-11.446000	23.631701	0.000526	20.819694
392.115114	-2.978900	3.808500	-11.344000	23.618755	0.000529	20.809086
393.117209	-3.006100	3.807600	-11.445000	23.594804	0.000528	20.795033
394.116754	-2.991200	3.807400	-11.387000	23.609793	0.000528	20.812905
395.117445	-2.988000	3.805500	-11.369000	23.599287	0.000529	20.810433
396.113358	-2.998400	3.806600	-11.413000	23.606628	0.000527	20.807361
397.113320	-3.000400	3.805400	-11.416000	23.609461	0.000529	20.823950
398.113688	-2.992500	3.806400	-11.390000	23.611800	0.000529	20.821080
399.112751	-3.001600	3.805500	-11.422000	23.630090	0.000529	20.801009
400.118444	-2.975500	3.805400	-11.322000	23.636219	0.000528	20.782971
401.117606	-3.027800	3.802100	-11.510000	23.658820	0.000527	20.812268
402.114076	-3.021600	3.804500	-11.494000	23.628942	0.000530	20.822618
403.114445	-3.024700	3.803400	-11.503000	23.631609	0.000527	20.808222
404.117980	-3.018000	3.803400	-11.478000	23.647715	0.000530	20.824843
405.113733	-3.018200	3.802200	-11.475000	23.671856	0.000530	20.811586
406.117393	-3.011200	3.803200	-11.451000	23.670840	0.000531	20.815783
407.115341	-3.007600	3.801700	-11.433000	23.669421	0.000530	20.809145
408.114790	-2.982800	3.803800	-11.344000	23.662327	0.000529	20.809620
409.114613	-3.015300	3.802300	-11.465000	23.674839	0.000530	20.817896
410.128212	-3.015800	3.804100	-11.471000	23.717384	0.000529	20.836842
411.117529	-3.002000	3.802300	-11.414000	23.705606	0.000531	20.812706
412.116669	-3.020900	3.801000	-11.482000	23.752078	0.000532	20.820892
413.116889	-3.019100	3.801200	-11.475000	23.756707	0.000532	20.825059
414.116636	-2.994000	3.800900	-11.379000	23.781525	0.000532	20.807268
415.116077	-2.984200	3.801800	-11.345000	23.753693	0.000532	20.825356
416.115993	-3.004900	3.800900	-11.421000	23.763473	0.000531	20.812877
417.118528	-2.982000	3.802500	-11.338000	23.751429	0.000531	20.822138
418.116623	-3.000300	3.800300	-11.401000	23.766638	0.000532	20.822214
419.116377	-3.011000	3.798400	-11.436000	23.774003	0.000532	20.837184
420.118898	-2.994200	3.800500	-11.378000	23.766733	0.000533	20.821361
421.116457	-2.963600	3.800300	-11.262000	23.767578	0.000534	20.834536
422.120262	-2.990900	3.800000	-11.365000	23.795827	0.000535	20.817341
423.116765	-3.017300	3.799500	-11.463000	23.818772	0.000534	20.828019
424.116260	-2.986700	3.799100	-11.346000	23.822882	0.000534	20.830244
425.117975	-2.983300	3.799900	-11.335000	23.790051	0.000533	20.826248
426.116302	-3.002500	3.798300	-11.403000	23.789301	0.000534	20.856315
427.119084	-3.014200	3.797700	-11.447000	23.800525	0.000534	20.820155
428.119721	-3.005500	3.798000	-11.414000	23.814611	0.000535	20.827166
429.119688	-2.982200	3.798200	-11.326000	23.839820	0.000534	20.845803
430.120701	-3.006800	3.797500	-11.417000	23.863091	0.000536	20.836896
431.121906	-3.004600	3.796900	-11.407000	23.844271	0.000534	20.836043
432.120785	-3.012700	3.796000	-11.435000	23.834170	0.000536	20.848673
433.124842	-3.006300	3.796000	-11.411000	23.815823	0.000536	20.840709
434.121297	-2.996700	3.796000	-11.374000	23.837349	0.000536	20.839533
435.127257	-3.014400	3.795000	-11.438000	23.840262	0.000534	20.828230
436.121421	-3.012600	3.795500	-11.434000	23.843049	0.000535	20.844300
437.122218	-3.009900	3.796800	-11.427000	23.850016	0.000535	20.845122
438.122510	-2.997900	3.795100	-11.376000	23.873041	0.000537	20.857303
439.123189	-3.018300	3.795600	-11.456000	23.879188	0.000536	20.837864
440.122128	-2.997800	3.794700	-11.374000	23.915668	0.000536	20.845994
441.125707	-2.998300	3.794300	-11.375000	23.927937	0.000535	20.857348
442.122359	-3.003200	3.793600	-11.392000	23.934109	0.000537	20.848365
443.121245	-2.979200	3.794500	-11.304000	23.933465	0.000538	20.830651
444.132638	-2.994200	3.794300	-11.359000	23.913631	0.000538	20.847745
445.123434	-3.001400	3.792600	-11.382000	23.920995	0.000537	20.848017
446.131967	-2.997200	3.793300	-11.368000	23.904798	0.000537	20.844103
447.126315	-3.016700	3.792500	-11.440000	23.907188	0.000535	20.848870
448.125249	-3.013800	3.791200	-11.426000	23.909225	0.000538	20.849490
449.127182	-3.000500	3.792500	-11.378000	23.894686	0.000540	20.849611
450.124379	-3.013200	3.791800	-11.424000	23.923712	0.000536	20.851215
451.123773	-2.984400	3.790800	-11.312000	23.940754	0.000538	20.859295
452.125105	-3.011900	3.791600	-11.419000	23.920346	0.000538	20.851633
453.125021	-3.022600	3.791600	-11.459000	23.928063	0.000538	20.877388
454.126785	-3.001500	3.791500	-11.380000	23.947846	0.000537	20.835589
455.127810	-3.053500	3.790000	-11.571000	23.942198	0.000538	20.865484
456.125772	-3.000100	3.790700	-11.372000	23.956730	0.000540	20.867728
457.126697	-3.021000	3.790100	-11.448000	23.965618	0.000537	20.857676
458.125557	-3.019600	3.790100	-11.444000	23.982237	0.000540	20.872444
459.128182	-3.017700	3.789000	-11.433000	23.957479	0.000541	20.847145
460.133629	-3.027200	3.788500	-11.468000	23.959144	0.000540	20.852133
461.126577	-3.005800	3.789200	-11.389000	23.953797	0.000541	20.878064
462.125657	-3.011300	3.788700	-11.408000	23.982534	0.000540	20.873216
463.127163	-2.999000	3.788400	-11.361000	23.987237	0.000540	20.882673
464.128331	-3.005300	3.789000	-11.386000	23.979350	0.000540	20.874765
465.128593	-2.990700	3.788600	-11.330000	23.998092	0.000540	20.869378
466.126618	-2.988700	3.789100	-11.323000	24.006395	0.000541	20.856369
467.132145	-2.980000	3.788700	-11.289000	23.987709	0.000540	20.879354
468.136952	-2.987200	3.787400	-11.313000	24.041433	0.000541	20.879652
469.127433	-3.001400	3.786700	-11.364000	24.020680	0.000541	20.858367
470.128657	-3.025200	3.786500	-11.454000	24.002688	0.000540	20.869720
471.128613	-2.991800	3.785300	-11.324000	24.006843	0.000539	20.868671
472.127029	-2.994300	3.786300	-11.336000	24.043002	0.000541	20.866054
473.129349	-2.994600	3.786700	-11.339000	24.051583	0.000543	20.882718
474.129566	-2.999100	3.786200	-11.355000	24.070791	0.000540	20.862154
475.131114	-2.997500	3.786200	-11.348000	24.086216	0.000540	20.880468
476.126947	-3.004600	3.785700	-11.374000	24.093257	0.000542	20.879944
477.127357	-3.003000	3.786100	-11.369000	24.061329	0.000540	20.874950
478.126323	-3.029500	3.784000	-11.461000	24.059136	0.000542	20.884604
479.129275	-3.001100	3.784800	-11.358000	24.069985	0.000539	20.871303
480.132322	-3.020400	3.783900	-11.428000	24.075513	0.000539	20.891544
481.129970	-3.003600	3.782900	-11.362000	24.067274	0.000544	20.897506
482.127930	-3.006500	3.782900	-11.372000	24.063442	0.000541	20.890818
483.127846	-3.011900	3.783400	-11.394000	24.066720	0.000540	20.883201
484.129672	-3.000100	3.782700	-11.348000	24.062933	0.000542	20.882722
485.128214	-3.018900	3.782300	-11.417000	24.040390	0.000540	20.883821
486.131137	-3.010400	3.782600	-11.387000	24.056812	0.000541	20.885591
487.129946	-3.000500	3.782700	-11.349000	24.064446	0.000540	20.867645
488.129276	-3.008200	3.781400	-11.373000	24.096922	0.000541	20.892153
489.135934	-3.006200	3.780600	-11.365000	24.091671	0.000542	20.890206
490.129732	-3.009200	3.781200	-11.378000	24.060589	0.000542	20.884638
491.138926	-3.014000	3.780600	-11.394000	24.089523	0.000541	20.908439
492.129669	-3.012000	3.781700	-11.390000	24.113394	0.000543	20.896819
493.137573	-3.007000	3.780600	-11.367000	24.108711	0.000542	20.900183
494.132550	-2.990300	3.781100	-11.305000	24.138836	0.000544	20.885353
495.131926	-2.967400	3.780700	-11.217000	24.140179	0.000543	20.880536
496.133379	-2.981100	3.780200	-11.268000	24.123934	0.000542	20.917346
497.141862	-3.011700	3.779400	-11.382000	24.120097	0.000543	20.907808
498.133855	-3.014100	3.779500	-11.390000	24.112577	0.000543	20.893155
499.143200	-2.994400	3.779500	-11.316000	24.147858	0.000542	20.899616
500.136949	-3.007500	3.779700	-11.367000	24.162387	0.000542	20.899016
501.143861	-3.002500	3.778800	-11.344000	24.136512	0.000542	20.908624
502.145306	-3.018200	3.777300	-11.400000	24.144840	0.000544	20.897538
503.141301	-3.013200	3.777400	-11.381000	24.166863	0.000543	20.898290
504.135710	-3.020900	3.778000	-11.413000	24.186088	0.000541	20.894814
505.143848	-2.998700	3.778600	-11.330000	24.180119	0.000542	20.899732
506.139753	-3.018800	3.777300	-11.402000	24.194447	0.000543	20.895137
507.138013	-2.992300	3.778500	-11.306000	24.201437	0.000543	20.918267
508.137514	-3.021000	3.776400	-11.408000	24.226938	0.000545	20.907337
509.138212	-2.967200	3.777000	-11.206000	24.253586	0.000545	20.898980
510.144627	-2.981900	3.775900	-11.259000	24.248753	0.000544	20.894607
511.140264	-2.993500	3.777000	-11.305000	24.248633	0.000544	20.906813
512.141771	-2.968100	3.776700	-11.208000	24.252168	0.000546	20.911307
513.141195	-2.988400	3.776500	-11.285000	24.256895	0.000544	20.913677
514.142097	-2.991700	3.775700	-11.295000	24.285478	0.000544	20.917692
515.138321	-2.996000	3.775500	-11.310000	24.287343	0.000545	20.913400
516.141358	-3.015200	3.775200	-11.382000	24.273157	0.000544	20.932358
517.146255	-2.968900	3.776100	-11.210000	24.297345	0.000545	20.905416
518.143347	-3.007000	3.774100	-11.348000	24.267264	0.000544	20.910802
519.140513	-2.996200	3.774400	-11.308000	24.257021	0.000546	20.911907
520.141900	-3.008300	3.774400	-11.354000	24.263538	0.000547	20.905643
521.143467	-3.001200	3.773200	-11.324000	24.264478	0.000545	20.932661
522.141680	-3.006500	3.773400	-11.344000	24.295832	0.000545	20.905320
523.143567	-2.993100	3.773900	-11.294000	24.325082	0.000546	20.904790
524.148289	-3.011300	3.771500	-11.357000	24.324338	0.000545	20.909733
525.142462	-3.009500	3.771900	-11.350000	24.314090	0.000545	20.910833
526.144494	-3.025500	3.771900	-11.411000	24.324092	0.000547	20.903323
527.145940	-2.992600	3.771500	-11.286000	24.344140	0.000546	20.907312
528.143770	-3.003900	3.771400	-11.328000	24.334295	0.000544	20.914979
529.146173	-3.002300	3.770700	-11.320000	24.322383	0.000544	20.909668
530.141273	-3.013800	3.770300	-11.362000	24.316540	0.000546	20.907126
531.152040	-3.000500	3.771000	-11.314000	24.326340	0.000545	20.907474
532.146671	-2.991500	3.770900	-11.280000	24.318059	0.000547	20.907227
533.144211	-3.002100	3.770200	-11.317000	24.293309	0.000545	20.897100
534.150894	-2.993300	3.769900	-11.284000	24.269604	0.000546	20.885651
535.145300	-2.997200	3.769800	-11.298000	24.302320	0.000546	20.903294
536.143582	-2.990900	3.769700	-11.275000	24.333617	0.000547	20.897706
537.149571	-3.020000	3.767800	-11.378000	24.367529	0.000548	20.884310
538.154703	-3.001100	3.769700	-11.312000	24.374423	0.000546	20.874631
539.146753	-2.996500	3.768600	-11.292000	24.380743	0.000548	20.889979
540.147951	-3.014100	3.767800	-11.356000	24.394204	0.000546	20.893051
541.148373	-2.995000	3.769600	-11.289000	24.402364	0.000545	20.902660
542.146662	-2.982100	3.768800	-11.238000	24.369033	0.000546	20.879181
543.149120	-2.987000	3.767700	-11.252000	24.393093	0.000546	20.895730
544.152009	-2.989200	3.768800	-11.265000	24.379784	0.000545	20.892336
545.152340	-3.008000	3.766800	-11.329000	24.368300	0.000547	20.874653
546.147896	-2.985000	3.767800	-11.246000	24.369270	0.000546	20.904073
547.148262	-2.986700	3.766300	-11.248000	24.391611	0.000547	20.889502
548.148879	-3.012300	3.765500	-11.341000	24.407893	0.000547	20.888766
549.155613	-3.013400	3.766200	-11.347000	24.415645	0.000546	20.873312
550.158422	-3.003000	3.765100	-11.305000	24.398384	0.000547	20.874961
551.155213	-3.002300	3.766100	-11.306000	24.389510	0.000546	20.880283
552.154761	-2.993600	3.765500	-11.271000	24.363942	0.000546	20.889720
553.153133	-2.964400	3.765900	-11.163000	24.378871	0.000548	20.904695
554.155362	-2.999500	3.764500	-11.291000	24.399290	0.000546	20.862120
555.152262	-2.980000	3.764300	-11.216000	24.387977	0.000547	20.864522
556.155138	-2.990300	3.764400	-11.256000	24.410393	0.000547	20.882740
557.152463	-2.995300	3.765400	-11.277000	24.424672	0.000547	20.873359
558.161497	-3.006100	3.762200	-11.309000	24.436563	0.000545	20.866797
559.152534	-2.985800	3.763700	-11.237000	24.423847	0.000547	20.891022
560.151661	-3.014200	3.763500	-11.343000	24.412188	0.000547	20.876955
561.160293	-3.005900	3.761800	-11.307000	24.410669	0.000544	20.875906
562.160582	-2.985000	3.763100	-11.232000	24.401323	0.000548	20.863685
563.163413	-2.972700	3.762400	-11.184000	24.409162	0.000547	20.851162
564.159837	-2.990600	3.762200	-11.251000	24.384680	0.000546	20.863110
565.161845	-2.996300	3.762200	-11.272000	24.373014	0.000546	20.867529
566.153658	-2.985100	3.761200	-11.227000	24.397522	0.000544	20.879786
567.155611	-2.998200	3.761800	-11.277000	24.401725	0.000544	20.875468
568.155186	-3.000600	3.762200	-11.289000	24.429214	0.000544	20.874596
569.157001	-3.000500	3.761300	-11.285000	24.425438	0.000546	20.870334
570.163973	-3.003000	3.761000	-11.293000	24.412853	0.000544	20.852494
571.164357	-3.014800	3.761300	-11.339000	24.417403	0.000545	20.867964
572.157974	-2.983700	3.759500	-11.216000	24.430567	0.000545	20.875953
573.156614	-2.975800	3.758800	-11.184000	24.449944	0.000545	20.871212
574.163282	-3.008300	3.760600	-11.312000	24.462509	0.000546	20.860585
575.162951	-3.009500	3.759200	-11.313000	24.496170	0.000545	20.869700
576.159606	-3.004200	3.759700	-11.294000	24.495415	0.000545	20.864675
577.161161	-3.016700	3.758800	-11.338000	24.493234	0.000543	20.850160
578.162169	-2.983200	3.760100	-11.216000	24.496271	0.000544	20.857474
579.158205	-3.004400	3.757500	-11.288000	24.499680	0.000543	20.871324
580.163544	-2.986200	3.759600	-11.226000	24.511193	0.000547	20.861065
581.159579	-3.009000	3.757200	-11.305000	24.492194	0.000544	20.861443
582.160452	-2.978900	3.758800	-11.197000	24.511771	0.000545	20.861645
583.158517	-3.003600	3.757100	-11.284000	24.504235	0.000545	20.855507
584.158994	-2.993600	3.758100	-11.250000	24.532093	0.000547	20.859749
585.168478	-2.998300	3.755800	-11.260000	24.526970	0.000545	20.848920
586.165229	-2.999200	3.756200	-11.264000	24.520384	0.000545	20.840890
587.159345	-3.001000	3.757100	-11.274000	24.542872	0.000545	20.856814
588.161242	-3.011600	3.756600	-11.312000	24.498117	0.000545	20.860273
589.162279	-3.012500	3.756100	-11.315000	24.505401	0.000542	20.867582
590.172348	-2.979700	3.755200	-11.189000	24.509257	0.000545	20.866709
591.161268	-3.011700	3.754300	-11.305000	24.551790	0.000545	20.853908
592.168668	-2.996600	3.754500	-11.250000	24.535445	0.000545	20.861690
593.165592	-3.002200	3.754000	-11.270000	24.541589	0.000546	20.856475
594.167075	-2.999900	3.754100	-11.261000	24.553227	0.000543	20.837333
595.177170	-2.992300	3.754700	-11.234000	24.547777	0.000543	20.847511
596.164219	-3.009000	3.753600	-11.293000	24.556409	0.000543	20.846689
597.166531	-3.015500	3.754300	-11.321000	24.519573	0.000544	20.851456
598.166510	-2.995100	3.754100	-11.243000	24.523449	0.000544	20.861034
599.165534	-2.991800	3.753600	-11.229000	24.534369	0.000546	20.850654
600.165450	-3.007600	3.753200	-11.286000	24.528094	0.000545	20.851470
601.165098	-3.004600	3.752400	-11.274000	24.555187	0.000544	20.853998
602.167378	-3.004900	3.750900	-11.270000	24.588362	0.000545	20.864524
603.165010	-3.006500	3.751500	-11.278000	24.599829	0.000545	20.840944
604.175290	-2.979600	3.752500	-11.180000	24.595576	0.000544	20.847107
605.169968	-3.006400	3.752200	-11.278000	24.591223	0.000544	20.844636
606.170251	-2.995300	3.752200	-11.237000	24.569902	0.000545	20.860226
607.176067	-3.008100	3.750900	-11.282000	24.588463	0.000545	20.840444
608.164207	-3.024400	3.750700	-11.343000	24.574512	0.000545	20.842094
609.169506	-2.966600	3.752700	-11.132000	24.616318	0.000545	20.848953
610.172814	-2.999700	3.749800	-11.247000	24.594480	0.000543	20.838421
611.169205	-2.999600	3.750800	-11.250000	24.568691	0.000544	20.860908
612.170310	-2.981100	3.750700	-11.180000	24.561155	0.000544	20.848131
613.171611	-2.984800	3.749900	-11.192000	24.599508	0.000547	20.845362
614.167071	-2.982200	3.750200	-11.183000	24.617590	0.000544	20.850704
615.169546	-2.993600	3.749300	-11.223000	24.598965	0.000544	20.858568
616.167299	-2.984400	3.749100	-11.187000	24.604686	0.000546	20.830170
617.167177	-2.999700	3.749200	-11.246000	24.627765	0.000544	20.824405
618.190283	-3.020300	3.747900	-11.319000	24.629384	0.000545	20.849736
619.167624	-2.997200	3.747700	-11.232000	24.598940	0.000544	20.845741
620.169115	-3.024200	3.746300	-11.328000	24.606646	0.000544	20.833085
621.178963	-3.012900	3.747500	-11.290000	24.618893	0.000546	20.844425
622.175683	-3.004300	3.747700	-11.258000	24.630360	0.000544	20.837913
623.173860	-3.027300	3.746100	-11.340000	24.643490	0.000542	20.861045
624.170519	-2.998700	3.746100	-11.232000	24.615781	0.000546	20.849363
625.176946	-2.978900	3.746200	-11.159000	24.607326	0.000545	20.843724
626.175451	-3.002400	3.745000	-11.243000	24.594768	0.000545	20.853883
627.172637	-3.009000	3.746000	-11.270000	24.620462	0.000543	20.836042
628.174128	-3.002400	3.746300	-11.247000	24.588555	0.000543	20.849071
629.172364	-3.001100	3.746200	-11.241000	24.610041	0.000544	20.857827
630.173395	-3.014500	3.744700	-11.288000	24.622629	0.000546	20.833475
631.179341	-2.998900	3.745500	-11.231000	24.633522	0.000546	20.860052
632.174692	-2.999400	3.746300	-11.236000	24.620739	0.000545	20.827785
633.174439	-3.009600	3.744100	-11.267000	24.592008	0.000543	20.858700
634.176980	-2.974600	3.745200	-11.140000	24.594729	0.000544	20.840567
635.174177	-3.004000	3.744000	-11.246000	24.573394	0.000542	20.829118
636.179111	-3.013700	3.744600	-11.284000	24.589682	0.000541	20.846883
637.174837	-3.018700	3.742600	-11.296000	24.593437	0.000542	20.832159
638.174713	-3.000400	3.742900	-11.229000	24.590084	0.000543	20.841597
639.177712	-3.013700	3.743800	-11.282000	24.619382	0.000541	20.827847
640.184591	-3.000000	3.742600	-11.227000	24.649720	0.000541	20.824623
641.178356	-3.001900	3.742000	-11.232000	24.662976	0.000543	20.835080
642.178027	-3.012700	3.742200	-11.274000	24.663448	0.000542	20.816588
643.177705	-3.025600	3.742300	-11.322000	24.710227	0.000542	20.842666
644.178112	-3.018300	3.742200	-11.294000	24.653299	0.000539	20.844335
645.183760	-3.021800	3.740700	-11.302000	24.649116	0.000541	20.840612
646.178748	-2.986600	3.741300	-11.172000	24.660054	0.000540	20.833096
647.183463	-2.990000	3.742300	-11.187000	24.673114	0.000542	20.838615
648.177769	-2.992900	3.742400	-11.200000	24.676220	0.000539	20.826085
649.180037	-2.991700	3.740500	-11.189000	24.677311	0.000541	20.830498
650.179689	-3.000100	3.741500	-11.224000	24.712201	0.000541	20.826630
651.184395	-3.019700	3.739800	-11.292000	24.685484	0.000540	20.836803
652.181221	-2.996000	3.739400	-11.202000	24.646837	0.000541	20.819835
653.182895	-3.001200	3.738800	-11.220000	24.674143	0.000539	20.837751
654.186040	-2.993800	3.739000	-11.193000	24.680406	0.000541	20.827915
655.182718	-2.975400	3.738800	-11.123000	24.659062	0.000540	20.822618
656.183904	-3.009600	3.739000	-11.251000	24.649340	0.000539	20.824716
657.183665	-2.990300	3.739500	-11.182000	24.670894	0.000541	20.814577
658.184395	-3.015600	3.738800	-11.273000	24.650973	0.000539	20.828252
659.184065	-2.997900	3.737300	-11.203000	24.661519	0.000542	20.829351
660.183104	-2.993500	3.738100	-11.189000	24.644905	0.000541	20.839707
661.183732	-3.003200	3.737700	-11.224000	24.663429	0.000541	20.825104
662.185085	-2.990800	3.738000	-11.178000	24.698969	0.000540	20.823782
663.183965	-3.013400	3.737600	-11.262000	24.728781	0.000540	20.836155
664.184018	-2.984600	3.737900	-11.155000	24.742553	0.000540	20.811570
665.184262	-3.001600	3.736500	-11.215000	24.767173	0.000539	20.804508
666.184646	-2.992500	3.736200	-11.180000	24.771722	0.000539	20.813814
667.187716	-3.012000	3.735500	-11.250000	24.755311	0.000540	20.822949
668.189001	-3.023800	3.735700	-11.294000	24.757447	0.000540	20.802808
669.189407	-2.982600	3.736500	-11.143000	24.778688	0.000540	20.826970
670.187107	-3.006000	3.735100	-11.227000	24.806011	0.000539	20.822147
671.187582	-3.027200	3.735200	-11.307000	24.810559	0.000538	20.808694
672.185420	-3.007500	3.733900	-11.229000	24.809122	0.000540	20.811045
673.189543	-3.014900	3.734000	-11.256000	24.767017	0.000538	20.814782
674.188367	-2.997700	3.734500	-11.194000	24.729740	0.000540	20.809143
675.189422	-3.032200	3.735100	-11.324000	24.732455	0.000540	20.805703
676.190151	-3.001800	3.734400	-11.208000	24.728323	0.000540	20.801557
677.192143	-3.019300	3.732900	-11.269000	24.750429	0.000538	20.818999
678.191569	-3.000300	3.733100	-11.199000	24.727926	0.000540	20.806374
679.188649	-2.987300	3.734300	-11.154000	24.730288	0.000536	20.819650
680.192080	-2.985800	3.733800	-11.147000	24.731636	0.000535	20.828114
681.197281	-3.011300	3.732300	-11.239000	24.709328	0.000537	20.820901
682.190587	-3.006300	3.733300	-11.223000	24.721688	0.000537	20.810546
683.191949	-3.004700	3.732000	-11.212000	24.743001	0.000537	20.797320
684.193033	-3.010600	3.732000	-11.235000	24.770229	0.000536	20.799988
685.192942	-3.014000	3.730200	-11.241000	24.778714	0.000537	20.820357
686.198463	-3.011500	3.731200	-11.236000	24.787118	0.000536	20.826420
687.193845	-3.007800	3.732000	-11.224000	24.813103	0.000536	20.802238
688.192603	-2.998200	3.731600	-11.187000	24.828272	0.000535	20.813668
689.194358	-3.015700	3.730000	-11.248000	24.811339	0.000535	20.807580
690.192153	-3.005900	3.730200	-11.212000	24.792049	0.000534	20.811455
691.191400	-2.999100	3.729700	-11.185000	24.799175	0.000534	20.814813
692.192169	-3.013800	3.728100	-11.235000	24.812315	0.000535	20.799550
693.192702	-3.004200	3.730000	-11.204000	24.831685	0.000534	20.829422
694.194209	-3.007000	3.729200	-11.212000	24.823025	0.000535	20.812195
695.196661	-3.008500	3.728700	-11.216000	24.819793	0.000534	20.809426
696.193894	-2.986500	3.730600	-11.140000	24.833620	0.000535	20.825673
697.193595	-2.989000	3.729200	-11.146000	24.844064	0.000534	20.812922
698.193789	-2.989100	3.729300	-11.147000	24.815320	0.000535	20.791187
699.193699	-2.987500	3.727800	-11.136000	24.827277	0.000532	20.790384
700.196282	-2.999300	3.728000	-11.180000	24.815119	0.000534	20.789088
701.194726	-2.999800	3.728100	-11.183000	24.802538	0.000534	20.786894
702.199006	-3.008600	3.727100	-11.212000	24.771973	0.000534	20.810274
703.195172	-2.997300	3.727300	-11.171000	24.804946	0.000532	20.792155
704.195866	-2.996200	3.726100	-11.164000	24.817601	0.000533	20.793950
705.201254	-3.008800	3.726700	-11.212000	24.810816	0.000531	20.808004
706.196336	-3.009600	3.724900	-11.210000	24.819863	0.000532	20.788160
707.194161	-3.007800	3.726600	-11.208000	24.853614	0.000533	20.808281
708.195359	-2.997800	3.727200	-11.173000	24.852347	0.000531	20.816968
709.198707	-2.996900	3.726700	-11.167000	24.862710	0.000532	20.799867
710.200788	-3.014100	3.726000	-11.230000	24.888347	0.000532	20.794304
711.198077	-3.015000	3.726100	-11.232000	24.903213	0.000531	20.799741
712.194617	-3.007800	3.725100	-11.203000	24.904259	0.000530	20.805058
713.200744	-2.992500	3.725500	-11.147000	24.878723	0.000532	20.802662
714.202630	-3.011500	3.724400	-11.215000	24.827674	0.000531	20.811645
715.196993	-3.004000	3.722900	-11.182000	24.802086	0.000531	20.789759
716.202062	-2.982300	3.724100	-11.106000	24.847617	0.000532	20.779504
717.198511	-2.980500	3.725300	-11.103000	24.839516	0.000530	20.782753
718.199145	-2.967300	3.724300	-11.050000	24.839043	0.000531	20.772321
719.198997	-3.014800	3.723500	-11.224000	24.836329	0.000530	20.782399
720.200300	-3.002100	3.722200	-11.172000	24.845311	0.000530	20.805164
721.201949	-3.011600	3.722300	-11.210000	24.843049	0.000530	20.789144
722.200323	-2.981100	3.723500	-11.100000	24.885418	0.000529	20.796105
723.206306	-3.009000	3.721800	-11.198000	24.854463	0.000530	20.807712
724.210614	-3.011100	3.722600	-11.208000	24.855288	0.000528	20.794315
725.200981	-3.009300	3.723000	-11.203000	24.824157	0.000529	20.791046
726.201575	-2.993400	3.722400	-11.141000	24.838702	0.000528	20.803273
727.205076	-3.022500	3.721600	-11.247000	24.828736	0.000529	20.795642
728.207748	-2.995300	3.721800	-11.147000	24.850639	0.000529	20.793442
729.202633	-2.997000	3.720700	-11.150000	24.865321	0.000531	20.790160
730.203102	-2.993700	3.721500	-11.140000	24.891903	0.000530	20.793131
731.202502	-2.998200	3.722000	-11.159000	24.898617	0.000530	20.789438
732.208158	-2.967000	3.720700	-11.039000	24.881565	0.000527	20.791764
733.203286	-3.011100	3.719100	-11.197000	24.856350	0.000528	20.796329
734.203698	-2.986500	3.719200	-11.106000	24.842277	0.000529	20.766084
735.208328	-2.990100	3.720900	-11.125000	24.853048	0.000529	20.796335
736.212714	-2.985700	3.719900	-11.106000	24.892235	0.000529	20.797258
737.205483	-2.994300	3.719900	-11.137000	24.921058	0.000529	20.780668
738.207689	-2.991600	3.719800	-11.127000	24.923742	0.000530	20.792844
739.207097	-2.994500	3.719200	-11.136000	24.889633	0.000528	20.779947
740.206377	-2.998400	3.719200	-11.150000	24.856543	0.000529	20.788936
741.205020	-2.998500	3.717900	-11.147000	24.871686	0.000526	20.793703
742.207054	-3.008800	3.717000	-11.183000	24.896876	0.000527	20.789587
743.204897	-3.014800	3.716800	-11.205000	24.910777	0.000527	20.787418
744.211220	-2.992100	3.717900	-11.124000	24.877612	0.000527	20.784478
745.214755	-3.009000	3.715900	-11.180000	24.879206	0.000527	20.800302
746.209637	-3.006400	3.717100	-11.174000	24.907551	0.000526	20.763791
747.206502	-2.988800	3.716400	-11.106000	24.913421	0.000526	20.782486
748.216197	-2.994500	3.716300	-11.128000	24.929911	0.000528	20.781018
749.234443	-3.001800	3.717100	-11.158000	24.949953	0.000524	20.795445
750.209854	-2.998800	3.715800	-11.141000	24.953959	0.000525	20.806104
751.211875	-2.993000	3.716800	-11.124000	24.913980	0.000526	20.779728
752.218695	-3.020300	3.714400	-11.218000	24.916398	0.000525	20.791163
753.211987	-2.990000	3.716200	-11.111000	24.927138	0.000526	20.787244
754.209969	-3.014200	3.714900	-11.197000	24.898351	0.000525	20.786801
755.211980	-2.973500	3.716600	-11.051000	24.898200	0.000524	20.789494
756.213157	-2.992600	3.714300	-11.114000	24.914313	0.000523	20.792390
757.223582	-2.976700	3.716000	-11.061000	24.905186	0.000525	20.780384
758.222651	-2.971200	3.715300	-11.037000	24.916725	0.000525	20.773948
759.220388	-2.998200	3.714300	-11.134000	24.915219	0.000526	20.778600
760.212401	-3.007200	3.714300	-11.168000	24.963423	0.000524	20.799482
761.215093	-2.993000	3.713700	-11.114000	24.936049	0.000523	20.807094
762.215968	-2.975200	3.713900	-11.048000	24.881732	0.000523	20.791458
763.218881	-2.996900	3.713600	-11.129000	24.877033	0.000522	20.795751
764.217880	-3.004800	3.713300	-11.157000	24.850180	0.000522	20.770222
765.216068	-2.984700	3.711900	-11.077000	24.867590	0.000524	20.781532
766.216529	-3.003000	3.712700	-11.149000	24.877260	0.000523	20.792185
767.219610	-3.008200	3.712500	-11.167000	24.892302	0.000524	20.778358
768.216278	-3.018400	3.711000	-11.201000	24.875691	0.000521	20.781128
769.220301	-3.019900	3.711500	-11.207000	24.890393	0.000523	20.781184
770.216465	-3.001400	3.710700	-11.136000	24.929206	0.000522	20.782208
771.218137	-3.000600	3.710700	-11.133000	24.932538	0.000520	20.790294
772.224817	-2.978500	3.710900	-11.052000	24.997287	0.000521	20.791747
773.220105	-2.975100	3.711700	-11.041000	24.982392	0.000521	20.784856
774.219248	-2.999300	3.712100	-11.133000	24.943736	0.000523	20.790153
775.224246	-3.001200	3.710500	-11.135000	24.948038	0.000520	20.784988
776.220606	-3.015300	3.710300	-11.187000	24.895651	0.000521	20.777452
777.220729	-2.982600	3.709300	-11.063000	24.889685	0.000519	20.798966
778.226987	-2.977200	3.709900	-11.044000	24.859425	0.000521	20.790880
779.221070	-2.998200	3.709000	-11.119000	24.891410	0.000520	20.801171
780.225216	-3.007000	3.709400	-11.153000	24.915101	0.000520	20.798871
781.221559	-2.977800	3.710300	-11.047000	24.954090	0.000519	20.805287
782.221155	-2.998300	3.707900	-11.117000	24.947029	0.000519	20.788243
783.220610	-2.987100	3.709600	-11.079000	24.921570	0.000520	20.794931
784.222335	-2.993100	3.707800	-11.097000	24.945970	0.000519	20.810413
785.225106	-3.007800	3.709800	-11.157000	24.956458	0.000519	20.799603
786.221494	-2.992500	3.707600	-11.094000	24.974761	0.000519	20.796163
787.226079	-3.002500	3.707500	-11.131000	24.944452	0.000518	20.795139
788.230829	-3.004400	3.707000	-11.136000	24.968122	0.000519	20.796612
789.222291	-3.000200	3.706700	-11.120000	24.981928	0.000518	20.782020
790.231125	-3.030700	3.707500	-11.235000	24.992270	0.000519	20.797142
791.226510	-3.013300	3.707400	-11.171000	24.947267	0.000518	20.807447
792.222761	-3.001100	3.706600	-11.123000	24.960519	0.000518	20.799886
793.221714	-3.042100	3.705100	-11.270000	24.928824	0.000519	20.793677
794.224932	-3.009500	3.705000	-11.149000	24.933925	0.000517	20.805436
795.222450	-3.023200	3.705400	-11.201000	24.966174	0.000516	20.796553
796.225608	-2.993000	3.704700	-11.088000	24.969878	0.000518	20.787468
797.224629	-2.995700	3.704600	-11.097000	25.005281	0.000514	20.818263
798.224977	-3.001100	3.704100	-11.116000	25.018186	0.000515	20.797078
799.233561	-3.002700	3.705300	-11.125000	25.044343	0.000515	20.802944
800.227525	-3.008000	3.704000	-11.141000	25.067217	0.000515	20.811207
801.227339	-3.014700	3.704200	-11.166000	25.094738	0.000514	20.809911
802.225858	-3.005200	3.704600	-11.132000	25.106849	0.000515	20.809740
803.229734	-3.000300	3.703100	-11.110000	25.087829	0.000516	20.797286
804.227935	-2.993300	3.703000	-11.083000	25.111019	0.000516	20.821038
805.229638	-3.015900	3.702400	-11.165000	25.106427	0.000514	20.819747
806.225929	-3.003100	3.703600	-11.122000	25.084523	0.000513	20.800605
807.225471	-2.999900	3.702300	-11.106000	25.085951	0.000514	20.811047
808.225673	-3.009000	3.702400	-11.140000	25.078760	0.000514	20.812837
809.227293	-3.008200	3.701600	-11.135000	25.066988	0.000513	20.811925
810.225546	-2.994900	3.701500	-11.085000	25.070168	0.000513	20.814644
811.235093	-2.984600	3.702800	-11.051000	25.042179	0.000515	20.807885
812.237373	-2.988800	3.701000	-11.060000	25.049782	0.000515	20.808879
813.235054	-2.989500	3.701400	-11.065000	25.049983	0.000513	20.814296
814.236598	-2.993700	3.701600	-11.080000	25.072536	0.000514	20.790468
815.225971	-3.019600	3.700100	-11.172000	25.063039	0.000512	20.810806
816.229809	-3.024700	3.699500	-11.189000	25.030105	0.000514	20.830378
817.231782	-2.991700	3.700000	-11.069000	25.064386	0.000513	20.825434
818.231153	-3.014500	3.699700	-11.152000	25.104320	0.000513	20.834701
819.231371	-3.008100	3.700600	-11.131000	25.116128	0.000511	20.806727
820.236830	-3.001500	3.699900	-11.105000	25.120505	0.000511	20.831983
821.234056	-2.980300	3.699800	-11.025000	25.145764	0.000513	20.818460
822.232172	-3.010300	3.698900	-11.134000	25.141147	0.000515	20.827575
823.236297	-3.020700	3.698300	-11.171000	25.161060	0.000512	20.812479
824.230407	-3.000100	3.700000	-11.100000	25.146815	0.000510	20.811929
825.233553	-2.987300	3.698100	-11.047000	25.108985	0.000512	20.823737
826.234368	-2.994300	3.698600	-11.074000	25.068861	0.000512	20.813806
827.236062	-2.991200	3.698700	-11.062000	25.058550	0.000509	20.824318
828.234422	-3.015500	3.697900	-11.150000	25.060163	0.000510	20.821670
829.241238	-3.003900	3.697900	-11.108000	25.071279	0.000511	20.826664
830.236926	-3.006700	3.697400	-11.117000	25.047711	0.000510	20.818180
831.238705	-3.024000	3.697100	-11.179000	25.092213	0.000511	20.830608
832.237221	-3.001600	3.697700	-11.098000	25.085304	0.000512	20.824147
833.234483	-3.004600	3.696900	-11.107000	25.114468	0.000510	20.826397
834.240161	-3.020700	3.696700	-11.165000	25.142511	0.000510	20.806660
835.238345	-2.990900	3.697400	-11.057000	25.133733	0.000510	20.841943
836.235981	-3.003100	3.696100	-11.099000	25.172971	0.000509	20.823488
837.233312	-2.990400	3.695200	-11.049000	25.181990	0.000510	20.825904
838.242150	-2.980600	3.697000	-11.018000	25.181001	0.000509	20.830126
839.234789	-2.982100	3.696400	-11.022000	25.152914	0.000509	20.843180
840.236730	-2.994700	3.696300	-11.068000	25.182247	0.000508	20.831378
841.240345	-3.006600	3.695100	-11.108000	25.212348	0.000507	20.844527
842.238825	-2.992700	3.694800	-11.057000	25.187121	0.000507	20.847650
843.237196	-2.998400	3.693400	-11.073000	25.177057	0.000506	20.844185
844.233645	-3.019100	3.694200	-11.152000	25.156622	0.000509	20.840266
845.244680	-3.008800	3.694300	-11.114000	25.138328	0.000506	20.840866
846.236968	-2.985100	3.694500	-11.028000	25.157970	0.000505	20.827394
847.236069	-3.012900	3.692600	-11.125000	25.133233	0.000504	20.846182
848.237842	-3.011700	3.692300	-11.119000	25.135916	0.000505	20.848876
849.242913	-2.975700	3.694700	-10.993000	25.102462	0.000505	20.845638
850.242363	-2.983400	3.693900	-11.019000	25.084639	0.000504	20.858092
851.241257	-3.001500	3.692700	-11.083000	25.096699	0.000504	20.848862
852.240234	-2.997600	3.692700	-11.068000	25.104729	0.000504	20.829422
853.242782	-2.993500	3.691600	-11.050000	25.064680	0.000501	20.844222
854.240382	-2.977600	3.692400	-10.993000	25.064158	0.000505	20.846542
855.242574	-3.003600	3.691300	-11.086000	25.066721	0.000505	20.875192
856.247780	-3.012100	3.691100	-11.117000	25.045289	0.000502	20.831869
857.243344	-3.002800	3.691800	-11.084000	25.063685	0.000502	20.851757
858.249107	-2.992200	3.692600	-11.049000	25.093519	0.000503	20.842825
859.247047	-2.991900	3.691400	-11.043000	25.145972	0.000504	20.840953
860.245694	-2.991500	3.690200	-11.038000	25.125114	0.000504	20.848938
861.244390	-2.992500	3.690000	-11.042000	25.080992	0.000502	20.854905
862.250175	-3.027600	3.689000	-11.169000	25.127552	0.000502	20.859444
863.246814	-2.977600	3.689700	-10.986000	25.111914	0.000502	20.853704
864.251249	-2.980500	3.689700	-10.996000	25.146891	0.000503	20.872695
865.247983	-3.008500	3.687500	-11.093000	25.133194	0.000501	20.858945
866.246555	-2.999700	3.689500	-11.066000	25.093387	0.000499	20.853598
867.247159	-3.018100	3.687500	-11.128000	25.128465	0.000501	20.850879
868.250942	-2.991500	3.689800	-11.037000	25.131998	0.000498	20.872442
869.247965	-2.987900	3.688500	-11.020000	25.148183	0.000500	20.856448
870.245988	-2.987900	3.688900	-11.021000	25.129731	0.000500	20.862107
871.246617	-2.976000	3.687200	-10.972000	25.126506	0.000498	20.871196
872.246253	-2.999700	3.687100	-11.059000	25.129007	0.000498	20.847156
873.245632	-3.005800	3.687000	-11.081000	25.129184	0.000500	20.876255
874.245509	-2.968000	3.688200	-10.946000	25.163908	0.000499	20.858011
875.247993	-2.987000	3.685900	-11.007000	25.161351	0.000499	20.876305
876.245558	-2.994600	3.686500	-11.038000	25.160798	0.000499	20.867689
877.249553	-3.006500	3.686900	-11.083000	25.203872	0.000499	20.860673
878.248035	-3.008200	3.686100	-11.087000	25.193884	0.000499	20.876723
879.248931	-3.010200	3.685800	-11.094000	25.169143	0.000499	20.882704
880.251764	-2.998100	3.685700	-11.050000	25.149702	0.000496	20.874568
881.252179	-2.997200	3.685800	-11.047000	25.151321	0.000497	20.874296
882.249871	-2.986000	3.684500	-11.000000	25.147864	0.000496	20.869877
883.248577	-2.994900	3.686100	-11.039000	25.180006	0.000497	20.865636
884.249554	-2.996400	3.685200	-11.041000	25.190075	0.000496	20.887123
885.251165	-2.976400	3.684500	-10.966000	25.212323	0.000496	20.852562
886.253270	-3.011100	3.684500	-11.094000	25.221416	0.000497	20.878759
887.251762	-2.994800	3.684400	-11.033000	25.186442	0.000497	20.873045
888.250557	-3.011500	3.684300	-11.094000	25.194370	0.000494	20.862039
889.252269	-3.006500	3.682900	-11.072000	25.172393	0.000493	20.881225
890.254199	-3.010800	3.683000	-11.088000	25.199289	0.000496	20.861287
891.254972	-2.985400	3.683400	-10.995000	25.141460	0.000494	20.873406
892.250470	-3.011800	3.682400	-11.088000	25.157620	0.000493	20.868766
893.251833	-2.985500	3.683300	-10.996000	25.164232	0.000493	20.875878
894.253407	-3.002100	3.683100	-11.055000	25.222816	0.000493	20.891544
895.251151	-2.977900	3.682900	-10.967000	25.226860	0.000493	20.874742
896.252835	-3.004500	3.681800	-11.061000	25.198548	0.000492	20.870026
897.252789	-3.012800	3.681500	-11.091000	25.166079	0.000492	20.877258
898.253038	-3.006000	3.682100	-11.067000	25.179474	0.000492	20.903506
899.253284	-3.023700	3.680000	-11.126000	25.177730	0.000491	20.896540
900.253502	-2.998100	3.681500	-11.037000	25.171610	0.000494	20.875224
901.253859	-2.992500	3.681000	-11.014000	25.169217	0.000490	20.892735
902.256738	-2.997600	3.681800	-11.036000	25.198721	0.000489	20.872570
903.253729	-3.011000	3.679300	-11.077000	25.229891	0.000491	20.875889
904.260150	-3.005800	3.679800	-11.060000	25.212557	0.000491	20.880296
905.260107	-2.984200	3.680800	-10.983000	25.212833	0.000490	20.871565
906.256659	-3.023000	3.680100	-11.124000	25.190032	0.000489	20.884709
907.259855	-2.995900	3.679200	-11.022000	25.221770	0.000491	20.889545
908.256523	-3.020700	3.678700	-11.112000	25.184289	0.000490	20.892219
909.255686	-3.016600	3.678200	-11.094000	25.174516	0.000488	20.897106
910.254381	-2.998100	3.677800	-11.025000	25.204838	0.000489	20.889615
911.256877	-3.002200	3.677700	-11.040000	25.241008	0.000487	20.890841
912.262256	-3.016500	3.677600	-11.092000	25.247790	0.000490	20.887694
913.257425	-3.003700	3.677200	-11.044000	25.273438	0.000487	20.889262
914.255094	-2.990900	3.678900	-11.002000	25.260605	0.000488	20.891551
915.266930	-3.003400	3.678000	-11.046000	25.196306	0.000488	20.893378
916.258466	-3.021200	3.677100	-11.108000	25.224562	0.000487	20.906571
917.256307	-2.999400	3.677500	-11.030000	25.250990	0.000488	20.891854
918.258913	-3.006000	3.677000	-11.052000	25.276064	0.000485	20.908493
919.256134	-3.001400	3.676600	-11.034000	25.281159	0.000486	20.899858
920.255373	-2.998100	3.676900	-11.022000	25.243246	0.000488	20.909682
921.257999	-2.991000	3.675200	-10.991000	25.235790	0.000485	20.916895
922.257852	-3.001100	3.676000	-11.031000	25.237805	0.000486	20.906591
923.267083	-3.007600	3.675800	-11.054000	25.221471	0.000485	20.906787
924.260652	-3.018900	3.675200	-11.094000	25.192907	0.000485	20.915568
925.260466	-3.006700	3.674000	-11.046000	25.215401	0.000485	20.886945
926.258550	-3.001500	3.674000	-11.026000	25.247265	0.000483	20.891433
927.261261	-3.019700	3.673800	-11.093000	25.217360	0.000484	20.915935
928.259421	-3.005200	3.675500	-11.045000	25.244325	0.000485	20.912662
929.263033	-2.975000	3.675500	-10.934000	25.262070	0.000484	20.902503
930.266766	-3.026400	3.674100	-11.118000	25.276590	0.000482	20.908072
931.266063	-3.009600	3.672500	-11.052000	25.279468	0.000484	20.920918
932.259538	-2.988500	3.672300	-10.974000	25.309421	0.000483	20.908793
933.262098	-2.991300	3.673000	-10.986000	25.331434	0.000482	20.900077
934.267047	-3.002300	3.673400	-11.028000	25.345973	0.000482	20.896183
935.260158	-3.005600	3.670800	-11.032000	25.372216	0.000479	20.893136
936.261064	-3.002100	3.671400	-11.021000	25.342832	0.000481	20.917209
937.264766	-3.020700	3.672500	-11.093000	25.331795	0.000481	20.903757
938.261561	-3.015200	3.672600	-11.073000	25.300898	0.000479	20.913512
939.268472	-3.010700	3.669900	-11.048000	25.278873	0.000482	20.909416
940.262273	-3.005300	3.671300	-11.033000	25.304601	0.000479	20.904902
941.262950	-3.007300	3.670400	-11.037000	25.332829	0.000480	20.911433
942.264016	-3.004300	3.670700	-11.028000	25.338043	0.000481	20.910504
943.264501	-2.987700	3.670600	-10.966000	25.337193	0.000479	20.912022
944.265017	-3.008800	3.669900	-11.041000	25.329537	0.000479	20.924722
945.271296	-3.005100	3.670500	-11.029000	25.299736	0.000476	20.927990
946.266379	-3.016100	3.669200	-11.066000	25.287312	0.000480	20.924525
947.265499	-3.015200	3.668500	-11.060000	25.267541	0.000478	20.937865
948.267330	-3.011000	3.669500	-11.047000	25.286482	0.000479	20.908521
949.265779	-3.003200	3.668900	-11.017000	25.318097	0.000477	20.934097
950.268240	-3.009600	3.668300	-11.040000	25.341810	0.000479	20.912390
951.270766	-2.992900	3.668400	-10.978000	25.292766	0.000478	20.922890
952.278120	-2.974800	3.668800	-10.913000	25.299252	0.000475	20.929401
953.268981	-2.997800	3.667300	-10.993000	25.301418	0.000475	20.914982
954.266919	-2.998000	3.668800	-10.998000	25.301463	0.000477	20.916449
955.271017	-3.014800	3.668100	-11.057000	25.298774	0.000476	20.918017
956.270456	-3.033500	3.667300	-11.124000	25.326637	0.000477	20.921336
957.267705	-3.030700	3.666500	-11.111000	25.356885	0.000476	20.923732
958.278989	-3.033800	3.666200	-11.121000	25.370126	0.000474	20.928018
959.268077	-3.006800	3.665600	-11.021000	25.371599	0.000474	20.940401
960.267268	-2.983800	3.667200	-10.941000	25.356558	0.000472	20.928144
961.270037	-3.008200	3.665500	-11.026000	25.344123	0.000472	20.926565
962.271676	-2.994700	3.666100	-10.978000	25.321261	0.000472	20.920679
963.268085	-2.985200	3.666500	-10.944000	25.314101	0.000474	20.916811
964.278804	-3.000700	3.666100	-11.001000	25.275397	0.000474	20.931528
965.268499	-2.976400	3.664400	-10.906000	25.257004	0.000472	20.918752
966.271825	-3.003000	3.665500	-11.007000	25.267363	0.000472	20.914455
967.270648	-2.998100	3.665400	-10.988000	25.252627	0.000473	20.926212
968.274877	-3.001200	3.664500	-10.997000	25.242855	0.000470	20.901230
969.270421	-3.015000	3.665500	-11.051000	25.209122	0.000472	20.924733
970.271107	-3.007300	3.664000	-11.017000	25.235218	0.000473	20.924854
971.273694	-2.990000	3.662700	-10.950000	25.264423	0.000472	20.936631
972.273733	-3.012000	3.663700	-11.035000	25.309382	0.000472	20.905909
973.271173	-2.985000	3.662100	-10.930000	25.343956	0.000471	20.903166
974.277994	-2.975300	3.662500	-10.896000	25.314155	0.000470	20.926346
975.273551	-2.987800	3.662900	-10.943000	25.312467	0.000468	20.883404
976.276387	-2.983000	3.662500	-10.924000	25.274360	0.000469	20.918161
977.274693	-2.995000	3.661900	-10.967000	25.279127	0.000468	20.908249
978.271725	-2.985400	3.661500	-10.930000	25.274455	0.000470	20.904033
979.270374	-2.997700	3.660700	-10.973000	25.273611	0.000468	20.933054
980.279989	-3.000400	3.661300	-10.984000	25.281659	0.000469	20.912687
981.272337	-3.033600	3.660300	-11.103000	25.294541	0.000468	20.899544
982.272709	-3.006400	3.660800	-11.004000	25.267642	0.000466	20.905727
983.271859	-2.998500	3.660600	-10.975000	25.329306	0.000467	20.901732
984.273166	-2.990000	3.660700	-10.944000	25.308552	0.000467	20.897017
985.272523	-2.996000	3.660800	-10.966000	25.306116	0.000463	20.912112
986.273704	-2.998900	3.658700	-10.971000	25.274947	0.000465	20.897415
987.278595	-2.993200	3.660300	-10.955000	25.283864	0.000468	20.897833
988.276042	-2.993700	3.657700	-10.950000	25.243079	0.000465	20.896714
989.273422	-2.990600	3.659600	-10.943000	25.239748	0.000467	20.911386
990.274293	-3.008200	3.658700	-11.005000	25.229478	0.000465	20.899654
991.276286	-2.978100	3.659000	-10.895000	25.227494	0.000462	20.903825
992.273635	-2.999200	3.657800	-10.970000	25.277940	0.000465	20.871973
993.278485	-3.004200	3.657100	-10.986000	25.286170	0.000464	20.884502
994.278472	-3.020900	3.656500	-11.045000	25.296363	0.000465	20.885728
995.275762	-3.023800	3.656800	-11.056000	25.331153	0.000462	20.893631
996.275016	-2.985000	3.657800	-10.917000	25.353915	0.000465	20.886614
997.276073	-2.993000	3.657000	-10.944000	25.394425	0.000465	20.874186
998.285950	-3.005800	3.657700	-10.992000	25.405677	0.000463	20.887855
999.278046	-2.996200	3.657000	-10.956000	25.385794	0.000463	20.884485
1000.281288	-2.993700	3.655900	-10.944000	25.398544	0.000463	20.885908
1001.281085	-2.989100	3.657300	-10.932000	25.398041	0.000463	20.886825
1002.284028	-3.012900	3.655300	-11.013000	25.390455	0.000462	20.906233
1003.278619	-2.993600	3.657000	-10.947000	25.407952	0.000462	20.864062
1004.286129	-2.998800	3.656000	-10.963000	25.396744	0.000460	20.889790
1005.280060	-2.990400	3.655200	-10.929000	25.436870	0.000461	20.872711
1006.284584	-2.996500	3.654700	-10.950000	25.415200	0.000461	20.886037
1007.285466	-2.984800	3.653100	-10.902000	25.457998	0.000462	20.885866
1008.282646	-3.001400	3.654400	-10.967000	25.424292	0.000461	20.861029
1009.284691	-2.998500	3.654100	-10.957000	25.404605	0.000462	20.871132
1010.278880	-2.983800	3.654800	-10.904000	25.334867	0.000463	20.872232
1011.280610	-2.986400	3.654000	-10.910000	25.298826	0.000461	20.840788
1012.281777	-3.009400	3.651700	-10.988000	25.316595	0.000461	20.861947
1013.282691	-3.010700	3.652500	-10.996000	25.319284	0.000460	20.873654
1014.284208	-3.014800	3.653300	-11.012000	25.339313	0.000459	20.859627
1015.283584	-2.991900	3.651700	-10.924000	25.350490	0.000460	20.871323
1016.282057	-2.980100	3.652400	-10.884000	25.365682	0.000460	20.869982
1017.279380	-2.996400	3.651700	-10.941000	25.409743	0.000458	20.863964
1018.284860	-2.995000	3.650900	-10.934000	25.411934	0.000459	20.856207
1019.282455	-2.982300	3.651900	-10.890000	25.461709	0.000458	20.860670
1020.281598	-3.006200	3.650400	-10.973000	25.437236	0.000459	20.862648
1021.282022	-3.015300	3.649700	-11.004000	25.433207	0.000455	20.845327
1022.293925	-3.022400	3.650100	-11.031000	25.427415	0.000456	20.883131
1023.286459	-3.006400	3.649600	-10.972000	25.436859	0.000456	20.878864
1024.281246	-3.005400	3.648200	-10.964000	25.448468	0.000458	20.841211
1025.293487	-2.999600	3.650000	-10.947000	25.395678	0.000456	20.860272
1026.282437	-2.991100	3.648800	-10.913000	25.386932	0.000455	20.862396
1027.281597	-2.982000	3.648700	-10.880000	25.388393	0.000456	20.854381
1028.284008	-2.990900	3.649900	-10.915000	25.414792	0.000454	20.849120
1029.282667	-3.019900	3.647800	-11.015000	25.451366	0.000454	20.863086
1030.287292	-2.987600	3.648300	-10.898000	25.424155	0.000455	20.839082
1031.292284	-2.983600	3.647900	-10.883000	25.372609	0.000454	20.848489
1032.287064	-2.976800	3.648100	-10.859000	25.388086	0.000452	20.846960
1033.285909	-2.980000	3.647900	-10.870000	25.410204	0.000451	20.850203
1034.285666	-3.015400	3.647500	-10.998000	25.431232	0.000451	20.845714
1035.283372	-3.008000	3.646100	-10.966000	25.435100	0.000452	20.862873
1036.292590	-2.991700	3.646600	-10.909000	25.438978	0.000452	20.859181
1037.283295	-2.977600	3.646500	-10.857000	25.433286	0.000451	20.849673
1038.290479	-2.997800	3.645900	-10.929000	25.432934	0.000451	20.845053
1039.285203	-3.010000	3.644400	-10.969000	25.397072	0.000452	20.844130
1040.291022	-3.016200	3.644400	-10.991000	25.415709	0.000450	20.868058
1041.286241	-3.001500	3.645600	-10.941000	25.373035	0.000451	20.858873
1042.292902	-3.021100	3.644400	-11.009000	25.392219	0.000450	20.861067
1043.290507	-3.011700	3.643000	-10.971000	25.417486	0.000450	20.859412
1044.295379	-3.009100	3.644800	-10.967000	25.384407	0.000449	20.836628
1045.293568	-3.009100	3.643400	-10.963000	25.404762	0.000449	20.840946
1046.292640	-3.007700	3.643800	-10.959000	25.404310	0.000450	20.831009
1047.288318	-2.991300	3.644100	-10.899000	25.402094	0.000448	20.857232
1048.285149	-2.992400	3.643200	-10.901000	25.408820	0.000449	20.829848
1049.300630	-2.972800	3.644200	-10.832000	25.419881	0.000448	20.844748
1050.287799	-3.000000	3.643700	-10.930000	25.435615	0.000450	20.843951
1051.287507	-2.996700	3.643500	-10.917000	25.412271	0.000448	20.840425
1052.292807	-3.002000	3.642100	-10.933000	25.388806	0.000446	20.833459
1053.290666	-2.990800	3.642200	-10.893000	25.451306	0.000446	20.853069
1054.299013	-2.990000	3.641700	-10.888000	25.450272	0.000447	20.835911
1055.290467	-2.991300	3.642100	-10.894000	25.458660	0.000447	20.837695
1056.301439	-3.002000	3.640800	-10.929000	25.426471	0.000446	20.854209
1057.291016	-3.001800	3.641100	-10.929000	25.460147	0.000445	20.836343
1058.291463	-3.016200	3.640500	-10.979000	25.492827	0.000446	20.844030
1059.298360	-2.992800	3.640700	-10.895000	25.505645	0.000444	20.842204
1060.295699	-2.999700	3.639300	-10.917000	25.537897	0.000443	20.839031
1061.299001	-2.992900	3.639700	-10.892000	25.508975	0.000443	20.855031
1062.293876	-3.009400	3.639800	-10.953000	25.499583	0.000444	20.819047
1063.295683	-3.021700	3.638300	-10.992000	25.531608	0.000443	20.838880
1064.298123	-3.009700	3.639100	-10.952000	25.522632	0.000443	20.836029
1065.300503	-3.005800	3.638000	-10.934000	25.505880	0.000440	20.823475
1066.298444	-3.006200	3.636800	-10.932000	25.517533	0.000441	20.829013
1067.293699	-2.976800	3.638400	-10.830000	25.510351	0.000441	20.824171
1068.295201	-2.984100	3.638600	-10.857000	25.534626	0.000441	20.834798
1069.293643	-3.010200	3.637400	-10.948000	25.512530	0.000441	20.827308
1070.296794	-2.984600	3.638400	-10.858000	25.492252	0.000440	20.842979
1071.293607	-2.979500	3.636500	-10.834000	25.474651	0.000439	20.842374
1072.293367	-3.000500	3.637200	-10.913000	25.459069	0.000441	20.838106
1073.302486	-2.983200	3.637800	-10.852000	25.486852	0.000440	20.834238
1074.301511	-2.996700	3.635100	-10.891000	25.457999	0.000440	20.820437
1075.292387	-2.989900	3.636100	-10.870000	25.471617	0.000440	20.826051
1076.302223	-2.998100	3.635900	-10.900000	25.504267	0.000439	20.851725
1077.293318	-2.989900	3.635000	-10.867000	25.468281	0.000439	20.828865
1078.304247	-2.998700	3.635000	-10.899000	25.426363	0.000439	20.828023
1079.295351	-3.020400	3.634600	-10.977000	25.377369	0.000440	20.832406
1080.294930	-3.013900	3.634600	-10.954000	25.409831	0.000437	20.838449
1081.296410	-3.000700	3.634800	-10.906000	25.373571	0.000437	20.828119
1082.295357	-3.019800	3.633100	-10.969000	25.364870	0.000436	20.843563
1083.296006	-3.000300	3.632700	-10.898000	25.420792	0.000437	20.849929
1084.299173	-2.982500	3.634200	-10.838000	25.456206	0.000434	20.838076
1085.298666	-2.994100	3.632300	-10.874000	25.493999	0.000435	20.837621
1086.303433	-2.970400	3.631500	-10.787000	25.494748	0.000435	20.830313
1087.314569	-3.003500	3.632600	-10.910000	25.498400	0.000436	20.835402
1088.301341	-3.001000	3.630700	-10.895000	25.472576	0.000432	20.814686
1089.297703	-3.013900	3.632000	-10.946000	25.480281	0.000435	20.816260
1090.303312	-3.004600	3.631800	-10.911000	25.435469	0.000434	20.840960
1091.297010	-3.007600	3.630600	-10.918000	25.396101	0.000433	20.825137
1092.300465	-3.000700	3.631300	-10.895000	25.404475	0.000431	20.822640
1093.308114	-2.992100	3.629300	-10.858000	25.475800	0.000434	20.815079
1094.306382	-2.994300	3.629600	-10.867000	25.529169	0.000433	20.816990
1095.303627	-3.011200	3.629500	-10.928000	25.552801	0.000432	20.840722
1096.310270	-2.986700	3.630400	-10.842000	25.572706	0.000430	20.821833
1097.301645	-2.993000	3.630400	-10.865000	25.559205	0.000430	20.825817
1098.306138	-2.973000	3.629500	-10.790000	25.552539	0.000429	20.802528
1099.309023	-3.008100	3.628400	-10.913000	25.524140	0.000430	20.806725
1100.311164	-3.015900	3.626600	-10.936000	25.534623	0.000432	20.821045
1101.301885	-2.993000	3.628200	-10.858000	25.538174	0.000429	20.805645
1102.308874	-3.003900	3.627100	-10.893000	25.540303	0.000429	20.830542
1103.303029	-2.993100	3.627800	-10.858000	25.558113	0.000428	20.814290
1104.308246	-3.006100	3.627300	-10.903000	25.589595	0.000431	20.834527
1105.312901	-2.996100	3.626200	-10.863000	25.576893	0.000430	20.820348
1106.306561	-2.986200	3.626600	-10.828000	25.544863	0.000427	20.816156
1107.304259	-2.987900	3.626100	-10.833000	25.513947	0.000428	20.815455
1108.313675	-3.010500	3.626300	-10.916000	25.532878	0.000426	20.830672
1109.310857	-2.978100	3.626300	-10.799000	25.510059	0.000428	20.800645
1110.304960	-2.989100	3.624900	-10.834000	25.547901	0.000426	20.805931
1111.314367	-2.994900	3.624700	-10.855000	25.528784	0.000427	20.817078
1112.316955	-3.011300	3.624500	-10.913000	25.519045	0.000425	20.800659
1113.305704	-3.008800	3.624100	-10.903000	25.518472	0.000425	20.810990
1114.308028	-2.996000	3.624600	-10.859000	25.520727	0.000427	20.785279
1115.305286	-3.013200	3.622800	-10.915000	25.522515	0.000424	20.810308
1116.315165	-2.998700	3.625000	-10.869000	25.561497	0.000425	20.800144
1117.308753	-2.995700	3.623100	-10.853000	25.553646	0.000425	20.809329
1118.312318	-2.994300	3.622800	-10.846000	25.522183	0.000423	20.818035
1119.306860	-2.968900	3.623500	-10.757000	25.495988	0.000426	20.794575
1120.308239	-3.000900	3.621800	-10.869000	25.489102	0.000424	20.805203
1121.308325	-3.009300	3.620700	-10.895000	25.490845	0.000423	20.790358
1122.322355	-2.992800	3.622600	-10.841000	25.472646	0.000424	20.794368
1123.315417	-3.009200	3.621100	-10.895000	25.432932	0.000425	20.789102
1124.313565	-3.019500	3.620300	-10.931000	25.458330	0.000425	20.779518
1125.324203	-3.010300	3.621200	-10.900000	25.485394	0.000422	20.808592
1126.312219	-3.008200	3.620900	-10.891000	25.495953	0.000421	20.797858
1127.313773	-3.014800	3.620200	-10.913000	25.482536	0.000421	20.794817
1128.320529	-3.010200	3.619900	-10.895000	25.506220	0.000423	20.799634
1129.320825	-2.971700	3.621300	-10.760000	25.488770	0.000420	20.783059
1130.328414	-2.981900	3.619800	-10.793000	25.482963	0.000421	20.803780
1131.313852	-2.995900	3.619600	-10.843000	25.535443	0.000420	20.809541
1132.310378	-2.978500	3.619300	-10.779000	25.506144	0.000421	20.777273
1133.327821	-2.987000	3.619600	-10.811000	25.527115	0.000420	20.791694
1134.315018	-2.990700	3.617300	-10.817000	25.551295	0.000420	20.793218
1135.313878	-2.978000	3.619800	-10.778000	25.576966	0.000419	20.787704
1136.318677	-3.027900	3.617600	-10.953000	25.620752	0.000419	20.798015
1137.314365	-2.961000	3.617700	-10.709000	25.595454	0.000420	20.802479
1138.319188	-2.996100	3.616900	-10.835000	25.591230	0.000417	20.780219
1139.315960	-3.006400	3.616000	-10.870000	25.562209	0.000416	20.812714
1140.318954	-3.005500	3.615300	-10.864000	25.543173	0.000416	20.784587
1141.333506	-2.997600	3.616800	-10.841000	25.560421	0.000414	20.797168
1142.317207	-2.979400	3.617000	-10.776000	25.521661	0.000416	20.796174
1143.318940	-2.954800	3.616600	-10.685000	25.507496	0.000414	20.774837
1144.327089	-2.996700	3.615700	-10.835000	25.499595	0.000416	20.795352
1145.315019	-2.981400	3.614300	-10.775000	25.508315	0.000414	20.792729
1146.316959	-2.963300	3.616500	-10.716000	25.502845	0.000413	20.791977
1147.320541	-2.975000	3.613900	-10.750000	25.527648	0.000414	20.802661
1148.318835	-3.008100	3.614700	-10.872000	25.518853	0.000411	20.800467
1149.317468	-2.992700	3.614100	-10.815000	25.543500	0.000413	20.798666
1150.317866	-3.004100	3.614200	-10.856000	25.517065	0.000412	20.781127
1151.317480	-3.006000	3.612700	-10.859000	25.489654	0.000410	20.767825
1152.315959	-2.984900	3.612000	-10.780000	25.450439	0.000410	20.777758
1153.316339	-2.990900	3.613300	-10.807000	25.470491	0.000412	20.797894
1154.321440	-2.981200	3.613000	-10.770000	25.524117	0.000411	20.795321
1155.315129	-3.010600	3.612300	-10.874000	25.530235	0.000410	20.773490
1156.314670	-3.004300	3.611900	-10.850000	25.527844	0.000409	20.782943
1157.320920	-3.025700	3.610600	-10.923000	25.534750	0.000410	20.787508
1158.314267	-3.030300	3.609900	-10.938000	25.516713	0.000410	20.776507
1159.318612	-2.996200	3.610000	-10.814000	25.478820	0.000408	20.773541
1160.327893	-2.986900	3.610700	-10.784000	25.498419	0.000408	20.764773
1161.317616	-2.988000	3.610600	-10.788000	25.552350	0.000406	20.782898
1162.331787	-3.012200	3.609400	-10.871000	25.537242	0.000406	20.784320
1163.330787	-2.987700	3.609900	-10.785000	25.542706	0.000407	20.756143
1164.329166	-3.021200	3.607600	-10.898000	25.563330	0.000406	20.789657
1165.322994	-3.011900	3.608500	-10.868000	25.561497	0.000406	20.772169
1166.321685	-2.984000	3.607900	-10.765000	25.572074	0.000408	20.768567
1167.323298	-2.989300	3.608600	-10.786000	25.591260	0.000407	20.787836
1168.329661	-3.005000	3.607400	-10.839000	25.574364	0.000404	20.772764
1169.331026	-2.965600	3.609300	-10.703000	25.562240	0.000405	20.776234
1170.321862	-2.980500	3.608900	-10.756000	25.565545	0.000403	20.784769
1171.326130	-2.998100	3.606700	-10.813000	25.527768	0.000403	20.763427
1172.324048	-2.992600	3.607600	-10.795000	25.508491	0.000404	20.767301
1173.322723	-3.006300	3.606400	-10.841000	25.521686	0.000405	20.785294
1174.335272	-3.008700	3.606400	-10.850000	25.550336	0.000404	20.772340
1175.321411	-2.997100	3.605300	-10.805000	25.561913	0.000403	20.757414
1176.321787	-3.009600	3.604800	-10.848000	25.574043	0.000404	20.752052
1177.329120	-2.959600	3.605900	-10.671000	25.565595	0.000400	20.771069
1178.329257	-3.016000	3.604600	-10.871000	25.557393	0.000404	20.764254
1179.331338	-2.992000	3.604900	-10.784000	25.578719	0.000403	20.768602
1180.326117	-2.991700	3.605400	-10.785000	25.580256	0.000405	20.773465
1181.324481	-2.996300	3.605100	-10.801000	25.606248	0.000402	20.764481
1182.334463	-2.992500	3.604700	-10.786000	25.613234	0.000402	20.789042
1183.321531	-2.999000	3.603300	-10.806000	25.637337	0.000402	20.768204
1184.331570	-3.014500	3.602200	-10.858000	25.619598	0.000402	20.771251
1185.322385	-3.005600	3.603600	-10.830000	25.648100	0.000401	20.755780
1186.323377	-3.002600	3.601900	-10.815000	25.648572	0.000400	20.775695
1187.329576	-3.003900	3.602500	-10.821000	25.680056	0.000401	20.756582
1188.322735	-3.000500	3.601700	-10.806000	25.665718	0.000401	20.769208
1189.324475	-3.007800	3.602000	-10.833000	25.639552	0.000401	20.776119
1190.325284	-3.006800	3.600300	-10.825000	25.634484	0.000399	20.769132
1191.330245	-2.979400	3.600700	-10.726000	25.557775	0.000397	20.774595
1192.325368	-3.012300	3.601200	-10.847000	25.556042	0.000398	20.774752
1193.337746	-3.002800	3.601800	-10.814000	25.555294	0.000400	20.759301
1194.335061	-3.002100	3.599300	-10.804000	25.587253	0.000397	20.756784
1195.331451	-3.000400	3.600300	-10.802000	25.621396	0.000395	20.773531
1196.336251	-3.004500	3.599700	-10.815000	25.607806	0.000398	20.773158
1197.323322	-2.998200	3.599400	-10.791000	25.604551	0.000396	20.757087
1198.330536	-3.006200	3.598800	-10.818000	25.583325	0.000395	20.760426
1199.335166	-2.989200	3.599600	-10.759000	25.631562	0.000394	20.756714
1200.321229	-3.025000	3.598300	-10.883000	25.626991	0.000393	20.751175
1201.328948	-3.001600	3.599600	-10.804000	25.683939	0.000394	20.752895
1202.325634	-3.000200	3.597500	-10.792000	25.666768	0.000393	20.752718
1203.336242	-2.994300	3.597000	-10.769000	25.682101	0.000394	20.759110
1204.330274	-2.989700	3.597500	-10.755000	25.697880	0.000391	20.747457
1205.338329	-3.008400	3.597200	-10.820000	25.633626	0.000391	20.766848
1206.335292	-2.981300	3.597100	-10.724000	25.615460	0.000391	20.766147
1207.327285	-2.991600	3.596600	-10.758000	25.622742	0.000390	20.757339
1208.335292	-3.004600	3.597000	-10.806000	25.596505	0.000391	20.788362
1209.337433	-2.993200	3.595700	-10.762000	25.576796	0.000391	20.741066
1210.333514	-2.982300	3.595900	-10.723000	25.580895	0.000390	20.756562
1211.343034	-3.033300	3.594200	-10.901000	25.627534	0.000389	20.762151
1212.328254	-2.991400	3.595800	-10.755000	25.642571	0.000389	20.765874
1213.342805	-2.997600	3.595900	-10.777000	25.660385	0.000389	20.763377
1214.341640	-2.996900	3.595700	-10.775000	25.644183	0.000390	20.761329
1215.328705	-2.999900	3.595600	-10.785000	25.660535	0.000388	20.772064
1216.332006	-2.999700	3.593900	-10.779000	25.661726	0.000389	20.738170
1217.328189	-3.010900	3.593400	-10.818000	25.693009	0.000388	20.761057
1218.337475	-3.006700	3.592000	-10.800000	25.667838	0.000389	20.750000
1219.328954	-3.015800	3.592100	-10.832000	25.654122	0.000387	20.767993
1220.339730	-2.995900	3.593100	-10.763000	25.645127	0.000386	20.756113
1221.332100	-2.999000	3.592000	-10.771000	25.619709	0.000388	20.763302
1222.334045	-3.007100	3.591400	-10.799000	25.590633	0.000386	20.751170
1223.331770	-2.981200	3.591900	-10.707000	25.612853	0.000386	20.758313
1224.352125	-2.989000	3.592200	-10.736000	25.606193	0.000385	20.751150
1225.335359	-3.003500	3.591800	-10.787000	25.638342	0.000382	20.743608
1226.339206	-3.004500	3.590700	-10.788000	25.605415	0.000384	20.770283
1227.330168	-2.978800	3.590900	-10.696000	25.662097	0.000382	20.760356
1228.345232	-3.036600	3.589000	-10.897000	25.635956	0.000380	20.772033
1229.335178	-2.998200	3.590300	-10.764000	25.657175	0.000384	20.741661
1230.329926	-2.991200	3.591100	-10.742000	25.675692	0.000385	20.751251
1231.345669	-2.999500	3.588100	-10.762000	25.690794	0.000380	20.772109
1232.332086	-3.021500	3.588300	-10.841000	25.645428	0.000384	20.753097
1233.331904	-3.011000	3.588700	-10.805000	25.645473	0.000382	20.765945
1234.336969	-3.005900	3.587900	-10.783000	25.624600	0.000382	20.766792
1235.341115	-2.997100	3.587600	-10.752000	25.607459	0.000382	20.774233
1236.333176	-3.015700	3.588200	-10.820000	25.587359	0.000381	20.756890
1237.345820	-2.996300	3.588000	-10.751000	25.578584	0.000379	20.748552
1238.334361	-2.996200	3.587200	-10.747000	25.576601	0.000379	20.763630
1239.345059	-3.002200	3.585300	-10.763000	25.593095	0.000380	20.750796
1240.335085	-2.984100	3.586900	-10.702000	25.609498	0.000377	20.773910
1241.333447	-3.008000	3.586700	-10.787000	25.621100	0.000379	20.786036
1242.332933	-2.985400	3.587100	-10.708000	25.682176	0.000379	20.782894
1243.334512	-3.001400	3.585000	-10.758000	25.724366	0.000377	20.750353
1244.339299	-3.014900	3.584900	-10.807000	25.715020	0.000378	20.761829
1245.332728	-2.999300	3.585100	-10.751000	25.663217	0.000378	20.777602
1246.332370	-3.002900	3.583600	-10.761000	25.645971	0.000377	20.776876
1247.339080	-2.993500	3.584500	-10.729000	25.636132	0.000377	20.750398
1248.334811	-3.032900	3.583600	-10.867000	25.678696	0.000374	20.777027
1249.333809	-3.024000	3.583500	-10.835000	25.622612	0.000376	20.766691
1250.347043	-3.007300	3.583000	-10.774000	25.621843	0.000377	20.755014
1251.334998	-3.019500	3.582700	-10.816000	25.596003	0.000376	20.765097
1252.337497	-2.994000	3.582700	-10.726000	25.582010	0.000374	20.762898
1253.336688	-3.005900	3.582500	-10.767000	25.645172	0.000374	20.758529
1254.343048	-3.024800	3.580800	-10.830000	25.627508	0.000375	20.771135
1255.337810	-2.994500	3.581300	-10.723000	25.638839	0.000373	20.774454
1256.338959	-2.989700	3.582100	-10.709000	25.647628	0.000373	20.795610
1257.342885	-3.019400	3.580100	-10.808000	25.637789	0.000373	20.784306
1258.341942	-3.008600	3.580100	-10.770000	25.631305	0.000370	20.782061
1259.343159	-3.013800	3.580300	-10.790000	25.624198	0.000374	20.782510
1260.342097	-2.987000	3.580900	-10.695000	25.679906	0.000372	20.773501
1261.346852	-3.012100	3.580200	-10.782000	25.686665	0.000371	20.788825
1262.347388	-3.014600	3.578300	-10.787000	25.660475	0.000371	20.790969
1263.345001	-3.005700	3.578500	-10.755000	25.684450	0.000371	20.779488
1264.345041	-2.997900	3.577900	-10.725000	25.697423	0.000370	20.780190
1265.341551	-3.017200	3.578200	-10.796000	25.723683	0.000372	20.777168
1266.351962	-2.998400	3.578800	-10.730000	25.688478	0.000370	20.782111
1267.342597	-2.994400	3.579000	-10.716000	25.659380	0.000369	20.796033
1268.341864	-3.004100	3.577200	-10.745000	25.673623	0.000367	20.772880
1269.346330	-2.991800	3.578400	-10.705000	25.699612	0.000368	20.782863
1270.357943	-2.999300	3.577700	-10.730000	25.729152	0.000367	20.787877
1271.343416	-3.030800	3.575600	-10.835000	25.735565	0.000369	20.805698
1272.342453	-3.018300	3.574600	-10.788000	25.722643	0.000368	20.780391
1273.353784	-3.006900	3.576600	-10.754000	25.698090	0.000367	20.798404
1274.344423	-2.998300	3.575500	-10.720000	25.661123	0.000366	20.782611
1275.339514	-2.965700	3.576000	-10.605000	25.693149	0.000364	20.757879
1276.353009	-3.005900	3.575500	-10.747000	25.702887	0.000364	20.798006
1277.354295	-2.989200	3.573900	-10.682000	25.702937	0.000364	20.793789
1278.347950	-2.993200	3.575700	-10.702000	25.710565	0.000366	20.788649
1279.346987	-3.027800	3.574400	-10.821000	25.728674	0.000364	20.792613
1280.353432	-2.999500	3.574100	-10.719000	25.709370	0.000365	20.796931
1281.359843	-2.997300	3.572300	-10.707000	25.735780	0.000365	20.795009
1282.355597	-2.992500	3.573800	-10.693000	25.755702	0.000365	20.781354
1283.345832	-2.988700	3.573100	-10.678000	25.782367	0.000363	20.774948
1284.346655	-2.998400	3.571900	-10.709000	25.739436	0.000363	20.811958
1285.346808	-3.003600	3.572300	-10.729000	25.702063	0.000362	20.803342
1286.343050	-3.014800	3.570800	-10.764000	25.724004	0.000362	20.807362
1287.349803	-2.988000	3.571500	-10.671000	25.731733	0.000361	20.792840
1288.354744	-3.012200	3.570900	-10.755000	25.702816	0.000361	20.790823
1289.348951	-3.013900	3.571400	-10.763000	25.731833	0.000362	20.791519
1290.347856	-2.986600	3.572100	-10.667000	25.708054	0.000358	20.794187
1291.352533	-2.989600	3.570400	-10.673000	25.696177	0.000362	20.810233
1292.350888	-3.009400	3.570000	-10.742000	25.699311	0.000360	20.790147
1293.347300	-2.996200	3.570200	-10.696000	25.697875	0.000359	20.791549
1294.353341	-2.996800	3.569500	-10.696000	25.728152	0.000360	20.816744
1295.353347	-2.986800	3.570600	-10.664000	25.737749	0.000358	20.805047
1296.346645	-3.000700	3.568500	-10.707000	25.681101	0.000357	20.793668
1297.354469	-3.008000	3.568200	-10.731000	25.698964	0.000358	20.803075
1298.356637	-3.004900	3.567800	-10.720000	25.713599	0.000356	20.791695
1299.355789	-2.991700	3.569000	-10.677000	25.760578	0.000356	20.791943
1300.348410	-2.979000	3.568100	-10.629000	25.766916	0.000356	20.808266
1301.347888	-3.014000	3.568000	-10.752000	25.758665	0.000355	20.796185
1302.351634	-3.012200	3.566700	-10.742000	25.760232	0.000356	20.799181
1303.349308	-2.990700	3.566300	-10.664000	25.789473	0.000355	20.801052
1304.352981	-3.008800	3.565500	-10.727000	25.808108	0.000355	20.815504
1305.349116	-3.003600	3.566400	-10.711000	25.785551	0.000354	20.820346
1306.352983	-2.979300	3.566900	-10.626000	25.757600	0.000354	20.810288
1307.353366	-3.009200	3.563800	-10.723000	25.688931	0.000354	20.817179
1308.349896	-2.977200	3.564500	-10.612000	25.671464	0.000354	20.806273
1309.354256	-2.999900	3.564900	-10.693000	25.674201	0.000354	20.813764
1310.362381	-2.995300	3.564700	-10.676000	25.676581	0.000353	20.820422
1311.352307	-3.016100	3.564700	-10.751000	25.690196	0.000355	20.820346
1312.361753	-3.014300	3.563000	-10.739000	25.721699	0.000351	20.832548
1313.358051	-2.986000	3.563300	-10.638000	25.780786	0.000355	20.813189
1314.354303	-3.015000	3.562700	-10.740000	25.793104	0.000354	20.799010
1315.354005	-3.006400	3.563900	-10.714000	25.795389	0.000352	20.824538
1316.362952	-2.997300	3.562700	-10.677000	25.828059	0.000353	20.812785
1317.355594	-2.996500	3.562600	-10.674000	25.821230	0.000353	20.808296
1318.361448	-2.994000	3.562100	-10.664000	25.822651	0.000351	20.813991
1319.354350	-2.984900	3.562300	-10.633000	25.809901	0.000351	20.825365
1320.368915	-2.987000	3.562100	-10.639000	25.811990	0.000352	20.817981
1321.358486	-2.989300	3.560700	-10.643000	25.782398	0.000350	20.815282
1322.358738	-2.998600	3.559900	-10.673000	25.718752	0.000350	20.806828
1323.362951	-2.997600	3.559400	-10.669000	25.717506	0.000352	20.807948
1324.361472	-3.002200	3.559900	-10.687000	25.713880	0.000350	20.804780
1325.364934	-2.999400	3.560900	-10.680000	25.659817	0.000350	20.823499
1326.356699	-2.994700	3.559600	-10.659000	25.690754	0.000347	20.830390
1327.359888	-3.015800	3.559200	-10.733000	25.696414	0.000351	20.827065
1328.357653	-3.017800	3.559400	-10.741000	25.718827	0.000348	20.822551
1329.374226	-3.019400	3.558500	-10.744000	25.746086	0.000348	20.824327
1330.370222	-3.007500	3.557800	-10.699000	25.730603	0.000349	20.824896
1331.358691	-3.030900	3.557600	-10.782000	25.756215	0.000345	20.835923
1332.364419	-2.994800	3.558100	-10.655000	25.737508	0.000349	20.833728
1333.369758	-2.999900	3.557100	-10.671000	25.693807	0.000347	20.821129
1334.368666	-2.986500	3.556900	-10.622000	25.670525	0.000347	20.841365
1335.366156	-3.033000	3.556100	-10.785000	25.688012	0.000347	20.843756
1336.359856	-3.002600	3.557100	-10.680000	25.678967	0.000346	20.827085
1337.367473	-3.009100	3.555500	-10.698000	25.712529	0.000345	20.836139
1338.371880	-2.991500	3.557800	-10.642000	25.723281	0.000348	20.846464
1339.361840	-2.987400	3.554300	-10.617000	25.743283	0.000344	20.843796
1340.361574	-3.023800	3.555300	-10.749000	25.762486	0.000345	20.838903
1341.361395	-2.991700	3.556500	-10.639000	25.760121	0.000346	20.837475
1342.361342	-2.996700	3.554100	-10.650000	25.752457	0.000345	20.847795
1343.366657	-3.005400	3.554500	-10.682000	25.793851	0.000343	20.815881
1344.367707	-3.001700	3.553700	-10.666000	25.772685	0.000343	20.814535
1345.363927	-3.025800	3.552700	-10.749000	25.749770	0.000346	20.834191
1346.364359	-2.986600	3.553700	-10.612000	25.725318	0.000342	20.842821
1347.372088	-2.995400	3.554600	-10.647000	25.671723	0.000342	20.859163
1348.362758	-2.994800	3.552700	-10.638000	25.675545	0.000342	20.833605
1349.367041	-3.001100	3.552500	-10.660000	25.632911	0.000342	20.850528
1350.364035	-3.009200	3.553000	-10.691000	25.630470	0.000343	20.833852
1351.366382	-3.005000	3.551500	-10.671000	25.652161	0.000342	20.843310
1352.364375	-3.012500	3.551200	-10.697000	25.639389	0.000341	20.847552
1353.373485	-3.010700	3.551200	-10.691000	25.672908	0.000342	20.828112
1354.370950	-3.013800	3.549300	-10.696000	25.684057	0.000342	20.859223
1355.362125	-2.999300	3.550700	-10.649000	25.682174	0.000340	20.848324
1356.374718	-3.013400	3.550100	-10.697000	25.704557	0.000341	20.851365
1357.367817	-2.975200	3.551500	-10.565000	25.719864	0.000341	20.825489
1358.365989	-3.000200	3.550900	-10.653000	25.788231	0.000339	20.842003
1359.367390	-2.992800	3.550100	-10.623000	25.772553	0.000340	20.851385
1360.370342	-3.007800	3.548400	-10.672000	25.728823	0.000339	20.856772
1361.365358	-3.007400	3.548800	-10.672000	25.733097	0.000338	20.867228
1362.374479	-3.016400	3.549200	-10.705000	25.742507	0.000339	20.854396
1363.378755	-2.983800	3.548400	-10.586000	25.750834	0.000336	20.858966
1364.389974	-3.013000	3.547000	-10.686000	25.757392	0.000337	20.868398
1365.371853	-3.007500	3.547100	-10.667000	25.812721	0.000336	20.835310
1366.367998	-2.991100	3.546300	-10.607000	25.820519	0.000337	20.854522
1367.372122	-3.015100	3.545400	-10.689000	25.836467	0.000336	20.860585
1368.378099	-3.005100	3.545300	-10.653000	25.837185	0.000335	20.875056
1369.367733	-2.997800	3.547400	-10.634000	25.772392	0.000335	20.854542
1370.372325	-2.989700	3.545700	-10.600000	25.799815	0.000335	20.851268
1371.367734	-3.004200	3.545400	-10.650000	25.804535	0.000334	20.847949
1372.366812	-3.000600	3.544500	-10.635000	25.846690	0.000331	20.852363
1373.377460	-2.983200	3.544200	-10.572000	25.874463	0.000334	20.852761
1374.375268	-3.023300	3.545400	-10.717000	25.857812	0.000333	20.862112
1375.377963	-3.000900	3.545000	-10.637000	25.845510	0.000332	20.849280
1376.370471	-3.014600	3.542900	-10.680000	25.856045	0.000332	20.861285
1377.374985	-3.007900	3.544400	-10.661000	25.845700	0.000331	20.848524
1378.378010	-2.970400	3.543500	-10.525000	25.813623	0.000330	20.870828
1379.373094	-2.970000	3.542900	-10.521000	25.838163	0.000330	20.865133
1380.375066	-2.993500	3.543600	-10.607000	25.776845	0.000331	20.859489
1381.374194	-2.979400	3.543500	-10.556000	25.750064	0.000331	20.858667
1382.372714	-3.004600	3.540600	-10.636000	25.742405	0.000330	20.876577
1383.373493	-2.978000	3.542100	-10.547000	25.739618	0.000330	20.900328
1384.375935	-3.007300	3.542700	-10.652000	25.802766	0.000330	20.877465
1385.373678	-3.018100	3.541600	-10.688000	25.788404	0.000330	20.863039
1386.382890	-3.001100	3.541800	-10.628000	25.833959	0.000328	20.859962
1387.374155	-3.004500	3.540200	-10.636000	25.824167	0.000330	20.879996
1388.376748	-3.000500	3.540400	-10.622000	25.762507	0.000328	20.876854
1389.381292	-3.006500	3.538500	-10.638000	25.775192	0.000327	20.877742
1390.375425	-2.989200	3.540300	-10.582000	25.748210	0.000329	20.887622
1391.378438	-2.986400	3.539000	-10.567000	25.789468	0.000328	20.884021
1392.380829	-2.975500	3.540100	-10.533000	25.806331	0.000327	20.879623
1393.376666	-3.006900	3.538500	-10.638000	25.821109	0.000327	20.872657
1394.385955	-3.006000	3.538400	-10.636000	25.795218	0.000326	20.882684
1395.377918	-3.000700	3.537200	-10.614000	25.803584	0.000327	20.857424
1396.391248	-3.010400	3.536600	-10.646000	25.776773	0.000326	20.861313
1397.383719	-3.020800	3.535500	-10.679000	25.763179	0.000325	20.869469
1398.381401	-3.003100	3.536200	-10.618000	25.790281	0.000325	20.869192
1399.383136	-3.016800	3.535400	-10.664000	25.802172	0.000326	20.871653
1400.385867	-2.992200	3.535800	-10.580000	25.813541	0.000324	20.886865
1401.387290	-2.996500	3.534200	-10.589000	25.832597	0.000325	20.880404
1402.400619	-2.970800	3.537100	-10.506000	25.873898	0.000326	20.857409
1403.384193	-2.976000	3.534600	-10.518000	25.865648	0.000323	20.870457
1404.385532	-2.997000	3.534600	-10.592000	25.836233	0.000324	20.873151
1405.383714	-2.985200	3.534300	-10.550000	25.816945	0.000323	20.872742
1406.384785	-3.002500	3.532900	-10.606000	25.824166	0.000322	20.883788
1407.387874	-2.995700	3.534400	-10.587000	25.868234	0.000322	20.891071
1408.385412	-2.980100	3.534000	-10.531000	25.896152	0.000321	20.890194
1409.387099	-2.991800	3.533100	-10.569000	25.839431	0.000323	20.882527
1410.389219	-2.990100	3.531700	-10.559000	25.797241	0.000319	20.887087
1411.396464	-3.027200	3.531400	-10.689000	25.799470	0.000320	20.892171
1412.387331	-3.002900	3.531900	-10.605000	25.846366	0.000320	20.871476
1413.391672	-2.963700	3.533700	-10.471000	25.862560	0.000320	20.873993
1414.389838	-2.997300	3.532200	-10.587000	25.863725	0.000319	20.884172
1415.392190	-2.981000	3.530800	-10.525000	25.864860	0.000321	20.882941
1416.391493	-2.995900	3.530600	-10.576000	25.847165	0.000320	20.882235
1417.389386	-2.981900	3.531400	-10.529000	25.762918	0.000318	20.875844
1418.394026	-2.991600	3.531700	-10.565000	25.779680	0.000318	20.876561
1419.390475	-3.001000	3.528900	-10.589000	25.817915	0.000321	20.902163
1420.389793	-2.985000	3.530600	-10.538000	25.833055	0.000316	20.890820
1421.392042	-2.974600	3.529200	-10.498000	25.813853	0.000318	20.900453
1422.390725	-3.008900	3.527800	-10.614000	25.798416	0.000316	20.882578
1423.396976	-3.016300	3.527800	-10.639000	25.781669	0.000316	20.887092
1424.391228	-2.989800	3.528000	-10.547000	25.789840	0.000315	20.899092
1425.390938	-3.018100	3.526700	-10.643000	25.738854	0.000316	20.890078
1426.396432	-2.993700	3.527400	-10.559000	25.694650	0.000317	20.892146
1427.392621	-2.992500	3.527200	-10.554000	25.700135	0.000316	20.909507
1428.392299	-2.986600	3.526600	-10.532000	25.773796	0.000317	20.909527
1429.393891	-2.996400	3.526700	-10.566000	25.818091	0.000314	20.908978
1430.393223	-2.995600	3.526800	-10.564000	25.788052	0.000316	20.884969
1431.400512	-2.992400	3.525000	-10.547000	25.753272	0.000314	20.889862
1432.392434	-2.989500	3.525900	-10.540000	25.749988	0.000317	20.891779
1433.392578	-3.020800	3.525800	-10.650000	25.762477	0.000314	20.900056
1434.403380	-2.967300	3.525500	-10.460000	25.751198	0.000313	20.902002
1435.399596	-2.976300	3.524000	-10.488000	25.718129	0.000313	20.917149
1436.400926	-2.997000	3.523100	-10.558000	25.727641	0.000312	20.915797
1437.396854	-2.998200	3.523300	-10.562000	25.745599	0.000313	20.912025
1438.395747	-2.999900	3.523700	-10.570000	25.792602	0.000312	20.908978
1439.401562	-3.002200	3.522300	-10.574000	25.820231	0.000314	20.905912
1440.396432	-2.987200	3.522400	-10.522000	25.837791	0.000310	20.919757
1441.406641	-2.979900	3.522800	-10.497000	25.838263	0.000312	20.912645
1442.403401	-2.991300	3.522800	-10.537000	25.857314	0.000311	20.891956
1443.396213	-2.993100	3.521600	-10.540000	25.818735	0.000312	20.918632
1444.396039	-2.987200	3.521900	-10.520000	25.816349	0.000311	20.906280
1445.398653	-2.999600	3.520600	-10.560000	25.789690	0.000312	20.913639
1446.403036	-2.989000	3.520500	-10.522000	25.819101	0.000311	20.891028
1447.404734	-2.996600	3.520900	-10.549000	25.822009	0.000310	20.925713
1448.400896	-3.013500	3.519200	-10.604000	25.819774	0.000311	20.916357
1449.397392	-2.989300	3.519100	-10.519000	25.813066	0.000310	20.919575
1450.397872	-2.991700	3.519100	-10.527000	25.796123	0.000308	20.931952
1451.401875	-2.999800	3.519200	-10.556000	25.785592	0.000309	20.905730
1452.399984	-3.018100	3.517700	-10.616000	25.762809	0.000307	20.905604
1453.402120	-2.977100	3.518900	-10.476000	25.785818	0.000307	20.911646
1454.412868	-2.988400	3.518300	-10.513000	25.832473	0.000306	20.903511
1455.396352	-2.990600	3.517500	-10.518000	25.829219	0.000306	20.931059
1456.399190	-2.976200	3.519000	-10.472000	25.805096	0.000307	20.917260
1457.403334	-2.967600	3.517900	-10.439000	25.834261	0.000305	20.899617
1458.398916	-2.988500	3.517500	-10.511000	25.855627	0.000307	20.917759
1459.401589	-2.983200	3.515400	-10.486000	25.853739	0.000304	20.903536
1460.402165	-3.014400	3.516500	-10.599000	25.915525	0.000306	20.884052
1461.402710	-2.997200	3.515600	-10.536000	25.833970	0.000306	20.890790
1462.410858	-3.002100	3.517000	-10.558000	25.838414	0.000307	20.903314
1463.404912	-2.985900	3.516000	-10.497000	25.881316	0.000307	20.880506
1464.407115	-3.000400	3.514300	-10.544000	25.898734	0.000304	20.909856
1465.407577	-3.006300	3.513100	-10.561000	25.886663	0.000305	20.919065
1466.401329	-3.001800	3.512400	-10.543000	25.862782	0.000306	20.885595
1467.411747	-2.998100	3.513100	-10.531000	25.865027	0.000304	20.888324
1468.411546	-2.988200	3.512700	-10.496000	25.909489	0.000305	20.889842
1469.414732	-2.993600	3.513600	-10.518000	25.897815	0.000305	20.902769
1470.401957	-2.986700	3.512600	-10.489000	25.933685	0.000303	20.889494
1471.401361	-3.013200	3.512500	-10.583000	25.899106	0.000304	20.885575
1472.413901	-2.972500	3.513700	-10.443000	25.869044	0.000303	20.882877
1473.403118	-3.000200	3.512200	-10.536000	25.844550	0.000302	20.898099
1474.414194	-3.018000	3.511700	-10.598000	25.851057	0.000304	20.897524
1475.403305	-2.992000	3.510900	-10.504000	25.812870	0.000302	20.855847
1476.411950	-3.013600	3.509400	-10.575000	25.796745	0.000303	20.881374
1477.404058	-2.994000	3.510900	-10.511000	25.810284	0.000304	20.865102
1478.404925	-3.001400	3.510800	-10.536000	25.806286	0.000303	20.890957
1479.405595	-3.008700	3.510900	-10.562000	25.810931	0.000301	20.882347
1480.409932	-2.994500	3.509500	-10.509000	25.827578	0.000301	20.882948
1481.405783	-2.985100	3.510700	-10.478000	25.847693	0.000300	20.883714
1482.405664	-3.010200	3.508200	-10.560000	25.824419	0.000304	20.877404
1483.408226	-2.985800	3.507900	-10.473000	25.841010	0.000299	20.872260
1484.406546	-3.016800	3.508900	-10.584000	25.805086	0.000301	20.881692
1485.407698	-3.006700	3.508600	-10.549000	25.780169	0.000297	20.872784
1486.408944	-3.005400	3.507900	-10.542000	25.800246	0.000299	20.867347
1487.416291	-2.972000	3.507900	-10.423000	25.831068	0.000299	20.866540
1488.410963	-2.989500	3.506200	-10.482000	25.828361	0.000299	20.849124
1489.407539	-2.993600	3.506100	-10.495000	25.792959	0.000297	20.867140
1490.412256	-2.995400	3.505900	-10.501000	25.802546	0.000299	20.856856
1491.412271	-2.987800	3.506100	-10.475000	25.797725	0.000297	20.867186
1492.410546	-2.994900	3.506900	-10.502000	25.816310	0.000298	20.858828
1493.410046	-3.006100	3.505200	-10.536000	25.806367	0.000297	20.882978
1494.415696	-2.982300	3.505800	-10.453000	25.856627	0.000296	20.855706
1495.410940	-2.971200	3.504800	-10.412000	25.828602	0.000295	20.848892
1496.416099	-3.000100	3.503500	-10.509000	25.871234	0.000296	20.872749
1497.412405	-2.978900	3.505000	-10.439000	25.839087	0.000295	20.862268
1498.412953	-3.016000	3.503300	-10.565000	25.813121	0.000295	20.858470
1499.414725	-2.988900	3.504100	-10.472000	25.795340	0.000295	20.862419
1500.418568	-3.018300	3.503400	-10.573000	25.808326	0.000292	20.840378
1501.414445	-3.001000	3.504000	-10.515000	25.829918	0.000293	20.854006
1502.415645	-2.998900	3.502200	-10.502000	25.885585	0.000292	20.875786
1503.415389	-3.004300	3.502400	-10.522000	25.851430	0.000294	20.871821
1504.415431	-2.998900	3.501400	-10.499000	25.866263	0.000295	20.852584
1505.417369	-3.034500	3.501000	-10.622000	25.922700	0.000292	20.872296
1506.421185	-2.999400	3.500100	-10.497000	25.929775	0.000294	20.844317
1507.418413	-3.009300	3.500400	-10.533000	25.890927	0.000295	20.852705
1508.414906	-3.008100	3.499100	-10.525000	25.818414	0.000294	20.850037
1509.415458	-2.988600	3.501600	-10.463000	25.831927	0.000293	20.868351
1510.418964	-2.993800	3.499200	-10.474000	25.790635	0.000292	20.856271
1511.420597	-3.001200	3.499700	-10.502000	25.778116	0.000293	20.854602
1512.420151	-3.007300	3.499500	-10.523000	25.807286	0.000291	20.847868
1513.418825	-3.004600	3.497600	-10.508000	25.817646	0.000290	20.843575
1514.421806	-3.012900	3.498200	-10.539000	25.832173	0.000291	20.839202
1515.422215	-2.992800	3.497900	-10.467000	25.863280	0.000289	20.853381
1516.421480	-2.995200	3.497400	-10.474000	25.869416	0.000290	20.851010
1517.425111	-2.993100	3.497500	-10.468000	25.860026	0.000290	20.847742
1518.424755	-2.971100	3.497500	-10.391000	25.847332	0.000289	20.849689
1519.422598	-2.995500	3.495600	-10.470000	25.826594	0.000290	20.847822
1520.422390	-2.988400	3.496000	-10.447000	25.834191	0.000289	20.859247
1521.424994	-2.996800	3.496500	-10.477000	25.872700	0.000287	20.831550
1522.422974	-2.988700	3.495400	-10.446000	25.894959	0.000288	20.841109
1523.426377	-2.993500	3.495700	-10.463000	25.852283	0.000288	20.838541
1524.423498	-2.996300	3.495300	-10.472000	25.828135	0.000287	20.837043
1525.425294	-3.013700	3.494700	-10.531000	25.770869	0.000287	20.855383
1526.425691	-3.010100	3.493300	-10.515000	25.801255	0.000287	20.858404
1527.425736	-3.000800	3.495200	-10.487000	25.827914	0.000286	20.840140
1528.428275	-2.997500	3.494200	-10.473000	25.824264	0.000285	20.873929
1529.428516	-3.002300	3.492500	-10.485000	25.856908	0.000284	20.846506
1530.426822	-3.013100	3.491800	-10.520000	25.892358	0.000286	20.835651
1531.432747	-2.989300	3.492800	-10.440000	25.842255	0.000285	20.847434
1532.428581	-2.994200	3.492600	-10.457000	25.839222	0.000287	20.859559
1533.427649	-2.990800	3.492200	-10.444000	25.827322	0.000283	20.869889
1534.428163	-3.011200	3.491400	-10.512000	25.831524	0.000286	20.850404
1535.431447	-3.004800	3.491900	-10.491000	25.835446	0.000286	20.846284
1536.428987	-3.002200	3.490600	-10.478000	25.860367	0.000282	20.845239
1537.428535	-3.004500	3.491200	-10.488000	25.843998	0.000283	20.850606
1538.429989	-2.993100	3.490400	-10.445000	25.867548	0.000283	20.838228
1539.437605	-2.998000	3.490600	-10.464000	25.868446	0.000283	20.826803
1540.429415	-2.987600	3.489500	-10.424000	25.852423	0.000280	20.859544
1541.429875	-3.010500	3.488700	-10.502000	25.832252	0.000282	20.837386
1542.429368	-3.008900	3.488100	-10.494000	25.879674	0.000282	20.843297
1543.429619	-3.013700	3.488600	-10.513000	25.943496	0.000284	20.826808
1544.429458	-3.003400	3.488800	-10.477000	25.962892	0.000282	20.853405
1545.433766	-3.002500	3.487100	-10.469000	25.979461	0.000281	20.857249
1546.429838	-3.008100	3.488100	-10.492000	25.983457	0.000282	20.854152
1547.430186	-3.006200	3.487400	-10.483000	25.985892	0.000281	20.860865
1548.431644	-3.006200	3.487200	-10.482000	25.965523	0.000280	20.851307
1549.432276	-2.993600	3.486600	-10.437000	25.940459	0.000281	20.838929
1550.437171	-2.999100	3.486000	-10.454000	25.924834	0.000281	20.839827
1551.434027	-3.000000	3.486500	-10.458000	25.876074	0.000279	20.841103
1552.433323	-2.997900	3.486000	-10.450000	25.838454	0.000277	20.833658
1553.434838	-3.032100	3.484900	-10.565000	25.856687	0.000279	20.854344
1554.436088	-3.015600	3.484300	-10.507000	25.900984	0.000281	20.852851
1555.438677	-2.972700	3.485500	-10.361000	25.890419	0.000276	20.841290
1556.436618	-2.990900	3.482900	-10.416000	25.923212	0.000277	20.827293
1557.440944	-2.999000	3.484300	-10.448000	25.953890	0.000279	20.835827
1558.437387	-3.004200	3.484000	-10.466000	25.934856	0.000275	20.837094
1559.441234	-3.022800	3.483100	-10.528000	25.919436	0.000277	20.857163
1560.438461	-2.995200	3.482800	-10.430000	25.920230	0.000278	20.831409
1561.440352	-3.016100	3.482800	-10.503000	25.951108	0.000274	20.863378
1562.439535	-2.995800	3.482600	-10.432000	25.958037	0.000275	20.851847
1563.447537	-2.984300	3.482200	-10.391000	25.953087	0.000276	20.840236
1564.442644	-3.007800	3.481400	-10.470000	25.957093	0.000276	20.829089
1565.442365	-3.021400	3.481400	-10.518000	25.945791	0.000275	20.828166
1566.447074	-3.011400	3.482100	-10.486000	25.943582	0.000276	20.840170
1567.444428	-3.000700	3.480400	-10.443000	25.931065	0.000273	20.844190
1568.444246	-2.969300	3.481600	-10.337000	25.924779	0.000277	20.810375
1569.445452	-2.994500	3.480200	-10.421000	25.902570	0.000276	20.844488
1570.444733	-3.003600	3.478700	-10.448000	25.870550	0.000274	20.833184
1571.445794	-3.004100	3.479500	-10.452000	25.866403	0.000274	20.843716
1572.448128	-3.018900	3.479300	-10.502000	25.897404	0.000273	20.816065
1573.444288	-2.977700	3.479200	-10.359000	25.892754	0.000271	20.828463
1574.446765	-3.002500	3.476800	-10.439000	25.882651	0.000273	20.818788
1575.466950	-3.010500	3.478500	-10.470000	25.882601	0.000270	20.826324
1576.464418	-2.985200	3.477000	-10.378000	25.883611	0.000271	20.821175
1577.465134	-2.994900	3.477000	-10.412000	25.899337	0.000271	20.810421
1578.468949	-3.006300	3.478100	-10.456000	25.891243	0.000271	20.817462
1579.462872	-2.997000	3.477200	-10.420000	25.877028	0.000271	20.822148
1580.450072	-3.025800	3.475200	-10.514000	25.894718	0.000270	20.829961
1581.450057	-2.987700	3.476600	-10.386000	25.893623	0.000271	20.807999
1582.463719	-3.006200	3.475400	-10.446000	25.867563	0.000269	20.840614
1583.470450	-3.001700	3.476100	-10.434000	25.875130	0.000270	20.824983
1584.476734	-3.018100	3.473900	-10.484000	25.892674	0.000268	20.824590
1585.478225	-3.010100	3.473800	-10.454000	25.954402	0.000268	20.828756
1586.474678	-2.985300	3.473900	-10.370000	25.962029	0.000268	20.830254
1587.476006	-2.970200	3.475800	-10.323000	25.942453	0.000270	20.816751
1588.469250	-3.010700	3.473200	-10.455000	25.924860	0.000266	20.831319
1589.452237	-3.013900	3.472500	-10.464000	25.865715	0.000267	20.846819
1590.454146	-2.998600	3.472900	-10.413000	25.820448	0.000267	20.847338
1591.470455	-2.996000	3.471600	-10.400000	25.832670	0.000265	20.821210
1592.455726	-2.995300	3.472400	-10.400000	25.807854	0.000265	20.820938
1593.459838	-3.009700	3.471700	-10.447000	25.822361	0.000264	20.832191
1594.457866	-3.007800	3.471000	-10.439000	25.872665	0.000265	20.822033
1595.457100	-3.006600	3.471900	-10.437000	25.877631	0.000263	20.811374
1596.457376	-3.008000	3.469800	-10.435000	25.896807	0.000263	20.822577
1597.460138	-3.003100	3.471500	-10.424000	25.894819	0.000267	20.820580
1598.460382	-3.013700	3.469400	-10.455000	25.947308	0.000263	20.827793
1599.474482	-3.034900	3.469200	-10.527000	25.981681	0.000264	20.811592
1600.480497	-3.008600	3.470300	-10.439000	26.003988	0.000263	20.829261
1601.477009	-2.998700	3.470000	-10.405000	25.962381	0.000262	20.825392
1602.474152	-3.008800	3.469200	-10.437000	25.906860	0.000262	20.829831
1603.477230	-3.015500	3.467600	-10.456000	25.896049	0.000263	20.826084
1604.481199	-2.993500	3.470100	-10.386000	25.919076	0.000261	20.829776
1605.478751	-3.037200	3.467500	-10.530000	25.923329	0.000264	20.812237
1606.476662	-3.003200	3.468000	-10.414000	25.954328	0.000263	20.810190
1607.461369	-2.969700	3.468600	-10.299000	25.981430	0.000262	20.810865
1608.485858	-2.957300	3.468300	-10.256000	26.007980	0.000261	20.819521
1609.480619	-3.003300	3.467300	-10.412000	26.010585	0.000263	20.810760
1610.482458	-2.990300	3.466100	-10.364000	25.992581	0.000260	20.787455
1611.485141	-3.013800	3.466200	-10.446000	25.988203	0.000262	20.815299
1612.480471	-2.983800	3.465900	-10.341000	25.953409	0.000259	20.804051
1613.482285	-3.003600	3.465600	-10.408000	25.916149	0.000259	20.807869
1614.464149	-3.003700	3.465100	-10.407000	25.897069	0.000260	20.810512
1615.487218	-3.017000	3.466100	-10.457000	25.869894	0.000260	20.817826
1616.482753	-2.995100	3.465200	-10.378000	25.903280	0.000260	20.803476
1617.484565	-2.990500	3.465100	-10.362000	25.932396	0.000257	20.803329
1618.490659	-2.990100	3.465100	-10.360000	25.948835	0.000257	20.807042
1619.466950	-2.993600	3.463100	-10.366000	25.949463	0.000257	20.811466
1620.467155	-2.979500	3.464500	-10.322000	25.919026	0.000258	20.814553
1621.466786	-2.993300	3.462400	-10.362000	25.901839	0.000257	20.792545
1622.468908	-3.012800	3.462100	-10.429000	25.876652	0.000255	20.812288
1623.482525	-2.994000	3.462200	-10.365000	25.849773	0.000257	20.808046
1624.485633	-3.031600	3.460500	-10.489000	25.908868	0.000258	20.792969
1625.486057	-3.003400	3.462900	-10.400000	25.922530	0.000259	20.818548
1626.483710	-2.972300	3.462200	-10.290000	25.889667	0.000255	20.799758
1627.489235	-3.004300	3.460700	-10.397000	25.879304	0.000256	20.811158
1628.484721	-2.989000	3.462300	-10.347000	25.888794	0.000254	20.796984
1629.487345	-3.006800	3.461400	-10.407000	25.906413	0.000257	20.795718
1630.486290	-3.022800	3.459300	-10.456000	25.963466	0.000254	20.794240
1631.470487	-2.997300	3.460000	-10.370000	25.966569	0.000256	20.783133
1632.470032	-3.006500	3.460100	-10.402000	25.949006	0.000257	20.796782
1633.470558	-3.007100	3.459700	-10.403000	25.916791	0.000255	20.815627
1634.470965	-2.993300	3.460000	-10.356000	25.902506	0.000253	20.796535
1635.471744	-2.990100	3.459600	-10.343000	25.957948	0.000256	20.792490
1636.476635	-3.015900	3.459100	-10.431000	25.986391	0.000256	20.811108
1637.471560	-3.008200	3.458700	-10.403000	26.004917	0.000254	20.793685
1638.471245	-2.982500	3.457700	-10.312000	25.970912	0.000254	20.786074
1639.471854	-2.994000	3.457100	-10.350000	25.913006	0.000256	20.788117
1640.470683	-3.017000	3.457600	-10.430000	25.868046	0.000252	20.787995
1641.471992	-2.987700	3.457200	-10.328000	25.856743	0.000252	20.794659
1642.477594	-3.026100	3.456100	-10.458000	25.866475	0.000250	20.795426
1643.472338	-3.004900	3.456400	-10.385000	25.888884	0.000252	20.814145
1644.473633	-3.001700	3.456500	-10.374000	25.910224	0.000251	20.795754
1645.477715	-3.021500	3.456000	-10.440000	25.921672	0.000250	20.781176
1646.474148	-3.010400	3.454600	-10.399000	25.906840	0.000251	20.772439
1647.478827	-2.990300	3.455000	-10.330000	25.872340	0.000249	20.789464
1648.475915	-2.989400	3.455600	-10.329000	25.898304	0.000250	20.769554
1649.477238	-3.012900	3.453200	-10.403000	25.912760	0.000250	20.791663
1650.476527	-3.007500	3.454000	-10.387000	25.922591	0.000248	20.764081
1651.477305	-3.002300	3.453700	-10.368000	25.941249	0.000249	20.773816
1652.478233	-3.011700	3.453600	-10.400000	25.969984	0.000248	20.800314
1653.494234	-3.008300	3.452500	-10.385000	25.936826	0.000249	20.796399
1654.503650	-2.997200	3.452200	-10.345000	25.935656	0.000247	20.773887
1655.492624	-3.003000	3.452300	-10.367000	25.929696	0.000249	20.783073
1656.497922	-3.015000	3.451900	-10.407000	25.938985	0.000248	20.784818
1657.497458	-3.009500	3.451000	-10.385000	25.997161	0.000246	20.786366
1658.505253	-2.986700	3.452200	-10.310000	25.985342	0.000247	20.768802
1659.496013	-3.011700	3.451500	-10.394000	25.968176	0.000247	20.789015
1660.492537	-3.003600	3.450600	-10.363000	25.968025	0.000243	20.771319
1661.495524	-2.991600	3.450300	-10.320000	25.925578	0.000244	20.785100
1662.477732	-2.988300	3.450500	-10.311000	25.935465	0.000244	20.784601
1663.499877	-2.981600	3.450400	-10.287000	25.949177	0.000245	20.768979
1664.494031	-2.994500	3.449200	-10.327000	25.987084	0.000245	20.779561
1665.477280	-3.021700	3.449700	-10.424000	26.019673	0.000244	20.779587
1666.478244	-2.991300	3.450700	-10.320000	26.043123	0.000243	20.770431
1667.477996	-3.020500	3.447900	-10.414000	26.045207	0.000242	20.780111
1668.480466	-3.025800	3.447500	-10.431000	26.005113	0.000242	20.764010
1669.493359	-3.000100	3.448700	-10.345000	26.018704	0.000242	20.752534
1670.478467	-2.996300	3.449200	-10.334000	25.982987	0.000240	20.771178
1671.477973	-3.005400	3.448000	-10.362000	25.975632	0.000240	20.771849
1672.480616	-3.009900	3.446300	-10.371000	25.968753	0.000242	20.769680
1673.496509	-3.017800	3.445800	-10.396000	25.988108	0.000241	20.792444
1674.500615	-2.991400	3.445800	-10.307000	25.986341	0.000241	20.773599
1675.501658	-2.963800	3.446300	-10.214000	25.980632	0.000239	20.769286
1676.479308	-2.982400	3.446800	-10.278000	25.973377	0.000241	20.756781
1677.482496	-2.994300	3.445300	-10.316000	25.934199	0.000240	20.752035
1678.480187	-3.016800	3.445100	-10.392000	25.935369	0.000241	20.778341
1679.498160	-2.989300	3.445500	-10.299000	25.902878	0.000239	20.769407
1680.503837	-3.025700	3.444700	-10.422000	25.900468	0.000238	20.765563
1681.480040	-3.004400	3.445000	-10.350000	25.909737	0.000238	20.777720
1682.498091	-3.000700	3.445600	-10.338000	25.936117	0.000236	20.763919
1683.496031	-3.006500	3.443500	-10.351000	25.973498	0.000238	20.751687
1684.496269	-2.994700	3.444700	-10.315000	25.971731	0.000236	20.767455
1685.498597	-3.001900	3.442500	-10.333000	25.952290	0.000239	20.779692
1686.499592	-2.989800	3.443200	-10.293000	25.949754	0.000237	20.786154
1687.493882	-2.992700	3.442800	-10.302000	26.008276	0.000238	20.756756
1688.480686	-2.989300	3.444000	-10.294000	26.023503	0.000238	20.761624
1689.481670	-2.999900	3.441600	-10.324000	26.036717	0.000238	20.770633
1690.500313	-2.988000	3.441400	-10.282000	26.052019	0.000236	20.755187
1691.480982	-2.980500	3.442000	-10.258000	26.007508	0.000236	20.758355
1692.504499	-3.011200	3.441500	-10.362000	25.980682	0.000236	20.747999
1693.498196	-2.992000	3.441300	-10.295000	26.011855	0.000237	20.751817
1694.499498	-3.024200	3.440400	-10.403000	26.027158	0.000236	20.770038
1695.500736	-3.003700	3.439300	-10.330000	26.026013	0.000236	20.762723
1696.493423	-2.987800	3.440200	-10.278000	25.967935	0.000235	20.762219
1697.510980	-3.002200	3.439000	-10.324000	25.969727	0.000234	20.755485
1698.484893	-2.999000	3.438400	-10.311000	25.947269	0.000235	20.767062
1699.485091	-2.983600	3.439500	-10.261000	25.963120	0.000233	20.750269
1700.484316	-2.988200	3.438600	-10.275000	25.920070	0.000234	20.744004
1701.510039	-2.980600	3.437600	-10.246000	25.903225	0.000236	20.742728
1702.506497	-2.978000	3.438800	-10.240000	25.901065	0.000233	20.758577
1703.486808	-2.990400	3.438200	-10.281000	25.856497	0.000230	20.748418
1704.488247	-2.994400	3.437100	-10.292000	25.906052	0.000235	20.774966
1705.506113	-2.985800	3.436500	-10.259000	25.897707	0.000233	20.761841
1706.512189	-2.988900	3.436900	-10.272000	25.926889	0.000231	20.748009
1707.506752	-2.984400	3.437400	-10.257000	25.937001	0.000233	20.744418
1708.491117	-3.007800	3.435100	-10.331000	25.987275	0.000231	20.732336
1709.491857	-2.986100	3.436000	-10.259000	25.973162	0.000231	20.738072
1710.509153	-2.974600	3.435200	-10.218000	25.982676	0.000229	20.727716
1711.510636	-2.973600	3.435400	-10.214000	25.997402	0.000230	20.748201
1712.492157	-3.009000	3.435100	-10.335000	26.007534	0.000230	20.751269
1713.513824	-2.991700	3.435200	-10.276000	25.995088	0.000230	20.751092
1714.492113	-3.028200	3.431900	-10.391000	26.031949	0.000228	20.763471
1715.513041	-3.009000	3.433100	-10.330000	26.021340	0.000228	20.749967
1716.512356	-3.003500	3.432100	-10.308000	26.002257	0.000226	20.742174
1717.512516	-3.018900	3.433100	-10.363000	26.014950	0.000229	20.735011
1718.510452	-2.991800	3.431900	-10.267000	25.996861	0.000227	20.755718
1719.519750	-3.008500	3.431000	-10.321000	25.999396	0.000226	20.750205
1720.516280	-2.981100	3.432900	-10.233000	26.010547	0.000226	20.742442
1721.493909	-3.002500	3.431900	-10.302000	25.985032	0.000224	20.738144
1722.494406	-3.001900	3.430500	-10.297000	25.959717	0.000227	20.754438
1723.498446	-3.000200	3.430100	-10.289000	25.927699	0.000226	20.751668
1724.497111	-2.994500	3.431900	-10.276000	25.875073	0.000226	20.751432
1725.494785	-3.005200	3.430200	-10.308000	25.912636	0.000224	20.735587
1726.494297	-2.990700	3.430200	-10.258000	25.961716	0.000225	20.752652
1727.510481	-2.997500	3.428600	-10.276000	26.022321	0.000224	20.746211
1728.513041	-3.011700	3.429100	-10.327000	26.055331	0.000224	20.755195
1729.513866	-3.006500	3.428000	-10.305000	26.066828	0.000224	20.730710
1730.496075	-3.006700	3.428300	-10.307000	26.051972	0.000224	20.739966
1731.512118	-2.976400	3.429300	-10.206000	26.082095	0.000224	20.747473
1732.497974	-3.027000	3.426200	-10.370000	26.104867	0.000223	20.717246
1733.500803	-3.010800	3.427600	-10.319000	26.117261	0.000224	20.747720
1734.515687	-3.002500	3.428300	-10.292000	26.122618	0.000224	20.740300
1735.499963	-3.009600	3.426200	-10.311000	26.147974	0.000223	20.745864
1736.500256	-2.995600	3.426100	-10.262000	26.157040	0.000222	20.748810
1737.501865	-2.980200	3.427200	-10.213000	26.132151	0.000222	20.766950
1738.500931	-2.984900	3.426800	-10.228000	26.058806	0.000222	20.745885
1739.530849	-2.993900	3.426300	-10.257000	26.029542	0.000223	20.743983
1740.522093	-3.011500	3.425400	-10.315000	25.985682	0.000222	20.735004
1741.515912	-3.034600	3.423300	-10.388000	25.992852	0.000222	20.718973
1742.521018	-2.983800	3.425200	-10.219000	26.044715	0.000218	20.762072
1743.521564	-2.981800	3.425700	-10.214000	26.062843	0.000220	20.762269
1744.520819	-3.016300	3.423800	-10.326000	26.051839	0.000222	20.754057
1745.500630	-2.984300	3.423800	-10.216000	26.032194	0.000222	20.743328
1746.502389	-2.989800	3.423400	-10.234000	26.026505	0.000219	20.728603
1747.517810	-2.977500	3.425200	-10.197000	26.012765	0.000219	20.765533
1748.521041	-2.996500	3.423300	-10.257000	25.988545	0.000219	20.753528
1749.527207	-2.999800	3.423900	-10.270000	26.023097	0.000220	20.738929
1750.522554	-2.995500	3.422900	-10.252000	26.062513	0.000221	20.744393
1751.529318	-2.997500	3.423300	-10.260000	26.094823	0.000220	20.758840
1752.530285	-3.021000	3.422400	-10.338000	26.123157	0.000218	20.731358
1753.507806	-2.995300	3.422500	-10.251000	26.082720	0.000218	20.741937
1754.506066	-3.010700	3.421400	-10.300000	26.043948	0.000217	20.742335
1755.507774	-3.010700	3.420900	-10.299000	26.061630	0.000218	20.754886
1756.533740	-2.988500	3.419900	-10.220000	26.040419	0.000219	20.757282
1757.521079	-2.998300	3.421000	-10.256000	26.076852	0.000217	20.730350
1758.523485	-2.987000	3.420600	-10.216000	26.086244	0.000216	20.762548
1759.524622	-2.998700	3.420000	-10.255000	26.084006	0.000216	20.732796
1760.537233	-2.980400	3.419100	-10.189000	26.054275	0.000219	20.742754
1761.523585	-3.024200	3.418100	-10.337000	26.033807	0.000214	20.738784
1762.532951	-3.020800	3.418700	-10.326000	26.007625	0.000214	20.747093
1763.509906	-3.023200	3.417500	-10.331000	26.035845	0.000213	20.733245
1764.527616	-2.989900	3.418700	-10.220000	26.094086	0.000213	20.746719
1765.530350	-2.984000	3.418800	-10.201000	26.061304	0.000213	20.741755
1766.528335	-3.005800	3.417400	-10.271000	26.021487	0.000212	20.764813
1767.508636	-2.999400	3.417100	-10.249000	26.034826	0.000213	20.761620
1768.526964	-2.993500	3.417200	-10.228000	26.078112	0.000215	20.748213
1769.530935	-3.000900	3.417500	-10.254000	26.094292	0.000213	20.745503
1770.530454	-3.006800	3.415500	-10.269000	26.031693	0.000212	20.757524
1771.530611	-3.022800	3.413500	-10.318000	26.066987	0.000213	20.753156
1772.532955	-3.000200	3.415700	-10.247000	26.103429	0.000212	20.773651
1773.512507	-2.996200	3.414000	-10.228000	26.129729	0.000211	20.766412
1774.512465	-3.004700	3.414600	-10.259000	26.139784	0.000210	20.749963
1775.531876	-3.001400	3.414400	-10.247000	26.107003	0.000209	20.772027
1776.528833	-2.986600	3.414400	-10.196000	26.121853	0.000210	20.754230
1777.526688	-2.987100	3.414600	-10.199000	26.074437	0.000208	20.758745
1778.531592	-3.000200	3.413800	-10.241000	26.068930	0.000208	20.757953
1779.532028	-2.973300	3.413900	-10.150000	26.062665	0.000211	20.755451
1780.530309	-3.000800	3.414100	-10.244000	26.081988	0.000207	20.773919
1781.527736	-2.991400	3.412100	-10.206000	26.010753	0.000206	20.765883
1782.531628	-3.001900	3.411600	-10.240000	26.039465	0.000207	20.768652
1783.531594	-3.002400	3.412300	-10.244000	26.019619	0.000208	20.769575
1784.513945	-3.013600	3.412500	-10.283000	26.045972	0.000206	20.762862
1785.530712	-3.001100	3.412100	-10.239000	26.091401	0.000208	20.762039
1786.542800	-3.025900	3.409600	-10.315000	26.110623	0.000206	20.762862
1787.538099	-3.027900	3.408800	-10.320000	26.105211	0.000206	20.780658
1788.515499	-2.989400	3.409700	-10.192000	26.075878	0.000205	20.757822
1789.514958	-2.995000	3.410500	-10.214000	26.029284	0.000208	20.746094
1790.515858	-3.002600	3.408800	-10.233000	26.032537	0.000205	20.773545
1791.521176	-2.999700	3.409900	-10.229000	26.031518	0.000206	20.770150
1792.547094	-2.983400	3.409700	-10.172000	26.032692	0.000205	20.754260
1793.538095	-2.998100	3.408700	-10.219000	26.061826	0.000204	20.774049
1794.533220	-2.977600	3.409500	-10.151000	26.107721	0.000205	20.781757
1795.532507	-3.006400	3.407300	-10.243000	26.096697	0.000204	20.768309
1796.535190	-3.004100	3.408100	-10.237000	26.103650	0.000203	20.788572
1797.535862	-3.017200	3.407200	-10.280000	26.054421	0.000202	20.766135
1798.518917	-3.015200	3.406900	-10.271000	26.103549	0.000203	20.777091
1799.515335	-3.037000	3.405800	-10.343000	26.106005	0.000203	20.795679
1800.518469	-3.008400	3.406900	-10.248000	26.079307	0.000202	20.782131
1801.515170	-3.017700	3.405800	-10.277000	26.086807	0.000202	20.768804
1802.516838	-2.992100	3.406100	-10.191000	26.114252	0.000202	20.768405
1803.517914	-3.003600	3.406000	-10.230000	26.097285	0.000203	20.786444
1804.519621	-3.002000	3.405800	-10.222000	26.131904	0.000201	20.777606
1805.518071	-3.009000	3.403800	-10.241000	26.131733	0.000201	20.816789
1806.518978	-2.992600	3.404900	-10.188000	26.074086	0.000202	20.778307
1807.534663	-3.013200	3.403700	-10.255000	26.106321	0.000202	20.763281
1808.539355	-3.014700	3.403900	-10.261000	26.119062	0.000202	20.766600
1809.519969	-2.981400	3.404500	-10.149000	26.051008	0.000202	20.786888
1810.518530	-2.989100	3.403100	-10.171000	26.010297	0.000200	20.785339
1811.535307	-3.005000	3.404600	-10.230000	25.998523	0.000202	20.781097
1812.533360	-3.001300	3.401600	-10.209000	26.015388	0.000201	20.785239
1813.539521	-3.010200	3.402500	-10.242000	26.041770	0.000201	20.778080
1814.536988	-3.001300	3.402000	-10.210000	26.019715	0.000200	20.765878
1815.533201	-2.993600	3.402600	-10.185000	26.081582	0.000202	20.793899
1816.543942	-3.008500	3.400500	-10.230000	26.095744	0.000201	20.799120
1817.517972	-3.023500	3.400900	-10.281000	26.058684	0.000198	20.796023
1818.524299	-3.009300	3.400500	-10.232000	26.071576	0.000201	20.784794
1819.538050	-3.005700	3.400600	-10.220000	26.040680	0.000199	20.798797
1820.534410	-3.022100	3.398300	-10.269000	26.074884	0.000198	20.783851
1821.519954	-3.004600	3.398800	-10.212000	26.060727	0.000199	20.790015
1822.536944	-2.987100	3.399000	-10.153000	26.093439	0.000197	20.808658
1823.541231	-2.986700	3.399600	-10.152000	26.128655	0.000198	20.794731
1824.540277	-3.011500	3.398700	-10.232000	26.145623	0.000197	20.805142
1825.523448	-3.008600	3.399100	-10.225000	26.139614	0.000198	20.794837
1826.519669	-3.042700	3.397200	-10.336000	26.135542	0.000195	20.807815
1827.520825	-2.953300	3.398500	-10.035000	26.151089	0.000195	20.802100
1828.521924	-2.995400	3.398000	-10.177000	26.176470	0.000195	20.794413
1829.539097	-3.003100	3.397100	-10.201000	26.182604	0.000197	20.796784
1830.543623	-2.995100	3.395300	-10.168000	26.185385	0.000194	20.807639
1831.539907	-3.018000	3.395800	-10.248000	26.154493	0.000195	20.803149
1832.539944	-2.996400	3.396300	-10.176000	26.158438	0.000193	20.809485
1833.543834	-3.010300	3.396100	-10.222000	26.145873	0.000195	20.807765
1834.525381	-3.012400	3.395300	-10.227000	26.147334	0.000195	20.793112
1835.522434	-2.998700	3.395600	-10.182000	26.130351	0.000193	20.802125
1836.526990	-3.003400	3.395300	-10.196000	26.105683	0.000193	20.797253
1837.525094	-3.009200	3.394800	-10.214000	26.119318	0.000191	20.805263
1838.526451	-2.998400	3.393700	-10.174000	26.109534	0.000192	20.815821
1839.524803	-2.986800	3.394400	-10.137000	26.145989	0.000193	20.829218
1840.524945	-2.982700	3.394700	-10.125000	26.155472	0.000192	20.819781
1841.526751	-2.996400	3.394000	-10.169000	26.190762	0.000193	20.807826
1842.526834	-2.996600	3.392400	-10.165000	26.210530	0.000190	20.807776
1843.526044	-3.002600	3.392100	-10.185000	26.126808	0.000190	20.804729
1844.526089	-3.006000	3.392500	-10.197000	26.097777	0.000192	20.808275
1845.543577	-3.006700	3.392300	-10.198000	26.076537	0.000191	20.813960
1846.527728	-2.989700	3.391700	-10.140000	26.076607	0.000190	20.823040
1847.544009	-2.989400	3.393100	-10.143000	26.077200	0.000191	20.816049
1848.527647	-3.016800	3.390400	-10.228000	26.126649	0.000191	20.836336
1849.547323	-2.987600	3.391700	-10.132000	26.128707	0.000191	20.814697
1850.544880	-2.991400	3.391500	-10.144000	26.084866	0.000191	20.820433
1851.544122	-3.003000	3.390300	-10.180000	26.095871	0.000187	20.824377
1852.545931	-2.989800	3.389600	-10.133000	26.071005	0.000188	20.824998
1853.545919	-2.999300	3.390700	-10.168000	26.120947	0.000187	20.830607
1854.529458	-2.971200	3.391400	-10.076000	26.176754	0.000187	20.811768
1855.546282	-3.001000	3.388000	-10.166000	26.151193	0.000189	20.831601
1856.544187	-2.984500	3.389500	-10.114000	26.159260	0.000186	20.814578
1857.528833	-3.012500	3.388500	-10.207000	26.123151	0.000188	20.826658
1858.532062	-2.998400	3.388900	-10.160000	26.150762	0.000189	20.831168
1859.528913	-3.005000	3.388300	-10.181000	26.127067	0.000186	20.824429
1860.530491	-2.993000	3.388300	-10.140000	26.185881	0.000185	20.822361
1861.531572	-2.999400	3.387700	-10.160000	26.202265	0.000188	20.813222
1862.548397	-2.999300	3.387900	-10.161000	26.205267	0.000184	20.827144
1863.534768	-3.000200	3.386200	-10.159000	26.194957	0.000186	20.822473
1864.531921	-2.985200	3.387400	-10.111000	26.186193	0.000187	20.825994
1865.531374	-2.991000	3.385600	-10.126000	26.188743	0.000184	20.832824
1866.529687	-3.002400	3.385800	-10.165000	26.217456	0.000185	20.820425
1867.547794	-2.992900	3.386700	-10.135000	26.234939	0.000185	20.840364
1868.548823	-2.994900	3.385500	-10.138000	26.278372	0.000184	20.828536
1869.554839	-3.007400	3.384400	-10.177000	26.332249	0.000185	20.826731
1870.553466	-3.006200	3.384300	-10.173000	26.329418	0.000183	20.840481
1871.547476	-2.998900	3.384800	-10.150000	26.348466	0.000185	20.839709
1872.532926	-3.013500	3.383900	-10.196000	26.352336	0.000185	20.841702
1873.551343	-2.989100	3.383800	-10.113000	26.321594	0.000183	20.838307
1874.532578	-2.990000	3.384600	-10.119000	26.289536	0.000184	20.833117
1875.531560	-2.989000	3.383400	-10.112000	26.274855	0.000182	20.842545
1876.530950	-3.012100	3.383200	-10.189000	26.206368	0.000183	20.850534
1877.535221	-3.014300	3.382300	-10.194000	26.215951	0.000183	20.834560
1878.533592	-2.998600	3.382600	-10.142000	26.264922	0.000183	20.828295
1879.537110	-2.999100	3.382200	-10.143000	26.265389	0.000181	20.851523
1880.533307	-3.009500	3.382500	-10.178000	26.283569	0.000183	20.840870
1881.533601	-3.028200	3.379200	-10.231000	26.235342	0.000182	20.831761
1882.549047	-2.979900	3.381400	-10.075000	26.265163	0.000181	20.841814
1883.535464	-3.005900	3.380800	-10.162000	26.288312	0.000178	20.827146
1884.557218	-3.004900	3.380000	-10.156000	26.309689	0.000180	20.857163
1885.550265	-2.977100	3.380900	-10.064000	26.338966	0.000180	20.850550
1886.537226	-2.977700	3.381400	-10.068000	26.343217	0.000178	20.856718
1887.536806	-3.019900	3.380000	-10.206000	26.302441	0.000180	20.856043
1888.536176	-3.024800	3.378500	-10.219000	26.326182	0.000180	20.835806
1889.550821	-3.009300	3.378200	-10.164000	26.299882	0.000177	20.852996
1890.537146	-3.012700	3.379100	-10.180000	26.265489	0.000178	20.858262
1891.557960	-2.987100	3.378500	-10.091000	26.225830	0.000177	20.845435
1892.538372	-2.968000	3.378700	-10.027000	26.256449	0.000177	20.866721
1893.564548	-2.994700	3.378200	-10.116000	26.250039	0.000179	20.855064
1894.557540	-3.009700	3.377500	-10.164000	26.190516	0.000176	20.850252
1895.540707	-3.011000	3.376400	-10.165000	26.223120	0.000177	20.854565
1896.540990	-3.001200	3.375500	-10.130000	26.206329	0.000177	20.868038
1897.540636	-3.012400	3.375000	-10.166000	26.234640	0.000178	20.858081
1898.539905	-2.993200	3.376200	-10.104000	26.253488	0.000176	20.851418
1899.545666	-3.009500	3.374900	-10.155000	26.233295	0.000172	20.894185
1900.539638	-3.008100	3.375800	-10.152000	26.259718	0.000172	20.870479
1901.541389	-2.995500	3.375700	-10.111000	26.307797	0.000175	20.854313
1902.540993	-3.006400	3.374100	-10.143000	26.361431	0.000174	20.857007
1903.541925	-2.992400	3.374600	-10.098000	26.292193	0.000176	20.842425
1904.543435	-3.007400	3.374500	-10.148000	26.270173	0.000174	20.865814
1905.542476	-3.020300	3.373400	-10.188000	26.307170	0.000173	20.868855
1906.568758	-3.002400	3.372900	-10.126000	26.303692	0.000174	20.850662
1907.560331	-2.975000	3.373300	-10.035000	26.283279	0.000172	20.836786
1908.563838	-2.998600	3.371900	-10.109000	26.258443	0.000172	20.872518
1909.562379	-2.996100	3.372500	-10.104000	26.257972	0.000172	20.874888
1910.565356	-3.013000	3.370900	-10.155000	26.293704	0.000172	20.857220
1911.570730	-2.984700	3.371900	-10.063000	26.312506	0.000173	20.862364
1912.566745	-3.008700	3.371400	-10.142000	26.368570	0.000174	20.861336
1913.563107	-2.986900	3.370900	-10.068000	26.370758	0.000170	20.858793
1914.549489	-3.005900	3.370700	-10.131000	26.385709	0.000173	20.869552
1915.551264	-2.982700	3.371900	-10.057000	26.404700	0.000172	20.865880
1916.547947	-2.969800	3.371400	-10.012000	26.418602	0.000173	20.878903
1917.552457	-2.982400	3.369900	-10.050000	26.390201	0.000171	20.869799
1918.548166	-2.976000	3.371900	-10.034000	26.343896	0.000170	20.884426
1919.548668	-2.996900	3.369400	-10.097000	26.326585	0.000169	20.878409
1920.548322	-3.009300	3.368600	-10.137000	26.321842	0.000167	20.892133
1921.549103	-3.001200	3.367300	-10.105000	26.298673	0.000168	20.884971
1922.550040	-3.020600	3.367900	-10.172000	26.266891	0.000168	20.899497
1923.548759	-3.018800	3.367800	-10.166000	26.280348	0.000170	20.856599
1924.549276	-3.020200	3.366900	-10.167000	26.308928	0.000167	20.881526
1925.564641	-3.010400	3.367600	-10.136000	26.312310	0.000167	20.881132
1926.569841	-2.995200	3.366600	-10.083000	26.361427	0.000168	20.884975
1927.567505	-2.997500	3.366200	-10.090000	26.354993	0.000167	20.896526
1928.550927	-2.993400	3.366800	-10.077000	26.408825	0.000165	20.889939
1929.551531	-2.994000	3.366500	-10.078000	26.408875	0.000168	20.888093
1930.565811	-3.001100	3.365300	-10.099000	26.380223	0.000166	20.883003
1931.569720	-2.997900	3.365400	-10.088000	26.333591	0.000165	20.902518
1932.566257	-3.004200	3.364300	-10.107000	26.350154	0.000166	20.888819
1933.554354	-2.992400	3.364900	-10.068000	26.358721	0.000164	20.895532
1934.552310	-2.980500	3.363600	-10.025000	26.366170	0.000165	20.881208
1935.553253	-3.018700	3.363600	-10.153000	26.410240	0.000163	20.884723
1936.574296	-3.005700	3.364100	-10.111000	26.384619	0.000163	20.895007
1937.552678	-2.999100	3.363200	-10.086000	26.374912	0.000166	20.886201
1938.556110	-2.991200	3.365000	-10.065000	26.381267	0.000164	20.908706
1939.575234	-2.999200	3.363100	-10.086000	26.417773	0.000165	20.903672
1940.573303	-2.994400	3.363500	-10.071000	26.367619	0.000162	20.886457
1941.570343	-3.021500	3.361800	-10.156000	26.351674	0.000162	20.909785
1942.573072	-2.999700	3.362400	-10.085000	26.351775	0.000162	20.905145
1943.573942	-3.004300	3.361500	-10.098000	26.364021	0.000164	20.899909
1944.584216	-3.007900	3.361700	-10.111000	26.360693	0.000162	20.909840
1945.573237	-3.010300	3.361000	-10.115000	26.347583	0.000162	20.899510
1946.570405	-2.990900	3.360400	-10.050000	26.332837	0.000159	20.896070
1947.555282	-3.031400	3.359300	-10.182000	26.330799	0.000162	20.913935
1948.574897	-2.991400	3.360100	-10.051000	26.381285	0.000160	20.900191
1949.561169	-3.020500	3.359700	-10.147000	26.404677	0.000161	20.901890
1950.555113	-2.988300	3.359400	-10.038000	26.427869	0.000161	20.907655
1951.556669	-2.999600	3.359300	-10.075000	26.380948	0.000160	20.894637
1952.555355	-3.010800	3.359100	-10.112000	26.398675	0.000159	20.921459
1953.556313	-3.006000	3.357900	-10.093000	26.376777	0.000160	20.910358
1954.555600	-2.997300	3.359000	-10.068000	26.385741	0.000161	20.918892
1955.557517	-2.993300	3.357800	-10.050000	26.366498	0.000161	20.916622
1956.557975	-2.990800	3.357200	-10.040000	26.429594	0.000160	20.918397
1957.556231	-3.011600	3.355900	-10.106000	26.437644	0.000158	20.910841
1958.574915	-2.993700	3.357400	-10.051000	26.459394	0.000160	20.908995
1959.578945	-3.006100	3.356000	-10.088000	26.417238	0.000158	20.908824
1960.575911	-3.018900	3.356300	-10.131000	26.332243	0.000157	20.910645
1961.577219	-3.017300	3.356500	-10.126000	26.309872	0.000158	20.928938
1962.577105	-2.976900	3.357700	-9.994900	26.312958	0.000156	20.920660
1963.584784	-3.005300	3.354400	-10.080000	26.381589	0.000156	20.935106
1964.562605	-3.009200	3.355800	-10.098000	26.394055	0.000158	20.937678
1965.581634	-2.996600	3.356300	-10.056000	26.412504	0.000154	20.941995
1966.580537	-2.998400	3.353800	-10.055000	26.421146	0.000155	20.930768
1967.581594	-2.990400	3.354900	-10.032000	26.434155	0.000157	20.946211
1968.580848	-3.008900	3.355400	-10.095000	26.430039	0.000156	20.931171
1969.586010	-2.996000	3.354500	-10.050000	26.380012	0.000155	20.947270
1970.586462	-2.990100	3.352900	-10.024000	26.363650	0.000155	20.936517
1971.580613	-2.986600	3.354100	-10.016000	26.379394	0.000155	20.934797
1972.587079	-3.002200	3.353500	-10.067000	26.413913	0.000154	20.939618
1973.563179	-2.996400	3.353200	-10.047000	26.435684	0.000155	20.949171
1974.561950	-2.989800	3.352500	-10.022000	26.440903	0.000154	20.930237
1975.563573	-2.998200	3.353600	-10.054000	26.453194	0.000153	20.939744
1976.566306	-2.993600	3.352300	-10.035000	26.485297	0.000152	20.935028
1977.563357	-3.019200	3.350400	-10.114000	26.553424	0.000153	20.948979
1978.585320	-3.007200	3.350600	-10.074000	26.547739	0.000154	20.937101
1979.578252	-2.988300	3.351200	-10.013000	26.494561	0.000154	20.941020
1980.584037	-3.011900	3.350600	-10.090000	26.438946	0.000151	20.943915
1981.584658	-3.003200	3.350100	-10.060000	26.460997	0.000151	20.948060
1982.567578	-2.993800	3.351100	-10.031000	26.432120	0.000152	20.943219
1983.563765	-2.989600	3.349800	-10.013000	26.388422	0.000153	20.959514
1984.564960	-2.996700	3.349700	-10.037000	26.369802	0.000150	20.947440
1985.583972	-2.988400	3.349000	-10.007000	26.413079	0.000150	20.935461
1986.580071	-2.994700	3.347400	-10.023000	26.484262	0.000149	20.937307
1987.582982	-2.991700	3.349300	-10.019000	26.513484	0.000152	20.949609
1988.585114	-3.032000	3.347000	-10.146000	26.544988	0.000149	20.943345
1989.588858	-3.021800	3.347300	-10.113000	26.550403	0.000151	20.961587
1990.567453	-3.013500	3.346800	-10.084000	26.586076	0.000149	20.951455
1991.584704	-2.969800	3.347100	-9.939500	26.568006	0.000148	20.938033
1992.583900	-2.996200	3.345700	-10.024000	26.569045	0.000149	20.936233
1993.586291	-2.998100	3.347800	-10.036000	26.561026	0.000148	20.929596
1994.595659	-2.984700	3.345500	-9.984100	26.582227	0.000147	20.922459
1995.585902	-3.008000	3.346200	-10.063000	26.588359	0.000146	20.923881
1996.583506	-3.027400	3.344000	-10.122000	26.542901	0.000149	20.901896
1997.567131	-2.995100	3.345200	-10.018000	26.477578	0.000146	20.922530
1998.589146	-3.018400	3.345000	-10.096000	26.500843	0.000147	20.918888
1999.567147	-3.014700	3.343500	-10.079000	26.562858	0.000148	20.919585
2000.583230	-2.993300	3.344600	-10.010000	26.577480	0.000146	20.934282
2001.594403	-3.009700	3.343500	-10.062000	26.605460	0.000147	20.903142
2002.569051	-2.994000	3.344600	-10.013000	26.610047	0.000147	20.905856
2003.573861	-3.017800	3.342800	-10.087000	26.629214	0.000146	20.908529
2004.599961	-3.003600	3.343100	-10.041000	26.607121	0.000144	20.924724
2005.586257	-2.995400	3.342500	-10.011000	26.601707	0.000146	20.910274
2006.582398	-3.010300	3.342500	-10.062000	26.587586	0.000146	20.912200
2007.568751	-3.009400	3.341500	-10.055000	26.612234	0.000144	20.918011
2008.586495	-3.011000	3.342700	-10.064000	26.650936	0.000144	20.901917
2009.585557	-2.998000	3.342400	-10.019000	26.600743	0.000142	20.908357
2010.587294	-3.002100	3.340200	-10.027000	26.605259	0.000142	20.914319
2011.586535	-3.017600	3.340200	-10.079000	26.623855	0.000144	20.912150
2012.589678	-3.017400	3.340300	-10.078000	26.636219	0.000142	20.898028
2013.569274	-3.020900	3.340400	-10.090000	26.651613	0.000141	20.905916
2014.589925	-2.974500	3.340200	-9.934400	26.581480	0.000142	20.915544
2015.571335	-3.009600	3.339600	-10.050000	26.588259	0.000140	20.905765
2016.584437	-3.004100	3.339200	-10.030000	26.596448	0.000141	20.916367
2017.569709	-3.008100	3.338100	-10.040000	26.562963	0.000139	20.882235
2018.586738	-3.007700	3.338600	-10.041000	26.587365	0.000139	20.903919
2019.588971	-3.015500	3.337700	-10.064000	26.555120	0.000140	20.899006
2020.588013	-3.016400	3.337900	-10.068000	26.582799	0.000140	20.905966
2021.569175	-3.014400	3.337700	-10.061000	26.603598	0.000138	20.907908
2022.586907	-3.013200	3.337200	-10.054000	26.650940	0.000139	20.894810
2023.589264	-3.017800	3.336100	-10.067000	26.711035	0.000140	20.892162
2024.584449	-2.965800	3.337800	-9.898300	26.663399	0.000140	20.909704
2025.586256	-3.013000	3.335000	-10.048000	26.650068	0.000139	20.888243
2026.587625	-3.013000	3.335300	-10.048000	26.608636	0.000136	20.893534
2027.589047	-2.996100	3.335700	-9.993600	26.606403	0.000138	20.908357
2028.592878	-3.001100	3.334800	-10.008000	26.648552	0.000138	20.902840
2029.585865	-2.985300	3.335600	-9.957600	26.705325	0.000137	20.892111
2030.590088	-2.996200	3.335400	-9.992600	26.684894	0.000137	20.899546
2031.589755	-3.023000	3.334200	-10.078000	26.658131	0.000137	20.892556
2032.572611	-3.000800	3.333800	-10.003000	26.595821	0.000137	20.902936
2033.586058	-2.986700	3.333700	-9.955600	26.627574	0.000137	20.887915
2034.590286	-3.013800	3.333600	-10.045000	26.667067	0.000136	20.906280
2035.570300	-3.009800	3.332000	-10.028000	26.674368	0.000136	20.874741
2036.600230	-2.999300	3.334000	-9.998300	26.668733	0.000134	20.883300
2037.588797	-2.999100	3.333700	-9.996900	26.637574	0.000137	20.882322
2038.586043	-2.994000	3.332500	-9.975800	26.591255	0.000135	20.886019
2039.590250	-3.006100	3.332100	-10.016000	26.628934	0.000134	20.901135
2040.588011	-3.017100	3.331200	-10.050000	26.682953	0.000134	20.887164
2041.577546	-3.002200	3.330000	-9.996400	26.704177	0.000136	20.890009
2042.590169	-3.000100	3.330900	-9.992100	26.722620	0.000133	20.891481
2043.594577	-2.990700	3.330800	-9.960800	26.673019	0.000132	20.862480
2044.590352	-3.002500	3.329900	-9.997300	26.710884	0.000135	20.878735
2045.576150	-2.992400	3.330900	-9.965200	26.719394	0.000133	20.894402
2046.598101	-3.024800	3.328200	-10.067000	26.675762	0.000133	20.883729
2047.593854	-3.005800	3.329400	-10.006000	26.686751	0.000133	20.877233
2048.592242	-2.988500	3.328700	-9.946400	26.617076	0.000130	20.882105
2049.595812	-3.005800	3.327800	-10.002000	26.645622	0.000132	20.898472
2050.575753	-2.999900	3.327100	-9.980600	26.638939	0.000130	20.885590
2051.579144	-3.005900	3.328700	-10.005000	26.650434	0.000132	20.880077
2052.598169	-2.984700	3.328200	-9.932700	26.703133	0.000130	20.876633
2053.596573	-3.010000	3.327600	-10.015000	26.671232	0.000129	20.890554
2054.595042	-3.002900	3.328300	-9.992400	26.653831	0.000129	20.887285
2055.593863	-2.981900	3.327300	-9.921100	26.703971	0.000128	20.900707
2056.597051	-3.009500	3.325300	-10.006000	26.669321	0.000129	20.890528
2057.600987	-2.987000	3.327200	-9.937700	26.709711	0.000127	20.887038
2058.578339	-3.005600	3.326100	-9.996000	26.730011	0.000129	20.880895
2059.609491	-2.982400	3.325300	-9.916900	26.726514	0.000127	20.873586
2060.602140	-2.998000	3.324700	-9.966500	26.722144	0.000128	20.895744
2061.598966	-3.010300	3.324700	-10.006000	26.712390	0.000128	20.897791
2062.597364	-3.009300	3.325200	-10.005000	26.700499	0.000126	20.878726
2063.584046	-3.008100	3.323300	-9.996100	26.701668	0.000126	20.871367
2064.583113	-3.009200	3.323100	-9.998700	26.709194	0.000126	20.863286
2065.604261	-3.008700	3.323100	-9.997600	26.710599	0.000124	20.862803
2066.601424	-3.021700	3.322800	-10.039000	26.735053	0.000124	20.885490
2067.599239	-2.986600	3.323500	-9.925100	26.734556	0.000126	20.882620
2068.609541	-3.008400	3.323000	-9.996000	26.752633	0.000122	20.877086
2069.608665	-3.014300	3.322600	-10.014000	26.711351	0.000126	20.858343
2070.601257	-3.011900	3.321500	-10.003000	26.688337	0.000124	20.875508
2071.587852	-2.997300	3.320600	-9.951100	26.685708	0.000121	20.869072
2072.602495	-3.005200	3.321600	-9.981600	26.736744	0.000124	20.869173
2073.603864	-2.979800	3.321700	-9.896900	26.739724	0.000123	20.862686
2074.611281	-3.021900	3.319500	-10.030000	26.731807	0.000123	20.871795
2075.608002	-2.982900	3.321200	-9.906200	26.781150	0.000123	20.874938
2076.588525	-2.986800	3.319300	-9.912800	26.823764	0.000122	20.881747
2077.591484	-2.994500	3.319700	-9.940000	26.840273	0.000123	20.879855
2078.588173	-2.992100	3.320200	-9.933600	26.880848	0.000124	20.864704
2079.606166	-2.985400	3.318700	-9.907000	26.923412	0.000122	20.868623
2080.612489	-3.011900	3.319000	-9.995800	26.929096	0.000122	20.866752
2081.590615	-2.987400	3.318700	-9.913300	26.884871	0.000120	20.863059
2082.589032	-3.010500	3.316300	-9.982500	26.886336	0.000121	20.855524
2083.616913	-2.983600	3.319000	-9.901800	26.846524	0.000119	20.863382
2084.613266	-3.024100	3.316700	-10.030000	26.820513	0.000119	20.859988
2085.607798	-3.010500	3.316600	-9.983800	26.818130	0.000119	20.863756
2086.610253	-3.001800	3.316600	-9.954400	26.801499	0.000120	20.873586
2087.589912	-3.013300	3.315600	-9.988400	26.781888	0.000119	20.880421
2088.591237	-3.008400	3.315800	-9.974300	26.766079	0.000120	20.857890
2089.614081	-3.016100	3.315700	-9.999800	26.792534	0.000119	20.856987
2090.593143	-2.992000	3.315500	-9.919200	26.875210	0.000119	20.868517
2091.607155	-3.008200	3.314200	-9.968800	26.838925	0.000118	20.856689
2092.591240	-3.011400	3.314600	-9.980800	26.841970	0.000118	20.849321
2093.610651	-2.993800	3.315000	-9.923700	26.906423	0.000118	20.867661
2094.591137	-2.999000	3.313900	-9.936300	26.926925	0.000118	20.860301
2095.593085	-2.989300	3.312700	-9.901700	26.927542	0.000117	20.840534
2096.590566	-2.964400	3.314900	-9.826200	26.929574	0.000117	20.849689
2097.591677	-2.994200	3.313900	-9.921000	26.854327	0.000116	20.853684
2098.605888	-3.033200	3.311500	-10.043000	26.818954	0.000117	20.854153
2099.591749	-2.999900	3.311700	-9.934200	26.820243	0.000115	20.858769
2100.609130	-2.986700	3.312500	-9.892200	26.811855	0.000116	20.866930
2101.616811	-2.999700	3.312200	-9.934800	26.837963	0.000116	20.859515
2102.613202	-2.956500	3.312600	-9.791700	26.831732	0.000117	20.857518
2103.608519	-3.002900	3.310000	-9.938500	26.894595	0.000115	20.853397
2104.598132	-2.988100	3.311200	-9.893300	26.898493	0.000115	20.864903
2105.610737	-3.016900	3.309600	-9.983800	26.946214	0.000115	20.852671
2106.613279	-2.981300	3.309900	-9.866900	26.925391	0.000114	20.857811
2107.595535	-3.000000	3.310900	-9.932200	26.887096	0.000112	20.854866
2108.594538	-3.006500	3.308200	-9.945100	26.870316	0.000112	20.839416
2109.595630	-3.017100	3.309500	-9.984800	26.874289	0.000112	20.873281
2110.596861	-2.999900	3.307900	-9.923300	26.877535	0.000113	20.871803
2111.605627	-3.012300	3.308600	-9.965100	26.922432	0.000111	20.843931
2112.596695	-2.982300	3.308600	-9.865600	26.900195	0.000112	20.851441
2113.616645	-2.987700	3.308500	-9.883900	26.925828	0.000114	20.850665
2114.597030	-3.020100	3.307300	-9.987600	26.957471	0.000112	20.846922
2115.615866	-3.021200	3.306400	-9.987900	26.928753	0.000111	20.845071
2116.618959	-3.006300	3.305900	-9.937700	26.874551	0.000110	20.856476
2117.615458	-3.003700	3.307400	-9.933900	26.853481	0.000109	20.840032
2118.597645	-3.008200	3.305900	-9.944400	26.820646	0.000110	20.842105
2119.619319	-2.999200	3.304600	-9.909900	26.885296	0.000110	20.860168
2120.616283	-3.006400	3.305500	-9.936800	26.927639	0.000109	20.850589
2121.599612	-2.965300	3.306100	-9.802400	26.970869	0.000108	20.845222
2122.618025	-2.996200	3.305600	-9.903100	27.000298	0.000108	20.843523
2123.622756	-2.984200	3.304800	-9.861500	27.006132	0.000108	20.835165
2124.616971	-2.989800	3.303600	-9.876300	26.974416	0.000110	20.845470
2125.616314	-2.992200	3.304100	-9.885900	26.932576	0.000107	20.847492
2126.600774	-2.995400	3.303400	-9.893800	26.964910	0.000107	20.841127
2127.602166	-2.994400	3.303100	-9.889900	26.949425	0.000105	20.838358
2128.620419	-2.984800	3.302100	-9.854800	26.939077	0.000107	20.827004
2129.600893	-3.021300	3.301200	-9.972600	26.930539	0.000107	20.845445
2130.602861	-3.004300	3.301300	-9.916600	26.940813	0.000107	20.848663
2131.605937	-2.991700	3.301600	-9.877100	27.017127	0.000106	20.836264
2132.602579	-2.979500	3.300800	-9.833600	27.036950	0.000104	20.848612
2133.603572	-2.989700	3.300600	-9.867000	27.009157	0.000104	20.858120
2134.601470	-2.986000	3.300700	-9.854500	26.916664	0.000106	20.831967
2135.602520	-3.003500	3.300200	-9.909700	26.834639	0.000103	20.847639
2136.601038	-3.022700	3.300000	-9.973200	26.868967	0.000101	20.824784
2137.617283	-2.989800	3.299700	-9.865000	26.838432	0.000103	20.832961
2138.623129	-2.975400	3.299100	-9.814800	26.891472	0.000101	20.836507
2139.625205	-2.997900	3.298500	-9.887100	26.885984	0.000104	20.851377
2140.624918	-3.002700	3.299400	-9.905800	26.871667	0.000103	20.824653
2141.619523	-2.991900	3.298000	-9.866000	26.876186	9.991483E-5	20.832517
2142.631415	-3.002600	3.298300	-9.902700	26.843669	0.000104	20.853874
2143.633612	-3.011400	3.297000	-9.927800	26.884815	0.000101	20.838823
2144.624475	-2.994500	3.297100	-9.872200	26.895119	9.974981E-5	20.833062
2145.604682	-3.002200	3.296300	-9.895200	26.912536	0.000100	20.850101
2146.607563	-2.997700	3.296400	-9.880600	26.977832	0.000101	20.821880
2147.606918	-3.036700	3.294200	-10.003000	26.974677	9.981582E-5	20.828664
2148.605782	-2.998300	3.296000	-9.881800	26.978028	0.000101	20.844835
2149.608702	-2.993400	3.294800	-9.862500	27.043366	0.000101	20.830409
2150.605173	-3.007700	3.293400	-9.904600	26.974256	9.839671E-5	20.824447
2151.607098	-2.990800	3.295900	-9.856300	26.893791	9.823170E-5	20.821770
2152.620919	-2.996800	3.293300	-9.867800	26.904190	9.664759E-5	20.826062
2153.625941	-2.996200	3.294300	-9.869800	26.922454	9.803369E-5	20.821195
2154.627742	-2.982100	3.294100	-9.822700	26.980873	9.988182E-5	20.834420
2155.624878	-2.994100	3.293200	-9.859200	26.982012	9.869374E-5	20.834617
2156.607788	-3.006600	3.291500	-9.895700	27.032212	9.605354E-5	20.841003
2157.608016	-2.986400	3.292900	-9.832800	27.084395	9.750565E-5	20.834214
2158.626515	-2.986300	3.292700	-9.831100	27.074264	9.668059E-5	20.826870
2159.622938	-3.011200	3.291600	-9.911200	27.063546	9.638357E-5	20.833160
2160.627522	-2.990700	3.292500	-9.846400	27.102351	9.621856E-5	20.837100
2161.626414	-2.982200	3.292100	-9.817100	27.108309	9.615255E-5	20.824126
2162.625633	-2.993100	3.291200	-9.849900	27.126070	9.654858E-5	20.827764
2163.611154	-2.991900	3.291400	-9.846700	27.156538	9.618555E-5	20.818579
2164.608485	-3.001400	3.289100	-9.871200	27.138297	9.638357E-5	20.816354
2165.634541	-2.988000	3.289900	-9.829400	27.153142	9.489846E-5	20.807103
2166.627210	-3.012700	3.288400	-9.906600	27.166262	9.423841E-5	20.804652
2167.628297	-3.006800	3.289000	-9.887400	27.142315	9.437042E-5	20.817076
2168.610333	-3.020300	3.289300	-9.933500	27.192040	9.536049E-5	20.810665
2169.611730	-2.994200	3.287900	-9.843800	27.183379	9.413940E-5	20.816652
2170.633282	-2.990300	3.289200	-9.833800	27.134230	9.351236E-5	20.809419
2171.613041	-3.000900	3.287000	-9.862600	27.041694	9.275330E-5	20.790322
2172.610264	-3.010400	3.286500	-9.893000	27.027649	9.295132E-5	20.814604
2173.610775	-3.001300	3.287400	-9.865700	27.001446	9.064115E-5	20.809116
2174.636018	-2.987200	3.286400	-9.816000	27.032660	9.024512E-5	20.804471
2175.625659	-3.007700	3.286400	-9.882600	27.042265	9.219226E-5	20.808915
2176.614383	-2.995800	3.285600	-9.841000	27.047155	9.206025E-5	20.807669
2177.631826	-3.005700	3.284200	-9.870500	27.080033	9.074016E-5	20.809913
2178.610762	-2.990100	3.284700	-9.820500	27.055241	9.149921E-5	20.807265
2179.626167	-2.981100	3.285600	-9.794100	27.124817	8.942006E-5	20.804219
2180.627572	-3.006800	3.283800	-9.872800	27.174493	9.159822E-5	20.813404
2181.643476	-2.995600	3.284200	-9.837200	27.206820	9.077316E-5	20.807987
2182.612537	-3.007500	3.283500	-9.874300	27.180592	8.668086E-5	20.820961
2183.632023	-2.984600	3.283600	-9.799800	27.092082	8.823197E-5	20.827720
2184.614633	-3.017500	3.281400	-9.901200	27.038901	8.928805E-5	20.805531
2185.618076	-3.015900	3.282900	-9.899800	27.076995	8.701088E-5	20.827720
2186.614867	-2.981900	3.283500	-9.789800	27.154980	9.057514E-5	20.796149
2187.619665	-3.022000	3.281200	-9.913800	27.205397	8.753892E-5	20.788538
2188.618321	-3.028800	3.280500	-9.934900	27.228500	8.767093E-5	20.809405
2189.617200	-3.012100	3.279400	-9.876700	27.224128	8.427168E-5	20.781299
2190.616259	-2.995100	3.281300	-9.826700	27.221445	8.578979E-5	20.796145
2191.615467	-2.981300	3.281200	-9.781400	27.170583	8.753892E-5	20.799514
2192.617575	-2.986200	3.281500	-9.798000	27.156485	8.724190E-5	20.793870
2193.618598	-3.005000	3.278800	-9.851900	27.117556	8.611982E-5	20.800710
2194.616330	-3.006000	3.279200	-9.856100	27.138997	8.417268E-5	20.783867
2195.631633	-2.992500	3.279900	-9.813500	27.193949	8.694488E-5	20.802627
2196.633369	-2.973700	3.278400	-9.748000	27.229625	8.394166E-5	20.795838
2197.635521	-3.004000	3.277200	-9.843000	27.244739	8.361163E-5	20.788755
2198.619825	-2.977600	3.278300	-9.760800	27.212680	8.321561E-5	20.773577
2199.618615	-2.988400	3.276600	-9.790300	27.225483	8.248955E-5	20.804947
2200.633791	-2.986300	3.277900	-9.787100	27.201261	8.285258E-5	20.776791
2201.619167	-2.989400	3.277000	-9.795800	27.257137	8.437069E-5	20.779414
2202.618509	-3.030900	3.275600	-9.925200	27.284848	8.331461E-5	20.783106
2203.641839	-2.983300	3.275100	-9.769000	27.294767	8.173050E-5	20.770799
2204.622970	-3.000300	3.274100	-9.822700	27.288665	8.341362E-5	20.788368
2205.619618	-2.996700	3.275400	-9.814100	27.300524	8.153248E-5	20.778486
2206.620676	-3.015500	3.274500	-9.873200	27.287943	8.090544E-5	20.781952
2207.620005	-2.993900	3.273700	-9.799100	27.230880	8.225854E-5	20.791884
2208.621596	-2.998100	3.274900	-9.817600	27.217430	8.011338E-5	20.785942
2209.639036	-3.007500	3.272900	-9.842000	27.227776	8.107045E-5	20.777382
2210.620827	-3.010200	3.273100	-9.851600	27.249852	8.107045E-5	20.769241
2211.622273	-2.997400	3.272200	-9.807300	27.227997	8.001437E-5	20.768121
2212.622766	-2.989700	3.272800	-9.783600	27.279103	8.166449E-5	20.784914
2213.636854	-2.974400	3.271600	-9.730100	27.312816	8.239055E-5	20.762401
2214.644178	-3.025200	3.271100	-9.893900	27.316015	8.067442E-5	20.758507
2215.643309	-2.975400	3.272400	-9.736200	27.309667	7.998137E-5	20.773458
2216.623430	-2.984500	3.271500	-9.762800	27.274906	8.017938E-5	20.769312
2217.626001	-2.990200	3.270600	-9.778800	27.198715	7.945333E-5	20.770911
2218.623633	-3.008300	3.270200	-9.837000	27.184618	7.945333E-5	20.781863
2219.634561	-2.994200	3.269400	-9.787800	27.175832	7.829825E-5	20.773500
2220.624693	-2.991200	3.269600	-9.778900	27.221263	7.793522E-5	20.773676
2221.625461	-2.981200	3.269800	-9.746800	27.277058	7.912331E-5	20.769106
2222.622989	-2.981800	3.268200	-9.744600	27.309708	7.780321E-5	20.777767
2223.624875	-2.972400	3.268500	-9.714700	27.338110	7.816624E-5	20.765560
2224.625317	-3.010800	3.267200	-9.835700	27.375175	7.730817E-5	20.767285
2225.643147	-2.976800	3.268100	-9.727600	27.416251	7.542704E-5	20.777314
2226.630955	-2.996600	3.267400	-9.790200	27.385294	7.843026E-5	20.771301
2227.646331	-3.001700	3.265900	-9.802200	27.378971	7.631810E-5	20.759250
2228.651567	-3.004600	3.265600	-9.810900	27.272690	7.912331E-5	20.738633
2229.626490	-3.003400	3.266500	-9.809600	27.186916	7.734118E-5	20.762837
2230.628942	-3.006700	3.264400	-9.814900	27.197041	7.740718E-5	20.758796
2231.626283	-3.011000	3.265300	-9.830800	27.189991	7.625210E-5	20.769248
2232.625649	-3.016300	3.263900	-9.844400	27.153591	7.579006E-5	20.779579
2233.626517	-2.984200	3.265100	-9.742800	27.173341	7.684614E-5	20.757243
2234.625291	-2.977500	3.264400	-9.718800	27.174108	7.532803E-5	20.754222
2235.646956	-2.987400	3.265200	-9.753500	27.238320	7.582307E-5	20.750055
2236.643047	-3.007900	3.264100	-9.817100	27.302915	7.546004E-5	20.762874
2237.648463	-2.982100	3.264100	-9.733200	27.276719	7.638411E-5	20.764972
2238.643651	-2.990300	3.262400	-9.754500	27.235257	7.585607E-5	20.746500
2239.651493	-3.007200	3.260500	-9.804000	27.275747	7.288585E-5	20.752614
2240.645078	-3.012300	3.260400	-9.820500	27.264955	7.275384E-5	20.753138
2241.627824	-3.001100	3.261000	-9.785900	27.262944	7.529503E-5	20.744951
2242.646687	-3.003300	3.259600	-9.789300	27.297922	7.513001E-5	20.748367
2243.626099	-3.003100	3.260000	-9.789500	27.239520	7.400793E-5	20.741779
2244.648908	-3.015200	3.258600	-9.824200	27.231557	7.334788E-5	20.737562
2245.627357	-3.001800	3.258800	-9.781300	27.245945	7.130173E-5	20.763888
2246.631839	-3.000000	3.259700	-9.778600	27.322624	7.394193E-5	20.770371
2247.628545	-3.005600	3.257800	-9.790700	27.357704	7.041067E-5	20.749235
2248.645955	-3.005100	3.258800	-9.792500	27.348469	7.258883E-5	20.729986
2249.641414	-2.997200	3.258000	-9.764400	27.376628	7.146675E-5	20.731287
2250.627307	-2.995600	3.257400	-9.756500	27.364891	7.344689E-5	20.719479
2251.645755	-3.013400	3.256500	-9.812100	27.370943	7.272084E-5	20.759708
2252.633897	-2.991600	3.256700	-9.742000	27.371835	7.153275E-5	20.744959
2253.646120	-2.983300	3.257200	-9.716200	27.353603	7.341389E-5	20.736574
2254.643869	-2.995400	3.255600	-9.751200	27.343851	7.153275E-5	20.745731
2255.655634	-3.015000	3.255100	-9.813300	27.363497	7.011365E-5	20.730406
2256.644830	-3.001600	3.256100	-9.771700	27.380411	7.097171E-5	20.740783
2257.651786	-3.010100	3.253500	-9.792700	27.339504	6.918958E-5	20.732348
2258.652952	-3.000500	3.254700	-9.764900	27.353569	6.991563E-5	20.737963
2259.648591	-3.000500	3.252000	-9.756500	27.399735	6.975062E-5	20.750266
2260.646449	-2.988200	3.252900	-9.719800	27.422880	6.928859E-5	20.732772
2261.636336	-3.001200	3.251600	-9.757900	27.469614	6.948660E-5	20.749918
2262.651279	-2.974000	3.252400	-9.671800	27.448401	6.829851E-5	20.741853
2263.646562	-3.025000	3.252100	-9.836300	27.422454	6.800149E-5	20.732818
2264.656031	-3.015300	3.250500	-9.800500	27.410846	7.116972E-5	20.745797
2265.651081	-3.008500	3.250500	-9.777800	27.384899	6.885956E-5	20.754781
2266.644546	-3.008400	3.251100	-9.779600	27.374279	6.621936E-5	20.729398
2267.631619	-3.007200	3.249700	-9.770800	27.369140	6.757246E-5	20.754575
2268.631350	-3.004800	3.250100	-9.765700	27.380928	6.602135E-5	20.731819
2269.650893	-2.996200	3.249500	-9.735300	27.376239	6.694542E-5	20.743699
2270.633203	-2.988900	3.249100	-9.710900	27.378696	6.615336E-5	20.719142
2271.647913	-2.990400	3.247900	-9.711400	27.358499	6.866154E-5	20.746242
2272.649321	-3.004700	3.249400	-9.762700	27.355154	6.872755E-5	20.743825
2273.635431	-2.995100	3.247600	-9.725400	27.374349	6.687941E-5	20.732314
2274.632538	-3.009700	3.247700	-9.773900	27.400197	6.773747E-5	20.732713
2275.651498	-3.002800	3.247300	-9.750900	27.447554	6.612035E-5	20.748587
2276.637390	-3.024200	3.246000	-9.815000	27.458661	6.592234E-5	20.736053
2277.649066	-2.997000	3.248600	-9.734300	27.409624	6.565832E-5	20.745990
2278.631545	-3.018800	3.244500	-9.793800	27.412527	6.621936E-5	20.739427
2279.650793	-2.992900	3.245600	-9.712500	27.365790	6.757246E-5	20.739825
2280.636864	-2.998100	3.244400	-9.726500	27.377999	6.654939E-5	20.725554
2281.633963	-3.015400	3.243700	-9.779500	27.451967	6.717643E-5	20.756820
2282.636086	-2.989700	3.243300	-9.695600	27.532160	6.489927E-5	20.758318
2283.654292	-2.988300	3.245900	-9.698600	27.604015	6.480026E-5	20.743846
2284.639522	-2.958800	3.243800	-9.596600	27.527693	6.351316E-5	20.740547
2285.635754	-3.005700	3.244300	-9.750000	27.465038	6.298513E-5	20.735356
2286.636745	-2.983200	3.242000	-9.670700	27.484110	6.552631E-5	20.753597
2287.654460	-3.000700	3.241200	-9.725300	27.443454	6.476726E-5	20.748729
2288.660446	-2.994700	3.242300	-9.708500	27.453622	6.348016E-5	20.739044
2289.655373	-2.976800	3.241200	-9.647300	27.462356	6.176404E-5	20.727916
2290.653638	-3.009100	3.240200	-9.749700	27.500405	6.291912E-5	20.742015
2291.659078	-2.998100	3.239300	-9.711400	27.492985	6.252309E-5	20.739292
2292.652949	-3.005100	3.238500	-9.731500	27.543240	6.146701E-5	20.740068
2293.652626	-2.991300	3.239600	-9.689900	27.570097	6.308413E-5	20.747177
2294.660995	-2.985900	3.241100	-9.677300	27.609160	6.173103E-5	20.745704
2295.667871	-3.007100	3.238300	-9.737500	27.660423	6.354617E-5	20.731852
2296.657907	-2.987500	3.238300	-9.673500	27.636120	5.819977E-5	20.757659
2297.641788	-2.996200	3.238300	-9.701800	27.594452	6.021292E-5	20.732800
2298.656206	-2.989800	3.238100	-9.680900	27.606604	6.110399E-5	20.728432
2299.665653	-3.011300	3.235200	-9.741100	27.612479	6.080697E-5	20.741457
2300.671661	-3.009800	3.235700	-9.737600	27.620836	6.116999E-5	20.766462
2301.665812	-2.980900	3.236400	-9.646900	27.556331	6.176404E-5	20.746602
2302.644025	-3.025200	3.234700	-9.784500	27.537280	5.978389E-5	20.738339
2303.642342	-3.006200	3.234400	-9.722300	27.500175	5.862881E-5	20.760277
2304.644969	-3.030600	3.232800	-9.796700	27.534794	6.113699E-5	20.758124
2305.646130	-2.991500	3.233400	-9.671700	27.541426	5.744072E-5	20.749623
2306.645343	-2.995300	3.235100	-9.689600	27.590928	5.592261E-5	20.758653
2307.672622	-3.008700	3.232400	-9.724900	27.616620	5.694568E-5	20.759849
2308.658932	-3.011800	3.232500	-9.734900	27.659622	5.763873E-5	20.759022
2309.646949	-3.005500	3.232500	-9.714700	27.661115	5.717670E-5	20.753886
2310.660957	-2.992700	3.233200	-9.674900	27.630632	5.536157E-5	20.757352
2311.647811	-2.997000	3.231600	-9.684100	27.603868	5.486653E-5	20.757448
2312.644174	-3.025300	3.230600	-9.772800	27.565026	5.394246E-5	20.762463
2313.645387	-2.986600	3.230000	-9.646200	27.594664	5.381045E-5	20.746290
2314.647012	-2.992300	3.229500	-9.662600	27.639005	5.786975E-5	20.761510
2315.646924	-2.976200	3.230100	-9.612200	27.654450	5.562559E-5	20.747654
2316.647585	-3.000300	3.231400	-9.692800	27.653904	5.727571E-5	20.777451
2317.651785	-3.002300	3.228300	-9.691800	27.629121	5.608762E-5	20.757728
2318.648300	-2.997700	3.227700	-9.675200	27.637478	5.311740E-5	20.763292
2319.670060	-3.005000	3.227100	-9.696500	27.583061	5.427249E-5	20.756901
2320.649361	-2.988200	3.228900	-9.647700	27.519041	5.295239E-5	20.763137
2321.649582	-3.004000	3.227300	-9.693900	27.569065	5.328241E-5	20.771269
2322.653090	-3.008100	3.226000	-9.703300	27.550010	5.209433E-5	20.768218
2323.649953	-3.012100	3.226400	-9.717300	27.574465	5.357944E-5	20.767219
2324.659418	-3.007200	3.226700	-9.702200	27.615609	5.364544E-5	20.783487
2325.651518	-2.994700	3.226100	-9.660000	27.669594	5.397547E-5	20.757677
2326.649343	-3.015700	3.225000	-9.724600	27.635537	5.285338E-5	20.766081
2327.653171	-3.018000	3.223800	-9.728900	27.618073	5.348043E-5	20.775535
2328.649945	-3.005500	3.223300	-9.686700	27.611204	5.113726E-5	20.751080
2329.650311	-3.021300	3.223500	-9.738400	27.624836	5.067522E-5	20.777599
2330.650474	-2.972900	3.222600	-9.579300	27.611492	5.318341E-5	20.770810
2331.649902	-2.983000	3.223400	-9.615000	27.617889	5.146728E-5	20.769186
2332.650339	-3.001700	3.221800	-9.669300	27.654243	5.196232E-5	20.773050
2333.653693	-3.001700	3.221900	-9.670500	27.634027	5.417348E-5	20.757923
2334.654769	-2.959800	3.221800	-9.535300	27.566436	5.031220E-5	20.747760
2335.652739	-2.998000	3.224000	-9.664900	27.512858	4.829905E-5	20.756441
2336.655138	-2.994900	3.220100	-9.642800	27.513575	5.176430E-5	20.750999
2337.652170	-2.994600	3.219700	-9.640300	27.506451	5.186331E-5	20.756160
2338.673766	-3.007300	3.220100	-9.683200	27.566769	5.163229E-5	20.759949
2339.674630	-2.994900	3.218800	-9.638900	27.623934	4.796902E-5	20.763889
2340.674070	-3.001500	3.218900	-9.661500	27.665622	4.955314E-5	20.763637
2341.656346	-3.016000	3.217300	-9.702200	27.659221	5.047721E-5	20.782327
2342.655334	-3.009600	3.217000	-9.681300	27.675163	4.985016E-5	20.767548
2343.656588	-2.998600	3.216900	-9.644800	27.709685	4.978416E-5	20.781424
2344.657198	-2.992200	3.216900	-9.625100	27.717099	5.047721E-5	20.777031
2345.674300	-3.021800	3.217200	-9.720700	27.776983	4.965215E-5	20.769491
2346.675211	-3.018100	3.215000	-9.702600	27.795208	4.948714E-5	20.769339
2347.658382	-2.988300	3.215700	-9.609100	27.811252	4.991617E-5	20.784538
2348.676016	-2.974500	3.214400	-9.560600	27.814450	4.994917E-5	20.769264
2349.656552	-2.996000	3.214500	-9.629400	27.777229	4.971815E-5	20.796765
2350.685713	-3.005400	3.214000	-9.657500	27.788482	4.846406E-5	20.758303
2351.671649	-3.000900	3.213400	-9.642200	27.801499	4.932212E-5	20.774249
2352.676634	-3.019800	3.212400	-9.699800	27.735937	4.886009E-5	20.795515
2353.672520	-3.016300	3.211500	-9.686200	27.699006	4.925612E-5	20.778264
2354.688567	-2.992300	3.210800	-9.607200	27.677576	4.658292E-5	20.786098
2355.679094	-3.009900	3.211000	-9.664300	27.661802	4.757300E-5	20.781604
2356.675381	-3.001500	3.210700	-9.636200	27.672268	4.760600E-5	20.778386
2357.676136	-3.015300	3.210100	-9.678500	27.719162	4.734198E-5	20.777211
2358.678537	-3.029300	3.210000	-9.723200	27.720325	4.608789E-5	20.766053
2359.677987	-2.984200	3.210700	-9.581000	27.774656	4.810103E-5	20.779951
2360.681189	-3.011300	3.210200	-9.665800	27.826928	4.783702E-5	20.797470
2361.684800	-3.002200	3.207600	-9.629000	27.809146	4.767200E-5	20.780521
2362.677489	-3.025100	3.207000	-9.700800	27.827566	4.717697E-5	20.804749
2363.679338	-2.991400	3.209000	-9.598400	27.810238	4.612089E-5	20.793001
2364.674904	-3.019100	3.208700	-9.686300	27.809191	4.569186E-5	20.770136
2365.679957	-2.996600	3.205700	-9.605900	27.837901	4.747399E-5	20.762046
2366.682109	-3.004800	3.206700	-9.634600	27.839465	4.674794E-5	20.781637
2367.660389	-2.991600	3.205300	-9.587700	27.804125	4.744099E-5	20.795384
2368.682982	-3.021700	3.205300	-9.684900	27.810972	4.565886E-5	20.775247
2369.681656	-2.997700	3.205600	-9.608200	27.790162	4.691295E-5	20.771848
2370.680975	-2.992600	3.204600	-9.588900	27.709642	4.341469E-5	20.788494
2371.675338	-2.998800	3.204800	-9.609600	27.678639	4.506481E-5	20.780055
2372.662050	-3.019000	3.202900	-9.669000	27.697954	4.384372E-5	20.791431
2373.677112	-3.009600	3.202500	-9.637800	27.724932	4.552685E-5	20.786811
2374.679488	-3.014300	3.201600	-9.649500	27.807060	4.390973E-5	20.792648
2375.677854	-3.018400	3.202900	-9.666600	27.822383	4.539484E-5	20.789102
2376.689477	-3.014900	3.200300	-9.647900	27.824238	4.496580E-5	20.790969
2377.689620	-3.009400	3.201800	-9.634200	27.822750	4.331568E-5	20.801799
2378.687104	-3.001900	3.200100	-9.605500	27.794277	4.080750E-5	20.809654
2379.692673	-3.008900	3.199800	-9.627200	27.748099	4.258963E-5	20.792106
2380.686441	-3.026700	3.198700	-9.680700	27.756009	4.110452E-5	20.787264
2381.682654	-3.006500	3.196900	-9.610500	27.707298	4.381072E-5	20.787083
2382.667973	-3.010500	3.197000	-9.624000	27.739034	4.192958E-5	20.789622
2383.666397	-2.994900	3.199300	-9.581000	27.712594	4.206159E-5	20.798576
2384.667326	-2.983600	3.196700	-9.536600	27.735777	4.206159E-5	20.793931
2385.666621	-3.003900	3.196300	-9.600000	27.752164	4.051048E-5	20.784817
2386.667706	-2.998800	3.197200	-9.587200	27.834290	4.278764E-5	20.816732
2387.687022	-3.029600	3.194300	-9.677100	27.856704	4.067549E-5	20.800410
2388.668379	-2.986700	3.196700	-9.546700	27.892229	4.067549E-5	20.794913
2389.666205	-3.004200	3.193100	-9.592000	27.905737	4.090651E-5	20.809456
2390.668693	-3.001000	3.193700	-9.583700	27.928595	4.173157E-5	20.808282
2391.685943	-3.010700	3.194000	-9.614100	27.913962	4.239162E-5	20.799243
2392.683646	-3.024800	3.191200	-9.652200	27.928416	3.945440E-5	20.810472
2393.689659	-3.025800	3.192200	-9.658100	27.908526	4.232561E-5	20.790927
2394.668412	-2.991900	3.193600	-9.553800	27.873464	3.905837E-5	20.806847
2395.692903	-2.991400	3.191300	-9.545600	27.868824	4.031246E-5	20.786529
2396.685557	-2.998100	3.190200	-9.562700	27.879063	4.024646E-5	20.809637
2397.689606	-2.979500	3.191100	-9.507300	27.885805	4.057648E-5	20.787499
2398.685685	-3.004700	3.190100	-9.584800	27.931622	4.001544E-5	20.805164
2399.669022	-3.004200	3.188900	-9.578800	27.930184	4.004844E-5	20.792811
2400.669109	-3.002200	3.188300	-9.571700	27.989760	3.889336E-5	20.810577
2401.670385	-2.995100	3.187500	-9.545400	27.966553	3.909137E-5	20.800968
2402.687727	-3.003400	3.188300	-9.574800	27.915251	3.767227E-5	20.822351
2403.688570	-3.018000	3.185700	-9.613600	27.875107	3.813430E-5	20.803758
2404.691142	-2.997500	3.185800	-9.548500	27.847974	3.714423E-5	20.813909
2405.691995	-3.013800	3.185500	-9.599300	27.888194	3.942140E-5	20.813137
2406.674112	-2.995500	3.185700	-9.542000	27.912166	3.985043E-5	20.820194
2407.691648	-3.001000	3.184600	-9.556100	27.892871	3.790329E-5	20.815000
2408.696941	-3.009600	3.183700	-9.580000	27.901697	3.648418E-5	20.828150
2409.670732	-2.995400	3.184300	-9.537800	27.947910	3.816731E-5	20.820610
2410.670608	-2.988900	3.182700	-9.510900	27.996801	3.773827E-5	20.816716
2411.670144	-2.977700	3.181500	-9.473100	27.991891	3.721024E-5	20.827420
2412.671596	-2.985400	3.181900	-9.498000	27.959929	3.509808E-5	20.807103
2413.690456	-2.992000	3.182000	-9.519500	27.956231	3.536210E-5	20.799114
2414.689025	-2.998700	3.180700	-9.536900	27.891867	3.430602E-5	20.820627
2415.689122	-2.986100	3.179300	-9.492500	27.877484	3.694622E-5	20.824168
2416.671072	-2.995200	3.179300	-9.521700	27.939172	3.539510E-5	20.839315
2417.694889	-2.992600	3.177700	-9.509300	27.945050	3.754026E-5	20.799240
2418.691667	-2.999300	3.177400	-9.529200	27.910086	3.318394E-5	20.839437
2419.695934	-3.007900	3.176200	-9.553000	27.894389	3.486706E-5	20.819846
2420.673201	-3.012200	3.175100	-9.562900	27.911395	3.532910E-5	20.807091
2421.676850	-2.991900	3.175500	-9.500000	27.990982	3.655019E-5	20.800902
2422.676314	-3.015000	3.176300	-9.575300	28.018874	3.443803E-5	20.834192
2423.694165	-3.001100	3.175000	-9.526600	28.000532	3.688021E-5	20.849868
2424.679036	-3.016100	3.173700	-9.571800	28.022097	3.744125E-5	20.824160
2425.700072	-2.987500	3.173200	-9.478700	28.028195	3.506508E-5	20.829350
2426.678120	-2.979500	3.172900	-9.451500	28.014710	3.367898E-5	20.808664
2427.677724	-2.980400	3.172200	-9.453800	28.017061	3.552711E-5	20.811031
2428.679253	-2.999300	3.171900	-9.512700	28.043048	3.463605E-5	20.814904
2429.678516	-3.000800	3.171000	-9.514300	28.041906	3.414101E-5	20.827978
2430.696532	-3.013200	3.170600	-9.553000	27.988723	3.400900E-5	20.834188
2431.698326	-2.988100	3.169300	-9.469700	27.994005	3.364597E-5	20.826703
2432.700153	-3.011600	3.167500	-9.538100	27.956961	3.324994E-5	20.831142
2433.701342	-2.979200	3.168800	-9.439900	27.929792	3.397600E-5	20.846944
2434.695593	-3.004900	3.168700	-9.520800	27.911941	3.427302E-5	20.837511
2435.684762	-3.014500	3.167300	-9.547100	27.857960	3.080777E-5	20.825855
2436.678157	-2.991300	3.166900	-9.472400	27.831276	3.196285E-5	20.833613
2437.679585	-3.004400	3.166100	-9.511400	27.883175	3.305193E-5	20.827525
2438.680346	-2.997600	3.164800	-9.486000	27.972682	3.268890E-5	20.842698
2439.680994	-2.987600	3.163600	-9.450300	28.027591	3.328295E-5	20.838699
2440.682442	-3.000400	3.162700	-9.488600	28.014160	3.400900E-5	20.828973
2441.681810	-2.985900	3.163700	-9.445300	28.000616	3.318394E-5	20.849478
2442.709456	-3.004700	3.163100	-9.503300	28.010579	3.222687E-5	20.838645
2443.680525	-3.004700	3.160200	-9.495100	28.022176	3.245789E-5	20.846999
2444.686521	-2.987100	3.161600	-9.442200	28.049918	3.341496E-5	20.828931
2445.705904	-2.982200	3.160300	-9.423600	28.079693	3.344796E-5	20.854161
2446.699156	-2.998700	3.159300	-9.472400	28.089409	3.298593E-5	20.838813
2447.682598	-3.023300	3.158600	-9.548400	28.088288	3.199585E-5	20.843374
2448.682485	-2.999800	3.158900	-9.475000	28.026929	2.971869E-5	20.858420
2449.684588	-3.023700	3.155900	-9.541200	28.073536	3.252389E-5	20.869300
2450.683247	-2.988900	3.156800	-9.433800	28.041998	3.374498E-5	20.851778
2451.704027	-3.005600	3.154100	-9.478200	28.045470	3.288692E-5	20.845791
2452.684355	-2.990600	3.155300	-9.434800	28.075420	3.179784E-5	20.849386
2453.704478	-2.978000	3.154200	-9.392100	28.145822	3.265590E-5	20.869522
2454.685823	-2.986800	3.153900	-9.418800	28.143538	3.037873E-5	20.858689
2455.684111	-2.980300	3.153400	-9.396300	28.082457	2.975169E-5	20.864529
2456.701622	-3.009900	3.152300	-9.487100	28.080423	3.067576E-5	20.851577
2457.692885	-3.014300	3.150900	-9.496300	28.075958	2.961968E-5	20.851824
2458.685333	-3.008100	3.149900	-9.474300	28.054241	3.146781E-5	20.838024
2459.686005	-3.003100	3.150200	-9.459800	28.041152	3.189685E-5	20.869417
2460.700649	-2.973500	3.149000	-9.362200	28.042215	3.008171E-5	20.847729
2461.700540	-2.969500	3.148900	-9.349300	28.068372	2.928965E-5	20.858412
2462.705763	-2.998800	3.148400	-9.440700	28.090239	2.829958E-5	20.860984
2463.685353	-2.976100	3.146900	-9.364900	28.114086	2.892663E-5	20.870764
2464.702913	-2.999500	3.144900	-9.432400	28.113815	2.886062E-5	20.876181
2465.706942	-2.981700	3.146100	-9.379400	28.101243	2.965268E-5	20.881543
2466.707741	-2.972800	3.146800	-9.353300	28.103748	2.833258E-5	20.866997
2467.707314	-3.006200	3.144100	-9.451000	28.110438	2.862961E-5	20.862352
2468.686947	-2.997600	3.142100	-9.418000	28.138603	2.968568E-5	20.862729
2469.687199	-2.996300	3.142300	-9.414400	28.136890	2.866261E-5	20.885185
2470.700804	-3.007500	3.140400	-9.444100	28.143383	2.536237E-5	20.876076
2471.703416	-2.984600	3.140400	-9.372300	28.100322	2.674847E-5	20.872556
2472.687490	-2.979800	3.139600	-9.354400	28.135006	2.780454E-5	20.885659
2473.703341	-3.009500	3.138300	-9.443800	28.166812	2.793655E-5	20.875955
2474.708228	-3.008700	3.138100	-9.440200	28.170109	2.688048E-5	20.853671
2475.703901	-2.982400	3.136700	-9.353600	28.133347	2.724350E-5	20.867395
2476.705562	-2.990300	3.137100	-9.380000	28.104140	2.780454E-5	20.855538
2477.705477	-2.990300	3.136000	-9.376900	28.129950	2.496634E-5	20.884363
2478.689248	-3.011100	3.133700	-9.434200	28.185618	2.839859E-5	20.862172
2479.711377	-2.992700	3.134700	-9.380400	28.216135	2.895963E-5	20.872980
2480.689593	-2.982700	3.132900	-9.343500	28.196475	2.813457E-5	20.882584
2481.710859	-3.001200	3.132400	-9.399200	28.221091	2.730951E-5	20.886029
2482.712222	-2.996600	3.132100	-9.384800	28.206516	2.476832E-5	20.885106
2483.705249	-3.003600	3.129200	-9.397500	28.168688	2.532936E-5	20.908660
2484.695058	-2.991200	3.130200	-9.361700	28.164745	2.496634E-5	20.897580
2485.693700	-3.006400	3.129100	-9.406000	28.186927	2.579140E-5	20.880558
2486.714026	-3.002000	3.128200	-9.389700	28.301767	2.433929E-5	20.897080
2487.693556	-3.001400	3.126500	-9.383500	28.315795	2.457031E-5	20.891764
2488.691076	-3.011900	3.126600	-9.416000	28.326405	2.691348E-5	20.892964
2489.693167	-3.010600	3.126100	-9.410900	28.377458	2.506534E-5	20.892213
2490.690419	-2.998400	3.125200	-9.369500	28.350717	2.371224E-5	20.888521
2491.690633	-3.013700	3.122400	-9.409600	28.403803	2.503234E-5	20.904041
2492.693610	-2.978900	3.123700	-9.303600	28.303497	2.437229E-5	20.886495
2493.711282	-2.990900	3.121900	-9.336100	28.313190	2.549438E-5	20.892935
2494.711520	-3.018300	3.120900	-9.418900	28.281688	2.539537E-5	20.889193
2495.694609	-2.989000	3.120200	-9.324800	28.327639	2.067602E-5	20.918386
2496.708958	-2.970300	3.119900	-9.266600	28.324022	2.311820E-5	20.898150
2497.711253	-2.992900	3.118000	-9.330200	28.301097	2.292019E-5	20.902094
2498.714560	-2.995700	3.116500	-9.335500	28.281243	2.361324E-5	20.894907
2499.693573	-2.974700	3.117700	-9.273100	28.267385	2.311820E-5	20.914618
2500.711365	-2.994100	3.115500	-9.326000	28.313386	2.127006E-5	20.910674
2501.711162	-2.993400	3.114300	-9.321600	28.348138	2.173210E-5	20.906311
2502.693680	-3.000300	3.113600	-9.341500	28.342287	2.344822E-5	20.919385
2503.702525	-2.991100	3.113700	-9.312100	28.353239	2.163309E-5	20.918558
2504.694688	-2.975000	3.113200	-9.260900	28.349971	2.351423E-5	20.909579
2505.699280	-2.997600	3.111100	-9.325200	28.329327	2.008198E-5	20.899224
2506.717857	-3.001300	3.109900	-9.332100	28.313311	2.156709E-5	20.918659
2507.714038	-2.997600	3.108800	-9.318400	28.269419	2.047801E-5	20.915243
2508.711926	-2.999700	3.108100	-9.322400	28.309273	2.361324E-5	20.907482
2509.698164	-2.979900	3.107200	-9.258000	28.258138	2.212813E-5	20.902938
2510.723038	-2.998000	3.105800	-9.309700	28.167617	2.318421E-5	20.894307
2511.725098	-3.012900	3.105200	-9.355000	28.227926	2.074203E-5	20.909030
2512.700150	-3.006700	3.103800	-9.330900	28.335986	2.061002E-5	20.905929
2513.717209	-3.017700	3.103500	-9.364900	28.357752	2.067602E-5	20.924998
2514.722906	-3.000500	3.102600	-9.308200	28.443994	2.245815E-5	20.898046
2515.722002	-3.012200	3.100800	-9.339600	28.457153	2.037900E-5	20.917933
2516.731102	-3.022500	3.099900	-9.368100	28.477032	2.216113E-5	20.927994
2517.719955	-3.002200	3.098800	-9.302700	28.438172	2.176510E-5	20.907830
2518.716966	-3.033600	3.097200	-9.394700	28.378888	2.004897E-5	20.927314
2519.718881	-2.996800	3.096900	-9.279900	28.343100	2.130307E-5	20.922573
2520.723902	-2.984300	3.096500	-9.239600	28.302255	1.952094E-5	20.908002
2521.729730	-2.983500	3.096600	-9.236900	28.249511	1.952094E-5	20.907054
2522.718860	-2.992300	3.094000	-9.257500	28.252782	2.024699E-5	20.908451
2523.725973	-2.974400	3.093300	-9.199800	28.292687	1.866287E-5	20.911170
2524.720538	-3.014800	3.091300	-9.318800	28.305748	2.120406E-5	20.928586
2525.727976	-3.003000	3.090600	-9.279900	28.333799	1.948793E-5	20.924113
2526.724555	-3.011200	3.088900	-9.299900	28.408575	2.090704E-5	20.923069
2527.727049	-3.020600	3.088500	-9.328600	28.417117	1.899290E-5	20.931670
2528.725447	-3.008000	3.087400	-9.286000	28.491687	1.826684E-5	20.923786
2529.723439	-3.010600	3.086700	-9.291600	28.547862	1.978496E-5	20.920140
2530.732991	-2.989800	3.086300	-9.226000	28.557645	1.836585E-5	20.924303
2531.721608	-2.969100	3.085500	-9.160300	28.515071	1.790382E-5	20.918412
2532.730733	-2.987700	3.083800	-9.212000	28.565124	1.806883E-5	20.916663
2533.731955	-2.998900	3.082100	-9.241700	28.570127	1.889389E-5	20.927391
2534.723514	-2.997800	3.081500	-9.236300	28.563707	1.810183E-5	20.912866
2535.724490	-3.017100	3.078800	-9.287300	28.595422	1.902590E-5	20.939114
2536.728673	-2.973100	3.079800	-9.155900	28.505418	1.872888E-5	20.921018
2537.714834	-2.990700	3.078100	-9.204400	28.507526	1.721077E-5	20.913185
2538.711741	-3.005000	3.077000	-9.245600	28.432582	1.869588E-5	20.898882
2539.709045	-3.014600	3.074900	-9.268200	28.469705	2.031299E-5	20.914926
2540.710069	-2.996100	3.074800	-9.211800	28.519688	1.757379E-5	20.897934
2541.728086	-3.006600	3.074100	-9.241300	28.523130	1.569265E-5	20.916097
2542.708797	-2.994300	3.073200	-9.201400	28.544121	1.671573E-5	20.911633
2543.712227	-2.977300	3.072600	-9.147000	28.503084	1.849786E-5	20.899230
2544.709795	-3.009200	3.069900	-9.237000	28.524564	1.589067E-5	20.917541
2545.727365	-2.998800	3.070100	-9.205600	28.468213	1.701275E-5	20.875495
2546.726927	-3.038500	3.067200	-9.318400	28.466626	1.915791E-5	20.899025
2547.734688	-2.992300	3.067700	-9.178200	28.502414	1.651772E-5	20.893340
2548.710232	-3.016700	3.065600	-9.247800	28.545996	1.724377E-5	20.892186
2549.710214	-3.008600	3.065000	-9.220000	28.566612	1.787081E-5	20.893508
2550.730821	-2.986800	3.063400	-9.148700	28.546142	1.760680E-5	20.896600
2551.728693	-2.996000	3.062700	-9.174100	28.561579	1.750779E-5	20.892707
2552.729423	-3.020800	3.059700	-9.241500	28.564875	1.532963E-5	20.904085
2553.726975	-3.009300	3.059400	-9.205500	28.573203	1.747479E-5	20.884026
2554.735362	-2.984700	3.058800	-9.129000	28.602364	1.707876E-5	20.884471
2555.729519	-2.998200	3.059000	-9.171100	28.640097	1.760680E-5	20.896869
2556.714518	-2.978200	3.057700	-9.105500	28.658632	1.546164E-5	20.878081
2557.729800	-2.985700	3.057200	-9.126800	28.673251	1.628670E-5	20.881425
2558.731256	-3.016000	3.054100	-9.210100	28.645668	1.651772E-5	20.873084
2559.729127	-3.015800	3.052200	-9.203100	28.671859	1.783781E-5	20.884765
2560.732679	-2.997300	3.051900	-9.146200	28.679958	1.846486E-5	20.893395
2561.728371	-3.024300	3.051800	-9.228400	28.655604	1.509861E-5	20.879298
2562.733633	-2.992600	3.050200	-9.127100	28.642789	1.694675E-5	20.879667
2563.732007	-3.005300	3.048500	-9.160800	28.615705	1.740878E-5	20.876571
2564.717844	-3.005600	3.048300	-9.161400	28.617213	1.777181E-5	20.888995
2565.733746	-3.012600	3.045500	-9.174100	28.616322	1.724377E-5	20.871028
2566.714781	-3.007600	3.043900	-9.154100	28.628979	1.856387E-5	20.871922
2567.716986	-2.986600	3.043900	-9.089900	28.584300	1.625370E-5	20.880503
2568.714429	-2.997500	3.042400	-9.118900	28.594679	1.470258E-5	20.878628
2569.717591	-3.004200	3.041300	-9.135700	28.632516	1.767280E-5	20.866951
2570.732832	-3.002800	3.038800	-9.123600	28.677706	1.810183E-5	20.866473
2571.757793	-2.987600	3.039300	-9.078900	28.708468	1.661672E-5	20.874697
2572.735246	-2.995800	3.037000	-9.097400	28.760473	1.536263E-5	20.865441
2573.720298	-3.033200	3.034800	-9.203900	28.725464	1.803583E-5	20.870954
2574.717354	-2.987800	3.035100	-9.066400	28.715450	1.704575E-5	20.875566
2575.719878	-3.020900	3.032800	-9.160400	28.696887	1.490060E-5	20.873938
2576.717050	-2.995300	3.031400	-9.079500	28.670821	1.430655E-5	20.858116
2577.716063	-2.985900	3.031400	-9.050700	28.627877	1.668273E-5	20.858960
2578.737418	-2.962200	3.030800	-8.976200	28.576882	1.681474E-5	20.885360
2579.717704	-2.996700	3.028400	-9.074100	28.636172	1.641871E-5	20.850245
2580.738611	-2.995400	3.027700	-9.068000	28.643284	1.655072E-5	20.870209
2581.717674	-2.992100	3.026300	-9.053600	28.622812	1.503261E-5	20.869031
2582.719954	-3.032200	3.023900	-9.167300	28.623775	1.585767E-5	20.857199
2583.719917	-3.004000	3.022100	-9.077300	28.639756	1.556064E-5	20.855751
2584.736059	-3.002200	3.020100	-9.065300	28.582637	1.711176E-5	20.858441
2585.743716	-3.014300	3.021000	-9.105100	28.577605	1.724377E-5	20.857166
2586.738221	-3.022400	3.019500	-9.125200	28.573289	1.612169E-5	20.856138
2587.720421	-3.010300	3.017700	-9.083400	28.506454	1.440556E-5	20.867538
2588.735466	-2.977000	3.016800	-8.980300	28.540178	1.714476E-5	20.871629
2589.725136	-2.999000	3.014700	-9.039500	28.542628	1.526362E-5	20.841382
2590.724674	-3.043400	3.013000	-9.168100	28.590330	1.826684E-5	20.860498
2591.741904	-3.003900	3.012500	-9.047900	28.680993	1.697975E-5	20.859353
2592.746826	-2.984300	3.011700	-8.986700	28.691638	1.585767E-5	20.857746
2593.737851	-2.989200	3.010900	-8.999500	28.749788	1.579166E-5	20.842826
2594.736708	-3.010300	3.007700	-9.052600	28.794952	1.523062E-5	20.839482
2595.740952	-3.019300	3.007800	-9.080700	28.761132	1.582466E-5	20.869898
2596.752153	-3.007600	3.006000	-9.040200	28.751817	1.889389E-5	20.858145
2597.744580	-2.989000	3.004500	-8.979100	28.800325	1.688074E-5	20.832567
2598.740116	-2.986100	3.003800	-8.968000	28.843679	1.585767E-5	20.849686
2599.722538	-2.983700	3.001200	-8.953500	28.875556	1.480159E-5	20.859513
2600.730693	-3.010100	3.001000	-9.032400	28.888710	1.470258E-5	20.852376
2601.724513	-2.998100	2.998000	-8.987200	28.859357	1.414154E-5	20.861686
2602.727801	-2.995000	2.996700	-8.974100	28.849052	1.641871E-5	20.847039
2603.741098	-2.981200	2.997300	-8.934200	28.796852	1.556064E-5	20.859413
2604.749143	-3.009300	2.995100	-9.012100	28.777874	1.592367E-5	20.839348
2605.741210	-3.001700	2.993600	-8.985400	28.793978	1.245842E-5	20.845138
2606.747533	-2.989100	2.992700	-8.944500	28.826606	1.288745E-5	20.835332
2607.727992	-3.010800	2.990200	-9.002700	28.836073	1.635270E-5	20.837283
2608.729175	-3.021100	2.988900	-9.028700	28.812460	1.536263E-5	20.838152
2609.743887	-2.989800	2.988100	-8.933400	28.789987	1.618769E-5	20.843964
2610.745492	-2.985200	2.987700	-8.918100	28.733530	1.328348E-5	20.836407
2611.732366	-3.035000	2.983400	-9.053500	28.729019	1.364650E-5	20.861259
2612.736306	-2.989700	2.983200	-8.917500	28.724461	1.625370E-5	20.843867
2613.745669	-3.000200	2.982000	-8.945400	28.761844	1.529663E-5	20.842168
2614.746272	-3.015700	2.980300	-8.987100	28.775124	1.377851E-5	20.864078
2615.750970	-3.001900	2.979600	-8.943600	28.797323	1.602268E-5	20.849930
2616.748768	-2.986400	2.978300	-8.893300	28.825340	1.546164E-5	20.841643
2617.744849	-2.995100	2.977500	-8.917300	28.830967	1.430655E-5	20.845415
2618.748901	-2.936100	2.976400	-8.736900	28.866834	1.496660E-5	20.825124
2619.750656	-3.026000	2.973200	-8.995300	28.891188	1.559365E-5	20.843493
2620.749078	-3.001800	2.970300	-8.915300	28.910535	1.311847E-5	20.828371
2621.756920	-2.989100	2.971500	-8.881100	28.829230	1.440556E-5	20.841769
2622.728556	-3.001100	2.969700	-8.911900	28.821103	1.278844E-5	20.845436
2623.762325	-3.005400	2.967800	-8.918800	28.732613	1.394353E-5	20.832164
2624.754301	-3.004600	2.966300	-8.911900	28.777007	1.407554E-5	20.832312
2625.746414	-3.001500	2.963800	-8.894900	28.854301	1.410854E-5	20.844266
2626.760650	-3.001000	2.963300	-8.892400	28.904267	1.354750E-5	20.824427
2627.731059	-3.006000	2.961400	-8.900900	28.953734	1.397653E-5	20.844391
2628.754879	-3.029400	2.960100	-8.966200	28.987915	1.318447E-5	20.828569
2629.751019	-2.977500	2.959700	-8.811900	28.977982	1.562665E-5	20.832786
2630.750845	-2.985300	2.957300	-8.827600	28.972730	1.407554E-5	20.834133
2631.755577	-2.972800	2.956700	-8.788600	28.855538	1.503261E-5	20.830814
2632.745758	-2.971000	2.954000	-8.775700	28.786867	1.308546E-5	20.831812
2633.756790	-2.996100	2.952200	-8.843700	28.813701	1.275544E-5	20.830868
2634.757940	-3.013000	2.950100	-8.887400	28.771658	1.318447E-5	20.821234
2635.731843	-2.986600	2.948500	-8.805200	28.757141	1.387752E-5	20.826051
2636.751256	-3.008900	2.947400	-8.868000	28.793436	1.183137E-5	20.842696
2637.754504	-3.008400	2.945300	-8.859700	28.833245	1.308546E-5	20.838228
2638.751065	-2.988800	2.944800	-8.800900	28.855517	1.381152E-5	20.828422
2639.740761	-2.993900	2.942200	-8.807800	28.847615	1.288745E-5	20.831841
2640.753448	-2.983900	2.941800	-8.777000	28.915341	1.315147E-5	20.825627
2641.738168	-2.978300	2.940300	-8.756800	28.990197	1.480159E-5	20.835135
2642.741718	-2.999100	2.938600	-8.812300	28.981155	1.295345E-5	20.829819
2643.733603	-3.000800	2.937000	-8.812700	28.953484	1.169936E-5	20.825174
2644.741272	-2.994000	2.936800	-8.791600	28.933992	1.506561E-5	20.827348
2645.737974	-3.023400	2.933500	-8.868200	28.951752	1.367951E-5	20.826273
2646.734240	-3.005000	2.931500	-8.808000	28.981497	1.381152E-5	20.832534
2647.732306	-3.005900	2.930300	-8.807500	29.034351	1.420755E-5	20.845483
2648.738076	-2.990200	2.928900	-8.757500	29.063607	1.407554E-5	20.829916
2649.737740	-3.010400	2.927400	-8.811900	29.003292	1.414154E-5	20.823198
2650.757962	-2.990200	2.925200	-8.746000	28.906641	1.381152E-5	20.833457
2651.740947	-2.989000	2.925000	-8.741900	28.808662	1.348149E-5	20.820576
2652.745349	-3.005500	2.921600	-8.780300	28.774675	1.288745E-5	20.823798
2653.758655	-2.998100	2.920100	-8.754000	28.783493	1.212839E-5	20.834104
2654.764737	-3.011300	2.918200	-8.786500	28.891480	1.107231E-5	20.819606
2655.742083	-3.060300	2.915000	-8.918700	28.892792	1.301946E-5	20.838471
2656.742400	-3.018400	2.914900	-8.797600	28.909486	1.259043E-5	20.823047
2657.743186	-3.011100	2.914200	-8.774100	28.865094	1.113832E-5	20.813888
2658.750772	-3.004200	2.911300	-8.745300	28.911294	1.140234E-5	20.830558
2659.740895	-3.031900	2.908600	-8.817400	28.912164	1.387752E-5	20.830012
2660.741524	-3.010700	2.908100	-8.754400	28.915900	1.034626E-5	20.824294
2661.742982	-3.004800	2.906000	-8.731500	28.903813	1.308546E-5	20.840565
2662.749044	-2.984900	2.905800	-8.672700	28.920778	1.282144E-5	20.835845
2663.742414	-3.013800	2.902400	-8.746600	28.898682	1.255742E-5	20.838241
2664.750673	-2.990100	2.902700	-8.676800	28.854140	1.298646E-5	20.816129
2665.760943	-2.997600	2.899900	-8.691700	28.884259	1.255742E-5	20.822289
2666.760242	-2.995100	2.898200	-8.679100	28.927017	1.334948E-5	20.845450
2667.768001	-2.980600	2.896800	-8.633700	28.964465	1.447156E-5	20.815374
2668.761466	-2.983400	2.895800	-8.638100	28.951091	1.358050E-5	20.820392
2669.766238	-2.971700	2.893900	-8.599300	29.048105	1.305246E-5	20.827572
2670.745041	-2.997000	2.889900	-8.659800	29.033245	1.338248E-5	20.802170
2671.769756	-2.983500	2.890100	-8.622100	29.021056	1.420755E-5	20.826872
2672.766506	-2.996000	2.887800	-8.651400	29.012956	1.298646E-5	20.805435
2673.768476	-3.010500	2.885100	-8.684900	29.068411	1.443856E-5	20.821006
2674.765838	-2.999300	2.883400	-8.647200	29.103258	1.400953E-5	20.793056
2675.763974	-3.007700	2.882100	-8.668100	29.068061	1.529663E-5	20.812119
2676.768275	-2.985800	2.880100	-8.598900	29.085023	1.483459E-5	20.809296
2677.751420	-2.986100	2.879600	-8.597000	29.058771	1.374551E-5	20.807974
2678.751344	-3.023700	2.875000	-8.691600	29.096217	1.397653E-5	20.803031
2679.755623	-3.016700	2.874600	-8.671000	29.119571	1.160035E-5	20.805700
2680.748440	-3.027500	2.872100	-8.694300	29.062457	1.272244E-5	20.814533
2681.777422	-2.992100	2.870400	-8.587600	28.979110	1.239241E-5	20.805473
2682.768898	-3.015800	2.867800	-8.648200	28.922359	1.249142E-5	20.805197
2683.773101	-3.006800	2.866300	-8.617900	29.045312	1.272244E-5	20.812431
2684.771807	-2.996900	2.865600	-8.587100	29.120034	1.179837E-5	20.797632
2685.768881	-2.990800	2.862700	-8.561000	29.169491	1.486759E-5	20.814277
2686.766569	-2.988300	2.861700	-8.551100	29.228506	1.503261E-5	20.802625
2687.753210	-2.985400	2.859200	-8.534800	29.136182	1.536263E-5	20.811059
2688.767618	-3.001800	2.856000	-8.572200	29.116194	1.453757E-5	20.804669
2689.782485	-3.018800	2.854200	-8.615400	29.121895	1.420755E-5	20.814206
2690.762056	-3.004000	2.853600	-8.571400	29.096381	1.334948E-5	20.828800
2691.776188	-2.991100	2.849800	-8.523600	28.998451	9.884227E-6	20.810736
2692.762870	-3.017600	2.848900	-8.596300	28.950694	1.400953E-5	20.814302
2693.752339	-2.995300	2.846300	-8.524900	28.961418	1.292045E-5	20.799977
2694.770474	-2.997200	2.845100	-8.526000	29.045012	1.311847E-5	20.809758
2695.772757	-2.996100	2.843400	-8.518400	29.075875	1.219440E-5	20.800078
2696.774190	-3.016000	2.840200	-8.565200	29.076791	1.509861E-5	20.781561
2697.771527	-2.968300	2.839800	-8.428300	29.081123	1.374551E-5	20.792563
2698.753982	-2.978400	2.837900	-8.451400	29.153297	1.334948E-5	20.797485
2699.758094	-3.006400	2.834800	-8.521700	29.197352	1.615469E-5	20.813904
2700.756145	-2.961500	2.832800	-8.388700	29.291478	1.496660E-5	20.796859
2701.782146	-3.002300	2.829700	-8.494600	29.314506	1.427355E-5	20.799205
2702.773803	-3.000400	2.828100	-8.484100	29.236676	1.278844E-5	20.796159
2703.772964	-3.003600	2.825700	-8.485700	29.186634	1.658372E-5	20.809741
2704.773940	-2.991900	2.823300	-8.445900	29.250075	1.318447E-5	20.797334
2705.773427	-3.003600	2.820600	-8.471200	29.308836	1.579166E-5	20.791119
2706.780318	-3.010500	2.817300	-8.480700	29.276822	1.430655E-5	20.797736
2707.778218	-3.021100	2.814500	-8.500700	29.276080	1.298646E-5	20.806472
2708.783070	-2.985900	2.813300	-8.398600	29.282421	1.424055E-5	20.807173
2709.755559	-2.987200	2.810100	-8.392800	29.316000	1.407554E-5	20.805452
2710.779062	-2.999200	2.808800	-8.423000	29.370274	1.532963E-5	20.788081
2711.773760	-2.985000	2.805200	-8.372700	29.388375	1.529663E-5	20.788781
2712.758393	-2.981600	2.802300	-8.354500	29.416576	1.539563E-5	20.790653
2713.779523	-3.003200	2.800900	-8.410800	29.451936	1.605568E-5	20.790732
2714.775646	-3.014600	2.797100	-8.431500	29.438940	1.582466E-5	20.794701
2715.759621	-3.041900	2.795100	-8.500700	29.467759	1.691374E-5	20.809052
2716.779193	-2.975400	2.793900	-8.311800	29.475261	1.579166E-5	20.796699
2717.780652	-3.060300	2.787900	-8.530400	29.401359	1.556064E-5	20.798075
2718.782887	-3.009000	2.785500	-8.380500	29.409357	1.341549E-5	20.786221
2719.781282	-2.986600	2.785100	-8.317000	29.407179	1.232641E-5	20.815320
2720.801710	-3.026100	2.780100	-8.412100	29.348973	1.457057E-5	20.785578
2721.778697	-3.003800	2.778900	-8.346600	29.298782	1.480159E-5	20.799005
2722.763819	-2.992100	2.775500	-8.303600	29.293882	1.503261E-5	20.805446
2723.760306	-2.981100	2.773600	-8.267300	29.304553	1.516462E-5	20.804821
2724.763083	-2.993700	2.770800	-8.294000	29.372200	1.394353E-5	20.813255
2725.785009	-2.983600	2.765900	-8.251900	29.373640	1.308546E-5	20.785309
2726.763306	-3.014000	2.763800	-8.328900	29.369851	1.572566E-5	20.790025
2727.758980	-3.014500	2.759700	-8.318200	29.320653	1.569265E-5	20.830055
2728.760528	-3.004400	2.758400	-8.286500	29.363739	1.361350E-5	20.795719
2729.760533	-3.016700	2.754600	-8.308800	29.461713	1.394353E-5	20.784939
2730.781580	-3.003900	2.752000	-8.266400	29.460526	1.542864E-5	20.775208
2731.769574	-3.005500	2.748800	-8.260500	29.448100	1.450457E-5	20.794926
2732.769317	-3.012900	2.743700	-8.265400	29.522423	1.308546E-5	20.799193
2733.763559	-2.998300	2.741500	-8.217600	29.544830	1.245842E-5	20.773890
2734.763175	-3.037200	2.739000	-8.317500	29.485137	1.374551E-5	20.797645
2735.770603	-2.980600	2.736000	-8.154000	29.388780	1.239241E-5	20.793457
2736.777503	-3.008200	2.731200	-8.214900	29.376599	1.404253E-5	20.810576
2737.772105	-2.989300	2.729200	-8.157300	29.369667	1.499960E-5	20.781305
2738.764565	-3.001000	2.724500	-8.175700	29.327080	1.163336E-5	20.786273
2739.764367	-3.019300	2.721300	-8.215500	29.331068	1.344849E-5	20.775119
2740.796062	-2.992800	2.717900	-8.133000	29.424016	1.516462E-5	20.805264
2741.784400	-3.034200	2.712700	-8.229700	29.474475	1.526362E-5	20.783579
2742.789822	-3.003500	2.709900	-8.138300	29.485569	1.433956E-5	20.784804
2743.788820	-2.992200	2.707100	-8.099200	29.501687	1.532963E-5	20.789671
2744.786105	-2.996200	2.702900	-8.097600	29.559273	1.559365E-5	20.782760
2745.787013	-2.993900	2.699900	-8.082500	29.590961	1.463658E-5	20.792893
2746.767441	-2.973800	2.696100	-8.017000	29.622449	1.457057E-5	20.794291
2747.777675	-2.990200	2.692400	-8.050200	29.621234	1.592367E-5	20.799704
2748.769770	-3.029600	2.687300	-8.140100	29.593804	1.315147E-5	20.780112
2749.785053	-2.977700	2.684600	-7.993100	29.603211	1.338248E-5	20.793863
2750.776991	-3.004600	2.680100	-8.051900	29.651830	1.305246E-5	20.783608
2751.785519	-3.014000	2.674200	-8.058100	29.684873	1.440556E-5	20.769505
2752.785810	-2.991100	2.671800	-7.990500	29.679329	1.113832E-5	20.779089
2753.795936	-3.019300	2.666500	-8.050000	29.605884	1.232641E-5	20.789919
2754.796887	-3.003400	2.660600	-7.990000	29.552284	1.381152E-5	20.776190
2755.791599	-3.008800	2.656700	-7.992000	29.558894	1.523062E-5	20.781905
2756.791909	-3.004600	2.652500	-7.968800	29.587116	1.480159E-5	20.776215
2757.787868	-2.986400	2.648400	-7.908200	29.560377	1.351449E-5	20.782925
2758.773546	-3.012900	2.642500	-7.960400	29.570450	1.245842E-5	20.781699
2759.790413	-2.985300	2.638800	-7.877000	29.575970	1.255742E-5	20.783470
2760.787750	-3.052600	2.632900	-8.035700	29.668276	1.123733E-5	20.795446
2761.786982	-2.972500	2.629100	-7.813600	29.736316	1.226040E-5	20.795291
2762.792528	-2.962200	2.625100	-7.774000	29.816831	1.292045E-5	20.784961
2763.787616	-2.994900	2.619200	-7.842800	29.882165	1.176537E-5	20.803424
2764.796144	-2.962400	2.614900	-7.744900	29.922596	1.176537E-5	20.793933
2765.772210	-2.984300	2.610300	-7.787200	29.910841	1.255742E-5	20.783027
2766.772090	-2.976100	2.604700	-7.750200	29.850994	1.334948E-5	20.796174
2767.783364	-2.951800	2.598700	-7.670100	29.829730	1.153435E-5	20.795121
2768.791333	-3.008100	2.593100	-7.799300	29.773217	1.226040E-5	20.780814
2769.774085	-2.982700	2.586900	-7.715000	29.758934	1.008224E-5	20.782060
2770.790235	-3.020600	2.581600	-7.797400	29.794250	1.074229E-5	20.760769
2771.797205	-3.048700	2.575200	-7.849600	29.869111	1.292045E-5	20.778880
2772.793872	-3.013400	2.570900	-7.746400	29.868487	1.067629E-5	20.762604
2773.792793	-3.022300	2.563800	-7.746900	29.904470	1.113832E-5	20.771861
2774.791804	-3.029800	2.557200	-7.746700	29.887581	1.173236E-5	20.784228
2775.794629	-3.002700	2.552200	-7.662600	29.859314	1.107231E-5	20.783226
2776.794619	-3.032400	2.545500	-7.718000	29.916231	1.014825E-5	20.767126
2777.791001	-2.998100	2.540800	-7.616400	29.906944	1.245842E-5	20.777202
2778.796741	-3.001800	2.533200	-7.603200	29.827373	1.358050E-5	20.797012
2779.796844	-2.975400	2.528700	-7.523400	29.850781	1.242541E-5	20.766561
2780.792650	-2.949800	2.523600	-7.443300	29.843350	1.301946E-5	20.782776
2781.798143	-3.006400	2.517000	-7.566700	29.863616	1.123733E-5	20.786616
2782.790755	-2.995800	2.509900	-7.518200	29.941143	1.348149E-5	20.748625
2783.794923	-2.982700	2.504500	-7.469000	29.962893	1.387752E-5	20.764869
2784.789243	-3.020300	2.495800	-7.537700	30.007449	1.424055E-5	20.769499
