LabVIEW Measurement	
Writer_Version	2
Reader_Version	2
Separator	Tab
Decimal_Separator	.
Multi_Headings	No
X_Columns	One
Time_Pref	Absolute
Operator	admin
Description	Clolumns are: time, Current, Voltage, Power, Battery Temp, and Chamber Temp
Date	2024/08/16
Time	13:07:17.8513970375061035156
***End_of_Header***	
	
Channels	6						
Samples	1	1	1	1	1	1	
Date	2024/08/31	2024/08/31	2024/08/31	2024/08/31	2024/08/31	2024/08/31	
Time	01:04:48.0985050201416015625	01:04:48.1043505668640136719	01:04:48.1092238426208496094	01:04:48.0834598541259765625	01:04:48.0834598541259765625	01:04:48.0834598541259765625	
X_Dimension	Time	Time	Time	Time	Time	Time	
X0	0.0000000000000000E+0	0.0000000000000000E+0	0.0000000000000000E+0	0.0000000000000000E+0	0.0000000000000000E+0	0.0000000000000000E+0	
Delta_X	1.000000	1.000000	1.000000	1.000000	1.000000	1.000000	
***End_of_Header***							
X_Value	Untitled	Untitled 1	Untitled 2	Untitled 3	Untitled 4	Untitled 5	Comment
0.000000	0.013970	4.087000	0.057103	20.905392	0.000470	20.991203
1.000227	-3.020000	3.923400	-11.847000	20.904407	0.000470	20.991640
2.002401	-3.011000	3.918500	-11.797000	20.899321	0.000469	20.987977
3.001102	-3.017800	3.914300	-11.811000	20.930164	0.000469	20.971410
4.006068	-3.002200	3.909100	-11.735000	20.922861	0.000470	20.999189
5.002028	-3.000700	3.908800	-11.728000	20.907638	0.000468	20.983967
6.001884	-3.002700	3.905800	-11.727000	20.944824	0.000466	20.991759
7.003274	-3.013400	3.901800	-11.757000	20.924144	0.000470	20.983406
8.003455	-3.011100	3.901900	-11.747000	20.931101	0.000467	20.997473
9.001444	-3.003300	3.900100	-11.712000	20.944799	0.000466	20.992681
10.007220	-3.003200	3.897300	-11.704000	20.944314	0.000464	20.986508
11.002686	-2.990200	3.896200	-11.649000	20.963829	0.000464	20.994170
12.003046	-3.006400	3.894900	-11.709000	20.960794	0.000464	21.009149
13.010469	-2.991900	3.893600	-11.647000	20.979870	0.000465	20.998833
14.004056	-2.998500	3.893500	-11.674000	20.982395	0.000465	20.993299
15.008093	-3.030300	3.889900	-11.787000	20.990903	0.000463	20.981896
16.006106	-3.004900	3.890400	-11.690000	20.980922	0.000463	20.997514
17.006238	-2.998900	3.889100	-11.662000	20.983715	0.000463	21.015477
18.006689	-2.998200	3.888800	-11.658000	21.002038	0.000461	21.004409
19.007720	-2.998600	3.888500	-11.659000	21.006640	0.000460	21.004744
20.008981	-3.003600	3.886700	-11.673000	21.042246	0.000460	21.008114
21.008000	-3.010200	3.885500	-11.695000	21.026947	0.000460	20.999452
22.008184	-3.003000	3.885500	-11.667000	21.046821	0.000458	21.014111
23.008956	-3.011400	3.884400	-11.696000	21.039108	0.000457	21.004501
24.010652	-3.005000	3.884300	-11.671000	21.059646	0.000459	20.998019
25.009382	-2.973300	3.884900	-11.550000	21.041210	0.000457	20.984796
26.010825	-3.002000	3.882100	-11.653000	21.054432	0.000457	20.993752
27.010989	-3.015500	3.882900	-11.708000	21.099594	0.000456	20.992933
28.010845	-3.019600	3.880900	-11.718000	21.075841	0.000456	20.996674
29.014273	-3.014800	3.881700	-11.702000	21.072281	0.000459	21.006861
30.012625	-2.995300	3.881800	-11.626000	21.100568	0.000456	20.985373
31.015505	-3.000200	3.880400	-11.642000	21.097904	0.000456	20.993139
32.013777	-2.999900	3.880000	-11.639000	21.110703	0.000457	20.988398
33.012075	-3.011700	3.879300	-11.682000	21.114433	0.000457	20.977906
34.012706	-2.996200	3.878500	-11.620000	21.123285	0.000456	20.975856
35.014083	-2.988100	3.879100	-11.590000	21.136228	0.000454	20.966044
36.014489	-2.996100	3.878600	-11.619000	21.142529	0.000454	20.967605
37.016586	-3.008200	3.878400	-11.666000	21.123404	0.000455	20.966492
38.013340	-2.988700	3.877900	-11.589000	21.174813	0.000457	20.960072
39.015155	-2.987500	3.877700	-11.583000	21.172778	0.000453	20.979844
40.020434	-3.006000	3.875800	-11.650000	21.175122	0.000454	20.969862
41.015334	-2.976900	3.875800	-11.536000	21.168167	0.000453	20.973809
42.019893	-2.970400	3.875800	-11.512000	21.192634	0.000454	20.962725
43.015676	-3.007100	3.875500	-11.653000	21.189254	0.000453	20.959819
44.016906	-3.016200	3.876000	-11.690000	21.200249	0.000454	20.966074
45.017503	-3.010200	3.873900	-11.660000	21.214133	0.000453	20.966214
46.017564	-3.017800	3.874900	-11.692000	21.202964	0.000453	20.976375
47.024475	-2.997700	3.875200	-11.616000	21.242242	0.000453	20.952609
48.016906	-3.002500	3.873300	-11.629000	21.246405	0.000453	20.958195
49.017559	-2.997100	3.874400	-11.611000	21.258321	0.000453	20.957788
50.017073	-3.005900	3.874000	-11.645000	21.258754	0.000454	20.953006
51.017113	-2.983500	3.874500	-11.559000	21.259011	0.000453	20.979812
52.016889	-2.989000	3.873900	-11.579000	21.267403	0.000453	20.945539
53.020223	-2.995200	3.872100	-11.597000	21.274719	0.000453	20.957597
54.017505	-3.006500	3.872900	-11.643000	21.287155	0.000452	20.948229
55.017694	-3.009300	3.870900	-11.647000	21.291333	0.000453	20.967105
56.018778	-2.991200	3.872400	-11.581000	21.321243	0.000450	20.941081
57.019900	-2.983000	3.871600	-11.548000	21.291730	0.000452	20.964657
58.022492	-3.003100	3.872200	-11.628000	21.323113	0.000450	20.961915
59.020085	-2.989800	3.872000	-11.576000	21.328316	0.000454	20.961431
60.020109	-2.983800	3.871500	-11.550000	21.342776	0.000453	20.963570
61.021121	-3.012100	3.871100	-11.659000	21.345377	0.000451	20.969016
62.022805	-3.023000	3.870600	-11.700000	21.321464	0.000451	20.959318
63.023331	-2.998800	3.871400	-11.609000	21.367755	0.000452	20.948734
64.022099	-3.012700	3.871100	-11.661000	21.368100	0.000452	20.950501
65.019919	-2.977700	3.871400	-11.527000	21.383343	0.000451	20.963379
66.020262	-3.011000	3.869700	-11.651000	21.387417	0.000451	20.965084
67.021639	-3.006800	3.868900	-11.631000	21.387123	0.000453	20.936819
68.019618	-2.986900	3.869200	-11.555000	21.402634	0.000452	20.954706
69.022530	-3.036300	3.868500	-11.745000	21.425113	0.000454	20.919829
70.019613	-3.007300	3.868000	-11.632000	21.434179	0.000450	20.946914
71.021668	-3.014000	3.868900	-11.660000	21.436857	0.000452	20.944853
72.030052	-2.989700	3.868900	-11.566000	21.441365	0.000451	20.949362
73.021727	-3.001700	3.868700	-11.612000	21.447463	0.000451	20.950248
74.024406	-2.989400	3.869500	-11.567000	21.461886	0.000452	20.953299
75.021712	-3.007300	3.868000	-11.631000	21.463755	0.000453	20.947584
76.021554	-2.984800	3.867900	-11.544000	21.477487	0.000452	20.953263
77.026029	-3.004200	3.866500	-11.614000	21.473686	0.000451	20.958467
78.023326	-2.990200	3.868900	-11.568000	21.490025	0.000453	20.956324
79.028251	-2.994600	3.866700	-11.578000	21.490235	0.000451	20.932356
80.023609	-2.986400	3.867300	-11.548000	21.507933	0.000454	20.942951
81.024321	-2.984400	3.866400	-11.538000	21.498008	0.000452	20.949140
82.024583	-2.974000	3.867000	-11.500000	21.513697	0.000454	20.940184
83.025022	-3.000000	3.867000	-11.600000	21.533511	0.000456	20.945311
84.034732	-2.988500	3.866500	-11.554000	21.546573	0.000453	20.937046
85.028483	-2.977600	3.867000	-11.513000	21.540542	0.000454	20.929589
86.025136	-3.013500	3.865000	-11.647000	21.531884	0.000454	20.934201
87.025213	-3.006100	3.865500	-11.619000	21.558883	0.000453	20.944621
88.028214	-3.019100	3.864300	-11.665000	21.560278	0.000457	20.922312
89.025866	-2.998800	3.865700	-11.591000	21.591258	0.000452	20.942879
90.029581	-3.020300	3.864800	-11.672000	21.596305	0.000455	20.941766
91.026563	-2.992200	3.865800	-11.566000	21.599390	0.000456	20.953386
92.026611	-2.991400	3.864800	-11.560000	21.596908	0.000456	20.918189
93.025620	-2.984000	3.865300	-11.532000	21.616870	0.000453	20.940534
94.026999	-3.001200	3.864300	-11.597000	21.609829	0.000456	20.931119
95.029253	-3.017500	3.863300	-11.656000	21.635045	0.000455	20.928852
96.028608	-3.017200	3.864200	-11.658000	21.657746	0.000454	20.938292
97.026693	-3.044200	3.861900	-11.754000	21.664292	0.000454	20.933464
98.029958	-3.002300	3.865000	-11.603000	21.650974	0.000456	20.922034
99.032297	-2.998800	3.864600	-11.588000	21.684691	0.000457	20.935860
100.029011	-2.984300	3.864000	-11.531000	21.667160	0.000454	20.932067
101.030610	-2.993200	3.863100	-11.562000	21.670055	0.000457	20.935912
102.028720	-3.012700	3.862700	-11.636000	21.700619	0.000456	20.929042
103.029460	-3.012100	3.863200	-11.635000	21.685061	0.000454	20.924379
104.029898	-3.013000	3.863200	-11.638000	21.704425	0.000457	20.939962
105.029016	-3.013500	3.863000	-11.639000	21.717279	0.000456	20.933861
106.032705	-2.987600	3.862600	-11.539000	21.712582	0.000456	20.922997
107.030491	-3.006500	3.862400	-11.611000	21.738140	0.000457	20.917282
108.029942	-2.990800	3.861200	-11.548000	21.735910	0.000454	20.932593
109.030969	-2.986900	3.862900	-11.537000	21.750726	0.000456	20.920869
110.032780	-2.995300	3.862000	-11.567000	21.777282	0.000456	20.944600
111.032891	-3.016300	3.862100	-11.648000	21.780691	0.000457	20.933314
112.036367	-2.987500	3.861000	-11.534000	21.779552	0.000457	20.946872
113.034008	-2.997000	3.860800	-11.570000	21.768950	0.000458	20.923935
114.035660	-2.959500	3.861600	-11.428000	21.799640	0.000457	20.922410
115.036566	-2.962900	3.862400	-11.443000	21.772827	0.000459	20.932083
116.035087	-2.994600	3.859700	-11.557000	21.786937	0.000456	20.940039
117.038819	-2.996600	3.861200	-11.569000	21.790639	0.000459	20.913876
118.036463	-2.984600	3.860400	-11.521000	21.788028	0.000457	20.925960
119.036097	-2.999600	3.861000	-11.580000	21.828167	0.000459	20.940529
120.036976	-3.005200	3.861300	-11.603000	21.830253	0.000458	20.936927
121.037153	-3.011000	3.860500	-11.623000	21.834759	0.000460	20.916782
122.039295	-3.018500	3.860800	-11.653000	21.860314	0.000460	20.945677
123.039491	-2.995800	3.858500	-11.559000	21.862698	0.000459	20.927676
124.035837	-3.010300	3.860800	-11.621000	21.854094	0.000458	20.915747
125.038665	-3.008900	3.860500	-11.615000	21.887320	0.000460	20.931459
126.039924	-3.019100	3.859700	-11.651000	21.880225	0.000461	20.929099
127.037792	-2.990400	3.859400	-11.540000	21.877331	0.000458	20.912928
128.037744	-2.988200	3.860500	-11.535000	21.867126	0.000460	20.935427
129.038556	-2.998100	3.858400	-11.567000	21.887753	0.000458	20.916246
130.041216	-3.028400	3.858200	-11.683000	21.913153	0.000460	20.921755
131.038108	-2.997800	3.859100	-11.568000	21.900352	0.000461	20.917952
132.045546	-2.999100	3.859100	-11.573000	21.911747	0.000462	20.933149
133.039310	-2.991500	3.859600	-11.544000	21.908071	0.000461	20.934685
134.042223	-3.012300	3.858400	-11.622000	21.936878	0.000462	20.922745
135.044429	-3.009500	3.858400	-11.611000	21.927559	0.000462	20.894453
136.043069	-2.988600	3.858700	-11.531000	21.944946	0.000462	20.918493
137.041408	-3.018300	3.857400	-11.642000	21.959439	0.000461	20.926362
138.041924	-3.011200	3.857800	-11.615000	21.997240	0.000462	20.935277
139.041895	-3.001000	3.857300	-11.575000	21.992442	0.000463	20.923837
140.043840	-3.011400	3.857500	-11.615000	22.002069	0.000462	20.906450
141.042533	-3.009100	3.857700	-11.608000	22.000623	0.000463	20.917328
142.048810	-3.000400	3.857900	-11.574000	21.994681	0.000464	20.920390
143.046225	-3.014300	3.857000	-11.625000	21.998115	0.000463	20.935679
144.045511	-2.997300	3.855900	-11.556000	22.026457	0.000465	20.925172
145.046369	-3.003300	3.856800	-11.582000	22.009035	0.000464	20.918637
146.046058	-3.036900	3.856000	-11.710000	22.030427	0.000466	20.926774
147.044168	-3.011700	3.856300	-11.613000	22.032053	0.000466	20.931721
148.051242	-3.000600	3.855400	-11.568000	22.034242	0.000464	20.913051
149.047635	-3.014800	3.855000	-11.620000	22.041372	0.000468	20.927774
150.047770	-3.011200	3.855100	-11.607000	22.075221	0.000467	20.905238
151.049164	-2.987400	3.856900	-11.521000	22.067463	0.000466	20.911696
152.047302	-3.001500	3.854800	-11.570000	22.044945	0.000466	20.919972
153.045359	-3.009800	3.855500	-11.603000	22.083911	0.000465	20.901136
154.052016	-3.001600	3.856200	-11.573000	22.101641	0.000464	20.941641
155.049329	-3.012300	3.854200	-11.609000	22.089481	0.000467	20.898652
156.048611	-2.985000	3.855700	-11.509000	22.110166	0.000465	20.912721
157.049003	-3.014400	3.854600	-11.619000	22.112560	0.000467	20.917488
158.047773	-3.002700	3.853600	-11.569000	22.106254	0.000469	20.910701
159.050292	-3.007600	3.854700	-11.593000	22.106382	0.000469	20.907985
160.048998	-3.016700	3.855000	-11.629000	22.107546	0.000470	20.921951
161.049328	-2.981200	3.855500	-11.493000	22.146639	0.000467	20.893762
162.049742	-2.996500	3.854500	-11.549000	22.139560	0.000468	20.914174
163.051276	-3.000700	3.854100	-11.563000	22.135643	0.000470	20.920209
164.053998	-3.003000	3.852500	-11.568000	22.147663	0.000470	20.911381
165.053730	-3.016600	3.853000	-11.622000	22.147292	0.000468	20.901528
166.050504	-3.000600	3.852300	-11.558000	22.159055	0.000471	20.928000
167.051565	-3.010500	3.852600	-11.597000	22.169515	0.000472	20.918086
168.052402	-3.006800	3.851700	-11.581000	22.164470	0.000471	20.916828
169.052702	-3.026200	3.851700	-11.655000	22.175595	0.000474	20.898570
170.052030	-3.008200	3.851500	-11.585000	22.194872	0.000473	20.910283
171.055116	-3.010300	3.850600	-11.591000	22.231903	0.000472	20.922703
172.053919	-3.017700	3.851200	-11.621000	22.237174	0.000472	20.907593
173.052485	-3.006100	3.852000	-11.578000	22.235115	0.000470	20.900317
174.057186	-2.994000	3.851500	-11.530000	22.245456	0.000474	20.913989
175.055468	-2.989500	3.851800	-11.514000	22.253867	0.000474	20.911030
176.055227	-2.997600	3.850100	-11.539000	22.243552	0.000471	20.899755
177.055565	-3.000300	3.851200	-11.554000	22.268140	0.000474	20.894504
178.053877	-2.980200	3.851700	-11.478000	22.284164	0.000476	20.902960
179.059154	-2.993700	3.851600	-11.529000	22.271558	0.000476	20.903141
180.055450	-2.993400	3.849300	-11.521000	22.266169	0.000475	20.915287
181.056806	-2.990600	3.849800	-11.511000	22.290129	0.000473	20.908459
182.055453	-3.002200	3.849800	-11.556000	22.292559	0.000476	20.896194
183.057505	-3.019200	3.848500	-11.618000	22.312668	0.000477	20.907794
184.058915	-2.999100	3.850500	-11.547000	22.318582	0.000477	20.901863
185.057491	-2.964600	3.849500	-11.412000	22.315895	0.000476	20.902017
186.059452	-2.986800	3.849000	-11.495000	22.329550	0.000478	20.885346
187.059932	-3.001000	3.848400	-11.548000	22.330101	0.000477	20.907706
188.057975	-2.997400	3.848600	-11.534000	22.330153	0.000476	20.922929
189.059901	-2.994500	3.847900	-11.521000	22.340441	0.000479	20.900517
190.058936	-2.985400	3.848800	-11.489000	22.347724	0.000478	20.884578
191.058790	-2.984400	3.847900	-11.483000	22.340982	0.000477	20.907222
192.070945	-3.013600	3.847400	-11.594000	22.395728	0.000480	20.905145
193.060521	-2.982600	3.849300	-11.480000	22.382177	0.000479	20.897266
194.060760	-3.007500	3.847800	-11.571000	22.385146	0.000480	20.894076
195.060103	-3.000200	3.848200	-11.544000	22.385852	0.000480	20.897626
196.060196	-3.006500	3.845700	-11.561000	22.385913	0.000483	20.883939
197.060477	-3.015000	3.847300	-11.598000	22.415234	0.000482	20.903816
198.060797	-3.005600	3.846600	-11.560000	22.426597	0.000480	20.919461
199.059918	-3.015700	3.847700	-11.602000	22.434302	0.000482	20.907263
200.060008	-3.001900	3.847700	-11.548000	22.426011	0.000481	20.903228
201.063999	-3.030400	3.846400	-11.655000	22.434662	0.000484	20.915210
202.060844	-3.003200	3.847000	-11.553000	22.422490	0.000483	20.897333
203.061399	-3.045900	3.845100	-11.710000	22.428429	0.000484	20.899487
204.060092	-3.011600	3.845900	-11.581000	22.464439	0.000485	20.876755
205.061465	-2.984200	3.844900	-11.473000	22.468494	0.000483	20.900729
206.060387	-3.004400	3.844800	-11.551000	22.469112	0.000482	20.891391
207.062164	-2.990900	3.845200	-11.500000	22.450554	0.000484	20.895565
208.063621	-3.002900	3.846000	-11.548000	22.457291	0.000485	20.896147
209.064107	-3.003900	3.845100	-11.550000	22.487525	0.000483	20.894658
210.064125	-3.003000	3.844800	-11.543000	22.523878	0.000487	20.901667
211.063601	-2.999700	3.844400	-11.531000	22.520770	0.000486	20.913725
212.066249	-3.023900	3.845300	-11.627000	22.551975	0.000487	20.894720
213.063853	-3.013400	3.844900	-11.585000	22.532117	0.000485	20.870091
214.062651	-2.989300	3.844300	-11.491000	22.527897	0.000485	20.885304
215.065302	-2.994800	3.843100	-11.508000	22.514383	0.000485	20.882676
216.063672	-2.995100	3.844300	-11.513000	22.538467	0.000485	20.867917
217.064892	-3.010000	3.845200	-11.573000	22.546875	0.000487	20.885820
218.066243	-3.007300	3.843400	-11.557000	22.509983	0.000487	20.884908
219.066669	-3.015500	3.842100	-11.585000	22.539913	0.000487	20.878373
220.064558	-3.010100	3.842300	-11.565000	22.552093	0.000489	20.872081
221.067554	-3.002600	3.842300	-11.537000	22.575878	0.000486	20.895426
222.067716	-3.013600	3.843200	-11.580000	22.541318	0.000488	20.875039
223.065138	-2.990600	3.842100	-11.487000	22.559951	0.000488	20.892751
224.067649	-3.016700	3.841200	-11.586000	22.563353	0.000488	20.878141
225.066689	-2.990000	3.842500	-11.487000	22.597619	0.000487	20.877847
226.065098	-3.026500	3.841400	-11.625000	22.589710	0.000489	20.882728
227.067976	-3.000600	3.842100	-11.528000	22.583838	0.000490	20.881589
228.066038	-3.029700	3.841600	-11.638000	22.596775	0.000489	20.880321
229.068216	-2.986600	3.841200	-11.472000	22.589519	0.000490	20.870210
230.066117	-2.996200	3.840400	-11.506000	22.613431	0.000492	20.867607
231.066831	-3.021800	3.839900	-11.602000	22.606526	0.000490	20.860217
232.067578	-2.998100	3.840700	-11.514000	22.621263	0.000492	20.885882
233.066221	-3.000400	3.841900	-11.527000	22.632239	0.000492	20.868901
234.067765	-2.997500	3.839900	-11.510000	22.638074	0.000492	20.853409
235.070376	-2.996500	3.839300	-11.503000	22.645879	0.000492	20.876873
236.067670	-2.990400	3.840000	-11.482000	22.627556	0.000494	20.861841
237.068898	-2.996700	3.838700	-11.503000	22.629388	0.000493	20.878847
238.069133	-3.014200	3.839200	-11.570000	22.626954	0.000493	20.882099
239.069318	-3.005300	3.838100	-11.534000	22.652826	0.000492	20.868185
240.069887	-3.019200	3.837600	-11.585000	22.674817	0.000493	20.871720
241.073832	-2.992200	3.839200	-11.487000	22.685885	0.000492	20.853409
242.071664	-2.998300	3.838200	-11.507000	22.706497	0.000494	20.878796
243.071195	-2.991200	3.838000	-11.479000	22.702031	0.000494	20.861521
244.074044	-2.993200	3.838600	-11.489000	22.729398	0.000496	20.849580
245.072400	-2.987800	3.839000	-11.469000	22.715733	0.000495	20.885676
246.072748	-2.991200	3.838000	-11.479000	22.746233	0.000496	20.861701
247.077180	-3.001000	3.838000	-11.516000	22.759091	0.000495	20.858460
248.075274	-3.007600	3.836700	-11.538000	22.720863	0.000496	20.873271
249.072412	-3.010300	3.836500	-11.548000	22.750097	0.000499	20.877899
250.072253	-2.997800	3.836500	-11.500000	22.765789	0.000500	20.852842
251.072424	-2.994200	3.837900	-11.490000	22.785901	0.000496	20.857816
252.071948	-2.999100	3.836500	-11.504000	22.779737	0.000498	20.854012
253.071498	-2.986000	3.836500	-11.455000	22.782166	0.000498	20.873987
254.073672	-3.007000	3.835900	-11.534000	22.806228	0.000500	20.858738
255.072573	-2.984800	3.837300	-11.453000	22.827491	0.000500	20.844004
256.076416	-2.990000	3.836300	-11.470000	22.814707	0.000498	20.849214
257.073178	-2.979800	3.836000	-11.430000	22.830573	0.000500	20.856574
258.073149	-2.998600	3.835100	-11.499000	22.814954	0.000497	20.852306
259.073046	-2.996600	3.835000	-11.491000	22.803414	0.000500	20.846911
260.074934	-3.003700	3.834500	-11.517000	22.802313	0.000504	20.858609
261.074738	-3.012900	3.835300	-11.554000	22.825557	0.000502	20.862928
262.076882	-3.006700	3.833600	-11.526000	22.850169	0.000500	20.855816
263.075968	-3.010500	3.833200	-11.539000	22.846959	0.000503	20.833161
264.075264	-2.991100	3.834300	-11.468000	22.861554	0.000502	20.836877
265.075912	-2.995300	3.833300	-11.481000	22.857027	0.000501	20.845617
266.085423	-3.003000	3.834200	-11.513000	22.864075	0.000504	20.844143
267.079073	-2.994600	3.834200	-11.480000	22.907565	0.000502	20.853100
268.076061	-2.977900	3.833600	-11.415000	22.898944	0.000502	20.839721
269.075711	-3.008800	3.832300	-11.530000	22.882569	0.000504	20.844653
270.079855	-2.995800	3.833900	-11.484000	22.876061	0.000503	20.858996
271.075400	-3.003300	3.832800	-11.510000	22.889107	0.000504	20.845988
272.081163	-3.014900	3.832000	-11.552000	22.863231	0.000503	20.853729
273.079773	-2.987800	3.833400	-11.453000	22.920051	0.000504	20.845220
274.076388	-2.972200	3.832400	-11.389000	22.943025	0.000507	20.842633
275.078042	-2.995800	3.832900	-11.481000	22.960432	0.000505	20.823564
276.076604	-2.990500	3.832300	-11.459000	22.962876	0.000506	20.826487
277.077599	-2.989900	3.830800	-11.453000	22.946950	0.000507	20.821436
278.078875	-2.992600	3.831500	-11.465000	22.944419	0.000506	20.847823
279.077346	-2.972700	3.830500	-11.386000	22.925961	0.000506	20.838814
280.078310	-2.985100	3.830500	-11.433000	22.941234	0.000507	20.836098
281.076889	-2.997600	3.829800	-11.480000	22.943205	0.000508	20.843762
282.079129	-3.000800	3.829600	-11.491000	22.950329	0.000507	20.836675
283.081878	-2.985800	3.829300	-11.433000	22.974465	0.000507	20.834305
284.082269	-2.990900	3.829600	-11.453000	22.942618	0.000510	20.823735
285.081664	-2.992100	3.829000	-11.456000	22.966549	0.000508	20.836804
286.078353	-2.981400	3.830600	-11.420000	22.976296	0.000508	20.846570
287.080236	-3.011300	3.828500	-11.527000	22.984331	0.000509	20.818586
288.080446	-2.992500	3.829100	-11.458000	22.987515	0.000509	20.827940
289.082109	-2.998100	3.829900	-11.482000	22.989830	0.000510	20.825044
290.086310	-3.016300	3.827200	-11.543000	22.988909	0.000511	20.833130
291.082708	-3.008700	3.829000	-11.519000	22.999053	0.000511	20.823853
292.082174	-3.004800	3.826800	-11.498000	23.008312	0.000509	20.834552
293.084837	-3.000300	3.826900	-11.480000	23.013544	0.000512	20.831259
294.082703	-2.995800	3.827400	-11.466000	23.026002	0.000510	20.843741
295.083892	-2.974800	3.827700	-11.386000	23.048202	0.000513	20.817622
296.089392	-3.018700	3.825800	-11.548000	23.048346	0.000511	20.838155
297.085642	-3.010900	3.826700	-11.521000	23.068108	0.000513	20.819076
298.085673	-2.991600	3.827100	-11.448000	23.062645	0.000515	20.828775
299.087162	-2.997100	3.825700	-11.465000	23.066164	0.000512	20.814757
300.084242	-2.996800	3.826900	-11.468000	23.089567	0.000512	20.819715
301.084724	-2.979800	3.826300	-11.400000	23.081985	0.000512	20.829187
302.083673	-2.995100	3.825300	-11.456000	23.079887	0.000515	20.810489
303.084736	-2.984600	3.825300	-11.416000	23.079799	0.000514	20.817040
304.084619	-2.989900	3.826000	-11.438000	23.076549	0.000513	20.822317
305.084525	-3.003100	3.824700	-11.485000	23.078879	0.000513	20.841247
306.084148	-2.996800	3.822700	-11.455000	23.096886	0.000516	20.827522
307.084954	-3.003600	3.823300	-11.483000	23.102271	0.000515	20.815849
308.086000	-2.997000	3.824400	-11.460000	23.142199	0.000515	20.821719
309.088955	-3.004000	3.823300	-11.484000	23.141175	0.000516	20.831599
310.086004	-2.995500	3.823500	-11.452000	23.128271	0.000514	20.833841
311.085481	-2.980400	3.824300	-11.398000	23.144539	0.000514	20.818375
312.094053	-3.000400	3.823500	-11.471000	23.127031	0.000517	20.812211
313.086053	-2.994600	3.822700	-11.446000	23.150037	0.000517	20.800177
314.085657	-2.993400	3.822200	-11.441000	23.172739	0.000516	20.829563
315.091628	-3.026500	3.821100	-11.563000	23.148299	0.000517	20.839685
316.085683	-2.998700	3.824500	-11.467000	23.164937	0.000517	20.817004
317.086242	-3.009000	3.823000	-11.502000	23.205094	0.000518	20.819313
318.087178	-3.010200	3.822300	-11.505000	23.175665	0.000518	20.823487
319.092942	-2.985800	3.821900	-11.410000	23.192946	0.000520	20.836536
320.090417	-2.999700	3.822600	-11.466000	23.185849	0.000521	20.831795
321.087990	-2.985700	3.822800	-11.414000	23.179543	0.000517	20.832114
322.088005	-3.005800	3.820900	-11.484000	23.169427	0.000518	20.818658
323.087214	-2.999100	3.820100	-11.456000	23.185015	0.000519	20.833805
324.086956	-2.981900	3.821500	-11.395000	23.201411	0.000518	20.821312
325.090232	-3.001300	3.821000	-11.466000	23.191398	0.000519	20.835933
326.088801	-3.003700	3.819600	-11.472000	23.221937	0.000520	20.834769
327.090724	-3.000500	3.820700	-11.463000	23.244020	0.000519	20.838881
328.087485	-3.019700	3.819300	-11.532000	23.265259	0.000520	20.835511
329.094594	-3.022600	3.818000	-11.540000	23.236717	0.000520	20.841046
330.087112	-2.994300	3.820700	-11.439000	23.256193	0.000521	20.836856
331.090957	-3.017100	3.818900	-11.521000	23.255236	0.000521	20.827363
332.091194	-3.015200	3.819300	-11.515000	23.245018	0.000523	20.840355
333.088802	-3.022600	3.818300	-11.541000	23.296423	0.000522	20.807000
334.098051	-2.997800	3.818600	-11.446000	23.297586	0.000523	20.835191
335.095469	-3.004400	3.817600	-11.469000	23.292433	0.000523	20.827657
336.090751	-2.972200	3.818800	-11.349000	23.300949	0.000521	20.825286
337.094841	-2.975900	3.817400	-11.359000	23.325077	0.000522	20.819122
338.093055	-3.004300	3.816200	-11.464000	23.329299	0.000523	20.841845
339.091311	-2.992400	3.817900	-11.424000	23.305628	0.000523	20.834243
340.096636	-2.993400	3.816900	-11.425000	23.332235	0.000526	20.837675
341.099004	-3.010000	3.815700	-11.484000	23.329921	0.000526	20.836779
342.092316	-2.983900	3.817300	-11.389000	23.320845	0.000525	20.836217
343.092720	-2.985800	3.817300	-11.396000	23.327494	0.000525	20.835294
344.094810	-2.979000	3.817600	-11.371000	23.324666	0.000524	20.828667
345.093691	-2.984300	3.816000	-11.388000	23.340545	0.000526	20.829883
346.094300	-2.990600	3.814900	-11.407000	23.309259	0.000526	20.844993
347.095075	-3.006400	3.815000	-11.468000	23.280487	0.000527	20.828486
348.099287	-3.012600	3.814300	-11.490000	23.326275	0.000527	20.860150
349.100273	-2.984700	3.814200	-11.383000	23.286113	0.000526	20.831280
350.095144	-2.993200	3.814600	-11.417000	23.333886	0.000528	20.833166
351.098217	-2.987000	3.813500	-11.389000	23.343718	0.000526	20.842545
352.095116	-2.975700	3.812800	-11.344000	23.367398	0.000527	20.827873
353.094477	-3.005100	3.813600	-11.460000	23.396575	0.000525	20.851425
354.103928	-2.993900	3.812900	-11.414000	23.409656	0.000528	20.841303
355.096594	-3.005900	3.812900	-11.460000	23.406792	0.000528	20.851234
356.096432	-3.009000	3.811500	-11.468000	23.416140	0.000528	20.857285
357.104405	-2.989200	3.813300	-11.398000	23.413081	0.000526	20.836201
358.097137	-3.003200	3.812900	-11.450000	23.398415	0.000529	20.842839
359.100630	-3.004300	3.812300	-11.452000	23.415574	0.000531	20.834434
360.097733	-3.005200	3.812200	-11.454000	23.400452	0.000531	20.842035
361.099787	-3.002100	3.811500	-11.442000	23.413862	0.000528	20.849312
362.102413	-3.019300	3.811100	-11.506000	23.405743	0.000530	20.843545
363.098255	-3.011500	3.810900	-11.476000	23.409553	0.000528	20.852580
364.102547	-3.021400	3.810200	-11.512000	23.412993	0.000531	20.844648
365.102906	-3.028200	3.810800	-11.539000	23.427787	0.000530	20.842880
366.101362	-2.999200	3.810500	-11.428000	23.464186	0.000531	20.850441
367.105080	-3.040700	3.808400	-11.578000	23.467178	0.000530	20.842535
368.106201	-2.960600	3.810600	-11.281000	23.472459	0.000531	20.858259
369.101431	-2.958500	3.809900	-11.271000	23.467152	0.000531	20.853889
370.106590	-2.988300	3.809900	-11.385000	23.476449	0.000530	20.857517
371.103589	-3.007000	3.808600	-11.451000	23.509828	0.000532	20.859207
372.103255	-2.979900	3.809800	-11.352000	23.470160	0.000531	20.866860
373.105682	-3.004800	3.808400	-11.443000	23.475667	0.000531	20.834923
374.103702	-2.996200	3.808500	-11.409000	23.455532	0.000532	20.853621
375.102795	-3.004100	3.807600	-11.437000	23.451953	0.000531	20.849560
376.109015	-3.012100	3.807400	-11.466000	23.490166	0.000533	20.848982
377.105164	-3.008000	3.807400	-11.452000	23.505751	0.000534	20.858913
378.105732	-2.994800	3.807900	-11.403000	23.528327	0.000532	20.861155
379.109065	-3.004800	3.806700	-11.437000	23.536867	0.000535	20.853595
380.105140	-3.014300	3.806700	-11.474000	23.510327	0.000533	20.867767
381.106765	-3.002900	3.807600	-11.433000	23.523088	0.000535	20.859223
382.106405	-3.008400	3.805800	-11.449000	23.519520	0.000535	20.873663
383.106146	-3.004400	3.806400	-11.435000	23.533736	0.000533	20.860887
384.106821	-3.004000	3.806400	-11.434000	23.558574	0.000535	20.856388
385.113835	-2.986300	3.807300	-11.368000	23.553946	0.000533	20.876879
386.107144	-3.006400	3.806200	-11.442000	23.529684	0.000535	20.864412
387.112529	-3.014000	3.805200	-11.468000	23.537864	0.000535	20.865974
388.105834	-2.991100	3.805300	-11.381000	23.568229	0.000536	20.867963
389.106693	-3.002800	3.805700	-11.427000	23.598732	0.000535	20.859186
390.107821	-3.013500	3.803700	-11.462000	23.618365	0.000536	20.849946
391.109765	-3.024500	3.803800	-11.504000	23.596927	0.000536	20.844576
392.109470	-2.991600	3.804200	-11.380000	23.585462	0.000535	20.865799
393.107435	-3.000500	3.803700	-11.413000	23.584912	0.000534	20.856713
394.110229	-2.983300	3.804200	-11.349000	23.602007	0.000536	20.881434
395.110559	-3.006100	3.802300	-11.429000	23.598757	0.000535	20.872488
396.114101	-3.009700	3.804100	-11.447000	23.593976	0.000535	20.872910
397.111434	-3.009100	3.802500	-11.442000	23.638693	0.000538	20.895452
398.113150	-3.020700	3.803300	-11.487000	23.635649	0.000538	20.861583
399.109466	-3.005000	3.802500	-11.426000	23.628519	0.000536	20.880512
400.109820	-2.982000	3.802900	-11.339000	23.619903	0.000538	20.886098
401.112045	-3.018400	3.802400	-11.476000	23.593467	0.000539	20.875719
402.110353	-3.004700	3.801100	-11.421000	23.629671	0.000538	20.866494
403.114629	-2.996300	3.803300	-11.395000	23.648918	0.000537	20.878677
404.111684	-2.998500	3.800900	-11.396000	23.691088	0.000539	20.871168
405.111046	-3.001600	3.801400	-11.409000	23.674381	0.000535	20.884289
406.111852	-2.997600	3.801500	-11.394000	23.652003	0.000540	20.879399
407.115102	-2.999200	3.801400	-11.401000	23.656794	0.000541	20.875193
408.113144	-3.005700	3.800000	-11.421000	23.682195	0.000539	20.886433
409.113971	-3.010000	3.800500	-11.439000	23.670474	0.000540	20.877528
410.113348	-3.000800	3.799100	-11.400000	23.662942	0.000541	20.858125
411.113360	-2.999100	3.798400	-11.391000	23.658537	0.000540	20.880259
412.112602	-3.008200	3.799200	-11.427000	23.645243	0.000541	20.897276
413.112971	-2.995600	3.798600	-11.378000	23.648589	0.000541	20.899208
414.117038	-2.997500	3.798800	-11.386000	23.662639	0.000539	20.888165
415.114754	-3.002100	3.799100	-11.405000	23.709512	0.000540	20.885372
416.114539	-3.012400	3.797200	-11.438000	23.749228	0.000541	20.884413
417.117826	-3.010100	3.797300	-11.430000	23.753880	0.000541	20.896663
418.113960	-3.000100	3.797700	-11.393000	23.736968	0.000540	20.878286
419.116651	-2.994800	3.796600	-11.369000	23.739245	0.000539	20.887206
420.116862	-3.004800	3.797500	-11.410000	23.743106	0.000544	20.886809
421.120001	-3.012800	3.795900	-11.435000	23.720698	0.000542	20.888525
422.118564	-3.008300	3.796500	-11.420000	23.742725	0.000543	20.899703
423.122815	-2.976800	3.797400	-11.303000	23.778924	0.000539	20.890479
424.114523	-3.009400	3.794600	-11.418000	23.800189	0.000541	20.887144
425.115296	-2.978800	3.796600	-11.309000	23.811898	0.000544	20.887505
426.113717	-2.992300	3.795100	-11.355000	23.769476	0.000542	20.894282
427.118330	-3.003300	3.794300	-11.395000	23.760455	0.000542	20.881445
428.114984	-2.992900	3.794400	-11.355000	23.759026	0.000543	20.901821
429.122004	-2.996600	3.793400	-11.367000	23.775845	0.000542	20.911572
430.115339	-3.022600	3.794300	-11.468000	23.779438	0.000544	20.891942
431.117487	-3.021000	3.792700	-11.457000	23.821757	0.000544	20.908294
432.117702	-3.006800	3.794900	-11.409000	23.823407	0.000544	20.897621
433.123667	-3.014700	3.793900	-11.436000	23.834669	0.000542	20.895637
434.120008	-3.007300	3.793300	-11.407000	23.810922	0.000543	20.914499
435.117329	-3.006400	3.792900	-11.403000	23.834731	0.000543	20.911345
436.121388	-2.992500	3.793800	-11.352000	23.872499	0.000544	20.912705
437.124399	-2.987300	3.791700	-11.326000	23.863119	0.000544	20.900930
438.121562	-2.997000	3.792300	-11.365000	23.856781	0.000544	20.912592
439.121130	-2.999600	3.791500	-11.372000	23.830439	0.000542	20.909412
440.121273	-2.990900	3.792800	-11.343000	23.826594	0.000543	20.909825
441.123772	-3.019900	3.792200	-11.452000	23.800698	0.000544	20.909938
442.119692	-3.013400	3.790500	-11.421000	23.847606	0.000543	20.912401
443.119981	-3.000600	3.790600	-11.373000	23.860924	0.000546	20.915797
444.122124	-2.989000	3.791500	-11.330000	23.874277	0.000543	20.927763
445.124341	-3.000300	3.790800	-11.373000	23.878343	0.000544	20.907186
446.121556	-3.009600	3.790200	-11.406000	23.882203	0.000544	20.919116
447.121899	-3.002100	3.790300	-11.378000	23.900953	0.000546	20.920848
448.125303	-2.995400	3.789600	-11.351000	23.916978	0.000545	20.919848
449.122059	-2.981800	3.789600	-11.298000	23.924647	0.000546	20.903831
450.121542	-2.985300	3.790800	-11.316000	23.934473	0.000545	20.935019
451.122115	-2.984800	3.789500	-11.310000	23.926435	0.000547	20.911788
452.122977	-2.967800	3.789200	-11.245000	23.918921	0.000544	20.929382
453.122615	-2.989600	3.788600	-11.325000	23.900557	0.000547	20.926614
454.129905	-3.012200	3.787200	-11.407000	23.889131	0.000547	20.913262
455.125394	-2.993400	3.787900	-11.338000	23.922498	0.000543	20.909263
456.130638	-3.011400	3.785800	-11.399000	23.942388	0.000546	20.905975
457.126522	-3.014100	3.786100	-11.411000	23.917235	0.000545	20.920106
458.125834	-3.004400	3.787600	-11.379000	23.912764	0.000547	20.932690
459.123778	-2.989400	3.786200	-11.317000	23.925274	0.000546	20.951870
460.130134	-3.006000	3.785700	-11.378000	23.922874	0.000548	20.936189
461.131712	-2.986400	3.786800	-11.308000	23.907897	0.000548	20.916906
462.125505	-2.987400	3.785700	-11.309000	23.916536	0.000546	20.953066
463.129077	-2.998900	3.784400	-11.348000	23.952611	0.000547	20.947516
464.129925	-3.014500	3.785100	-11.409000	23.938709	0.000547	20.920776
465.126706	-2.982600	3.785600	-11.290000	23.989095	0.000548	20.936689
466.128605	-3.000200	3.784200	-11.352000	23.974006	0.000545	20.945738
467.126102	-2.991400	3.785900	-11.325000	23.962032	0.000549	20.947006
468.130208	-2.991700	3.784700	-11.322000	23.951079	0.000546	20.936498
469.130595	-2.999400	3.784100	-11.349000	23.977162	0.000551	20.950799
470.126876	-3.019400	3.783400	-11.423000	23.962823	0.000547	20.937843
471.129721	-3.024800	3.783100	-11.443000	23.974094	0.000547	20.944403
472.130277	-2.978800	3.784100	-11.271000	23.984573	0.000548	20.933102
473.133038	-3.001500	3.784100	-11.357000	24.008136	0.000550	20.930655
474.130424	-2.982600	3.783500	-11.284000	24.012649	0.000549	20.951772
475.128771	-2.989300	3.783700	-11.310000	24.033169	0.000548	20.951963
476.129508	-2.998800	3.782500	-11.342000	24.061691	0.000550	20.938843
477.131839	-3.012700	3.782500	-11.394000	24.079888	0.000551	20.939549
478.132845	-3.018100	3.781900	-11.413000	24.071809	0.000550	20.955153
479.138063	-3.009400	3.781700	-11.380000	24.101954	0.000548	20.946032
480.132356	-2.996900	3.781100	-11.331000	24.096728	0.000551	20.932257
481.134521	-3.021200	3.780300	-11.420000	24.100587	0.000551	20.960780
482.134547	-2.996100	3.780700	-11.326000	24.067071	0.000548	20.939972
483.133270	-2.994700	3.780000	-11.318000	24.068413	0.000550	20.949376
484.135450	-3.009700	3.780200	-11.376000	24.089980	0.000549	20.952514
485.132231	-3.020100	3.779900	-11.414000	24.074954	0.000548	20.947877
486.134805	-3.002200	3.779500	-11.345000	24.108495	0.000551	20.953066
487.138879	-2.996500	3.780000	-11.326000	24.074060	0.000550	20.957410
488.137777	-3.011100	3.779200	-11.379000	24.073896	0.000549	20.965779
489.136063	-2.990300	3.778100	-11.296000	24.145972	0.000549	20.957462
490.136658	-2.989000	3.778800	-11.294000	24.127534	0.000549	20.946083
491.135818	-2.988100	3.778100	-11.289000	24.130104	0.000551	20.966201
492.135607	-2.993500	3.776800	-11.305000	24.112411	0.000551	20.963630
493.137618	-2.993800	3.778800	-11.312000	24.089513	0.000550	20.975276
494.138769	-3.005300	3.779600	-11.358000	24.114200	0.000550	20.964001
495.138181	-2.988400	3.777800	-11.288000	24.093511	0.000551	20.962692
496.148326	-3.002000	3.778000	-11.341000	24.099878	0.000551	20.956277
497.137576	-2.998200	3.778100	-11.326000	24.114637	0.000552	20.971550
498.138083	-3.009800	3.775800	-11.364000	24.125613	0.000552	20.966439
499.141079	-2.988900	3.778300	-11.291000	24.156393	0.000550	20.955112
500.138763	-3.015900	3.776200	-11.388000	24.148012	0.000548	20.974678
501.141140	-3.010900	3.775900	-11.368000	24.149507	0.000551	20.972385
502.139643	-3.016600	3.774800	-11.386000	24.170616	0.000550	20.979332
503.143112	-2.999500	3.775800	-11.324000	24.193960	0.000549	20.991364
504.141468	-3.000000	3.774600	-11.322000	24.198138	0.000551	20.971849
505.139409	-3.012900	3.773800	-11.369000	24.199736	0.000552	20.977245
506.144422	-3.009500	3.775000	-11.361000	24.230314	0.000549	20.962873
507.149888	-3.016200	3.775500	-11.387000	24.233186	0.000552	20.968598
508.141409	-2.977300	3.774300	-11.236000	24.214010	0.000550	20.970700
509.144724	-2.974800	3.773900	-11.226000	24.166254	0.000552	20.999609
510.142346	-3.028900	3.772300	-11.425000	24.153259	0.000550	20.975199
511.141641	-3.000000	3.773500	-11.320000	24.135259	0.000550	20.994126
512.141697	-3.005400	3.772400	-11.337000	24.158423	0.000550	20.994126
513.140983	-3.008200	3.772100	-11.346000	24.196191	0.000553	21.004504
514.143770	-3.007900	3.771300	-11.342000	24.239043	0.000553	20.978265
515.141760	-3.019900	3.771000	-11.387000	24.243565	0.000551	20.991333
516.140326	-3.004900	3.772600	-11.336000	24.254057	0.000551	20.989056
517.144953	-2.977300	3.772800	-11.231000	24.264631	0.000550	20.997764
518.143495	-2.980700	3.772400	-11.244000	24.247706	0.000552	20.985531
519.152489	-2.983900	3.771700	-11.254000	24.222920	0.000551	20.977740
520.146841	-2.994000	3.769800	-11.286000	24.228032	0.000551	20.998038
521.143512	-2.986000	3.771400	-11.260000	24.214976	0.000549	20.989211
522.143603	-3.013800	3.769400	-11.359000	24.253394	0.000553	21.008302
523.144602	-3.001000	3.770600	-11.315000	24.279701	0.000552	21.006241
524.144700	-2.968400	3.770800	-11.192000	24.281155	0.000553	20.995373
525.145961	-2.985800	3.769300	-11.254000	24.277286	0.000550	20.981538
526.144124	-3.003600	3.768500	-11.318000	24.263388	0.000552	21.005999
527.146764	-2.984800	3.768200	-11.246000	24.282763	0.000552	20.989401
528.149917	-3.002100	3.768400	-11.312000	24.293368	0.000550	20.994348
529.145294	-2.991700	3.767800	-11.271000	24.297802	0.000552	21.000691
530.148454	-2.998600	3.768100	-11.298000	24.284746	0.000552	21.015568
531.150227	-2.995800	3.767000	-11.284000	24.270489	0.000552	21.019283
532.148874	-2.994900	3.768400	-11.285000	24.279752	0.000551	20.989226
533.150033	-2.996400	3.767800	-11.289000	24.217417	0.000551	21.009199
534.150400	-2.997400	3.766400	-11.287000	24.216816	0.000552	21.003855
535.152576	-2.976800	3.767100	-11.213000	24.226363	0.000551	20.999681
536.152034	-2.993400	3.766500	-11.274000	24.261533	0.000551	21.018361
537.148382	-2.991900	3.767000	-11.269000	24.264816	0.000552	21.007431
538.149016	-2.994000	3.766100	-11.274000	24.299528	0.000551	20.986778
539.153334	-2.982100	3.765300	-11.227000	24.333432	0.000551	20.987124
540.150598	-2.987000	3.765300	-11.246000	24.333165	0.000554	20.991122
541.149798	-2.988200	3.765000	-11.249000	24.397929	0.000551	20.985444
542.149861	-2.994800	3.765000	-11.274000	24.382116	0.000551	21.007509
543.151285	-2.978900	3.766700	-11.219000	24.344278	0.000549	20.997053
544.156282	-2.988100	3.764500	-11.248000	24.328516	0.000550	20.998785
545.152534	-2.990500	3.764900	-11.258000	24.345876	0.000552	20.994389
546.150596	-3.009500	3.764000	-11.327000	24.358062	0.000551	20.986701
547.156407	-3.011100	3.763700	-11.332000	24.327313	0.000552	20.997105
548.157240	-2.998500	3.762500	-11.280000	24.346040	0.000551	20.992658
549.152026	-3.018300	3.762500	-11.355000	24.354687	0.000552	20.996590
550.152383	-3.021400	3.762100	-11.366000	24.387289	0.000552	20.994683
551.157165	-3.019500	3.762000	-11.358000	24.393392	0.000551	20.976153
552.152940	-3.006600	3.763100	-11.313000	24.417127	0.000550	20.982893
553.152007	-2.982800	3.762100	-11.221000	24.370413	0.000552	20.966377
554.158010	-2.990000	3.761500	-11.247000	24.372123	0.000553	20.965249
555.152845	-2.988400	3.761200	-11.239000	24.392653	0.000553	20.981574
556.156169	-2.992700	3.761300	-11.256000	24.416053	0.000552	20.951949
557.158052	-3.012900	3.759800	-11.326000	24.426554	0.000551	20.956793
558.154800	-2.993400	3.761300	-11.258000	24.470189	0.000553	20.959792
559.152916	-3.017000	3.758900	-11.339000	24.475655	0.000553	20.967171
560.152931	-2.999100	3.759300	-11.274000	24.489206	0.000550	20.957060
561.158078	-3.004000	3.760700	-11.296000	24.454490	0.000552	20.967748
562.153364	-3.005700	3.760100	-11.301000	24.447601	0.000552	20.957045
563.152943	-3.000900	3.759000	-11.280000	24.420112	0.000553	20.954597
564.153087	-2.987200	3.760000	-11.231000	24.445726	0.000553	20.953742
565.158417	-2.984200	3.759400	-11.218000	24.418622	0.000552	20.943147
566.152201	-2.985800	3.760100	-11.226000	24.411543	0.000552	20.956906
567.154498	-3.001300	3.759500	-11.282000	24.449214	0.000552	20.970515
568.157557	-2.991000	3.759700	-11.244000	24.434142	0.000551	20.936906
569.158086	-2.975200	3.759000	-11.183000	24.404700	0.000550	20.966161
570.155416	-3.023800	3.757600	-11.361000	24.409205	0.000551	20.957406
571.161643	-2.994400	3.756400	-11.247000	24.435508	0.000552	20.961034
572.155742	-2.986000	3.759000	-11.223000	24.442048	0.000552	20.952423
573.157876	-2.991900	3.756500	-11.239000	24.439674	0.000551	20.946723
574.165288	-3.000600	3.757000	-11.272000	24.441349	0.000553	20.966419
575.162545	-2.996800	3.757400	-11.259000	24.434219	0.000551	20.946940
576.159090	-2.997600	3.756200	-11.259000	24.451043	0.000551	20.941534
577.164456	-3.020800	3.755400	-11.343000	24.429904	0.000551	20.942611
578.159918	-2.991100	3.755400	-11.232000	24.454988	0.000552	20.939803
579.161736	-2.995600	3.755300	-11.248000	24.464533	0.000552	20.945111
580.159283	-2.995100	3.754600	-11.245000	24.445603	0.000551	20.948403
581.160380	-2.995300	3.755300	-11.248000	24.474802	0.000552	20.954463
582.160139	-2.995800	3.754000	-11.246000	24.468925	0.000550	20.932923
583.162366	-2.983100	3.754600	-11.199000	24.493809	0.000551	20.955989
584.164704	-2.991600	3.754300	-11.231000	24.436957	0.000553	20.949687
585.163993	-3.016100	3.753000	-11.319000	24.438298	0.000551	20.934912
586.161414	-2.989700	3.753400	-11.221000	24.450319	0.000550	20.928007
587.162322	-3.021600	3.752100	-11.337000	24.452158	0.000551	20.945023
588.166087	-3.030100	3.751600	-11.367000	24.473837	0.000549	20.930264
589.165612	-3.026400	3.752100	-11.354000	24.469198	0.000550	20.936041
590.166084	-3.007400	3.753200	-11.286000	24.428337	0.000550	20.938195
591.163911	-2.996100	3.751600	-11.240000	24.422321	0.000547	20.933583
592.165528	-2.999600	3.751100	-11.251000	24.440933	0.000550	20.931393
593.165495	-2.968600	3.752600	-11.139000	24.437394	0.000550	20.935902
594.163258	-2.989300	3.752000	-11.215000	24.475126	0.000551	20.931558
595.166469	-3.001400	3.751100	-11.258000	24.501222	0.000548	20.916964
596.170377	-2.988300	3.752100	-11.211000	24.523279	0.000550	20.938144
597.170440	-2.982300	3.751000	-11.185000	24.530635	0.000551	20.944575
598.168225	-3.009400	3.748800	-11.280000	24.561548	0.000550	20.919169
599.166614	-2.975900	3.750600	-11.161000	24.505603	0.000550	20.940323
600.171917	-3.010600	3.749300	-11.287000	24.507134	0.000550	20.934748
601.168139	-2.987400	3.749300	-11.200000	24.537303	0.000549	20.914284
602.170050	-3.014500	3.748900	-11.300000	24.528349	0.000551	20.915732
603.165730	-3.020100	3.749200	-11.322000	24.521733	0.000548	20.933748
604.166890	-3.008600	3.748400	-11.276000	24.489134	0.000550	20.915742
605.169808	-2.997300	3.748300	-11.233000	24.485405	0.000548	20.941395
606.165360	-3.018800	3.747100	-11.311000	24.506302	0.000549	20.932016
607.170832	-3.015700	3.748600	-11.304000	24.511372	0.000548	20.944214
608.168213	-3.009800	3.748400	-11.281000	24.545614	0.000549	20.934474
609.168571	-3.008200	3.748400	-11.275000	24.554490	0.000551	20.911140
610.169113	-3.007200	3.746700	-11.266000	24.569037	0.000548	20.933320
611.175183	-2.995500	3.747800	-11.226000	24.588232	0.000548	20.916072
612.170008	-2.983600	3.747000	-11.179000	24.579289	0.000547	20.918952
613.169036	-2.994500	3.746800	-11.219000	24.604376	0.000546	20.927053
614.170037	-2.993900	3.745500	-11.212000	24.616328	0.000549	20.905858
615.177293	-3.004900	3.745600	-11.254000	24.604042	0.000547	20.921503
616.173957	-2.981700	3.746400	-11.169000	24.587194	0.000547	20.915979
617.175490	-2.987500	3.745200	-11.187000	24.597934	0.000548	20.908738
618.173174	-2.995600	3.745200	-11.218000	24.613297	0.000547	20.927471
619.171390	-2.987900	3.746300	-11.193000	24.620000	0.000548	20.919498
620.172497	-2.989400	3.744600	-11.193000	24.577049	0.000549	20.929506
621.178870	-2.990500	3.745200	-11.199000	24.590738	0.000547	20.901518
622.172308	-3.000500	3.743800	-11.233000	24.552589	0.000546	20.917767
623.174140	-3.005800	3.744300	-11.254000	24.539624	0.000547	20.902389
624.174309	-3.009600	3.743700	-11.267000	24.514715	0.000546	20.913433
625.176071	-3.004900	3.743700	-11.249000	24.519354	0.000548	20.926146
626.175887	-2.998200	3.742400	-11.218000	24.544282	0.000548	20.901848
627.176316	-3.002800	3.742700	-11.237000	24.604514	0.000548	20.900642
628.178818	-2.994600	3.742400	-11.206000	24.614591	0.000548	20.899848
629.176996	-3.001600	3.740800	-11.228000	24.637961	0.000548	20.895324
630.178480	-3.010500	3.742300	-11.265000	24.640643	0.000547	20.896117
631.179316	-3.006000	3.741800	-11.247000	24.611232	0.000546	20.904064
632.177259	-3.004900	3.741900	-11.243000	24.608268	0.000547	20.921951
633.178175	-3.018800	3.740000	-11.289000	24.621715	0.000543	20.900359
634.181416	-3.011300	3.740800	-11.264000	24.617411	0.000548	20.912634
635.179136	-2.996100	3.741400	-11.209000	24.647499	0.000547	20.917220
636.181361	-3.013500	3.740500	-11.271000	24.680119	0.000545	20.923873
637.182794	-3.005900	3.740000	-11.241000	24.651444	0.000547	20.906955
638.180274	-3.020500	3.739700	-11.295000	24.614001	0.000545	20.913005
639.180279	-3.006600	3.739900	-11.244000	24.617154	0.000545	20.898627
640.181468	-3.004400	3.740200	-11.236000	24.602290	0.000545	20.883713
641.182869	-3.012500	3.740200	-11.266000	24.593835	0.000546	20.898936
642.180638	-3.006100	3.737800	-11.236000	24.596028	0.000546	20.899714
643.180493	-3.003000	3.739900	-11.230000	24.572082	0.000545	20.924048
644.186186	-2.988300	3.738200	-11.171000	24.574917	0.000546	20.909825
645.181828	-2.990700	3.740200	-11.184000	24.568938	0.000546	20.894344
646.182906	-2.994300	3.739100	-11.195000	24.588647	0.000546	20.897524
647.185811	-3.011900	3.737700	-11.257000	24.588632	0.000544	20.897034
648.182290	-2.974400	3.738400	-11.119000	24.594076	0.000542	20.887800
649.183360	-2.980000	3.737500	-11.136000	24.580254	0.000545	20.889103
650.183813	-2.997600	3.737800	-11.204000	24.604827	0.000543	20.894319
651.185406	-2.997500	3.737100	-11.202000	24.607945	0.000544	20.884646
652.184697	-2.999400	3.736000	-11.205000	24.622147	0.000545	20.903162
653.184834	-2.994400	3.736600	-11.187000	24.583613	0.000545	20.901482
654.185482	-2.983300	3.736600	-11.146000	24.607087	0.000543	20.900853
655.184398	-3.002800	3.736100	-11.218000	24.677176	0.000543	20.912860
656.185300	-3.005900	3.734900	-11.225000	24.692409	0.000542	20.893061
657.184841	-3.027100	3.735600	-11.308000	24.688706	0.000544	20.907362
658.186873	-3.004900	3.735300	-11.223000	24.713698	0.000546	20.893561
659.186245	-3.016200	3.735000	-11.265000	24.668938	0.000543	20.898431
660.187778	-3.024500	3.733900	-11.293000	24.683010	0.000544	20.900224
661.186174	-2.993300	3.734900	-11.179000	24.667838	0.000542	20.886898
662.186555	-3.003300	3.734300	-11.214000	24.679179	0.000544	20.901595
663.191924	-2.998200	3.734500	-11.196000	24.654952	0.000544	20.900044
664.188137	-2.997100	3.734200	-11.190000	24.684834	0.000545	20.900157
665.187410	-2.975100	3.733100	-11.105000	24.702281	0.000541	20.886846
666.190998	-3.004700	3.734100	-11.219000	24.685255	0.000542	20.900580
667.189564	-3.012600	3.732500	-11.243000	24.681182	0.000540	20.892226
668.188166	-2.995800	3.733500	-11.184000	24.686344	0.000540	20.892664
669.194741	-2.985600	3.733500	-11.146000	24.681069	0.000542	20.894009
670.189054	-2.985000	3.731800	-11.138000	24.731535	0.000541	20.902925
671.188244	-2.991700	3.731800	-11.164000	24.722496	0.000542	20.881528
672.193585	-3.000400	3.731800	-11.196000	24.709548	0.000542	20.910732
673.190053	-2.984400	3.732000	-11.136000	24.731791	0.000542	20.873313
674.189592	-3.017300	3.731400	-11.257000	24.732531	0.000543	20.892546
675.194430	-3.008000	3.731800	-11.224000	24.711181	0.000539	20.887717
676.190574	-3.006000	3.730200	-11.212000	24.727282	0.000541	20.882064
677.189983	-3.028900	3.730500	-11.298000	24.740769	0.000543	20.881847
678.189931	-3.022000	3.730100	-11.272000	24.710159	0.000539	20.908501
679.190716	-2.996500	3.729700	-11.175000	24.717360	0.000541	20.892494
680.192864	-3.024100	3.728800	-11.275000	24.711946	0.000541	20.909820
681.191020	-3.002700	3.729400	-11.196000	24.730358	0.000541	20.882306
682.191520	-2.978600	3.728800	-11.106000	24.730297	0.000539	20.899786
683.192209	-2.981100	3.729800	-11.118000	24.765656	0.000540	20.897338
684.190389	-3.007300	3.728300	-11.211000	24.753654	0.000541	20.873442
685.197469	-2.988100	3.728800	-11.141000	24.776066	0.000541	20.865114
686.193895	-2.981900	3.728100	-11.115000	24.751138	0.000540	20.872339
687.190737	-3.000300	3.727900	-11.184000	24.735520	0.000539	20.881796
688.194510	-3.031900	3.727700	-11.301000	24.732290	0.000540	20.878554
689.195442	-2.974100	3.728200	-11.087000	24.752530	0.000539	20.879899
690.191817	-2.993600	3.727300	-11.158000	24.737015	0.000538	20.885666
691.192760	-3.016400	3.727900	-11.244000	24.715562	0.000537	20.876467
692.194537	-3.015300	3.727300	-11.238000	24.703560	0.000539	20.880543
693.192070	-3.015800	3.727100	-11.239000	24.765811	0.000538	20.892278
694.193147	-2.992700	3.727900	-11.156000	24.781479	0.000538	20.891407
695.197470	-2.978000	3.726800	-11.098000	24.770731	0.000536	20.877776
696.191309	-2.997000	3.727100	-11.170000	24.748318	0.000539	20.888949
697.192537	-2.990900	3.725600	-11.142000	24.750552	0.000540	20.862743
698.194040	-3.008600	3.724400	-11.204000	24.730364	0.000539	20.863820
699.194335	-2.999800	3.725900	-11.176000	24.730836	0.000537	20.866665
700.195006	-3.012500	3.724500	-11.219000	24.717837	0.000537	20.855992
701.195273	-2.959000	3.725500	-11.023000	24.715716	0.000539	20.884208
702.196365	-3.004600	3.723700	-11.188000	24.734082	0.000538	20.875137
703.197802	-3.020000	3.724100	-11.247000	24.748447	0.000538	20.864897
704.200994	-2.994800	3.724000	-11.151000	24.767336	0.000537	20.869628
705.199201	-2.995700	3.725100	-11.159000	24.774808	0.000537	20.859584
706.198119	-3.003800	3.724500	-11.187000	24.799695	0.000537	20.863697
707.198749	-3.002300	3.722800	-11.176000	24.799207	0.000537	20.845664
708.202208	-3.003000	3.723800	-11.182000	24.752191	0.000537	20.858224
709.200589	-2.981100	3.723500	-11.098000	24.757594	0.000538	20.858904
710.200484	-2.989600	3.722900	-11.130000	24.735772	0.000537	20.860239
711.202246	-2.994000	3.723100	-11.146000	24.732834	0.000533	20.855394
712.200161	-2.997000	3.722600	-11.156000	24.718608	0.000538	20.862929
713.199897	-2.999900	3.721400	-11.163000	24.747250	0.000534	20.877920
714.201829	-3.009100	3.721600	-11.198000	24.774197	0.000535	20.878884
715.200179	-3.011300	3.721000	-11.204000	24.771835	0.000533	20.876514
716.201881	-2.986000	3.720900	-11.109000	24.791961	0.000535	20.860203
717.209850	-3.020100	3.721300	-11.238000	24.779076	0.000536	20.845850
718.203764	-3.005200	3.721100	-11.182000	24.805483	0.000535	20.857178
719.202863	-3.003600	3.721500	-11.176000	24.835669	0.000536	20.859497
720.211481	-3.010200	3.718500	-11.193000	24.815163	0.000533	20.851720
721.202468	-2.998900	3.720800	-11.156000	24.862270	0.000534	20.862960
722.210065	-3.016900	3.719100	-11.220000	24.872982	0.000533	20.859961
723.204090	-2.996700	3.719700	-11.145000	24.858783	0.000531	20.855668
724.204957	-3.025900	3.717900	-11.249000	24.859204	0.000532	20.860832
725.206137	-2.995200	3.720100	-11.142000	24.853956	0.000533	20.869788
726.203980	-2.991500	3.720000	-11.127000	24.847521	0.000531	20.865228
727.204018	-3.010200	3.718800	-11.194000	24.827411	0.000532	20.862115
728.206868	-2.993900	3.718900	-11.133000	24.815292	0.000534	20.845685
729.204159	-2.991500	3.717800	-11.121000	24.804389	0.000532	20.848494
730.204665	-2.988300	3.718300	-11.111000	24.773104	0.000531	20.856925
731.204481	-3.006800	3.718000	-11.178000	24.779934	0.000532	20.858090
732.205287	-3.014700	3.717300	-11.206000	24.833091	0.000531	20.850272
733.207524	-3.021500	3.715700	-11.226000	24.873978	0.000532	20.850530
734.206837	-3.002000	3.717400	-11.158000	24.858362	0.000531	20.838176
735.210096	-3.006200	3.716100	-11.171000	24.860544	0.000531	20.859806
736.207306	-3.014100	3.716800	-11.201000	24.863086	0.000531	20.836280
737.210145	-2.993600	3.717000	-11.126000	24.874717	0.000531	20.827565
738.212322	-3.012100	3.715300	-11.190000	24.891982	0.000531	20.841573
739.209327	-3.006200	3.715500	-11.169000	24.876710	0.000530	20.841892
740.210082	-3.013200	3.714100	-11.190000	24.878040	0.000530	20.849865
741.210343	-3.013600	3.715300	-11.195000	24.904275	0.000529	20.844902
742.210689	-3.015300	3.714900	-11.200000	24.920388	0.000532	20.854436
743.211046	-3.005500	3.715700	-11.167000	24.920696	0.000527	20.843840
744.211112	-3.012000	3.715300	-11.189000	24.905107	0.000530	20.845737
745.212537	-3.014100	3.714700	-11.196000	24.891571	0.000531	20.837841
746.210101	-2.998000	3.713800	-11.133000	24.830205	0.000529	20.850220
747.214602	-2.985700	3.714200	-11.089000	24.862321	0.000527	20.852581
748.213640	-3.017100	3.713600	-11.203000	24.842047	0.000530	20.846458
749.212150	-3.018500	3.711900	-11.203000	24.844558	0.000528	20.861306
750.214615	-2.998400	3.713700	-11.135000	24.839325	0.000527	20.845149
751.215511	-3.018200	3.713100	-11.206000	24.847075	0.000528	20.841073
752.211481	-3.014400	3.713100	-11.192000	24.819457	0.000526	20.852235
753.216036	-3.002800	3.714100	-11.152000	24.822867	0.000527	20.848071
754.212666	-3.003300	3.712600	-11.148000	24.808796	0.000527	20.820674
755.213433	-2.997000	3.712500	-11.125000	24.830452	0.000527	20.830080
756.214146	-3.013100	3.711100	-11.181000	24.863538	0.000527	20.841001
757.213747	-3.009400	3.711800	-11.168000	24.905492	0.000528	20.836166
758.214535	-2.984600	3.712000	-11.078000	24.916501	0.000527	20.834889
759.214820	-2.984100	3.709800	-11.070000	24.911931	0.000524	20.826983
760.214248	-2.989400	3.711600	-11.095000	24.857011	0.000525	20.853890
761.214487	-2.963600	3.711100	-10.997000	24.874517	0.000525	20.823571
762.214242	-3.004800	3.710100	-11.146000	24.911469	0.000527	20.834105
763.213896	-2.994600	3.710200	-11.110000	24.907767	0.000525	20.841769
764.217515	-2.968400	3.711000	-11.015000	24.907089	0.000526	20.821174
765.215088	-2.987000	3.710100	-11.081000	24.930458	0.000525	20.838939
766.225079	-3.008200	3.709100	-11.157000	24.958520	0.000525	20.826328
767.219336	-2.992800	3.709900	-11.102000	24.977708	0.000525	20.836579
768.216050	-2.993900	3.709900	-11.106000	24.974504	0.000526	20.822932
769.216512	-2.987300	3.708700	-11.077000	24.959516	0.000525	20.824957
770.218392	-3.004900	3.709100	-11.145000	24.968990	0.000523	20.804121
771.217253	-3.004800	3.707800	-11.140000	24.923742	0.000523	20.820345
772.216942	-2.996800	3.706800	-11.108000	24.877254	0.000523	20.829163
773.221624	-2.987800	3.707700	-11.077000	24.898858	0.000523	20.838991
774.220624	-3.003400	3.706700	-11.130000	24.867667	0.000525	20.833291
775.218832	-2.998600	3.707200	-11.115000	24.876720	0.000522	20.817722
776.219224	-2.986300	3.707600	-11.071000	24.899690	0.000523	20.825128
777.222362	-2.978900	3.706100	-11.039000	24.935265	0.000522	20.839970
778.220109	-2.995300	3.706600	-11.102000	24.941688	0.000522	20.851633
779.219836	-3.007100	3.705400	-11.142000	24.954330	0.000523	20.838244
780.223354	-2.998500	3.705800	-11.111000	24.958464	0.000520	20.801142
781.220367	-2.988600	3.704900	-11.071000	24.943208	0.000522	20.839409
782.220372	-2.995100	3.705700	-11.098000	24.955681	0.000525	20.815418
783.223335	-2.988900	3.706000	-11.076000	24.941945	0.000521	20.841460
784.219477	-3.006500	3.705300	-11.138000	24.937401	0.000523	20.826942
785.222094	-3.003400	3.704300	-11.125000	24.903962	0.000520	20.818511
786.224927	-3.001300	3.705600	-11.120000	24.930495	0.000521	20.828071
787.219765	-3.015300	3.704100	-11.168000	24.918515	0.000520	20.815099
788.220364	-2.992700	3.703300	-11.081000	24.917483	0.000523	20.824968
789.223670	-3.003700	3.704100	-11.125000	24.938834	0.000521	20.832647
790.221439	-3.004500	3.702200	-11.122000	24.896671	0.000519	20.821623
791.221338	-3.002500	3.704300	-11.122000	24.907182	0.000519	20.814156
792.225450	-2.987800	3.702800	-11.063000	24.965416	0.000520	20.819500
793.224376	-3.038700	3.701700	-11.247000	24.943558	0.000520	20.810837
794.221114	-3.014800	3.702500	-11.161000	24.943188	0.000518	20.840337
795.221794	-3.019200	3.701500	-11.175000	24.898309	0.000519	20.829431
796.222153	-3.034900	3.701400	-11.233000	24.884126	0.000517	20.819938
797.224494	-2.989100	3.702800	-11.066000	24.898170	0.000517	20.827870
798.223834	-2.998900	3.701600	-11.100000	24.903100	0.000517	20.815274
799.224640	-3.014000	3.700000	-11.151000	24.940954	0.000518	20.830509
800.225000	-2.999600	3.702100	-11.104000	24.943548	0.000517	20.820310
801.223915	-3.000000	3.701500	-11.104000	24.952600	0.000518	20.829396
802.224521	-3.017900	3.699800	-11.165000	24.943229	0.000518	20.826628
803.224626	-3.009400	3.699500	-11.133000	24.942731	0.000519	20.842723
804.225560	-3.012800	3.700200	-11.147000	24.932071	0.000517	20.816851
805.223471	-3.002000	3.700400	-11.108000	24.931445	0.000518	20.812904
806.224568	-3.021900	3.699500	-11.179000	24.950675	0.000516	20.826041
807.226781	-3.002500	3.700200	-11.108000	24.939389	0.000517	20.817558
808.228809	-3.002100	3.699700	-11.106000	24.936554	0.000514	20.810920
809.226544	-2.990300	3.699400	-11.061000	24.978983	0.000517	20.822212
810.224889	-2.997100	3.699200	-11.086000	24.985699	0.000515	20.826108
811.228453	-2.996000	3.699400	-11.083000	25.037316	0.000514	20.806323
812.231206	-3.002500	3.698300	-11.103000	25.043611	0.000515	20.809322
813.225350	-3.003800	3.697900	-11.106000	24.984728	0.000516	20.839358
814.228682	-2.988600	3.697800	-11.050000	24.938321	0.000515	20.837348
815.227878	-2.992200	3.698500	-11.065000	24.967137	0.000515	20.822176
816.228905	-3.009400	3.697300	-11.125000	24.983661	0.000514	20.825484
817.231052	-2.981000	3.697600	-11.022000	25.005442	0.000515	20.830277
818.229054	-2.966700	3.697800	-10.970000	25.004533	0.000514	20.827469
819.227495	-2.982800	3.697700	-11.028000	24.989817	0.000512	20.847785
820.229080	-2.996300	3.696800	-11.075000	24.970285	0.000512	20.830551
821.231286	-2.994100	3.696300	-11.066000	24.953520	0.000514	20.840276
822.228192	-2.995000	3.697200	-11.072000	24.969520	0.000514	20.833102
823.229319	-2.989400	3.694600	-11.043000	24.977628	0.000513	20.826067
824.229472	-3.001400	3.696600	-11.094000	24.944930	0.000513	20.829757
825.227765	-2.985600	3.696600	-11.035000	24.926789	0.000512	20.845213
826.229133	-3.020000	3.693700	-11.154000	24.968730	0.000512	20.836576
827.230095	-3.003200	3.694000	-11.093000	24.965577	0.000511	20.842894
828.232285	-2.984000	3.695600	-11.027000	25.003943	0.000514	20.822609
829.230690	-3.013800	3.695200	-11.135000	24.983759	0.000512	20.844074
830.231385	-2.987900	3.695100	-11.040000	24.987076	0.000512	20.824171
831.232002	-3.010100	3.693900	-11.118000	24.981217	0.000511	20.819239
832.230240	-2.983500	3.693500	-11.019000	25.030257	0.000510	20.831005
833.232038	-3.010300	3.694400	-11.120000	25.034087	0.000510	20.821573
834.233458	-2.992900	3.694200	-11.056000	25.042693	0.000512	20.833056
835.231242	-3.027800	3.692800	-11.181000	25.032378	0.000511	20.844038
836.231882	-2.993000	3.692700	-11.051000	25.009180	0.000507	20.834030
837.232301	-3.017100	3.693100	-11.141000	25.030006	0.000509	20.844977
838.232178	-3.004200	3.692400	-11.091000	24.987682	0.000508	20.848012
839.231635	-3.021200	3.692600	-11.155000	24.962414	0.000509	20.843513
840.231887	-3.012300	3.693000	-11.124000	24.928571	0.000508	20.832304
841.240157	-2.996100	3.691800	-11.059000	24.987492	0.000509	20.823640
842.234505	-3.015900	3.691000	-11.130000	24.970194	0.000509	20.838519
843.234217	-2.991600	3.691000	-11.040000	24.990901	0.000509	20.837019
844.234554	-2.982200	3.690700	-11.005000	24.982142	0.000510	20.849089
845.233255	-3.015000	3.689900	-11.124000	25.020584	0.000508	20.839313
846.233553	-2.989100	3.689400	-11.027000	25.063163	0.000507	20.852656
847.234865	-2.992300	3.690800	-11.044000	25.072087	0.000506	20.834587
848.235926	-2.987100	3.690700	-11.023000	25.044218	0.000507	20.862087
849.235956	-3.021100	3.689200	-11.143000	25.055632	0.000507	20.855052
850.239002	-2.997000	3.688800	-11.054000	25.044372	0.000507	20.852285
851.236351	-3.031200	3.688300	-11.178000	25.076097	0.000508	20.861845
852.235985	-2.999900	3.688300	-11.064000	25.086026	0.000505	20.844312
853.238560	-3.009600	3.689400	-11.103000	25.065412	0.000506	20.863922
854.237541	-2.992100	3.689700	-11.039000	25.061978	0.000506	20.864267
855.237597	-3.000400	3.689200	-11.068000	25.094913	0.000504	20.861293
856.237819	-2.987500	3.688200	-11.017000	25.088008	0.000504	20.846776
857.237106	-3.014800	3.686600	-11.113000	25.114484	0.000506	20.872404
858.237083	-3.003600	3.687100	-11.074000	25.129075	0.000505	20.861448
859.237687	-2.995000	3.686700	-11.040000	25.127227	0.000506	20.861015
860.241906	-2.984900	3.687800	-11.006000	25.114053	0.000504	20.862489
861.237520	-2.979000	3.686800	-10.982000	25.097891	0.000504	20.869024
862.237697	-2.975400	3.686800	-10.969000	25.145483	0.000504	20.845678
863.238314	-3.004800	3.685700	-11.074000	25.143337	0.000504	20.872446
864.242671	-2.996300	3.685900	-11.043000	25.149452	0.000503	20.855351
865.241002	-3.008800	3.687200	-11.093000	25.099144	0.000504	20.860325
866.243361	-3.010100	3.686000	-11.094000	25.081616	0.000503	20.870230
867.244330	-2.995100	3.685900	-11.039000	25.062671	0.000503	20.846946
868.241135	-3.003400	3.685100	-11.067000	25.027234	0.000501	20.859263
869.245276	-3.016300	3.683900	-11.111000	25.035978	0.000500	20.871833
870.245222	-3.002200	3.684100	-11.059000	25.039695	0.000502	20.849487
871.245497	-3.035500	3.683200	-11.179000	25.050482	0.000502	20.869323
872.244531	-2.985900	3.685300	-11.003000	25.077663	0.000500	20.868158
873.246034	-3.001200	3.683400	-11.053000	25.112298	0.000499	20.864046
874.245491	-2.970000	3.684500	-10.941000	25.117237	0.000499	20.854306
875.245462	-2.989300	3.683700	-11.011000	25.101116	0.000500	20.865623
876.243967	-2.983500	3.682800	-10.987000	25.110948	0.000502	20.884026
877.245163	-2.993900	3.683700	-11.028000	25.114254	0.000500	20.842777
878.246728	-2.988200	3.684100	-11.008000	25.100659	0.000501	20.863742
879.246456	-3.012600	3.683000	-11.094000	25.061989	0.000501	20.860485
880.248898	-3.002900	3.682700	-11.058000	25.088687	0.000502	20.883016
881.246619	-2.989100	3.681900	-11.004000	25.078932	0.000498	20.890293
882.246925	-2.981300	3.683400	-10.981000	25.084230	0.000501	20.871905
883.249341	-3.003900	3.681300	-11.057000	25.047952	0.000498	20.879110
884.247424	-3.007800	3.681700	-11.072000	25.036651	0.000497	20.869664
885.247778	-2.996600	3.681300	-11.030000	25.063299	0.000498	20.887876
886.249036	-2.999800	3.681400	-11.042000	25.091459	0.000498	20.869679
887.247286	-2.966500	3.681700	-10.920000	25.088230	0.000496	20.878291
888.246792	-2.997100	3.681100	-11.031000	25.074137	0.000496	20.880265
889.251104	-2.974400	3.680500	-10.946000	25.086469	0.000497	20.887902
890.249190	-3.004900	3.680400	-11.059000	25.107519	0.000497	20.888644
891.248878	-2.976800	3.680900	-10.957000	25.123491	0.000497	20.889979
892.251695	-2.993000	3.680700	-11.016000	25.136998	0.000496	20.870824
893.249296	-2.986400	3.680700	-10.991000	25.164316	0.000496	20.866954
894.249375	-2.984400	3.680700	-10.983000	25.158802	0.000496	20.885599
895.254271	-2.995400	3.679300	-11.019000	25.166256	0.000498	20.885970
896.247586	-2.989000	3.679600	-10.998000	25.151650	0.000495	20.896436
897.249826	-2.983300	3.679000	-10.974000	25.117264	0.000493	20.902219
898.256068	-2.997400	3.679000	-11.026000	25.124400	0.000493	20.887099
899.252384	-2.991800	3.677800	-11.003000	25.104983	0.000494	20.888944
900.253444	-2.992200	3.679400	-11.008000	25.125267	0.000495	20.886547
901.253285	-2.985600	3.677600	-10.979000	25.123291	0.000493	20.894046
902.254123	-2.991900	3.678400	-11.005000	25.137789	0.000494	20.885841
903.255349	-2.990800	3.678200	-11.000000	25.167930	0.000495	20.882909
904.255278	-3.007000	3.676600	-11.054000	25.168736	0.000493	20.885141
905.255665	-2.998200	3.676700	-11.022000	25.145429	0.000491	20.901570
906.257557	-3.009900	3.677100	-11.066000	25.165456	0.000494	20.889908
907.257937	-2.993800	3.675600	-11.003000	25.202654	0.000493	20.896432
908.258437	-2.996300	3.676300	-11.014000	25.206304	0.000491	20.910052
909.260484	-2.996500	3.675800	-11.014000	25.203727	0.000492	20.894664
910.258110	-3.002600	3.674900	-11.033000	25.215017	0.000491	20.901256
911.259793	-3.015700	3.675500	-11.082000	25.152796	0.000493	20.903276
912.261722	-2.977000	3.675800	-10.942000	25.123004	0.000491	20.913196
913.258963	-2.992300	3.674900	-10.995000	25.101801	0.000492	20.884801
914.262709	-3.004400	3.673700	-11.036000	25.059444	0.000489	20.919566
915.263285	-3.016200	3.672400	-11.076000	25.064743	0.000490	20.913506
916.259493	-2.997500	3.674700	-11.014000	25.067490	0.000490	20.888290
917.260611	-3.011000	3.673600	-11.061000	25.096200	0.000490	20.903359
918.260084	-2.985300	3.674200	-10.966000	25.129735	0.000490	20.890558
919.260412	-2.990200	3.673800	-10.985000	25.150610	0.000490	20.925735
920.260281	-3.016100	3.672800	-11.077000	25.202245	0.000488	20.908348
921.260026	-2.992000	3.673500	-10.990000	25.226254	0.000488	20.910641
922.260238	-3.014900	3.671600	-11.069000	25.227353	0.000487	20.903684
923.260644	-3.019200	3.671900	-11.086000	25.222122	0.000488	20.932568
924.261006	-2.994100	3.672100	-10.994000	25.215485	0.000487	20.885606
925.262947	-2.998300	3.671100	-11.006000	25.260187	0.000490	20.891131
926.261469	-3.011800	3.671600	-11.058000	25.259181	0.000484	20.944169
927.261569	-3.016000	3.670300	-11.069000	25.268343	0.000486	20.926344
928.261819	-3.009500	3.670600	-11.046000	25.214186	0.000487	20.925550
929.261805	-3.000100	3.670600	-11.011000	25.223976	0.000486	20.912146
930.262062	-3.013600	3.670300	-11.060000	25.209771	0.000487	20.920644
931.262724	-2.997900	3.671600	-11.006000	25.186999	0.000484	20.934764
932.263981	-2.995700	3.669400	-10.991000	25.211445	0.000485	20.910946
933.264117	-2.991000	3.670700	-10.978000	25.217996	0.000484	20.932219
934.264266	-2.984800	3.669200	-10.951000	25.214828	0.000483	20.916238
935.264617	-3.013700	3.669200	-11.057000	25.233848	0.000483	20.904989
936.266065	-3.009000	3.669800	-11.041000	25.193093	0.000484	20.929029
937.265189	-2.993300	3.668300	-10.979000	25.246692	0.000485	20.930684
938.267744	-3.016600	3.667700	-11.062000	25.216682	0.000484	20.915729
939.265923	-2.998200	3.668700	-10.998000	25.235280	0.000484	20.927287
940.267692	-2.979500	3.669500	-10.933000	25.246014	0.000484	20.928107
941.268061	-2.989000	3.667900	-10.962000	25.266743	0.000484	20.929952
942.264817	-3.022000	3.667200	-11.081000	25.282456	0.000484	20.927236
943.267484	-3.010500	3.667900	-11.042000	25.244408	0.000482	20.922701
944.268172	-2.995700	3.667000	-10.984000	25.238920	0.000483	20.936156
945.265289	-3.021100	3.665300	-11.073000	25.266055	0.000482	20.947751
946.265090	-2.997200	3.666600	-10.989000	25.269952	0.000481	20.936492
947.266158	-3.003900	3.666600	-11.013000	25.294673	0.000481	20.925278
948.267597	-2.987200	3.666600	-10.952000	25.326262	0.000480	20.923804
949.268344	-2.982500	3.666700	-10.935000	25.334383	0.000483	20.955662
950.267912	-2.972800	3.666500	-10.899000	25.269556	0.000480	20.933724
951.270205	-2.991500	3.666100	-10.967000	25.272107	0.000480	20.930122
952.269656	-2.993200	3.664600	-10.967000	25.288318	0.000480	20.953507
953.270566	-2.992800	3.664600	-10.967000	25.249300	0.000480	20.947999
954.271852	-3.015400	3.665100	-11.051000	25.242509	0.000477	20.949715
955.271351	-2.998000	3.663700	-10.983000	25.235810	0.000479	20.933508
956.271708	-2.976800	3.663600	-10.905000	25.261913	0.000478	20.936956
957.272296	-3.003000	3.663800	-11.002000	25.256538	0.000477	20.935353
958.275495	-2.995600	3.664300	-10.976000	25.290069	0.000477	20.932508
959.272650	-3.022800	3.662700	-11.071000	25.286008	0.000478	20.951188
960.271266	-2.987900	3.664400	-10.948000	25.255835	0.000478	20.942232
961.275449	-2.996300	3.662900	-10.974000	25.255086	0.000478	20.950488
962.272656	-3.008100	3.663000	-11.017000	25.292902	0.000477	20.938672
963.273055	-2.997700	3.662100	-10.977000	25.284582	0.000476	20.952127
964.272923	-3.023700	3.662000	-11.071000	25.287097	0.000476	20.938059
965.274013	-2.994700	3.661700	-10.964000	25.268309	0.000474	20.953807
966.274181	-2.994400	3.661200	-10.962000	25.281199	0.000476	20.952049
967.275714	-2.961100	3.662800	-10.845000	25.280958	0.000473	20.950385
968.278521	-3.005200	3.661500	-11.002000	25.254280	0.000475	20.956790
969.275424	-2.985700	3.661500	-10.931000	25.262642	0.000472	20.967555
970.279714	-3.013300	3.659600	-11.027000	25.296388	0.000473	20.958764
971.278998	-2.980400	3.660700	-10.909000	25.302922	0.000475	20.960583
972.278780	-2.984500	3.660600	-10.924000	25.270604	0.000475	20.966540
973.278615	-2.996500	3.659400	-10.965000	25.285731	0.000474	20.965607
974.280780	-3.027600	3.658700	-11.076000	25.277600	0.000472	20.963134
975.279626	-2.992700	3.658100	-10.947000	25.221503	0.000474	20.971770
976.279735	-2.988800	3.659100	-10.936000	25.184983	0.000471	20.952652
977.280436	-3.003300	3.657700	-10.983000	25.222361	0.000474	20.960779
978.279314	-2.974100	3.659000	-10.880000	25.265389	0.000471	20.958460
979.280716	-2.989100	3.657800	-10.933000	25.329245	0.000472	20.978001
980.279743	-3.006300	3.658300	-10.997000	25.344675	0.000469	20.975476
981.283535	-3.002500	3.658300	-10.983000	25.330790	0.000471	20.955374
982.280869	-2.976300	3.658000	-10.886000	25.341231	0.000470	20.968700
983.280612	-3.020400	3.655900	-11.041000	25.305967	0.000472	20.977388
984.280154	-2.996000	3.657100	-10.955000	25.321705	0.000470	20.967113
985.280187	-3.014600	3.656800	-11.023000	25.344870	0.000471	20.983731
986.280986	-2.999300	3.656100	-10.965000	25.368481	0.000470	20.974724
987.282746	-2.996400	3.656800	-10.956000	25.380020	0.000469	20.976352
988.284532	-3.014600	3.655200	-11.019000	25.378655	0.000469	20.972611
989.282379	-2.992000	3.655800	-10.937000	25.376412	0.000469	20.987901
990.281682	-2.967400	3.655000	-10.845000	25.393730	0.000469	20.979213
991.285033	-3.005100	3.653900	-10.979000	25.415323	0.000470	21.003262
992.283490	-3.000700	3.654900	-10.967000	25.401188	0.000469	20.980538
993.282881	-2.988600	3.655200	-10.923000	25.364915	0.000468	20.983943
994.284482	-3.002700	3.653100	-10.969000	25.351606	0.000469	20.995234
995.282213	-2.980600	3.653900	-10.890000	25.372701	0.000469	20.998872
996.283597	-3.007200	3.653900	-10.986000	25.374908	0.000467	20.997769
997.287552	-2.976800	3.653600	-10.875000	25.399607	0.000467	20.989854
998.282436	-3.008000	3.652700	-10.986000	25.435976	0.000469	20.998398
999.282250	-2.997600	3.652400	-10.948000	25.433683	0.000466	20.981398
1000.286996	-2.988900	3.653000	-10.918000	25.379457	0.000465	20.992854
1001.284290	-2.995400	3.653000	-10.941000	25.330422	0.000465	21.000990
1002.286889	-2.982200	3.652400	-10.891000	25.300225	0.000466	20.986794
1003.289658	-3.016600	3.651200	-11.013000	25.273470	0.000464	21.017773
1004.285461	-2.991400	3.651400	-10.922000	25.256921	0.000465	20.992153
1005.286374	-2.979100	3.651900	-10.878000	25.293105	0.000463	21.003825
1006.287178	-3.008500	3.650100	-10.979000	25.244427	0.000463	21.000945
1007.285778	-3.002300	3.650900	-10.961000	25.283609	0.000465	20.982440
1008.286186	-3.026700	3.650800	-11.049000	25.279924	0.000463	21.007185
1009.286692	-3.012300	3.651300	-10.997000	25.308972	0.000464	21.000790
1010.286083	-3.022800	3.649700	-11.031000	25.353137	0.000462	20.983023
1011.286334	-3.012900	3.649400	-10.994000	25.352038	0.000462	20.996142
1012.285565	-2.999900	3.649100	-10.945000	25.333801	0.000463	21.028559
1013.287668	-2.991900	3.649800	-10.918000	25.359112	0.000463	20.997080
1014.287493	-3.000500	3.648100	-10.944000	25.386002	0.000461	20.988047
1015.286296	-2.984700	3.648300	-10.888000	25.369680	0.000461	21.012905
1016.287784	-3.008400	3.647000	-10.971000	25.341234	0.000459	21.016111
1017.288068	-3.003100	3.647600	-10.953000	25.339966	0.000459	21.018630
1018.288337	-3.012200	3.646900	-10.984000	25.363798	0.000459	21.025963
1019.289901	-2.995000	3.646800	-10.921000	25.367592	0.000460	20.998483
1020.288269	-3.013700	3.647600	-10.992000	25.384746	0.000461	21.015230
1021.289847	-3.002500	3.647500	-10.950000	25.432027	0.000459	21.027617
1022.289772	-2.971900	3.647800	-10.840000	25.424144	0.000459	21.007851
1023.289885	-3.029600	3.645600	-11.044000	25.402484	0.000458	20.997009
1024.289308	-3.005200	3.645800	-10.955000	25.395022	0.000458	21.005161
1025.289287	-3.008100	3.645700	-10.966000	25.413884	0.000458	20.991862
1026.292336	-3.028800	3.645200	-11.040000	25.425319	0.000459	21.007609
1027.288496	-2.999600	3.645200	-10.934000	25.447486	0.000458	21.000946
1028.291842	-3.010400	3.643800	-10.968000	25.476803	0.000456	21.015210
1029.293667	-3.000100	3.644900	-10.933000	25.498892	0.000458	21.017477
1030.291529	-2.984700	3.645300	-10.879000	25.520945	0.000457	21.033930
1031.291654	-2.974900	3.645400	-10.843000	25.530147	0.000455	21.007141
1032.297040	-2.981600	3.643800	-10.864000	25.497173	0.000456	21.003900
1033.290508	-3.019900	3.643500	-11.002000	25.473960	0.000455	21.018045
1034.291693	-2.975100	3.643900	-10.840000	25.444685	0.000453	20.998608
1035.292085	-2.997500	3.644400	-10.923000	25.422887	0.000455	21.005641
1036.294990	-2.985800	3.642600	-10.876000	25.420019	0.000453	21.012243
1037.292969	-2.977500	3.643500	-10.848000	25.415810	0.000455	20.996166
1038.294534	-3.002200	3.641100	-10.930000	25.400915	0.000453	21.007760
1039.296883	-2.994700	3.641500	-10.903000	25.374343	0.000452	21.008105
1040.294545	-2.998200	3.643100	-10.921000	25.347083	0.000453	21.004441
1041.297193	-2.996000	3.641500	-10.909000	25.354715	0.000453	21.006415
1042.293995	-2.991800	3.641900	-10.895000	25.408907	0.000453	20.996821
1043.295697	-3.008700	3.640200	-10.951000	25.375965	0.000453	20.988400
1044.295105	-3.007800	3.640200	-10.948000	25.375708	0.000452	20.985772
1045.297092	-3.008200	3.640200	-10.950000	25.388551	0.000453	21.000562
1046.298892	-2.993600	3.641000	-10.899000	25.396013	0.000448	20.993357
1047.297676	-3.000000	3.640300	-10.920000	25.396270	0.000452	20.989823
1048.297843	-3.017300	3.639600	-10.979000	25.362492	0.000451	20.991467
1049.306035	-2.996700	3.640000	-10.907000	25.347786	0.000449	20.985711
1050.299885	-2.999100	3.639100	-10.913000	25.365576	0.000448	20.987926
1051.302787	-3.011800	3.639100	-10.959000	25.370864	0.000449	20.998449
1052.300477	-3.004800	3.638500	-10.932000	25.427184	0.000451	20.990993
1053.297565	-2.995500	3.638100	-10.897000	25.465313	0.000449	20.980918
1054.297633	-3.000300	3.637900	-10.914000	25.433754	0.000449	20.981470
1055.300164	-3.003600	3.637700	-10.925000	25.415518	0.000450	20.975013
1056.298123	-3.004300	3.637900	-10.929000	25.400905	0.000447	20.983572
1057.298167	-2.995000	3.637200	-10.893000	25.390568	0.000447	20.987891
1058.301837	-2.990600	3.636900	-10.876000	25.389511	0.000446	20.965022
1059.299011	-2.988900	3.637000	-10.869000	25.397523	0.000448	20.979228
1060.300183	-2.991200	3.635900	-10.875000	25.401567	0.000444	20.979496
1061.298882	-2.984400	3.637200	-10.854000	25.357995	0.000446	20.976523
1062.301552	-3.005200	3.635000	-10.924000	25.398031	0.000444	20.954137
1063.300048	-3.026900	3.634300	-11.000000	25.446846	0.000445	20.959059
1064.300333	-2.976500	3.635600	-10.821000	25.465159	0.000444	20.982660
1065.301668	-2.993100	3.635400	-10.880000	25.464789	0.000442	20.974230
1066.300841	-3.007000	3.634700	-10.927000	25.458661	0.000443	20.962861
1067.300788	-3.016600	3.634700	-10.964000	25.435704	0.000444	20.965412
1068.302519	-3.006900	3.632700	-10.922000	25.467417	0.000444	20.978290
1069.301428	-2.992700	3.634600	-10.877000	25.441026	0.000444	20.969334
1070.304067	-2.987700	3.632800	-10.853000	25.396993	0.000442	20.954044
1071.305308	-2.989100	3.633100	-10.858000	25.384587	0.000443	20.970982
1072.304415	-2.990200	3.632200	-10.860000	25.346225	0.000440	20.961388
1073.304265	-3.008900	3.631200	-10.925000	25.385978	0.000441	20.964319
1074.305296	-2.972600	3.633400	-10.800000	25.429713	0.000440	20.953709
1075.305481	-3.001800	3.632600	-10.904000	25.446840	0.000441	20.969483
1076.306595	-3.027400	3.630600	-10.990000	25.451228	0.000441	20.965829
1077.307839	-2.991500	3.632800	-10.866000	25.486436	0.000442	20.962304
1078.307416	-3.010200	3.631100	-10.930000	25.501571	0.000439	20.966597
1079.308013	-3.005800	3.630700	-10.912000	25.503013	0.000440	20.964726
1080.306790	-3.021500	3.629500	-10.965000	25.513041	0.000439	20.977639
1081.306825	-3.010000	3.630200	-10.927000	25.501494	0.000439	20.945185
1082.321664	-2.999400	3.629700	-10.886000	25.486256	0.000438	20.971605
1083.308362	-3.000900	3.629100	-10.890000	25.480041	0.000437	20.959676
1084.306920	-2.997200	3.630400	-10.879000	25.499005	0.000439	20.959753
1085.308286	-2.991700	3.630400	-10.860000	25.526467	0.000437	20.947978
1086.305743	-3.011200	3.628100	-10.925000	25.532415	0.000436	20.963907
1087.306203	-2.986600	3.628300	-10.835000	25.496223	0.000439	20.951271
1088.307388	-3.007000	3.628100	-10.908000	25.488093	0.000437	20.929360
1089.307808	-3.000000	3.629500	-10.887000	25.434419	0.000436	20.954641
1090.311825	-2.989600	3.627300	-10.843000	25.467703	0.000434	20.959140
1091.307477	-3.005800	3.627500	-10.903000	25.475078	0.000437	20.952796
1092.309188	-3.008800	3.627700	-10.913000	25.470906	0.000435	20.944340
1093.310641	-2.989800	3.627000	-10.843000	25.433347	0.000435	20.945505
1094.307952	-2.997900	3.626100	-10.869000	25.445023	0.000435	20.958650
1095.309914	-3.005800	3.625900	-10.898000	25.428512	0.000434	20.943495
1096.311146	-3.020200	3.625900	-10.950000	25.445167	0.000433	20.954054
1097.312892	-3.015000	3.625300	-10.929000	25.455134	0.000435	20.946994
1098.311092	-3.008500	3.625000	-10.905000	25.472297	0.000433	20.938151
1099.312877	-2.980400	3.625300	-10.804000	25.504060	0.000431	20.947762
1100.309277	-2.985200	3.624900	-10.821000	25.508592	0.000431	20.941882
1101.312688	-2.994100	3.623700	-10.849000	25.466200	0.000433	20.944830
1102.314537	-2.974600	3.625300	-10.782000	25.459400	0.000431	20.948907
1103.310748	-3.024400	3.623000	-10.956000	25.430108	0.000433	20.944150
1104.310515	-3.023200	3.622400	-10.951000	25.471281	0.000430	20.944717
1105.312285	-2.988600	3.622800	-10.827000	25.470491	0.000430	20.953880
1106.311284	-2.991800	3.623800	-10.841000	25.493534	0.000431	20.950942
1107.311515	-3.001800	3.622800	-10.874000	25.477085	0.000429	20.935848
1108.312544	-3.004200	3.622100	-10.881000	25.480432	0.000431	20.940157
1109.313509	-3.012400	3.621600	-10.908000	25.505087	0.000428	20.949742
1110.315846	-3.020400	3.621200	-10.937000	25.514874	0.000429	20.956250
1111.314028	-3.011900	3.621900	-10.908000	25.493858	0.000430	20.929933
1112.316730	-3.007000	3.621000	-10.887000	25.498821	0.000429	20.955776
1113.314297	-3.021400	3.621000	-10.940000	25.454822	0.000428	20.923450
1114.318008	-3.018900	3.620200	-10.928000	25.482578	0.000427	20.946578
1115.319324	-3.007700	3.620100	-10.888000	25.502752	0.000427	20.949767
1116.315318	-2.967300	3.620400	-10.742000	25.496245	0.000428	20.940863
1117.316032	-2.970600	3.620400	-10.753000	25.501962	0.000427	20.935225
1118.320860	-2.972600	3.619500	-10.758000	25.551933	0.000427	20.964542
1119.315346	-2.986700	3.618700	-10.807000	25.494552	0.000426	20.959075
1120.314662	-2.992500	3.617800	-10.826000	25.522255	0.000425	20.947068
1121.315296	-2.994900	3.618900	-10.837000	25.503317	0.000427	20.926156
1122.320268	-3.015600	3.616500	-10.905000	25.510769	0.000424	20.938853
1123.317052	-3.001500	3.618400	-10.860000	25.514803	0.000428	20.959023
1124.318157	-3.027100	3.617200	-10.949000	25.501059	0.000423	20.949490
1125.317463	-3.003100	3.617800	-10.863000	25.489522	0.000425	20.939802
1126.318604	-3.022900	3.616800	-10.932000	25.505396	0.000424	20.930139
1127.320194	-3.008000	3.615800	-10.875000	25.488372	0.000425	20.925372
1128.317614	-3.001500	3.616900	-10.855000	25.475701	0.000423	20.943939
1129.320484	-3.004800	3.616300	-10.864000	25.513705	0.000423	20.910036
1130.322685	-2.994200	3.616300	-10.827000	25.545226	0.000424	20.927465
1131.319977	-2.995500	3.615700	-10.830000	25.559503	0.000426	20.923785
1132.318742	-3.016300	3.615300	-10.904000	25.547012	0.000421	20.937318
1133.317389	-2.981200	3.615800	-10.779000	25.574087	0.000425	20.935112
1134.322312	-2.990200	3.614400	-10.807000	25.603580	0.000423	20.934860
1135.324007	-2.989700	3.613900	-10.804000	25.627863	0.000419	20.927007
1136.319242	-2.973800	3.615100	-10.750000	25.661838	0.000423	20.918457
1137.321495	-3.001400	3.613400	-10.844000	25.651488	0.000423	20.926553
1138.321118	-2.997800	3.613400	-10.831000	25.669151	0.000421	20.947135
1139.324386	-2.999100	3.613400	-10.836000	25.624944	0.000419	20.929764
1140.320731	-2.989700	3.612900	-10.801000	25.587846	0.000420	20.935180
1141.324187	-2.987300	3.612600	-10.791000	25.585260	0.000419	20.927368
1142.321949	-3.019900	3.611300	-10.905000	25.577234	0.000418	20.933057
1143.320018	-3.007800	3.612100	-10.864000	25.551421	0.000419	20.942220
1144.323032	-3.001000	3.611500	-10.837000	25.545592	0.000419	20.921195
1145.325306	-3.015300	3.611100	-10.888000	25.531350	0.000421	20.922540
1146.324844	-2.994000	3.611700	-10.813000	25.509519	0.000417	20.931909
1147.324666	-3.023600	3.610100	-10.915000	25.535779	0.000419	20.935047
1148.324708	-2.996100	3.610100	-10.816000	25.525485	0.000416	20.935140
1149.319583	-3.015200	3.609800	-10.882000	25.470355	0.000415	20.930038
1150.324909	-2.990400	3.610800	-10.797000	25.460121	0.000414	20.925926
1151.321225	-3.029100	3.610300	-10.935000	25.489421	0.000414	20.923581
1152.320988	-2.997200	3.609800	-10.817000	25.469744	0.000415	20.928477
1153.323612	-3.002000	3.608200	-10.830000	25.502863	0.000414	20.920485
1154.321724	-2.997600	3.609600	-10.819000	25.523982	0.000417	20.928415
1155.321767	-3.004000	3.609000	-10.841000	25.586124	0.000414	20.915434
1156.322675	-3.035200	3.607600	-10.949000	25.565771	0.000417	20.926761
1157.323412	-3.000400	3.609800	-10.830000	25.531485	0.000414	20.914141
1158.324988	-3.011300	3.606800	-10.860000	25.544602	0.000415	20.914512
1159.326597	-2.982900	3.606600	-10.756000	25.552028	0.000412	20.912012
1160.325426	-2.979400	3.607800	-10.748000	25.546182	0.000410	20.930796
1161.327657	-2.999500	3.605800	-10.814000	25.510530	0.000412	20.929606
1162.330854	-2.985000	3.606600	-10.765000	25.490931	0.000410	20.917037
1163.324159	-2.983000	3.606700	-10.758000	25.464258	0.000412	20.916805
1164.326577	-3.001900	3.604500	-10.820000	25.481574	0.000411	20.902901
1165.341181	-3.002400	3.606600	-10.828000	25.504135	0.000411	20.920340
1166.325186	-3.010800	3.603800	-10.849000	25.550878	0.000412	20.920814
1167.327716	-3.005600	3.604300	-10.831000	25.578862	0.000410	20.912409
1168.326581	-3.009400	3.604100	-10.846000	25.572124	0.000409	20.907065
1169.326369	-2.985700	3.604300	-10.760000	25.590742	0.000408	20.912486
1170.324965	-2.996600	3.604300	-10.800000	25.582726	0.000408	20.925771
1171.329978	-2.999400	3.604100	-10.809000	25.593867	0.000410	20.907565
1172.326420	-2.997700	3.603000	-10.800000	25.636752	0.000407	20.906539
1173.326772	-2.996100	3.601800	-10.790000	25.661989	0.000407	20.898221
1174.326705	-2.988900	3.603800	-10.769000	25.681293	0.000407	20.923297
1175.327785	-2.991600	3.602700	-10.776000	25.655559	0.000408	20.924004
1176.327358	-3.010900	3.602300	-10.846000	25.625971	0.000406	20.914676
1177.327605	-2.988800	3.602600	-10.767000	25.557385	0.000408	20.921185
1178.332306	-3.005700	3.600500	-10.820000	25.519116	0.000406	20.923530
1179.329015	-2.994800	3.602100	-10.787000	25.526429	0.000407	20.920917
1180.333088	-2.996700	3.601200	-10.791000	25.532911	0.000407	20.921736
1181.330250	-3.002300	3.600200	-10.807000	25.544663	0.000405	20.912203
1182.330868	-3.012800	3.600300	-10.845000	25.570846	0.000403	20.910997
1183.330199	-2.994800	3.600500	-10.782000	25.590942	0.000405	20.899886
1184.335037	-3.014000	3.598100	-10.844000	25.624288	0.000402	20.896392
1185.329665	-2.998700	3.599700	-10.794000	25.596100	0.000399	20.909806
1186.333719	-2.987900	3.600300	-10.757000	25.613757	0.000404	20.914264
1187.333876	-2.993400	3.599700	-10.774000	25.626889	0.000403	20.906117
1188.329720	-3.004800	3.597800	-10.810000	25.640770	0.000401	20.909626
1189.328351	-3.010700	3.598200	-10.833000	25.639749	0.000401	20.905281
1190.335692	-3.002200	3.597000	-10.798000	25.613044	0.000402	20.920659
1191.333349	-2.994800	3.597600	-10.772000	25.605336	0.000402	20.919082
1192.331686	-2.992100	3.596500	-10.760000	25.612726	0.000399	20.903272
1193.335744	-3.025500	3.596700	-10.880000	25.632863	0.000399	20.905478
1194.333244	-3.008500	3.595900	-10.817000	25.640709	0.000398	20.909090
1195.333833	-3.035900	3.594900	-10.912000	25.646082	0.000400	20.912115
1196.335836	-2.990900	3.595700	-10.753000	25.586647	0.000398	20.910271
1197.334764	-2.981400	3.596400	-10.720000	25.574003	0.000400	20.915589
1198.338897	-3.001800	3.595600	-10.792000	25.532696	0.000397	20.896392
1199.342273	-2.990800	3.594000	-10.748000	25.565084	0.000397	20.906632
1200.334873	-3.005300	3.594300	-10.801000	25.542241	0.000396	20.902659
1201.332369	-3.005700	3.595700	-10.806000	25.496433	0.000398	20.890322
1202.333797	-3.008200	3.594400	-10.812000	25.524402	0.000397	20.913667
1203.333986	-2.989900	3.594300	-10.746000	25.571118	0.000397	20.896099
1204.335755	-2.992800	3.592300	-10.750000	25.612870	0.000395	20.887771
1205.336785	-3.008300	3.592600	-10.807000	25.617335	0.000394	20.895099
1206.335012	-2.998000	3.592800	-10.770000	25.567100	0.000395	20.882107
1207.333975	-3.018600	3.592000	-10.841000	25.567711	0.000395	20.889832
1208.336993	-3.000900	3.592300	-10.779000	25.585575	0.000395	20.902082
1209.337821	-3.004600	3.591100	-10.789000	25.637009	0.000394	20.902056
1210.337081	-3.018000	3.591000	-10.836000	25.666561	0.000393	20.883375
1211.334603	-3.018100	3.591000	-10.837000	25.668132	0.000394	20.879737
1212.336847	-3.012300	3.590400	-10.814000	25.638631	0.000393	20.888987
1213.336988	-3.008700	3.590000	-10.800000	25.604244	0.000394	20.894754
1214.338793	-3.002400	3.589500	-10.776000	25.586981	0.000392	20.895908
1215.338796	-3.013100	3.588800	-10.813000	25.590932	0.000390	20.892290
1216.337489	-3.016400	3.588500	-10.824000	25.626597	0.000393	20.897763
1217.337653	-2.988900	3.589600	-10.728000	25.644460	0.000391	20.878247
1218.338903	-3.000000	3.588500	-10.765000	25.602022	0.000391	20.888729
1219.338356	-2.994300	3.588400	-10.744000	25.608770	0.000392	20.866584
1220.344505	-3.011500	3.588500	-10.806000	25.620762	0.000391	20.886688
1221.340848	-2.984200	3.589600	-10.711000	25.633689	0.000389	20.893032
1222.345150	-2.993200	3.587400	-10.737000	25.666135	0.000392	20.888162
1223.337943	-3.004100	3.586700	-10.774000	25.680066	0.000389	20.883663
1224.338943	-2.983200	3.587500	-10.702000	25.653809	0.000390	20.878628
1225.343928	-2.989600	3.586700	-10.722000	25.678573	0.000389	20.872681
1226.338880	-2.980000	3.587500	-10.690000	25.707739	0.000385	20.880637
1227.342756	-2.993400	3.585900	-10.733000	25.715456	0.000387	20.860889
1228.346631	-2.995400	3.586600	-10.743000	25.669157	0.000387	20.884559
1229.338692	-2.993500	3.587000	-10.737000	25.614557	0.000385	20.897051
1230.342701	-2.996400	3.584500	-10.739000	25.615425	0.000386	20.877061
1231.341665	-3.017600	3.583400	-10.813000	25.599090	0.000384	20.875829
1232.340718	-2.983700	3.586000	-10.697000	25.587949	0.000387	20.890717
1233.344717	-3.008300	3.584400	-10.782000	25.600532	0.000386	20.881544
1234.343951	-2.998200	3.584500	-10.745000	25.616774	0.000385	20.879838
1235.352991	-2.995200	3.583200	-10.732000	25.585829	0.000385	20.862986
1236.343549	-2.991800	3.583200	-10.718000	25.616517	0.000385	20.844020
1237.346853	-2.996600	3.583400	-10.737000	25.594071	0.000385	20.852771
1238.348945	-3.014500	3.582500	-10.799000	25.590043	0.000383	20.872433
1239.343780	-2.984200	3.583600	-10.694000	25.620576	0.000387	20.870381
1240.346482	-3.007700	3.581700	-10.771000	25.598397	0.000384	20.893149
1241.353785	-2.995600	3.582200	-10.729000	25.625384	0.000383	20.868572
1242.343120	-3.011300	3.580900	-10.782000	25.641015	0.000383	20.862460
1243.345115	-3.008200	3.580500	-10.770000	25.651170	0.000382	20.867443
1244.346836	-2.977800	3.582200	-10.666000	25.678956	0.000382	20.863109
1245.344832	-3.008600	3.581300	-10.774000	25.646562	0.000380	20.881306
1246.350679	-3.009700	3.581000	-10.777000	25.612570	0.000383	20.859970
1247.352277	-2.993400	3.579700	-10.715000	25.624286	0.000380	20.865098
1248.356807	-2.981300	3.580400	-10.673000	25.624896	0.000381	20.867608
1249.350038	-2.999200	3.580300	-10.736000	25.612313	0.000380	20.859238
1250.350411	-2.999200	3.580200	-10.737000	25.590140	0.000378	20.863995
1251.348001	-3.008900	3.578100	-10.765000	25.551220	0.000379	20.880858
1252.355293	-3.012400	3.579300	-10.781000	25.547915	0.000379	20.857625
1253.352346	-2.975500	3.578200	-10.646000	25.556644	0.000377	20.869711
1254.348248	-2.978100	3.579400	-10.659000	25.565743	0.000379	20.854194
1255.351773	-3.011900	3.577200	-10.773000	25.518410	0.000379	20.854074
1256.360682	-2.985700	3.578200	-10.683000	25.505232	0.000378	20.884460
1257.350965	-3.000300	3.577500	-10.732000	25.487926	0.000375	20.864237
1258.349902	-3.012200	3.575900	-10.770000	25.566190	0.000376	20.850849
1259.353158	-2.991400	3.576600	-10.698000	25.621797	0.000376	20.863547
1260.352481	-3.005900	3.576900	-10.751000	25.584859	0.000374	20.864382
1261.359890	-2.993800	3.576400	-10.706000	25.573769	0.000376	20.855142
1262.357188	-3.012100	3.575400	-10.769000	25.569813	0.000375	20.858754
1263.361893	-2.981100	3.575300	-10.658000	25.584397	0.000375	20.853487
1264.354613	-2.989000	3.574600	-10.684000	25.548515	0.000374	20.843056
1265.354481	-2.986200	3.575400	-10.676000	25.572533	0.000373	20.859589
1266.354696	-3.013400	3.573800	-10.768000	25.581641	0.000374	20.841711
1267.353950	-3.032700	3.574100	-10.838000	25.560164	0.000374	20.838634
1268.354305	-3.002500	3.574100	-10.730000	25.508039	0.000374	20.852194
1269.356110	-3.016300	3.573100	-10.776000	25.530908	0.000373	20.819211
1270.353905	-3.034900	3.572700	-10.842000	25.595538	0.000372	20.843814
1271.353817	-3.008300	3.573200	-10.748000	25.560729	0.000373	20.845366
1272.359190	-2.996100	3.571800	-10.700000	25.584387	0.000371	20.843995
1273.355966	-2.983900	3.573300	-10.661000	25.564214	0.000374	20.850287
1274.356204	-2.979700	3.572000	-10.643000	25.575545	0.000371	20.854080
1275.359739	-2.983000	3.573300	-10.659000	25.546556	0.000372	20.857209
1276.355237	-3.007900	3.572300	-10.744000	25.538760	0.000372	20.830415
1277.359414	-2.999000	3.571500	-10.710000	25.536081	0.000370	20.845742
1278.359220	-3.018500	3.570300	-10.775000	25.592891	0.000369	20.843052
1279.355273	-2.995800	3.569500	-10.693000	25.595827	0.000371	20.836044
1280.356580	-2.999400	3.570900	-10.710000	25.633724	0.000370	20.850397
1281.360893	-3.013600	3.568500	-10.753000	25.662419	0.000368	20.841759
1282.357825	-2.967000	3.569300	-10.589000	25.629665	0.000369	20.835889
1283.358450	-2.989400	3.569100	-10.669000	25.620797	0.000369	20.832673
1284.361723	-2.992700	3.568700	-10.679000	25.632847	0.000367	20.849516
1285.360052	-3.000400	3.567800	-10.704000	25.683371	0.000369	20.843362
1286.359225	-2.989700	3.569100	-10.670000	25.643449	0.000366	20.830292
1287.360113	-3.011900	3.567700	-10.744000	25.624667	0.000367	20.848887
1288.360632	-2.988100	3.567100	-10.658000	25.596674	0.000367	20.837843
1289.360862	-2.999500	3.567800	-10.701000	25.568270	0.000366	20.833498
1290.361655	-2.992400	3.567600	-10.675000	25.581900	0.000366	20.845764
1291.362055	-2.974300	3.567400	-10.610000	25.625997	0.000365	20.829834
1292.359997	-3.021400	3.566500	-10.774000	25.674381	0.000364	20.827696
1293.360386	-2.997200	3.565800	-10.686000	25.682638	0.000363	20.830298
1294.360938	-3.004100	3.565500	-10.710000	25.665505	0.000363	20.836323
1295.360101	-3.007400	3.564800	-10.720000	25.651316	0.000363	20.830608
1296.360256	-2.998000	3.565800	-10.689000	25.640345	0.000364	20.837133
1297.359598	-3.021400	3.565200	-10.771000	25.637400	0.000361	20.838916
1298.360744	-2.995300	3.565400	-10.679000	25.640663	0.000362	20.814219
1299.360645	-3.003100	3.565500	-10.706000	25.669590	0.000362	20.834736
1300.360473	-2.999200	3.564400	-10.689000	25.712918	0.000364	20.817090
1301.363228	-3.006700	3.563600	-10.715000	25.731473	0.000363	20.808226
1302.363109	-2.992300	3.564700	-10.666000	25.715628	0.000361	20.833562
1303.363036	-3.001600	3.562800	-10.693000	25.709963	0.000361	20.817915
1304.365370	-3.002100	3.561600	-10.691000	25.668969	0.000359	20.815622
1305.365437	-3.002200	3.561100	-10.689000	25.666352	0.000360	20.834804
1306.365409	-3.013900	3.563200	-10.738000	25.662514	0.000358	20.811035
1307.365636	-3.005600	3.562300	-10.706000	25.700101	0.000359	20.827924
1308.365438	-3.012800	3.561600	-10.730000	25.702374	0.000357	20.828785
1309.372811	-2.993300	3.561800	-10.661000	25.678668	0.000358	20.813035
1310.368139	-3.001500	3.561300	-10.688000	25.664249	0.000359	20.811355
1311.364277	-2.993300	3.560700	-10.657000	25.631561	0.000359	20.812190
1312.363764	-3.012900	3.559500	-10.724000	25.611312	0.000357	20.804655
1313.370470	-2.991300	3.559500	-10.647000	25.617999	0.000356	20.818009
1314.367398	-3.009700	3.558000	-10.707000	25.644118	0.000357	20.821008
1315.373655	-3.013900	3.558400	-10.724000	25.625311	0.000355	20.818241
1316.381383	-3.019800	3.558300	-10.745000	25.629227	0.000354	20.825492
1317.367166	-3.021300	3.557300	-10.747000	25.611010	0.000357	20.813835
1318.367292	-3.017700	3.556500	-10.732000	25.602127	0.000353	20.812974
1319.379431	-3.026900	3.556000	-10.762000	25.624573	0.000355	20.817025
1320.368112	-3.015000	3.557800	-10.726000	25.625260	0.000355	20.809655
1321.367317	-3.015900	3.557800	-10.729000	25.656804	0.000354	20.818576
1322.369380	-3.017400	3.556500	-10.731000	25.649886	0.000354	20.821111
1323.369897	-3.004300	3.557700	-10.688000	25.641543	0.000354	20.809887
1324.368545	-3.008300	3.556300	-10.697000	25.665851	0.000354	20.826714
1325.370924	-3.011800	3.556000	-10.709000	25.633584	0.000353	20.833187
1326.372604	-2.989600	3.555500	-10.629000	25.634837	0.000353	20.821643
1327.372020	-2.983100	3.555700	-10.606000	25.683128	0.000353	20.817041
1328.377523	-2.998300	3.555100	-10.658000	25.616906	0.000353	20.826869
1329.373048	-3.021100	3.554400	-10.737000	25.587548	0.000353	20.797858
1330.373756	-3.002400	3.554200	-10.671000	25.582930	0.000349	20.825462
1331.374736	-3.012800	3.553400	-10.705000	25.598844	0.000350	20.804935
1332.374488	-2.995200	3.554600	-10.646000	25.661335	0.000350	20.822653
1333.372025	-3.014000	3.553600	-10.710000	25.690646	0.000348	20.826488
1334.378538	-3.003300	3.555000	-10.676000	25.678783	0.000350	20.819314
1335.374572	-3.005300	3.553500	-10.677000	25.710258	0.000350	20.827694
1336.375993	-3.000100	3.552500	-10.658000	25.678577	0.000348	20.839496
1337.375666	-3.002000	3.552600	-10.664000	25.696911	0.000349	20.810496
1338.380751	-2.988400	3.551500	-10.612000	25.726006	0.000349	20.822175
1339.376103	-2.998700	3.551900	-10.650000	25.741378	0.000349	20.808693
1340.373530	-3.004900	3.550100	-10.668000	25.741173	0.000346	20.817495
1341.377323	-3.012500	3.550400	-10.695000	25.774755	0.000348	20.815666
1342.376030	-3.013800	3.550700	-10.701000	25.702910	0.000350	20.820314
1343.374873	-2.998900	3.549700	-10.645000	25.686188	0.000347	20.812053
1344.373677	-3.018200	3.548500	-10.709000	25.713080	0.000347	20.817253
1345.377781	-3.005400	3.549200	-10.666000	25.701879	0.000345	20.822124
1346.377786	-3.013000	3.547800	-10.689000	25.689364	0.000346	20.819511
1347.379211	-3.006400	3.548100	-10.666000	25.623564	0.000347	20.804632
1348.376729	-2.997800	3.549700	-10.641000	25.624302	0.000345	20.806322
1349.377197	-2.996400	3.549000	-10.634000	25.615451	0.000345	20.810708
1350.375640	-2.988900	3.548100	-10.604000	25.639605	0.000345	20.835441
1351.383441	-2.988600	3.546900	-10.599000	25.637091	0.000343	20.807786
1352.381142	-3.020200	3.545800	-10.707000	25.625760	0.000345	20.822010
1353.377670	-3.020200	3.547100	-10.712000	25.632652	0.000343	20.827510
1354.376348	-3.005400	3.547100	-10.659000	25.631862	0.000344	20.830509
1355.381279	-2.992900	3.547300	-10.615000	25.642961	0.000345	20.831226
1356.387583	-3.003800	3.546300	-10.652000	25.672411	0.000343	20.824294
1357.380230	-2.993800	3.544900	-10.612000	25.696898	0.000344	20.816646
1358.380771	-2.979800	3.546800	-10.568000	25.721112	0.000343	20.816311
1359.382677	-2.995500	3.545600	-10.620000	25.728603	0.000341	20.828577
1360.379679	-3.000600	3.545200	-10.638000	25.657792	0.000341	20.834741
1361.380209	-3.017500	3.543500	-10.691000	25.630882	0.000341	20.826681
1362.378804	-2.998300	3.545100	-10.628000	25.656299	0.000342	20.834664
1363.378409	-2.981000	3.544700	-10.566000	25.653071	0.000342	20.826207
1364.381384	-3.008200	3.543100	-10.658000	25.617689	0.000340	20.829551
1365.380740	-3.032800	3.542500	-10.742000	25.666762	0.000341	20.826207
1366.380484	-2.987800	3.542800	-10.584000	25.675757	0.000339	20.837612
1367.384681	-2.999900	3.542900	-10.627000	25.707171	0.000342	20.816059
1368.382855	-2.984400	3.542500	-10.571000	25.719306	0.000340	20.840102
1369.381334	-3.003700	3.542000	-10.638000	25.707315	0.000339	20.839437
1370.381517	-3.009700	3.541800	-10.659000	25.656854	0.000337	20.828583
1371.385044	-2.998900	3.542100	-10.621000	25.680879	0.000338	20.830428
1372.383732	-2.999200	3.541200	-10.620000	25.698998	0.000340	20.845781
1373.389741	-3.019900	3.540200	-10.690000	25.721811	0.000338	20.821755
1374.392088	-2.982100	3.541400	-10.559000	25.699778	0.000338	20.833763
1375.383500	-3.025400	3.539700	-10.707000	25.766020	0.000337	20.825384
1376.386852	-3.013800	3.539400	-10.666000	25.750340	0.000338	20.832392
1377.385893	-2.994000	3.539700	-10.596000	25.781434	0.000336	20.820003
1378.393235	-2.988700	3.539700	-10.579000	25.800864	0.000335	20.831460
1379.385703	-3.018800	3.537300	-10.677000	25.803430	0.000334	20.839253
1380.395097	-3.005500	3.538000	-10.632000	25.800495	0.000335	20.836779
1381.389016	-3.009500	3.537900	-10.647000	25.741531	0.000334	20.819278
1382.387244	-3.019300	3.538200	-10.682000	25.750783	0.000333	20.836156
1383.393534	-2.998200	3.537600	-10.605000	25.760644	0.000333	20.836105
1384.395667	-3.004900	3.537100	-10.628000	25.733789	0.000332	20.844691
1385.387062	-3.008500	3.537500	-10.641000	25.726949	0.000334	20.837346
1386.386231	-2.988000	3.536200	-10.565000	25.722244	0.000332	20.844949
1387.389417	-2.973200	3.536100	-10.512000	25.746088	0.000334	20.838079
1388.392212	-3.003200	3.534400	-10.614000	25.790055	0.000333	20.836724
1389.387899	-2.985800	3.535100	-10.554000	25.784760	0.000331	20.840888
1390.387856	-2.965700	3.537100	-10.489000	25.764822	0.000333	20.843145
1391.388236	-2.992600	3.534500	-10.576000	25.742636	0.000331	20.836033
1392.387991	-3.013300	3.531900	-10.642000	25.679199	0.000332	20.835379
1393.390164	-2.977100	3.533700	-10.520000	25.690493	0.000330	20.854783
1394.389228	-2.983700	3.533400	-10.541000	25.680297	0.000330	20.855447
1395.397712	-2.979900	3.534400	-10.531000	25.699781	0.000330	20.855576
1396.390169	-2.993200	3.531700	-10.570000	25.706338	0.000331	20.823757
1397.392468	-2.997000	3.532500	-10.586000	25.690365	0.000327	20.851335
1398.392870	-2.999000	3.531600	-10.590000	25.669670	0.000326	20.865162
1399.394438	-2.999600	3.532600	-10.596000	25.683858	0.000330	20.853809
1400.393096	-2.985200	3.531800	-10.542000	25.679404	0.000329	20.827999
1401.393454	-2.982400	3.531800	-10.532000	25.648211	0.000326	20.861153
1402.399021	-2.996200	3.530400	-10.577000	25.682571	0.000326	20.853938
1403.396554	-2.981800	3.530200	-10.526000	25.639061	0.000328	20.847696
1404.394713	-3.001000	3.529200	-10.590000	25.689215	0.000329	20.841172
1405.397137	-2.974600	3.530100	-10.499000	25.716011	0.000329	20.860024
1406.398210	-2.988000	3.529600	-10.546000	25.695240	0.000325	20.847696
1407.395143	-2.983000	3.528700	-10.526000	25.678065	0.000329	20.844197
1408.394736	-3.002500	3.528800	-10.594000	25.619972	0.000324	20.872145
1409.397566	-3.012500	3.528000	-10.627000	25.634119	0.000324	20.856008
1410.396693	-2.988400	3.529400	-10.547000	25.626668	0.000325	20.868913
1411.401270	-2.999800	3.529400	-10.587000	25.655861	0.000326	20.847974
1412.399558	-2.999700	3.527800	-10.581000	25.690477	0.000326	20.829637
1413.397537	-2.991900	3.526700	-10.551000	25.717128	0.000325	20.857353
1414.397125	-3.010500	3.526400	-10.615000	25.731444	0.000326	20.855612
1415.396194	-3.027200	3.524400	-10.668000	25.782323	0.000324	20.855508
1416.400084	-2.992500	3.526000	-10.551000	25.774709	0.000324	20.859240
1417.399032	-3.013900	3.525400	-10.625000	25.714932	0.000324	20.861785
1418.398303	-3.001800	3.526000	-10.583000	25.727119	0.000324	20.851741
1419.398975	-3.029500	3.524300	-10.676000	25.723927	0.000322	20.885043
1420.397323	-3.003600	3.523800	-10.583000	25.714193	0.000323	20.872896
1421.397629	-2.996700	3.524800	-10.562000	25.697722	0.000321	20.872948
1422.399903	-3.003500	3.525000	-10.586000	25.713567	0.000322	20.842871
1423.399946	-3.016200	3.523300	-10.626000	25.733660	0.000322	20.883440
1424.396698	-3.010500	3.522800	-10.604000	25.706804	0.000322	20.864527
1425.399952	-2.994400	3.523200	-10.549000	25.692513	0.000321	20.861553
1426.399056	-3.001300	3.522400	-10.571000	25.685474	0.000320	20.884827
1427.400564	-3.006800	3.521700	-10.588000	25.725179	0.000320	20.860224
1428.401150	-3.006700	3.523000	-10.592000	25.758859	0.000319	20.872716
1429.398673	-2.997200	3.522700	-10.557000	25.748027	0.000320	20.856147
1430.400763	-2.988100	3.522800	-10.525000	25.808972	0.000321	20.877060
1431.398582	-2.986300	3.521900	-10.517000	25.825775	0.000320	20.871180
1432.401972	-3.007300	3.520100	-10.585000	25.837980	0.000318	20.864949
1433.399000	-3.009200	3.519300	-10.589000	25.844399	0.000318	20.867130
1434.399965	-2.990100	3.520200	-10.525000	25.816704	0.000318	20.881982
1435.404102	-3.019500	3.519900	-10.627000	25.780599	0.000318	20.890284
1436.400677	-2.987000	3.520500	-10.515000	25.724871	0.000316	20.865604
1437.400074	-3.014900	3.518500	-10.607000	25.760086	0.000315	20.876793
1438.401888	-3.003900	3.518600	-10.568000	25.782692	0.000317	20.883379
1439.400459	-3.001500	3.519600	-10.564000	25.824969	0.000317	20.897396
1440.408014	-2.996300	3.518100	-10.540000	25.847831	0.000315	20.870103
1441.408594	-2.990500	3.518600	-10.521000	25.769003	0.000315	20.865836
1442.401491	-3.002700	3.517800	-10.561000	25.759408	0.000316	20.885594
1443.405619	-3.011400	3.516200	-10.588000	25.758326	0.000316	20.875973
1444.401812	-3.012100	3.517100	-10.593000	25.782005	0.000314	20.896912
1445.402713	-2.992100	3.517100	-10.523000	25.801281	0.000316	20.896834
1446.404407	-2.995300	3.516200	-10.531000	25.781533	0.000315	20.895015
1447.400756	-3.012900	3.514100	-10.587000	25.753570	0.000314	20.898221
1448.403342	-3.001000	3.515500	-10.549000	25.755853	0.000316	20.885817
1449.400907	-2.994400	3.514800	-10.524000	25.734601	0.000314	20.894341
1450.401577	-3.030900	3.515100	-10.653000	25.726052	0.000314	20.877695
1451.405637	-2.974400	3.516800	-10.459000	25.735391	0.000313	20.893712
1452.403137	-3.014100	3.513600	-10.589000	25.751820	0.000314	20.893619
1453.403328	-2.999500	3.513200	-10.537000	25.777952	0.000315	20.882411
1454.405777	-3.005800	3.512300	-10.556000	25.836622	0.000312	20.890135
1455.403965	-3.022300	3.513200	-10.617000	25.851244	0.000313	20.889652
1456.405102	-2.993300	3.511300	-10.509000	25.849408	0.000309	20.891600
1457.408214	-2.998200	3.512200	-10.529000	25.818280	0.000311	20.894944
1458.409933	-2.986200	3.513600	-10.492000	25.788440	0.000310	20.886781
1459.412846	-2.990700	3.513500	-10.507000	25.764966	0.000312	20.928632
1460.405745	-2.990700	3.510400	-10.497000	25.750041	0.000311	20.899418
1461.407470	-2.984500	3.510400	-10.476000	25.769394	0.000310	20.903210
1462.411426	-2.984400	3.512500	-10.482000	25.774889	0.000308	20.897350
1463.408314	-2.974600	3.511100	-10.442000	25.801647	0.000309	20.905736
1464.411029	-2.983700	3.510100	-10.472000	25.811534	0.000308	20.899072
1465.412866	-2.966700	3.510800	-10.415000	25.823463	0.000312	20.912477
1466.409799	-3.002300	3.508900	-10.534000	25.816023	0.000308	20.895996
1467.414194	-2.986400	3.509200	-10.479000	25.782442	0.000308	20.892135
1468.413736	-2.994100	3.509300	-10.506000	25.790533	0.000308	20.905478
1469.413429	-3.026500	3.507500	-10.614000	25.788748	0.000308	20.919804
1470.413404	-2.976900	3.509900	-10.448000	25.808455	0.000306	20.910203
1471.408858	-3.002900	3.507100	-10.530000	25.820666	0.000305	20.914408
1472.414024	-3.010200	3.507000	-10.555000	25.853646	0.000307	20.911028
1473.409983	-3.009000	3.506900	-10.552000	25.817352	0.000305	20.908235
1474.411458	-2.994400	3.506500	-10.499000	25.828819	0.000307	20.924968
1475.410832	-3.004100	3.507600	-10.536000	25.812924	0.000306	20.924174
1476.412231	-3.012800	3.507200	-10.566000	25.830748	0.000307	20.914105
1477.415273	-2.993000	3.506800	-10.495000	25.801252	0.000303	20.934259
1478.415242	-2.993500	3.506200	-10.495000	25.826613	0.000305	20.910899
1479.419187	-3.018800	3.504000	-10.577000	25.834284	0.000304	20.908174
1480.417053	-3.008000	3.505600	-10.544000	25.796901	0.000303	20.918037
1481.411956	-3.008500	3.504400	-10.542000	25.827762	0.000306	20.893564
1482.419100	-3.003900	3.504800	-10.527000	25.837116	0.000306	20.913863
1483.423822	-2.999000	3.503900	-10.506000	25.801586	0.000302	20.929380
1484.414303	-3.008100	3.503900	-10.539000	25.758107	0.000304	20.928380
1485.414035	-2.978300	3.502800	-10.432000	25.725063	0.000303	20.920794
1486.414130	-2.981100	3.503600	-10.443000	25.726659	0.000302	20.926190
1487.416306	-2.985700	3.502700	-10.457000	25.732083	0.000302	20.923103
1488.418628	-3.001400	3.501200	-10.508000	25.746193	0.000301	20.929689
1489.418741	-2.982200	3.502600	-10.444000	25.729379	0.000299	20.930344
1490.418633	-2.986800	3.503500	-10.464000	25.749498	0.000300	20.933482
1491.422161	-3.014100	3.501000	-10.552000	25.787544	0.000300	20.921913
1492.415193	-3.019500	3.499700	-10.566000	25.771032	0.000301	20.920027
1493.416564	-3.005800	3.499200	-10.517000	25.797010	0.000301	20.951807
1494.421998	-2.980400	3.499800	-10.430000	25.741190	0.000299	20.932724
1495.422027	-2.994400	3.499100	-10.477000	25.755214	0.000300	20.939697
1496.418762	-2.979500	3.499100	-10.425000	25.778764	0.000300	20.939171
1497.417098	-2.992500	3.500200	-10.474000	25.787287	0.000299	20.942516
1498.420316	-2.988100	3.497700	-10.450000	25.801027	0.000300	20.934033
1499.420075	-3.005800	3.497500	-10.512000	25.819719	0.000301	20.959918
1500.418967	-2.988900	3.498900	-10.456000	25.839302	0.000300	20.924119
1501.419369	-2.991600	3.497800	-10.463000	25.876462	0.000298	20.939161
1502.421823	-3.000800	3.498400	-10.496000	25.882264	0.000298	20.928396
1503.419258	-2.997500	3.495600	-10.476000	25.916032	0.000295	20.931024
1504.423251	-3.012500	3.496800	-10.533000	25.930766	0.000299	20.948195
1505.421468	-3.035400	3.495400	-10.609000	25.936558	0.000297	20.949746
1506.419951	-2.993400	3.494900	-10.461000	25.936481	0.000296	20.943980
1507.418551	-3.005900	3.495500	-10.506000	25.938944	0.000294	20.952617
1508.420332	-3.004200	3.495200	-10.499000	25.919249	0.000295	20.953220
1509.420258	-2.987300	3.494900	-10.440000	25.860784	0.000293	20.947592
1510.419394	-2.999000	3.494800	-10.480000	25.840709	0.000293	20.964881
1511.420384	-3.010900	3.494000	-10.519000	25.785122	0.000293	20.950772
1512.421561	-3.016800	3.494200	-10.541000	25.796657	0.000295	20.946711
1513.418983	-2.969900	3.494500	-10.378000	25.782512	0.000294	20.964743
1514.420632	-3.016200	3.492400	-10.533000	25.765390	0.000294	20.964140
1515.423583	-2.994300	3.493700	-10.460000	25.741469	0.000294	20.963820
1516.419562	-2.990300	3.493500	-10.446000	25.735615	0.000293	20.966475
1517.422894	-3.002500	3.491200	-10.481000	25.748663	0.000293	20.937858
1518.421402	-2.999100	3.491800	-10.472000	25.779284	0.000294	20.967191
1519.424140	-3.003200	3.490600	-10.482000	25.750782	0.000292	20.945676
1520.430177	-2.978600	3.492500	-10.402000	25.822050	0.000292	20.974111
1521.421573	-3.001400	3.489900	-10.473000	25.803564	0.000291	20.963130
1522.426321	-3.012400	3.490000	-10.512000	25.818566	0.000290	20.965872
1523.422904	-2.983600	3.491100	-10.414000	25.849529	0.000290	20.962837
1524.429881	-2.987400	3.490800	-10.427000	25.892789	0.000291	20.959354
1525.423882	-2.965500	3.491000	-10.351000	25.886345	0.000293	20.947192
1526.425140	-2.996000	3.490000	-10.455000	25.880723	0.000291	20.969516
1527.424630	-3.000400	3.488800	-10.467000	25.878055	0.000290	20.959250
1528.425026	-2.990100	3.490500	-10.436000	25.849365	0.000290	20.965991
1529.424780	-2.998200	3.488100	-10.457000	25.853665	0.000287	20.973628
1530.424748	-3.002300	3.486900	-10.467000	25.882174	0.000289	20.988988
1531.424026	-3.005500	3.486600	-10.478000	25.853424	0.000291	20.962008
1532.424720	-3.002500	3.488000	-10.471000	25.878286	0.000288	20.980342
1533.425115	-2.996200	3.486900	-10.447000	25.906082	0.000288	20.976498
1534.430068	-3.008300	3.485700	-10.485000	25.839915	0.000287	20.968826
1535.428358	-3.008000	3.485800	-10.483000	25.844969	0.000288	20.969161
1536.424988	-2.996000	3.486200	-10.444000	25.814067	0.000289	20.982687
1537.431596	-2.996200	3.486800	-10.446000	25.835754	0.000289	20.978868
1538.426388	-3.002300	3.486200	-10.465000	25.895396	0.000289	20.979039
1539.429177	-3.016300	3.484800	-10.510000	25.883304	0.000288	20.977798
1540.425803	-3.003700	3.484500	-10.465000	25.868887	0.000285	20.993658
1541.431197	-3.017600	3.483700	-10.511000	25.828895	0.000286	20.980039
1542.428701	-3.022300	3.483100	-10.526000	25.815525	0.000286	20.978936
1543.427623	-3.024600	3.481700	-10.529000	25.787614	0.000286	20.996890
1544.431926	-2.994200	3.482700	-10.427000	25.800959	0.000285	20.976633
1545.429886	-3.004700	3.482300	-10.462000	25.800959	0.000285	20.997019
1546.429473	-2.977800	3.483000	-10.370000	25.823591	0.000284	21.000785
1547.432469	-2.982000	3.484100	-10.388000	25.841373	0.000284	21.000156
1548.429027	-2.994000	3.482700	-10.426000	25.873700	0.000285	20.980003
1549.428287	-2.973900	3.483500	-10.359000	25.855944	0.000283	21.000569
1550.428212	-2.979600	3.481800	-10.373000	25.824381	0.000284	21.023860
1551.431932	-2.996200	3.480900	-10.429000	25.803027	0.000282	20.999569
1552.429998	-3.003100	3.480300	-10.451000	25.844016	0.000281	20.987166
1553.429865	-3.008000	3.480300	-10.468000	25.805490	0.000282	21.008206
1554.432470	-2.995400	3.480600	-10.425000	25.788917	0.000280	21.013369
1555.430909	-3.004200	3.478600	-10.449000	25.799456	0.000283	21.006887
1556.430973	-3.009000	3.479400	-10.469000	25.810605	0.000281	21.009077
1557.433287	-2.993600	3.479500	-10.415000	25.824679	0.000282	20.999034
1558.436911	-2.985100	3.479600	-10.386000	25.825967	0.000282	21.014549
1559.434437	-2.998400	3.478500	-10.429000	25.816973	0.000281	21.007413
1560.435052	-3.025600	3.476200	-10.517000	25.820405	0.000279	20.999482
1561.435202	-2.990100	3.477900	-10.398000	25.849224	0.000280	21.005197
1562.436728	-2.983800	3.478700	-10.379000	25.894905	0.000279	20.989449
1563.437685	-3.034900	3.475700	-10.548000	25.930560	0.000280	20.982596
1564.436152	-3.011300	3.475800	-10.466000	25.908377	0.000281	20.990181
1565.447053	-3.006600	3.476600	-10.452000	25.932576	0.000279	21.010221
1566.439326	-3.031500	3.474700	-10.533000	25.885481	0.000278	20.970028
1567.441369	-3.024400	3.474800	-10.508000	25.919438	0.000279	20.989914
1568.437617	-3.006200	3.476900	-10.451000	25.886296	0.000279	20.981277
1569.436311	-3.000400	3.476200	-10.429000	25.902171	0.000277	20.994851
1570.438241	-3.010900	3.475200	-10.463000	25.915293	0.000277	20.998076
1571.441696	-2.997500	3.475700	-10.417000	25.934609	0.000277	20.967700
1572.439706	-3.009200	3.474500	-10.455000	25.920947	0.000276	20.971044
1573.439995	-3.007200	3.472900	-10.443000	25.858988	0.000275	20.989404
1574.443400	-3.007900	3.473000	-10.446000	25.840760	0.000277	20.976785
1575.450078	-3.027200	3.472300	-10.510000	25.873980	0.000278	20.983128
1576.441041	-3.010100	3.472400	-10.451000	25.893152	0.000276	20.992903
1577.443922	-3.014800	3.472900	-10.470000	25.848174	0.000274	20.963372
1578.442202	-3.011400	3.472400	-10.455000	25.867449	0.000276	20.982258
1579.445056	-2.995900	3.472600	-10.403000	25.863955	0.000274	20.950304
1580.439553	-2.994400	3.472400	-10.397000	25.834399	0.000275	20.964233
1581.440418	-2.971500	3.472700	-10.318000	25.846931	0.000274	20.950745
1582.441472	-2.994300	3.472000	-10.395000	25.870615	0.000273	20.958889
1583.442849	-2.997400	3.470900	-10.403000	25.910872	0.000272	20.956657
1584.441392	-3.002700	3.471000	-10.421000	25.914991	0.000274	20.958898
1585.444201	-3.012100	3.469500	-10.449000	25.938298	0.000273	20.945805
1586.449517	-3.004300	3.469700	-10.423000	25.963389	0.000271	20.954416
1587.442549	-3.004900	3.469200	-10.423000	25.956884	0.000274	20.955467
1588.448720	-3.006700	3.469000	-10.430000	25.972192	0.000271	20.968000
1589.448554	-3.017700	3.467900	-10.464000	25.975916	0.000271	20.941873
1590.446566	-2.980700	3.469500	-10.341000	26.019791	0.000271	20.938538
1591.443577	-3.021800	3.467300	-10.477000	25.982970	0.000268	20.950855
1592.448226	-2.999000	3.466700	-10.396000	25.934650	0.000272	20.950200
1593.446735	-2.978300	3.467100	-10.326000	25.904290	0.000271	20.962372
1594.455846	-2.983200	3.467000	-10.342000	25.920440	0.000272	20.947304
1595.451356	-3.009300	3.467900	-10.434000	25.954816	0.000269	20.945330
1596.446166	-3.028500	3.467100	-10.499000	25.996339	0.000269	20.951958
1597.447608	-2.995700	3.466900	-10.385000	25.973910	0.000270	20.953132
1598.448698	-2.995600	3.465800	-10.380000	26.002329	0.000269	20.933797
1599.446560	-2.983400	3.466000	-10.340000	26.017062	0.000270	20.959502
1600.447198	-3.005200	3.464800	-10.412000	26.012153	0.000268	20.941770
1601.448015	-3.003700	3.466500	-10.411000	26.002252	0.000269	20.941780
1602.449964	-2.989400	3.464800	-10.356000	26.005761	0.000266	20.922074
1603.457432	-2.992000	3.464600	-10.365000	25.940674	0.000267	20.941554
1604.450941	-2.995000	3.464000	-10.374000	25.951676	0.000267	20.930324
1605.452274	-3.004200	3.464200	-10.406000	25.974751	0.000268	20.952081
1606.449493	-2.997200	3.463800	-10.381000	25.981846	0.000268	20.938822
1607.450437	-2.998000	3.463200	-10.382000	25.976998	0.000267	20.970931
1608.448909	-3.012200	3.463600	-10.432000	26.013235	0.000266	20.943331
1609.449639	-3.001100	3.464300	-10.396000	25.997472	0.000268	20.918487
1610.453790	-2.996600	3.462600	-10.376000	25.967620	0.000265	20.936858
1611.450503	-2.988200	3.462400	-10.345000	25.949599	0.000268	20.950046
1612.452440	-3.009000	3.461900	-10.416000	25.959562	0.000266	20.930185
1613.453963	-3.015700	3.461500	-10.438000	25.971068	0.000265	20.929418
1614.452008	-3.005900	3.460000	-10.399000	25.883538	0.000265	20.927779
1615.452229	-2.998000	3.461200	-10.376000	25.839893	0.000264	20.919971
1616.455623	-2.988300	3.460700	-10.341000	25.818617	0.000263	20.935107
1617.451885	-3.003100	3.460100	-10.390000	25.852679	0.000264	20.917642
1618.452069	-2.999100	3.459500	-10.374000	25.896154	0.000261	20.929072
1619.455176	-3.004700	3.460100	-10.396000	25.893434	0.000261	20.917333
1620.451900	-2.992800	3.459700	-10.354000	25.917024	0.000263	20.936761
1621.452488	-2.989400	3.459200	-10.340000	25.940812	0.000260	20.931262
1622.454356	-3.008600	3.458800	-10.405000	25.972561	0.000262	20.930443
1623.456851	-3.005000	3.458600	-10.393000	25.947050	0.000260	20.931840
1624.456746	-2.988600	3.459000	-10.337000	25.955202	0.000260	20.914901
1625.456121	-2.993400	3.457700	-10.349000	25.961209	0.000259	20.921884
1626.454444	-3.011300	3.457200	-10.410000	25.947326	0.000259	20.926428
1627.457538	-3.002200	3.456900	-10.377000	25.892757	0.000261	20.937987
1628.456761	-3.028600	3.456300	-10.467000	25.899441	0.000259	20.901084
1629.454943	-2.992300	3.455900	-10.340000	25.916520	0.000260	20.903068
1630.453952	-3.015900	3.454900	-10.419000	25.940298	0.000259	20.934539
1631.456171	-3.000700	3.456100	-10.368000	25.943216	0.000259	20.930834
1632.456929	-2.986600	3.455100	-10.317000	25.958637	0.000258	20.925464
1633.457541	-2.996000	3.454200	-10.348000	25.982578	0.000257	20.932920
1634.457404	-3.004300	3.454500	-10.378000	25.999748	0.000257	20.929782
1635.461092	-3.032700	3.453700	-10.473000	26.023319	0.000259	20.905577
1636.460781	-3.013000	3.453500	-10.405000	25.980485	0.000259	20.903793
1637.466024	-2.986900	3.453800	-10.315000	25.978546	0.000259	20.908009
1638.458458	-3.003600	3.452700	-10.369000	25.943149	0.000256	20.903268
1639.461856	-3.007800	3.452300	-10.382000	25.926158	0.000258	20.906587
1640.456341	-3.007800	3.451800	-10.381000	25.910034	0.000256	20.898923
1641.461836	-2.997700	3.452100	-10.348000	25.914856	0.000258	20.911828
1642.467171	-3.003800	3.453000	-10.371000	25.925645	0.000257	20.912234
1643.459886	-3.010900	3.452200	-10.393000	25.915354	0.000258	20.932714
1644.458130	-2.999000	3.452100	-10.352000	25.918709	0.000254	20.894837
1645.458372	-2.995700	3.451500	-10.338000	25.918883	0.000255	20.910183
1646.458877	-2.999100	3.452300	-10.353000	25.880617	0.000254	20.905880
1647.458825	-2.997200	3.451500	-10.344000	25.892365	0.000256	20.912940
1648.460944	-3.003500	3.450600	-10.363000	25.872695	0.000255	20.897924
1649.463760	-3.010100	3.450400	-10.385000	25.912060	0.000254	20.916130
1650.462851	-3.020400	3.449100	-10.416000	25.925060	0.000255	20.900742
1651.462644	-3.017700	3.448500	-10.405000	25.916102	0.000254	20.905493
1652.472559	-3.016000	3.448000	-10.398000	25.929472	0.000253	20.904226
1653.463736	-3.004700	3.448600	-10.361000	25.932406	0.000252	20.890580
1654.467286	-3.012600	3.448300	-10.388000	25.927420	0.000252	20.898372
1655.467590	-3.011600	3.448200	-10.384000	25.885834	0.000252	20.891683
1656.463738	-3.004500	3.446500	-10.354000	25.898080	0.000251	20.895450
1657.463378	-3.010100	3.447100	-10.375000	25.911116	0.000252	20.911389
1658.463328	-2.994500	3.447400	-10.322000	25.913640	0.000252	20.911079
1659.464887	-2.979900	3.446900	-10.270000	25.913974	0.000248	20.901933
1660.469468	-2.985700	3.447200	-10.292000	25.856940	0.000251	20.895372
1661.466193	-2.995300	3.446300	-10.322000	25.852297	0.000251	20.895924
1662.464609	-2.990200	3.445900	-10.303000	25.837356	0.000251	20.907941
1663.464366	-2.986300	3.446100	-10.290000	25.886778	0.000249	20.891683
1664.469329	-3.000000	3.445400	-10.335000	25.950623	0.000249	20.893708
1665.465433	-3.007700	3.443700	-10.357000	25.970189	0.000250	20.920000
1666.464543	-2.996200	3.445300	-10.323000	26.023441	0.000249	20.890054
1667.469292	-2.972100	3.444800	-10.236000	26.027560	0.000250	20.906993
1668.463736	-3.005000	3.443200	-10.345000	26.045201	0.000248	20.882994
1669.463477	-2.982700	3.444000	-10.272000	26.073773	0.000249	20.899372
1670.468441	-2.993100	3.444100	-10.307000	26.038277	0.000249	20.886467
1671.468708	-2.999100	3.443200	-10.325000	26.054116	0.000246	20.892899
1672.468881	-2.996200	3.444100	-10.318000	26.029027	0.000246	20.894718
1673.474780	-2.985000	3.443800	-10.279000	26.040200	0.000246	20.894089
1674.468094	-2.983300	3.443600	-10.273000	26.026032	0.000244	20.907354
1675.465299	-2.994000	3.442400	-10.306000	25.963694	0.000246	20.894037
1676.468318	-3.008400	3.442200	-10.355000	25.991581	0.000243	20.904509
1677.467502	-2.989100	3.441900	-10.288000	26.013890	0.000244	20.898001
1678.467916	-2.980900	3.442200	-10.260000	26.018799	0.000245	20.890131
1679.469695	-2.993800	3.441100	-10.301000	25.982511	0.000244	20.898717
1680.468324	-3.010000	3.440900	-10.356000	25.951783	0.000245	20.887287
1681.475536	-2.994100	3.440700	-10.301000	25.916985	0.000242	20.884097
1682.469504	-3.002200	3.438500	-10.322000	25.906319	0.000243	20.882391
1683.475077	-3.006200	3.440300	-10.341000	25.932621	0.000244	20.886055
1684.477145	-2.990800	3.438900	-10.285000	25.883818	0.000241	20.887287
1685.473358	-2.970200	3.439600	-10.215000	25.848222	0.000241	20.882823
1686.471845	-3.020500	3.438400	-10.384000	25.897875	0.000242	20.899510
1687.474112	-2.992500	3.438200	-10.287000	25.911167	0.000243	20.893898
1688.471368	-3.007800	3.437000	-10.337000	25.910275	0.000243	20.921922
1689.471083	-2.995500	3.437200	-10.295000	25.938105	0.000242	20.885400
1690.472477	-3.001600	3.438800	-10.321000	25.974231	0.000241	20.894666
1691.474740	-3.010800	3.436200	-10.344000	25.996181	0.000242	20.882581
1692.472155	-2.987500	3.435700	-10.263000	25.998284	0.000242	20.889435
1693.477527	-2.969200	3.437100	-10.205000	25.954470	0.000242	20.872918
1694.478853	-3.002300	3.436400	-10.315000	25.980427	0.000239	20.883823
1695.475320	-2.999200	3.435500	-10.303000	25.987430	0.000240	20.889435
1696.477297	-3.001400	3.434700	-10.308000	25.963591	0.000239	20.875918
1697.477133	-2.998300	3.435700	-10.301000	25.957234	0.000239	20.876643
1698.475436	-3.002100	3.435700	-10.314000	25.901978	0.000238	20.880875
1699.481672	-3.007100	3.433600	-10.324000	25.880199	0.000239	20.875118
1700.476253	-3.002800	3.433300	-10.309000	25.906724	0.000241	20.884694
1701.477152	-2.970600	3.433900	-10.199000	25.871170	0.000241	20.877901
1702.479048	-2.984100	3.434800	-10.249000	25.941223	0.000238	20.874308
1703.483809	-3.000600	3.433200	-10.300000	25.956608	0.000238	20.869377
1704.480598	-2.985800	3.432500	-10.247000	25.986650	0.000237	20.900978
1705.479357	-2.981200	3.432800	-10.232000	26.004034	0.000237	20.883832
1706.482285	-2.978300	3.432300	-10.221000	26.034007	0.000238	20.893083
1707.480436	-3.003200	3.431300	-10.304000	26.077459	0.000238	20.877472
1708.480680	-3.005200	3.431200	-10.311000	26.055510	0.000238	20.887187
1709.484066	-3.008200	3.430100	-10.318000	26.003511	0.000237	20.877143
1710.481787	-2.992300	3.431800	-10.267000	25.967678	0.000238	20.864377
1711.480002	-2.988700	3.430800	-10.253000	25.963749	0.000237	20.877972
1712.487926	-2.992600	3.430100	-10.263000	25.983715	0.000238	20.870057
1713.482895	-3.007400	3.429500	-10.313000	25.959543	0.000236	20.905987
1714.480977	-2.973100	3.429800	-10.196000	25.909463	0.000235	20.875118
1715.482937	-3.013200	3.429200	-10.332000	25.886448	0.000234	20.869067
1716.481311	-3.010100	3.428600	-10.319000	25.870647	0.000234	20.882591
1717.481929	-3.011300	3.428000	-10.322000	25.858185	0.000235	20.886667
1718.481421	-3.003000	3.427000	-10.290000	25.880928	0.000234	20.863523
1719.482900	-3.018600	3.427600	-10.345000	25.911100	0.000236	20.868228
1720.481357	-3.004000	3.427200	-10.295000	25.965119	0.000234	20.878401
1721.480681	-2.993900	3.428800	-10.265000	25.982049	0.000231	20.886400
1722.484886	-2.998800	3.427600	-10.278000	25.990836	0.000231	20.867254
1723.483361	-3.013300	3.426600	-10.325000	26.021374	0.000234	20.881339
1724.482804	-2.998900	3.426400	-10.275000	26.003938	0.000232	20.876150
1725.483388	-3.001100	3.427300	-10.285000	26.014003	0.000231	20.864926
1726.482778	-3.016800	3.425200	-10.332000	26.046145	0.000228	20.860236
1727.483533	-3.022100	3.425000	-10.349000	26.064791	0.000230	20.861900
1728.483202	-3.013200	3.425100	-10.319000	26.023621	0.000231	20.872692
1729.484714	-2.990800	3.426200	-10.246000	26.029567	0.000232	20.856856
1730.484578	-3.003800	3.424900	-10.287000	26.022754	0.000232	20.863761
1731.484135	-2.992100	3.423400	-10.242000	26.035702	0.000229	20.854959
1732.485955	-2.999100	3.425600	-10.273000	26.074579	0.000231	20.857036
1733.483909	-2.995200	3.423500	-10.253000	26.075917	0.000229	20.855062
1734.487439	-3.018800	3.423300	-10.333000	26.095050	0.000230	20.869544
1735.488537	-3.003200	3.423200	-10.279000	26.087166	0.000228	20.872528
1736.484827	-3.000500	3.423400	-10.271000	26.056749	0.000229	20.861881
1737.486377	-2.977000	3.422600	-10.188000	26.043946	0.000229	20.878414
1738.485222	-2.991800	3.422400	-10.238000	26.055025	0.000228	20.855882
1739.486099	-3.006900	3.421800	-10.287000	26.037185	0.000226	20.861190
1740.485734	-3.001100	3.421700	-10.268000	25.978055	0.000226	20.867215
1741.490799	-3.011800	3.421100	-10.301000	25.938831	0.000227	20.862423
1742.484067	-2.996300	3.419900	-10.246000	25.951282	0.000225	20.862603
1743.485893	-3.017500	3.419900	-10.318000	25.963707	0.000225	20.866551
1744.491679	-3.008900	3.420100	-10.290000	26.026931	0.000227	20.865587
1745.490252	-2.997700	3.419500	-10.250000	26.070543	0.000224	20.856301
1746.487491	-2.988800	3.420400	-10.222000	26.060161	0.000225	20.850611
1747.491410	-3.002900	3.418800	-10.266000	26.013476	0.000223	20.851595
1748.491934	-3.002500	3.418900	-10.264000	26.004484	0.000226	20.843035
1749.490137	-2.994600	3.418300	-10.236000	26.047147	0.000223	20.856975
1750.489586	-3.016100	3.417300	-10.306000	26.061269	0.000225	20.849353
1751.492414	-2.993300	3.418400	-10.231000	26.005110	0.000222	20.852198
1752.490920	-3.007100	3.416800	-10.273000	25.965517	0.000223	20.853198
1753.493034	-3.002600	3.417500	-10.261000	26.008147	0.000222	20.876585
1754.492232	-3.002700	3.416500	-10.258000	25.977557	0.000224	20.839690
1755.492425	-2.999200	3.415500	-10.242000	26.015287	0.000223	20.872853
1756.493378	-3.019600	3.414800	-10.310000	26.020812	0.000223	20.840948
1757.495180	-3.012600	3.415700	-10.289000	26.012712	0.000222	20.845612
1758.494111	-2.999200	3.415200	-10.242000	25.983718	0.000222	20.879543
1759.494135	-2.979500	3.416100	-10.177000	25.986447	0.000222	20.829656
1760.493499	-3.010800	3.413500	-10.277000	26.030312	0.000220	20.855233
1761.496114	-3.003000	3.414700	-10.254000	26.044238	0.000221	20.839829
1762.494201	-2.997800	3.414200	-10.234000	26.114604	0.000219	20.841303
1763.494333	-3.013300	3.413700	-10.286000	26.092424	0.000222	20.841303
1764.498672	-3.000900	3.412700	-10.240000	26.079401	0.000220	20.841019
1765.495286	-2.984400	3.412500	-10.184000	26.101914	0.000221	20.839458
1766.496234	-2.996600	3.412400	-10.224000	26.021293	0.000219	20.847121
1767.496485	-2.999200	3.412300	-10.232000	26.037667	0.000217	20.830382
1768.495008	-2.976600	3.413300	-10.159000	26.003154	0.000216	20.847863
1769.494250	-3.002900	3.411600	-10.243000	25.962792	0.000216	20.847615
1770.496112	-2.986700	3.412100	-10.190000	25.928585	0.000216	20.849286
1771.495602	-3.013000	3.409900	-10.273000	25.952434	0.000217	20.850486
1772.499365	-2.995300	3.409800	-10.213000	26.007412	0.000216	20.832701
1773.497540	-3.011700	3.411400	-10.273000	26.055548	0.000216	20.863519
1774.496894	-2.990400	3.410400	-10.198000	26.072280	0.000219	20.849037
1775.498823	-3.035900	3.407800	-10.345000	26.046540	0.000217	20.831236
1776.496893	-2.981400	3.409200	-10.163000	26.066797	0.000215	20.823615
1777.497003	-2.993500	3.409600	-10.205000	26.089689	0.000217	20.821486
1778.497292	-2.992000	3.408500	-10.197000	26.113807	0.000215	20.822960
1779.499868	-2.990100	3.408800	-10.192000	26.067115	0.000214	20.825830
1780.499704	-2.979200	3.409400	-10.156000	26.079076	0.000215	20.816986
1781.499997	-2.986800	3.409200	-10.181000	26.009627	0.000215	20.835875
1782.500442	-2.993400	3.408200	-10.201000	26.053327	0.000213	20.823357
1783.505272	-2.981600	3.407200	-10.158000	26.075404	0.000213	20.817564
1784.502486	-3.008400	3.407900	-10.252000	26.068136	0.000212	20.820692
1785.502315	-3.014700	3.407500	-10.272000	26.089561	0.000213	20.818986
1786.504880	-2.987300	3.408500	-10.181000	26.077969	0.000214	20.822511
1787.501936	-3.015900	3.404900	-10.268000	26.047346	0.000214	20.820666
1788.502674	-2.997700	3.405700	-10.209000	26.010433	0.000212	20.814874
1789.504097	-3.007100	3.405100	-10.238000	26.006468	0.000211	20.852140
1790.500978	-3.007300	3.405500	-10.241000	26.033763	0.000210	20.818399
1791.502189	-3.015800	3.404700	-10.267000	26.017245	0.000209	20.822666
1792.504858	-2.992800	3.404900	-10.189000	26.074707	0.000211	20.822553
1793.503989	-2.987700	3.404400	-10.170000	26.061211	0.000211	20.821795
1794.502399	-2.976500	3.405100	-10.134000	26.069860	0.000210	20.824321
1795.501929	-2.992500	3.403300	-10.184000	26.084437	0.000210	20.818580
1796.505909	-2.999900	3.402200	-10.205000	26.099631	0.000211	20.807294
1797.501881	-3.000000	3.403400	-10.210000	26.094553	0.000210	20.823053
1798.504550	-2.999000	3.402800	-10.203000	26.096861	0.000209	20.805458
1799.504922	-3.015400	3.401300	-10.255000	26.088598	0.000210	20.822760
1800.503917	-3.017600	3.402400	-10.266000	26.098431	0.000209	20.817467
1801.505985	-3.002300	3.401300	-10.211000	26.079837	0.000209	20.822018
1802.508172	-2.990200	3.401600	-10.171000	26.063612	0.000208	20.809035
1803.505593	-3.016700	3.400400	-10.257000	26.111111	0.000209	20.793224
1804.507266	-2.997600	3.400300	-10.192000	26.123159	0.000209	20.807700
1805.504359	-3.011000	3.401200	-10.240000	26.128580	0.000207	20.814570
1806.505199	-3.006000	3.401100	-10.223000	26.142727	0.000205	20.790853
1807.504260	-2.985700	3.402100	-10.157000	26.112973	0.000207	20.793198
1808.505047	-2.983100	3.399600	-10.140000	26.136224	0.000205	20.798543
1809.505514	-3.010500	3.400500	-10.237000	26.138978	0.000205	20.807000
1810.505961	-2.994200	3.399500	-10.177000	26.104848	0.000203	20.817276
1811.506190	-3.012900	3.398900	-10.240000	26.067481	0.000206	20.826672
1812.509466	-3.012600	3.398900	-10.238000	26.083808	0.000205	20.798033
1813.507574	-3.008000	3.396800	-10.217000	26.041577	0.000204	20.805387
1814.507682	-2.993600	3.398300	-10.172000	26.031528	0.000204	20.803826
1815.516222	-3.009900	3.397500	-10.225000	26.071641	0.000204	20.809990
1816.510887	-2.983300	3.397800	-10.136000	26.018478	0.000205	20.821060
1817.512635	-3.015700	3.396200	-10.241000	26.001032	0.000204	20.799739
1818.514951	-3.019000	3.395500	-10.250000	26.057689	0.000203	20.805929
1819.511106	-3.005500	3.396000	-10.206000	26.103249	0.000203	20.827524
1820.512399	-3.020100	3.394900	-10.253000	26.097535	0.000202	20.814196
1821.514554	-2.988100	3.395000	-10.144000	26.080530	0.000202	20.795688
1822.511807	-2.967500	3.396700	-10.079000	26.028594	0.000202	20.801826
1823.512242	-2.963300	3.395600	-10.061000	25.992598	0.000203	20.810706
1824.511901	-2.966200	3.395700	-10.072000	25.996888	0.000203	20.792730
1825.512062	-2.983100	3.394100	-10.124000	25.963395	0.000201	20.788953
1826.512868	-2.978500	3.394100	-10.108000	25.999376	0.000201	20.799497
1827.512717	-3.014500	3.393100	-10.227000	25.982565	0.000201	20.802049
1828.514730	-2.999800	3.393100	-10.178000	25.981329	0.000199	20.808867
1829.512152	-2.989700	3.394600	-10.148000	26.006137	0.000200	20.808661
1830.512920	-3.013700	3.393600	-10.226000	26.076033	0.000200	20.807764
1831.514688	-3.019200	3.391500	-10.240000	26.141128	0.000199	20.803471
1832.513926	-3.040500	3.390400	-10.308000	26.176329	0.000198	20.827462
1833.517077	-3.013400	3.390800	-10.217000	26.181151	0.000200	20.829462
1834.516506	-2.993100	3.391700	-10.152000	26.166677	0.000201	20.803539
1835.514842	-3.009100	3.389300	-10.198000	26.139257	0.000201	20.802065
1836.514632	-2.999600	3.391800	-10.173000	26.139832	0.000197	20.809754
1837.516594	-2.980400	3.392200	-10.109000	26.135293	0.000200	20.821315
1838.515060	-2.989400	3.390800	-10.136000	26.141084	0.000198	20.792995
1839.515338	-3.003100	3.389500	-10.178000	26.136657	0.000199	20.798504
1840.517864	-3.019400	3.389000	-10.232000	26.190286	0.000198	20.838167
1841.516656	-3.006800	3.388600	-10.188000	26.190277	0.000198	20.797381
1842.516994	-2.994400	3.390500	-10.152000	26.211038	0.000196	20.803071
1843.521000	-3.012700	3.386900	-10.203000	26.247996	0.000194	20.834520
1844.518500	-2.993900	3.388100	-10.143000	26.192995	0.000195	20.806751
1845.517930	-2.986400	3.388600	-10.119000	26.200863	0.000197	20.819399
1846.518111	-2.988800	3.387800	-10.124000	26.156559	0.000196	20.804752
1847.520540	-2.987100	3.388800	-10.122000	26.128693	0.000194	20.796665
1848.518025	-2.988100	3.386500	-10.119000	26.131858	0.000196	20.817389
1849.517738	-2.984400	3.386700	-10.106000	26.159021	0.000195	20.818131
1850.520493	-2.982800	3.387600	-10.104000	26.170003	0.000194	20.788389
1851.533032	-2.989400	3.387100	-10.125000	26.152980	0.000193	20.802103
1852.517873	-2.978900	3.385600	-10.084000	26.172198	0.000193	20.805768
1853.533240	-3.026600	3.384400	-10.242000	26.200166	0.000193	20.816802
1854.518627	-3.019600	3.384400	-10.219000	26.198545	0.000195	20.809483
1855.519618	-2.997700	3.385700	-10.149000	26.172224	0.000192	20.808164
1856.522426	-3.008400	3.385200	-10.183000	26.163197	0.000192	20.804310
1857.519885	-3.000000	3.384800	-10.154000	26.171296	0.000192	20.811974
1858.520274	-2.980900	3.384700	-10.089000	26.171081	0.000192	20.806068
1859.521869	-3.012000	3.384000	-10.191000	26.201993	0.000190	20.827172
1860.524081	-2.989100	3.384400	-10.115000	26.236181	0.000190	20.798465
1861.521884	-2.965100	3.384600	-10.035000	26.186653	0.000192	20.806542
1862.523691	-2.986700	3.384100	-10.106000	26.163464	0.000189	20.813112
1863.526764	-2.993900	3.382600	-10.126000	26.132705	0.000190	20.820611
1864.525489	-2.990900	3.382400	-10.115000	26.182688	0.000191	20.817257
1865.525282	-3.000900	3.381500	-10.147000	26.209327	0.000190	20.816525
1866.526910	-2.995700	3.381700	-10.130000	26.260568	0.000189	20.794049
1867.524858	-3.020400	3.380300	-10.210000	26.265681	0.000189	20.825740
1868.525580	-2.997900	3.380800	-10.135000	26.216001	0.000188	20.836032
1869.526996	-3.014300	3.380500	-10.189000	26.206246	0.000189	20.819118
1870.525590	-3.007200	3.382000	-10.169000	26.227874	0.000189	20.823782
1871.525941	-3.001200	3.379000	-10.140000	26.228166	0.000188	20.825024
1872.527266	-2.985300	3.380500	-10.091000	26.230791	0.000186	20.824817
1873.526089	-2.999600	3.380100	-10.138000	26.179848	0.000187	20.808713
1874.526262	-3.008600	3.379500	-10.167000	26.093400	0.000187	20.816205
1875.526851	-3.013300	3.377500	-10.177000	26.130920	0.000189	20.819292
1876.526552	-2.972800	3.379400	-10.045000	26.130259	0.000188	20.811516
1877.527842	-2.992800	3.378000	-10.109000	26.117415	0.000186	20.813783
1878.527614	-3.006300	3.377600	-10.153000	26.146913	0.000186	20.814973
1879.528035	-3.015100	3.376400	-10.179000	26.183048	0.000187	20.820463
1880.527095	-3.003600	3.377300	-10.143000	26.194305	0.000183	20.833671
1881.527268	-3.000600	3.377000	-10.133000	26.171338	0.000185	20.840464
1882.527787	-2.995300	3.376000	-10.111000	26.176451	0.000186	20.824740
1883.529836	-3.001500	3.375600	-10.131000	26.151458	0.000187	20.824282
1884.529353	-3.000000	3.375900	-10.127000	26.187904	0.000185	20.820602
1885.529541	-3.003400	3.374700	-10.135000	26.162517	0.000184	20.859100
1886.530309	-2.998700	3.375400	-10.120000	26.176236	0.000181	20.849179
1887.530458	-3.011900	3.374400	-10.162000	26.150730	0.000185	20.811222
1888.531909	-3.013000	3.374400	-10.166000	26.144714	0.000183	20.820824
1889.530172	-2.988700	3.374200	-10.083000	26.115217	0.000184	20.829117
1890.531080	-3.016100	3.372900	-10.171000	26.165281	0.000180	20.830110
1891.533724	-3.010200	3.373800	-10.154000	26.172606	0.000182	20.840790
1892.533223	-2.996300	3.372600	-10.103000	26.206211	0.000182	20.844686
1893.532661	-3.009100	3.372800	-10.148000	26.209462	0.000181	20.835626
1894.535063	-3.001600	3.372400	-10.122000	26.214935	0.000181	20.837806
1895.535245	-3.004200	3.371900	-10.129000	26.217320	0.000179	20.848737
1896.536011	-2.997700	3.372000	-10.107000	26.183587	0.000179	20.851824
1897.539213	-2.981300	3.372700	-10.054000	26.201251	0.000181	20.825479
1898.534744	-3.001000	3.371600	-10.117000	26.195794	0.000181	20.838487
1899.535163	-2.998700	3.370600	-10.106000	26.178284	0.000181	20.850763
1900.538051	-2.995100	3.370800	-10.095000	26.223059	0.000181	20.840280
1901.536159	-3.002000	3.370100	-10.116000	26.243364	0.000178	20.835081
1902.536665	-3.017300	3.368600	-10.163000	26.281858	0.000180	20.829668
1903.537308	-3.000300	3.370200	-10.109000	26.311556	0.000179	20.848608
1904.535902	-3.016500	3.368400	-10.160000	26.330024	0.000178	20.853891
1905.535968	-2.990600	3.371100	-10.081000	26.338423	0.000178	20.837203
1906.538306	-3.013900	3.369200	-10.153000	26.313752	0.000176	20.849866
1907.535868	-3.002100	3.369700	-10.115000	26.330522	0.000177	20.844435
1908.536677	-2.998700	3.368500	-10.100000	26.334931	0.000177	20.844125
1909.536567	-3.008700	3.367900	-10.131000	26.347224	0.000177	20.837987
1910.537165	-2.994800	3.368500	-10.088000	26.299992	0.000176	20.839832
1911.537385	-2.991100	3.367800	-10.073000	26.296484	0.000175	20.838677
1912.537189	-3.010000	3.366900	-10.133000	26.340593	0.000177	20.851237
1913.538469	-3.009700	3.368000	-10.135000	26.339177	0.000177	20.861194
1914.538401	-2.998700	3.367300	-10.097000	26.302008	0.000176	20.842332
1915.537008	-3.010400	3.365800	-10.132000	26.267540	0.000174	20.838039
1916.539012	-2.993900	3.364900	-10.073000	26.213468	0.000175	20.870470
1917.540265	-2.992400	3.365800	-10.070000	26.227229	0.000176	20.851108
1918.538846	-3.010400	3.365900	-10.132000	26.273314	0.000174	20.871815
1919.539540	-3.004400	3.365300	-10.110000	26.344454	0.000175	20.873134
1920.543190	-3.015200	3.364300	-10.143000	26.359567	0.000177	20.845650
1921.539546	-3.021400	3.365600	-10.167000	26.370351	0.000176	20.867393
1922.542304	-3.010000	3.363300	-10.123000	26.393904	0.000173	20.861194
1923.543406	-3.003700	3.363600	-10.102000	26.435701	0.000172	20.851521
1924.541202	-3.005200	3.362500	-10.104000	26.422999	0.000171	20.860090
1925.542172	-2.998500	3.363100	-10.082000	26.423789	0.000173	20.854720
1926.541363	-3.005100	3.363700	-10.108000	26.436465	0.000170	20.861771
1927.540928	-2.988800	3.363200	-10.051000	26.434758	0.000172	20.862900
1928.542980	-2.992300	3.362300	-10.060000	26.413615	0.000173	20.864883
1929.542146	-3.014900	3.361500	-10.134000	26.388166	0.000171	20.867754
1930.542645	-2.998900	3.361800	-10.081000	26.372366	0.000169	20.866573
1931.540923	-2.981600	3.361400	-10.022000	26.396048	0.000172	20.864296
1932.540809	-2.992500	3.361100	-10.058000	26.397919	0.000171	20.841522
1933.542345	-2.994100	3.360700	-10.062000	26.374372	0.000170	20.867167
1934.541102	-3.008000	3.360300	-10.107000	26.362449	0.000168	20.876994
1935.542500	-2.986900	3.361200	-10.038000	26.356711	0.000170	20.875021
1936.544621	-2.994700	3.359600	-10.060000	26.358787	0.000168	20.867625
1937.542698	-3.013000	3.359400	-10.121000	26.385601	0.000169	20.881771
1938.542722	-3.010900	3.359500	-10.114000	26.413984	0.000170	20.879004
1939.545589	-2.998200	3.358200	-10.067000	26.457437	0.000168	20.891382
1940.543153	-3.022500	3.357500	-10.147000	26.446157	0.000167	20.884313
1941.544081	-3.011600	3.358600	-10.114000	26.469221	0.000169	20.879994
1942.548134	-3.003100	3.358600	-10.085000	26.464503	0.000167	20.873356
1943.546462	-2.997200	3.357800	-10.063000	26.479753	0.000168	20.868770
1944.546482	-3.010200	3.357800	-10.107000	26.499857	0.000167	20.868115
1945.552057	-3.018400	3.356600	-10.131000	26.545347	0.000167	20.867847
1946.547950	-3.015600	3.355900	-10.119000	26.490602	0.000165	20.857865
1947.547139	-2.989100	3.356400	-10.031000	26.471184	0.000169	20.878175
1948.547201	-3.017100	3.355500	-10.123000	26.484890	0.000166	20.860184
1949.546663	-2.993000	3.356500	-10.045000	26.462299	0.000166	20.887735
1950.546701	-2.993300	3.355400	-10.043000	26.439045	0.000165	20.870054
1951.545987	-2.991100	3.354700	-10.034000	26.431789	0.000164	20.875562
1952.548196	-2.987000	3.353700	-10.016000	26.425493	0.000164	20.891044
1953.546983	-3.013300	3.353900	-10.105000	26.454680	0.000166	20.870121
1954.548355	-2.991800	3.354700	-10.035000	26.451593	0.000164	20.890250
1955.550364	-2.994700	3.353700	-10.042000	26.440717	0.000165	20.882165
1956.548493	-3.004800	3.351700	-10.070000	26.389193	0.000165	20.874950
1957.547369	-3.004800	3.352800	-10.073000	26.380383	0.000165	20.878897
1958.553151	-2.999200	3.352600	-10.054000	26.382578	0.000164	20.880629
1959.548785	-3.000100	3.351700	-10.054000	26.397675	0.000162	20.889164
1960.549314	-3.042400	3.350700	-10.193000	26.367876	0.000162	20.899043
1961.553262	-2.997100	3.352600	-10.047000	26.339826	0.000163	20.907360
1962.551617	-2.981700	3.351300	-9.991100	26.336446	0.000161	20.879310
1963.553445	-2.991400	3.352100	-10.027000	26.371676	0.000160	20.887690
1964.550114	-2.985000	3.351900	-10.006000	26.395188	0.000161	20.909895
1965.551214	-2.996500	3.350500	-10.039000	26.384963	0.000161	20.891086
1966.550304	-2.963600	3.352300	-9.933600	26.438134	0.000160	20.889051
1967.551322	-2.992600	3.349800	-10.024000	26.428888	0.000162	20.880707
1968.552951	-3.001100	3.349400	-10.051000	26.356656	0.000161	20.884448
1969.550252	-2.988500	3.349300	-10.008000	26.406982	0.000159	20.894250
1970.552553	-2.964600	3.349700	-9.929100	26.414925	0.000159	20.891328
1971.553429	-3.010900	3.347800	-10.079000	26.372517	0.000161	20.887586
1972.551118	-3.016200	3.348900	-10.100000	26.375640	0.000159	20.911111
1973.552183	-3.017200	3.347500	-10.099000	26.407033	0.000159	20.920377
1974.553129	-3.014500	3.348400	-10.093000	26.438230	0.000157	20.918542
1975.551582	-3.018700	3.346900	-10.102000	26.466971	0.000159	20.909499
1976.552325	-3.002900	3.347600	-10.052000	26.482006	0.000158	20.906593
1977.556423	-2.982300	3.348100	-9.983700	26.477744	0.000156	20.920326
1978.551218	-2.972600	3.347900	-9.951200	26.496183	0.000158	20.917523
1979.551707	-3.019600	3.347000	-10.105000	26.506519	0.000157	20.903258
1980.551883	-2.988500	3.345900	-9.998400	26.545799	0.000158	20.906706
1981.550540	-3.043500	3.344300	-10.177000	26.546820	0.000156	20.921006
1982.552860	-2.996200	3.345700	-10.024000	26.538037	0.000155	20.906964
1983.556012	-3.006700	3.344600	-10.055000	26.530207	0.000157	20.890086
1984.551879	-3.030800	3.344100	-10.134000	26.492290	0.000153	20.906499
1985.552068	-3.006600	3.345100	-10.056000	26.496526	0.000154	20.923083
1986.553576	-2.988600	3.345300	-9.996800	26.494039	0.000158	20.922006
1987.554070	-3.013300	3.344800	-10.078000	26.474930	0.000155	20.928402
1988.552622	-3.012700	3.342900	-10.070000	26.516467	0.000155	20.908989
1989.554096	-2.988600	3.343300	-9.990600	26.523312	0.000156	20.915395
1990.558453	-3.010300	3.343700	-10.065000	26.482631	0.000154	20.933298
1991.553832	-3.003400	3.342100	-10.037000	26.478386	0.000153	20.920971
1992.557508	-2.997000	3.343500	-10.019000	26.462587	0.000154	20.945392
1993.557415	-3.019100	3.342400	-10.090000	26.447963	0.000155	20.926428
1994.556817	-2.995700	3.341000	-10.008000	26.482564	0.000152	20.928489
1995.556378	-2.989800	3.341300	-9.988600	26.487615	0.000153	20.925980
1996.555068	-3.021400	3.340600	-10.093000	26.484810	0.000153	20.903248
1997.557275	-3.005800	3.341400	-10.043000	26.553106	0.000151	20.934436
1998.558071	-3.006300	3.340500	-10.042000	26.564006	0.000153	20.941599
1999.558662	-3.003000	3.340200	-10.030000	26.513903	0.000149	20.932014
2000.557665	-3.015600	3.339100	-10.068000	26.522137	0.000151	20.927489
2001.558292	-2.986600	3.339400	-9.972100	26.537909	0.000151	20.929592
2002.564891	-2.979300	3.339000	-9.946900	26.494854	0.000149	20.916662
2003.560905	-3.018700	3.337800	-10.075000	26.498500	0.000149	20.925541
2004.559553	-3.008300	3.337900	-10.040000	26.555577	0.000149	20.897095
2005.563126	-3.013500	3.337600	-10.057000	26.523886	0.000149	20.925454
2006.564111	-2.993700	3.337700	-9.991000	26.516441	0.000150	20.944995
2007.560040	-2.990400	3.337900	-9.980300	26.516923	0.000149	20.938367
2008.560404	-2.983000	3.337200	-9.954500	26.520276	0.000148	20.941264
2009.560969	-2.991800	3.337300	-9.984200	26.533776	0.000147	20.928282
2010.559155	-3.000900	3.336300	-10.011000	26.561468	0.000149	20.936203
2011.560859	-2.975500	3.337100	-9.928900	26.536340	0.000147	20.929437
2012.561591	-2.995600	3.335800	-9.992000	26.527772	0.000147	20.936471
2013.560089	-2.991200	3.335600	-9.975700	26.547901	0.000148	20.930153
2014.564830	-3.005500	3.334100	-10.020000	26.577300	0.000146	20.937893
2015.561590	-3.040600	3.333800	-10.136000	26.548854	0.000145	20.947230
2016.561407	-2.996200	3.334900	-9.991000	26.543158	0.000145	20.947669
2017.562401	-2.997500	3.333800	-9.992500	26.525301	0.000146	20.948211
2018.564153	-2.993000	3.333000	-9.974500	26.499546	0.000144	20.943186
2019.566799	-3.022200	3.333600	-10.074000	26.480189	0.000145	20.947436
2020.566817	-3.007900	3.333800	-10.026000	26.501828	0.000142	20.927463
2021.564513	-2.996200	3.334200	-9.989100	26.538964	0.000144	20.946772
2022.565696	-2.999500	3.332400	-9.994400	26.582806	0.000145	20.951961
2023.563271	-3.017700	3.333300	-10.057000	26.534068	0.000143	20.963659
2024.565759	-3.002400	3.332200	-10.003000	26.500043	0.000145	20.974975
2025.563519	-3.016100	3.331500	-10.046000	26.495756	0.000142	20.944592
2026.564476	-3.006400	3.330500	-10.012000	26.546194	0.000142	20.952616
2027.564001	-3.010500	3.331100	-10.027000	26.616998	0.000143	20.965468
2028.567680	-3.020100	3.330600	-10.057000	26.603422	0.000142	20.939970
2029.565417	-3.038900	3.330300	-10.119000	26.567805	0.000142	20.960588
2030.565345	-3.003000	3.330200	-9.999600	26.617255	0.000141	20.940125
2031.568191	-3.011700	3.329900	-10.028000	26.665836	0.000141	20.966200
2032.567538	-3.013600	3.329600	-10.032000	26.604725	0.000139	20.979681
2033.567086	-3.010300	3.328800	-10.020000	26.601398	0.000140	20.960218
2034.567878	-2.983600	3.329900	-9.934100	26.602649	0.000140	20.962898
2035.567545	-3.022600	3.328600	-10.060000	26.582341	0.000140	20.970457
2036.567745	-2.984500	3.330200	-9.937400	26.605367	0.000139	20.983644
2037.568056	-3.019800	3.328300	-10.050000	26.620014	0.000140	20.962337
2038.567075	-3.000200	3.326900	-9.980400	26.621988	0.000139	20.973327
2039.567169	-3.008900	3.327600	-10.011000	26.606901	0.000138	20.979023
2040.569275	-3.031000	3.326000	-10.080000	26.599758	0.000139	20.983222
2041.569720	-3.009800	3.326600	-10.011000	26.620399	0.000138	20.970309
2042.567234	-3.000900	3.326300	-9.980800	26.674666	0.000136	20.950897
2043.567519	-2.990800	3.325100	-9.943900	26.728114	0.000138	20.979497
2044.570540	-3.014600	3.325700	-10.025000	26.728878	0.000137	20.965094
2045.568117	-3.020500	3.325100	-10.042000	26.710192	0.000136	20.968119
2046.568439	-3.005700	3.325300	-9.993700	26.743479	0.000140	20.981194
2047.577903	-3.009100	3.325000	-10.004000	26.710106	0.000135	20.983203
2048.568805	-3.010300	3.323700	-10.004000	26.672641	0.000136	20.954077
2049.568159	-2.995600	3.323700	-9.955200	26.677476	0.000135	20.969841
2050.568650	-3.024000	3.322400	-10.046000	26.645276	0.000133	20.971135
2051.568830	-3.006200	3.322900	-9.987000	26.660359	0.000134	20.996251
2052.569736	-3.007100	3.322100	-9.989200	26.691436	0.000137	20.977236
2053.568639	-3.021700	3.322900	-10.040000	26.694815	0.000135	20.970677
2054.569508	-3.001400	3.321900	-9.969500	26.702095	0.000134	20.976098
2055.569319	-2.987200	3.321500	-9.921100	26.764656	0.000136	20.994423
2056.570565	-2.995400	3.323100	-9.952600	26.721749	0.000134	20.980684
2057.570010	-3.011600	3.321400	-10.002000	26.693759	0.000132	20.981468
2058.569757	-3.002400	3.320900	-9.970100	26.675888	0.000134	20.968245
2059.573748	-2.973900	3.322800	-9.880700	26.682379	0.000133	20.968132
2060.571939	-2.977200	3.321800	-9.889200	26.698630	0.000132	20.959815
2061.572063	-3.008900	3.321000	-9.991800	26.734043	0.000131	20.987828
2062.571538	-2.995300	3.321100	-9.946400	26.737653	0.000133	20.968700
2063.576314	-3.003400	3.320400	-9.970800	26.755446	0.000131	20.969519
2064.573485	-2.992700	3.319300	-9.933100	26.841429	0.000130	20.960666
2065.573536	-2.987500	3.318600	-9.912500	26.820157	0.000131	20.959667
2066.576044	-3.015400	3.317700	-10.003000	26.798454	0.000131	20.977198
2067.572873	-3.001900	3.319200	-9.962400	26.783046	0.000130	20.972612
2068.573461	-3.009000	3.317200	-9.979900	26.740190	0.000132	20.965088
2069.577495	-2.987300	3.318200	-9.910600	26.740130	0.000131	20.965027
2070.575131	-3.001800	3.317000	-9.956100	26.755504	0.000129	20.957251
2071.574741	-3.003200	3.315700	-9.956800	26.771718	0.000129	20.947002
2072.579933	-3.000800	3.316600	-9.952300	26.756601	0.000128	20.960251
2073.576421	-3.002000	3.316200	-9.954000	26.756909	0.000127	20.946337
2074.577354	-2.996900	3.316600	-9.938900	26.739142	0.000128	20.956922
2075.578861	-3.009700	3.315300	-9.977300	26.706856	0.000128	20.933950
2076.578303	-2.985900	3.315600	-9.899400	26.752895	0.000130	20.968378
2077.577810	-3.004000	3.315900	-9.960300	26.755725	0.000127	20.946096
2078.579065	-3.019200	3.313800	-10.004000	26.815197	0.000126	20.972696
2079.580938	-2.997200	3.314500	-9.933100	26.808140	0.000125	20.942845
2080.579451	-3.000000	3.314800	-9.943700	26.831831	0.000124	20.939639
2081.580236	-3.012600	3.314400	-9.983900	26.794695	0.000124	20.954455
2082.580988	-2.980000	3.313800	-9.873700	26.759273	0.000124	20.940181
2083.581010	-2.989500	3.313400	-9.904600	26.738256	0.000126	20.934698
2084.581907	-3.006300	3.313400	-9.960200	26.772238	0.000126	20.948947
2085.580439	-2.998700	3.311100	-9.927300	26.800165	0.000127	20.943361
2086.580274	-3.000200	3.312000	-9.936200	26.828864	0.000126	20.922433
2087.580944	-2.990200	3.311100	-9.899500	26.872787	0.000128	20.948102
2088.581492	-2.981600	3.311900	-9.874600	26.864196	0.000125	20.959377
2089.579676	-2.987800	3.310000	-9.888900	26.843627	0.000123	20.938223
2090.580212	-2.992100	3.310700	-9.903800	26.847416	0.000126	20.924491
2091.579660	-3.014000	3.310100	-9.975800	26.836836	0.000124	20.926655
2092.580091	-2.975900	3.310300	-9.849700	26.862060	0.000123	20.934473
2093.580964	-3.003000	3.309500	-9.937200	26.866458	0.000123	20.933205
2094.581805	-2.969300	3.310100	-9.827800	26.910681	0.000121	20.930731
2095.580203	-2.986100	3.309800	-9.882600	26.918611	0.000124	20.936334
2096.582633	-2.986500	3.309400	-9.882400	26.909626	0.000121	20.925878
2097.582129	-3.026000	3.307800	-10.008000	26.911650	0.000122	20.935972
2098.582240	-2.995300	3.308800	-9.908800	26.850313	0.000122	20.920766
2099.582793	-3.001900	3.308000	-9.929700	26.840949	0.000122	20.943590
2100.583309	-2.986100	3.308400	-9.878800	26.844577	0.000122	20.937756
2101.585749	-2.991800	3.306900	-9.893500	26.846745	0.000122	20.940410
2102.583441	-3.004500	3.306500	-9.933000	26.824023	0.000121	20.921359
2103.588480	-3.017600	3.307000	-9.977900	26.810424	0.000118	20.935186
2104.584394	-3.004000	3.307700	-9.934200	26.812731	0.000121	20.923282
2105.583548	-3.018100	3.306100	-9.977600	26.841943	0.000120	20.903343
2106.583892	-2.991500	3.305900	-9.888700	26.895152	0.000119	20.930764
2107.582313	-2.978200	3.306600	-9.846900	26.870228	0.000119	20.900015
2108.584445	-3.001600	3.305000	-9.919100	26.900330	0.000118	20.901834
2109.583964	-2.999300	3.303800	-9.908200	26.934752	0.000119	20.913687
2110.584687	-3.012700	3.304800	-9.955100	26.972448	0.000118	20.910816
2111.585511	-3.011500	3.303600	-9.947700	27.044962	0.000120	20.916409
2112.583907	-3.003500	3.303800	-9.922300	27.041826	0.000119	20.922263
2113.583918	-2.999700	3.302800	-9.906800	27.012465	0.000118	20.923082
2114.585128	-3.002600	3.302900	-9.916500	26.971752	0.000118	20.912487
2115.583858	-2.991400	3.303100	-9.880400	26.924779	0.000117	20.925469
2116.584620	-3.003400	3.303600	-9.921300	26.948228	0.000117	20.913487
2117.584240	-2.996200	3.302000	-9.893400	26.918383	0.000115	20.921408
2118.583892	-3.003200	3.302100	-9.916200	26.969257	0.000117	20.910452
2119.584084	-3.005100	3.300700	-9.918500	26.976467	0.000117	20.903479
2120.586149	-2.992700	3.300100	-9.875300	26.970354	0.000113	20.939527
2121.586159	-2.984800	3.300000	-9.848900	26.960786	0.000114	20.916632
2122.584189	-2.997100	3.300000	-9.889800	26.970646	0.000114	20.905211
2123.587862	-3.011100	3.298500	-9.931500	26.996123	0.000114	20.926562
2124.585248	-2.974400	3.299700	-9.814200	27.024602	0.000113	20.923908
2125.587252	-2.986800	3.299000	-9.852000	26.983101	0.000112	20.912046
2126.584536	-3.005700	3.298400	-9.913300	26.965132	0.000114	20.917683
2127.586251	-2.987700	3.298300	-9.854000	26.976612	0.000114	20.920692
2128.588994	-3.009900	3.298000	-9.925900	26.965081	0.000113	20.907201
2129.586401	-3.007700	3.297400	-9.916100	26.915493	0.000112	20.901435
2130.588690	-2.981900	3.298000	-9.833300	26.889712	0.000112	20.912968
2131.590773	-2.989500	3.297900	-9.858000	26.940751	0.000111	20.908814
2132.587194	-3.022300	3.296800	-9.963100	27.004087	0.000113	20.906598
2133.587807	-2.978100	3.297500	-9.819700	26.987739	0.000112	20.910546
2134.589531	-2.986800	3.295100	-9.840700	26.983316	0.000111	20.911788
2135.588792	-3.003500	3.296000	-9.899200	26.989763	0.000112	20.912107
2136.589002	-2.997800	3.296000	-9.880100	27.032172	0.000108	20.902599
2137.588861	-3.009300	3.294900	-9.914000	27.026908	0.000111	20.909633
2138.588893	-2.982000	3.295100	-9.825200	27.010483	0.000110	20.905443
2139.588758	-2.989700	3.294300	-9.848200	27.058943	0.000110	20.904392
2140.588413	-3.003500	3.292600	-9.888700	27.069813	0.000112	20.907262
2141.589232	-2.989000	3.292900	-9.841900	27.087000	0.000109	20.920753
2142.590466	-2.992100	3.293800	-9.855000	27.100827	0.000109	20.913323
2143.590426	-2.982400	3.292600	-9.819300	27.060162	0.000109	20.889023
2144.590070	-2.990800	3.293100	-9.848200	27.045742	0.000108	20.911978
2145.591219	-2.999300	3.291600	-9.871000	27.086083	0.000110	20.904660
2146.590328	-2.988700	3.291300	-9.835200	27.073902	0.000109	20.908056
2147.598800	-2.999700	3.290600	-9.870300	27.038516	0.000106	20.910875
2148.589160	-3.004200	3.291300	-9.886400	27.037384	0.000104	20.895513
2149.590674	-3.014000	3.290100	-9.914600	27.032130	0.000107	20.899712
2150.595741	-2.976900	3.290200	-9.793600	27.000694	0.000105	20.903660
2151.589843	-3.004200	3.290000	-9.883100	26.997967	0.000107	20.894755
2152.593313	-2.994400	3.289600	-9.849900	26.948151	0.000106	20.915306
2153.594634	-3.023800	3.288300	-9.942600	26.972224	0.000104	20.890678
2154.591093	-3.006400	3.288500	-9.885500	26.970886	0.000106	20.900712
2155.591161	-3.007200	3.288900	-9.889700	27.019666	0.000106	20.911358
2156.596543	-3.013300	3.288300	-9.908000	27.028512	0.000106	20.909349
2157.594172	-2.991100	3.288200	-9.834100	27.062125	0.000103	20.889575
2158.593369	-3.017900	3.287500	-9.920300	27.063677	0.000104	20.909152
2159.593594	-3.023200	3.285700	-9.933200	27.054350	0.000104	20.894558
2160.593758	-2.992500	3.287200	-9.835800	27.081224	0.000104	20.889343
2161.594315	-2.996600	3.286100	-9.846500	27.104608	0.000102	20.889627
2162.593394	-3.012300	3.285800	-9.897200	27.135784	0.000102	20.876887
2163.597640	-2.987200	3.285400	-9.813300	27.153724	0.000101	20.893032
2164.597012	-2.988900	3.285300	-9.817900	27.128918	9.988182E-5	20.899376
2165.595420	-3.003500	3.285000	-9.865500	27.149456	0.000101	20.889688
2166.596677	-2.985400	3.284800	-9.805600	27.112263	0.000101	20.904437
2167.598228	-3.006500	3.283900	-9.871300	27.066326	0.000101	20.878154
2168.600170	-2.986500	3.284600	-9.808500	27.042204	0.000101	20.908894
2169.600302	-2.990200	3.282900	-9.816100	27.046739	9.951880E-5	20.900179
2170.598037	-2.989700	3.281700	-9.809900	27.096577	9.951880E-5	20.890084
2171.597304	-2.984200	3.283200	-9.797100	27.094803	0.000101	20.895412
2172.599014	-3.000000	3.282900	-9.847900	27.090012	9.938679E-5	20.886801
2173.597321	-3.014700	3.282100	-9.893700	27.127523	9.955180E-5	20.894180
2174.598958	-3.019500	3.281600	-9.907500	27.173611	9.918877E-5	20.882215
2175.598658	-3.001800	3.281700	-9.850400	27.185114	9.908977E-5	20.876241
2176.597419	-3.000000	3.280700	-9.842000	27.209310	9.786868E-5	20.874974
2177.598269	-3.007500	3.281200	-9.868100	27.195562	9.684560E-5	20.887223
2178.597679	-3.002300	3.278800	-9.842600	27.205728	9.922178E-5	20.890336
2179.600160	-3.003800	3.278900	-9.848800	27.164561	9.674659E-5	20.902034
2180.597950	-3.005600	3.278900	-9.854300	27.185499	9.902376E-5	20.890378
2181.598561	-3.005900	3.277600	-9.851100	27.191457	9.681260E-5	20.874087
2182.599634	-2.995700	3.278600	-9.820700	27.196720	9.628456E-5	20.864208
2183.598025	-3.009000	3.277700	-9.862000	27.190017	9.727463E-5	20.864104
2184.598265	-3.000200	3.279200	-9.838100	27.151592	9.578952E-5	20.876190
2185.598915	-3.006000	3.277000	-9.849400	27.160369	9.664759E-5	20.890707
2186.598331	-3.001000	3.276900	-9.833600	27.163669	9.710962E-5	20.893077
2187.599085	-3.003600	3.278100	-9.844800	27.215576	9.592153E-5	20.895974
2188.602930	-2.980900	3.276500	-9.766400	27.202960	9.638357E-5	20.877122
2189.599006	-2.967200	3.276400	-9.720600	27.166078	9.519548E-5	20.901663
2190.601207	-2.974600	3.276500	-9.745500	27.164355	9.585553E-5	20.877647
2191.601377	-3.025300	3.274400	-9.904800	27.155834	9.512948E-5	20.878560
2192.600205	-3.017500	3.273900	-9.877800	27.195126	9.308333E-5	20.875406
2193.600325	-2.998000	3.274000	-9.814900	27.222381	9.219226E-5	20.881482
2194.600249	-3.000500	3.272900	-9.819700	27.246397	9.202725E-5	20.893784
2195.600729	-2.985800	3.273600	-9.773400	27.256219	9.268730E-5	20.871897
2196.600855	-3.001200	3.271700	-9.818100	27.254763	9.252229E-5	20.878967
2197.600807	-2.999000	3.273200	-9.815000	27.199343	9.202725E-5	20.857363
2198.603978	-2.997100	3.271400	-9.803400	27.191929	9.083916E-5	20.853225
2199.601389	-2.988900	3.273000	-9.781300	27.197560	9.050914E-5	20.859837
2200.601314	-2.988200	3.272500	-9.778000	27.232383	9.351236E-5	20.881586
2201.604241	-2.983500	3.271000	-9.758400	27.224405	9.133420E-5	20.871664
2202.602524	-2.984000	3.271300	-9.760300	27.232341	8.968408E-5	20.876802
2203.601656	-2.994700	3.270200	-9.792600	27.248103	9.090517E-5	20.886965
2204.608309	-2.979900	3.271500	-9.747900	27.218010	9.314933E-5	20.875190
2205.602984	-2.963500	3.271200	-9.692800	27.189992	9.232427E-5	20.884940
2206.602160	-2.981400	3.270400	-9.749300	27.216914	8.856200E-5	20.883569
2207.604598	-3.010800	3.268000	-9.838100	27.189152	8.839698E-5	20.875561
2208.602780	-2.995600	3.268900	-9.791100	27.193737	9.011311E-5	20.856467
2209.603952	-2.988200	3.268500	-9.766600	27.212860	8.991510E-5	20.879018
2210.604773	-2.985000	3.268000	-9.754300	27.186743	9.083916E-5	20.848958
2211.605280	-2.965900	3.267900	-9.691100	27.180230	8.961807E-5	20.859950
2212.605501	-2.997500	3.265800	-9.788700	27.271047	8.872701E-5	20.874009
2213.605185	-2.976300	3.267200	-9.723300	27.287888	9.044313E-5	20.863450
2214.606004	-2.971700	3.267500	-9.709600	27.288247	8.955207E-5	20.878983
2215.605612	-3.011000	3.265600	-9.831500	27.279711	8.786895E-5	20.862337
2216.605222	-2.988800	3.265400	-9.758300	27.285249	8.783594E-5	20.860795
2217.605088	-3.000900	3.264900	-9.795900	27.308346	8.776994E-5	20.877389
2218.604429	-2.994100	3.265200	-9.776000	27.293160	8.760493E-5	20.859743
2219.607544	-2.991500	3.264600	-9.764900	27.278855	8.826497E-5	20.860053
2220.604850	-2.968400	3.263300	-9.685900	27.253820	8.839698E-5	20.854786
2221.605761	-2.990000	3.264900	-9.761300	27.286749	8.776994E-5	20.860882
2222.605463	-2.973400	3.263900	-9.704000	27.277261	8.578979E-5	20.886423
2223.607189	-3.021300	3.261200	-9.852100	27.268314	8.592180E-5	20.874580
2224.607713	-2.993900	3.261600	-9.763900	27.284418	8.618582E-5	20.858063
2225.607949	-3.008900	3.261200	-9.812300	27.278900	8.638384E-5	20.865788
2226.611801	-2.969300	3.262900	-9.686900	27.270809	8.717590E-5	20.849590
2227.617459	-3.001100	3.261400	-9.786400	27.302622	8.578979E-5	20.856460
2228.608364	-3.001200	3.262200	-9.790000	27.284556	8.562478E-5	20.850141
2229.611168	-3.013400	3.261400	-9.827800	27.305803	8.608682E-5	20.858711
2230.611866	-2.989400	3.259900	-9.744700	27.278883	8.334762E-5	20.863875
2231.609008	-3.035300	3.258600	-9.889300	27.294439	8.361163E-5	20.822151
2232.609742	-3.016500	3.257800	-9.826400	27.272310	8.285258E-5	20.858211
2233.610069	-3.013100	3.257900	-9.815200	27.334488	8.433769E-5	20.862436
2234.614877	-2.996300	3.258900	-9.764000	27.409944	8.592180E-5	20.873857
2235.611599	-2.960700	3.258100	-9.645500	27.439277	8.156549E-5	20.852634
2236.610509	-2.965500	3.257200	-9.658500	27.398872	8.199452E-5	20.845652
2237.614398	-3.002100	3.257000	-9.776900	27.429749	8.281958E-5	20.854902
2238.613195	-3.019500	3.255500	-9.828600	27.403570	8.374364E-5	20.832359
2239.616438	-2.993000	3.256200	-9.744600	27.396080	8.344662E-5	20.841894
2240.611985	-2.991200	3.255800	-9.737800	27.417658	8.354563E-5	20.849851
2241.615694	-2.995900	3.256100	-9.753800	27.435516	8.192851E-5	20.849325
2242.611771	-2.992100	3.254500	-9.736200	27.411960	8.229154E-5	20.865929
2243.612327	-2.996300	3.255000	-9.752200	27.425619	8.110345E-5	20.833679
2244.615491	-3.014800	3.254100	-9.809300	27.413390	8.130147E-5	20.852196
2245.611717	-2.984600	3.254800	-9.712900	27.464634	8.123546E-5	20.853489
2246.612020	-3.004300	3.253200	-9.772900	27.471268	7.915631E-5	20.851628
2247.614773	-3.007300	3.253400	-9.783400	27.447857	8.153248E-5	20.849886
2248.613842	-2.994100	3.252800	-9.737800	27.491969	8.041040E-5	20.842110
2249.613369	-2.983900	3.251800	-9.702400	27.508387	7.991536E-5	20.838239
2250.613684	-3.015700	3.251600	-9.805200	27.545627	7.859527E-5	20.836352
2251.616170	-2.998400	3.252000	-9.750300	27.535018	7.942033E-5	20.836585
2252.614928	-3.009600	3.252200	-9.786800	27.534727	8.090544E-5	20.852886
2253.614939	-2.993400	3.252000	-9.732700	27.509810	7.836425E-5	20.843939
2254.618440	-3.023000	3.250500	-9.825200	27.548127	7.978335E-5	20.837446
2255.614890	-2.993700	3.250100	-9.729000	27.572119	7.945333E-5	20.842145
2256.617877	-2.993000	3.249500	-9.725000	27.512362	7.958534E-5	20.831334
2257.617873	-3.004100	3.248900	-9.758300	27.518704	7.938733E-5	20.825860
2258.615944	-2.964300	3.249900	-9.632300	27.513674	7.994837E-5	20.841187
2259.618922	-2.981600	3.248700	-9.685900	27.498448	7.740718E-5	20.820654
2260.616840	-2.999400	3.248200	-9.742000	27.498971	7.955234E-5	20.837301
2261.619959	-2.999900	3.247200	-9.740900	27.521653	7.697815E-5	20.833569
2262.617427	-2.999100	3.246900	-9.737400	27.521781	7.796822E-5	20.848870
2263.618307	-3.012500	3.246400	-9.779400	27.532088	7.724217E-5	20.821783
2264.619479	-2.996300	3.245100	-9.722200	27.499186	7.770420E-5	20.826137
2265.618910	-2.964100	3.247600	-9.625100	27.478731	7.694515E-5	20.810300
2266.618449	-3.016800	3.245600	-9.790300	27.470694	7.717616E-5	20.824025
2267.620708	-2.998900	3.246900	-9.735300	27.444926	7.681314E-5	20.830818
2268.619836	-3.000000	3.244100	-9.731200	27.358264	7.618609E-5	20.816655
2269.627483	-3.006600	3.243500	-9.751100	27.386047	7.565805E-5	20.828008
2270.624856	-2.987000	3.245400	-9.692600	27.390007	7.579006E-5	20.809707
2271.619699	-2.990400	3.244100	-9.700800	27.394685	7.536103E-5	20.829111
2272.619535	-3.012800	3.241300	-9.764200	27.452502	7.757219E-5	20.799559
2273.624854	-2.998800	3.241900	-9.721000	27.441954	7.509701E-5	20.832095
2274.621832	-3.002800	3.241700	-9.733200	27.429665	7.628510E-5	20.816887
2275.622971	-3.003900	3.241700	-9.737000	27.462374	7.331488E-5	20.838888
2276.627332	-2.982800	3.241200	-9.666000	27.464602	7.443696E-5	20.831646
2277.623128	-2.992300	3.240600	-9.696200	27.498105	7.404093E-5	20.809878
2278.621301	-3.000100	3.239600	-9.717700	27.495364	7.390893E-5	20.836991
2279.623678	-3.010300	3.240400	-9.754000	27.515235	7.285285E-5	20.818103
2280.625058	-2.990100	3.239800	-9.686200	27.563243	7.255583E-5	20.841749
2281.623059	-2.981000	3.240800	-9.659400	27.599067	7.285285E-5	20.821844
2282.623354	-2.999700	3.238700	-9.714600	27.603898	7.394193E-5	20.819119
2283.624657	-2.983700	3.237600	-9.659300	27.661018	7.047667E-5	20.809739
2284.623840	-3.009600	3.238200	-9.744700	27.679145	7.305086E-5	20.833195
2285.623168	-3.006300	3.236500	-9.728900	27.682094	7.278684E-5	20.811033
2286.623995	-3.016000	3.235900	-9.758600	27.668035	7.272084E-5	20.819645
2287.623338	-3.015300	3.236200	-9.757000	27.648946	7.163176E-5	20.829834
2288.625849	-2.986200	3.235800	-9.662100	27.600083	7.311687E-5	20.811488
2289.623885	-2.980400	3.236400	-9.644900	27.610787	7.014665E-5	20.808507
2290.623342	-2.986400	3.235400	-9.660600	27.625247	6.922258E-5	20.822109
2291.625885	-2.982800	3.233800	-9.644900	27.595928	7.199478E-5	20.829592
2292.625239	-3.009400	3.234100	-9.731900	27.562470	7.034466E-5	20.803988
2293.624888	-2.989300	3.233500	-9.665000	27.590222	6.730844E-5	20.830963
2294.623796	-2.998200	3.233500	-9.693800	27.565160	6.869454E-5	20.828505
2295.625098	-2.991200	3.233000	-9.669800	27.528847	6.978362E-5	20.821841
2296.623537	-2.988600	3.232700	-9.660000	27.489988	7.037767E-5	20.813565
2297.624205	-2.990900	3.232200	-9.665800	27.458985	6.948660E-5	20.809875
2298.623682	-2.980300	3.232400	-9.632700	27.449559	6.918958E-5	20.820306
2299.625266	-2.985700	3.231200	-9.646300	27.535641	7.027866E-5	20.818719
2300.624857	-2.989800	3.230400	-9.657200	27.539222	6.889256E-5	20.829908
2301.629969	-3.032400	3.230900	-9.796000	27.569408	6.707742E-5	20.821400
2302.625025	-3.014000	3.229200	-9.732300	27.602815	6.625236E-5	20.833202
2303.625141	-3.011400	3.229300	-9.724200	27.662454	6.846353E-5	20.818771
2304.629501	-3.000600	3.230300	-9.691300	27.712109	6.849653E-5	20.813736
2305.629741	-2.990200	3.229300	-9.655800	27.670327	6.598835E-5	20.830486
2306.626534	-3.028500	3.227400	-9.772700	27.695480	6.763847E-5	20.835882
2307.628143	-3.014000	3.227800	-9.727000	27.685191	6.674740E-5	20.825528
2308.628877	-3.014600	3.226500	-9.726100	27.696387	6.707742E-5	20.814984
2309.626155	-3.049500	3.225100	-9.833900	27.682415	6.585634E-5	20.823209
2310.630769	-2.981900	3.226900	-9.621400	27.656233	6.849653E-5	20.831002
2311.629193	-3.008900	3.226800	-9.707800	27.613188	6.780348E-5	20.819458
2312.626972	-3.004100	3.225900	-9.689600	27.673683	6.687941E-5	20.818216
2313.630546	-2.991700	3.226600	-9.652400	27.702718	6.552631E-5	20.826570
2314.631778	-3.012300	3.224300	-9.711100	27.730569	6.414021E-5	20.824251
2315.627176	-3.008000	3.223700	-9.696000	27.706119	6.466825E-5	20.824777
2316.628485	-2.988300	3.224600	-9.634600	27.672475	6.351316E-5	20.827906
2317.630194	-2.984100	3.224300	-9.621000	27.675953	6.423922E-5	20.824293
2318.626509	-2.987800	3.224100	-9.632100	27.635301	6.674740E-5	20.803302
2319.628904	-3.006800	3.222200	-9.686800	27.694689	6.351316E-5	20.816594
2320.632277	-2.976300	3.221800	-9.587900	27.716937	6.262210E-5	20.829025
2321.626308	-2.974400	3.223000	-9.585700	27.697910	6.344716E-5	20.817939
2322.626324	-2.994800	3.221700	-9.647900	27.689583	6.334815E-5	20.803870
2323.631181	-2.997300	3.220900	-9.653600	27.737377	6.466825E-5	20.826361
2324.626901	-3.012600	3.220000	-9.699900	27.741945	6.354617E-5	20.812940
2325.626831	-3.005200	3.219600	-9.675100	27.728246	6.447023E-5	20.811482
2326.632635	-2.996500	3.220300	-9.649200	27.738131	6.443723E-5	20.819533
2327.629464	-3.015400	3.218700	-9.704600	27.794551	6.529529E-5	20.829844
2328.626903	-3.021100	3.218500	-9.723100	27.805070	6.582333E-5	20.831896
2329.627523	-2.977000	3.218700	-9.581200	27.834297	6.447023E-5	20.820533
2330.631202	-3.002100	3.217500	-9.658100	27.835746	6.400820E-5	20.815352
2331.627942	-2.999300	3.218800	-9.653900	27.827204	6.513028E-5	20.835679
2332.628836	-3.014200	3.218000	-9.699300	27.790901	6.318314E-5	20.813369
2333.630905	-3.001900	3.216900	-9.656100	27.796974	6.245709E-5	20.825645
2334.630414	-3.003600	3.215900	-9.658400	27.759256	6.275411E-5	20.835102
2335.631928	-3.008600	3.216000	-9.674500	27.793369	6.456924E-5	20.827232
2336.629626	-2.983300	3.215300	-9.590900	27.750064	6.225907E-5	20.808782
2337.630064	-3.022700	3.215000	-9.717300	27.643472	6.130200E-5	20.833335
2338.644977	-2.985500	3.214900	-9.596800	27.584097	6.209406E-5	20.805360
2339.629952	-3.025200	3.214000	-9.721100	27.650951	6.331515E-5	20.830903
2340.630900	-3.004800	3.213000	-9.653400	27.697343	6.272111E-5	20.830645
2341.636527	-2.981300	3.212800	-9.577700	27.764558	6.074096E-5	20.835696
2342.631907	-2.974100	3.212500	-9.553600	27.789350	6.093898E-5	20.849739
2343.632086	-3.024500	3.211900	-9.713600	27.789632	6.057595E-5	20.823945
2344.631805	-2.996800	3.212100	-9.625200	27.766648	6.216006E-5	20.824997
2345.634290	-2.960200	3.211600	-9.505900	27.801718	6.338115E-5	20.841798
2346.634231	-2.987600	3.210200	-9.590100	27.837637	6.156602E-5	20.824368
2347.634657	-3.003900	3.209400	-9.640400	27.875429	6.150002E-5	20.826842
2348.636468	-3.012300	3.208400	-9.664000	27.918290	5.948687E-5	20.843901
2349.635025	-2.988000	3.211200	-9.593900	27.928337	5.958588E-5	20.829358
2350.634227	-2.967900	3.209400	-9.524800	27.880576	6.255609E-5	20.848617
2351.635174	-3.021100	3.206800	-9.687000	27.819904	6.021292E-5	20.836393
2352.635697	-3.004300	3.207800	-9.636400	27.825061	6.064195E-5	20.844427
2353.635096	-2.992100	3.207200	-9.595900	27.801289	5.938786E-5	20.840892
2354.635069	-2.984300	3.207900	-9.572400	27.859658	6.034493E-5	20.849849
2355.635118	-2.995500	3.206300	-9.603300	27.891745	5.948687E-5	20.855116
2356.637397	-2.984600	3.207300	-9.572300	27.908628	5.773774E-5	20.860728
2357.636471	-3.000200	3.204300	-9.612800	27.876250	5.876082E-5	20.846633
2358.639705	-2.981500	3.204200	-9.552700	27.778562	5.899183E-5	20.855003
2359.638202	-3.012000	3.206000	-9.655700	27.703242	5.971789E-5	20.850804
2360.635304	-3.000000	3.203900	-9.610700	27.701751	5.876082E-5	20.845037
2361.635984	-2.975600	3.203900	-9.533200	27.754789	5.981689E-5	20.847675
2362.635407	-3.015000	3.202300	-9.654100	27.833881	5.859580E-5	20.848088
2363.638917	-3.004200	3.201400	-9.617000	27.856325	5.912384E-5	20.847443
2364.635595	-2.982100	3.204400	-9.554800	27.813228	5.645065E-5	20.837735
2365.636179	-2.992900	3.200200	-9.577400	27.768177	5.588961E-5	20.859726
2366.637868	-3.004700	3.200600	-9.615600	27.811113	5.724270E-5	20.831339
2367.636764	-3.028400	3.200100	-9.690400	27.796841	5.684668E-5	20.861071
2368.639853	-2.999300	3.199800	-9.596100	27.805930	5.935486E-5	20.855045
2369.640425	-3.018600	3.198600	-9.654300	27.813408	5.674767E-5	20.857355
2370.638905	-2.983400	3.198200	-9.540700	27.895674	5.734171E-5	20.862864
2371.641255	-3.006100	3.197600	-9.611600	27.918415	5.612062E-5	20.838338
2372.639547	-2.993300	3.199000	-9.574500	27.952942	5.625263E-5	20.863131
2373.637837	-3.005000	3.197000	-9.606200	27.918595	5.410747E-5	20.862699
2374.641113	-2.996300	3.196100	-9.575800	27.874859	5.394246E-5	20.850449
2375.638847	-3.009400	3.196100	-9.617600	27.835945	5.654965E-5	20.868657
2376.641782	-3.004100	3.194400	-9.595500	27.826051	5.466852E-5	20.849691
2377.637868	-2.994200	3.195400	-9.566800	27.852906	5.628563E-5	20.870553
2378.637638	-3.020100	3.193900	-9.645000	27.832853	5.532856E-5	20.857958
2379.642379	-2.994600	3.194800	-9.566100	27.825228	5.348043E-5	20.869250
2380.640431	-3.016500	3.192000	-9.627700	27.809321	5.344743E-5	20.857984
2381.638201	-3.018100	3.193700	-9.638000	27.782405	5.559258E-5	20.890163
2382.644371	-2.989800	3.193600	-9.547300	27.804011	5.476752E-5	20.856907
2383.640771	-3.003400	3.192200	-9.586800	27.838676	5.407447E-5	20.851491
2384.641485	-2.994000	3.191900	-9.556100	27.820020	5.486653E-5	20.857845
2385.643375	-3.010100	3.190100	-9.601800	27.851646	5.331542E-5	20.871182
2386.641091	-3.010600	3.189300	-9.601600	27.854412	5.146728E-5	20.871121
2387.647693	-3.018800	3.190700	-9.630500	27.874071	5.166530E-5	20.888060
2388.643777	-3.006400	3.189000	-9.586500	27.902696	5.374445E-5	20.860448
2389.643179	-3.011200	3.188200	-9.598900	27.988776	5.282038E-5	20.863164
2390.644870	-3.006900	3.188400	-9.586500	28.015566	5.489953E-5	20.871637
2391.645658	-2.979000	3.187400	-9.494300	28.060907	5.242435E-5	20.882190
2392.645583	-2.987000	3.187300	-9.519600	28.069171	5.321641E-5	20.862535
2393.645284	-3.003000	3.185100	-9.564000	28.105225	5.133527E-5	20.885551
2394.648757	-3.009300	3.185300	-9.584600	28.014607	5.222634E-5	20.875888
2395.646707	-3.001400	3.185100	-9.558700	27.997255	5.282038E-5	20.858423
2396.646745	-3.010800	3.184500	-9.586600	27.972350	5.291939E-5	20.860380
2397.651018	-3.000900	3.184100	-9.554400	27.890893	5.067522E-5	20.869431
2398.649139	-3.005000	3.184400	-9.568100	27.880247	5.126927E-5	20.880526
2399.646302	-2.978400	3.184800	-9.484400	27.826093	4.985016E-5	20.890508
2400.646596	-2.990800	3.181600	-9.515000	27.831276	4.935513E-5	20.873440
2401.647393	-3.011500	3.180600	-9.577900	27.853839	5.278738E-5	20.898991
2402.647681	-2.998800	3.179800	-9.534900	27.923014	5.123626E-5	20.892276
2403.647537	-3.004300	3.179200	-9.550200	27.927434	4.915711E-5	20.889137
2404.649853	-2.997300	3.179800	-9.530000	27.940675	5.130227E-5	20.883974
2405.647578	-3.013600	3.178600	-9.577300	27.910295	5.130227E-5	20.896068
2406.646029	-3.017700	3.178900	-9.592100	27.901027	5.037820E-5	20.890060
2407.646647	-3.005700	3.177900	-9.550900	27.910628	4.942113E-5	20.889292
2408.651721	-3.018100	3.175500	-9.582900	27.912230	4.889309E-5	20.892801
2409.648307	-3.005100	3.177500	-9.548600	27.971869	4.902510E-5	20.901145
2410.649609	-3.016700	3.175400	-9.578300	28.006077	4.932212E-5	20.878207
2411.650404	-2.996500	3.175200	-9.513900	28.021682	4.862907E-5	20.894862
2412.648476	-3.013300	3.173800	-9.561700	28.053653	5.159929E-5	20.877733
2413.648283	-3.009000	3.175100	-9.553200	28.000476	4.720997E-5	20.868776
2414.652455	-3.023100	3.172700	-9.590200	27.996150	4.932212E-5	20.866319
2415.647870	-3.025000	3.172700	-9.596900	28.052393	4.978416E-5	20.887844
2416.647794	-2.998000	3.172300	-9.509700	28.034459	4.803503E-5	20.899188
2417.648194	-3.013900	3.170300	-9.553700	28.011198	4.691295E-5	20.894740
2418.652334	-3.016500	3.172000	-9.567800	27.988219	4.714396E-5	20.889154
2419.657449	-3.021300	3.168500	-9.572400	27.997143	4.740798E-5	20.895766
2420.651012	-3.000400	3.169700	-9.510100	28.047587	4.734198E-5	20.887748
2421.649330	-3.010900	3.169000	-9.541000	28.034946	4.853007E-5	20.902523
2422.650821	-3.009000	3.168700	-9.533800	28.073484	4.684694E-5	20.900065
2423.651638	-2.994900	3.168800	-9.489700	28.120243	4.572486E-5	20.897824
2424.652890	-2.996900	3.167300	-9.491100	28.146824	4.727597E-5	20.902297
2425.649254	-2.989200	3.167700	-9.467200	28.098362	4.658292E-5	20.890022
2426.648428	-3.001000	3.164100	-9.494600	28.101787	4.687994E-5	20.896314
2427.653378	-3.005700	3.164600	-9.510500	28.094001	4.638491E-5	20.916924
2428.651242	-3.011500	3.164600	-9.529400	28.100631	4.338169E-5	20.916959
2429.653164	-3.023100	3.163400	-9.562000	28.054718	4.539484E-5	20.907252
2430.655597	-3.009900	3.161800	-9.515900	28.079502	4.381072E-5	20.896641
2431.654770	-3.010700	3.162700	-9.520600	28.044166	4.265564E-5	20.902794
2432.651233	-3.009700	3.161000	-9.513400	28.050315	4.542784E-5	20.904243
2433.653354	-2.999200	3.161700	-9.481700	28.059050	4.437176E-5	20.931525
2434.652626	-2.988300	3.159300	-9.439500	28.091070	4.473479E-5	20.925826
2435.651799	-3.014700	3.160600	-9.527200	28.161096	4.569186E-5	20.913344
2436.653353	-3.005400	3.158100	-9.490200	28.167654	4.404174E-5	20.908094
2437.651472	-2.998000	3.158200	-9.466900	28.192847	4.404174E-5	20.923972
2438.652913	-3.035000	3.156600	-9.579400	28.205204	4.262263E-5	20.928351
2439.652594	-3.002300	3.155700	-9.473300	28.196794	4.496580E-5	20.904714
2440.652044	-2.999500	3.155700	-9.464500	28.243281	4.265564E-5	20.919747
2441.651889	-2.995700	3.154600	-9.449100	28.183992	4.354670E-5	20.924540
2442.659911	-3.020700	3.153900	-9.526100	28.117025	4.278764E-5	20.943417
2443.653103	-2.974900	3.153700	-9.381100	28.097457	4.143455E-5	20.925143
2444.652906	-3.010400	3.151600	-9.486200	28.150286	4.272164E-5	20.922376
2445.656061	-2.977000	3.152200	-9.383500	28.151074	4.265564E-5	20.935970
2446.666950	-2.983900	3.151000	-9.401700	28.137380	4.258963E-5	20.919341
2447.656852	-2.994000	3.150800	-9.432800	28.129389	4.404174E-5	20.922676
2448.657541	-2.996200	3.150400	-9.437700	28.139658	4.103852E-5	20.928746
2449.653958	-2.998700	3.148300	-9.440200	28.123824	4.308467E-5	20.926556
2450.655619	-2.997100	3.149000	-9.437500	28.157101	4.262263E-5	20.941088
2451.653700	-2.999100	3.146600	-9.435500	28.215057	4.103852E-5	20.934951
2452.654261	-2.976700	3.148000	-9.369000	28.214723	4.074149E-5	20.944097
2453.654056	-2.968900	3.146200	-9.339800	28.207899	3.978442E-5	20.930116
2454.654273	-2.992300	3.146600	-9.414400	28.259147	4.064249E-5	20.935244
2455.653702	-2.988100	3.144900	-9.395800	28.303414	4.044447E-5	20.923392
2456.655892	-3.016400	3.142300	-9.476700	28.306025	4.110452E-5	20.933606
2457.657050	-2.991700	3.143700	-9.404100	28.342398	4.054348E-5	20.935615
2458.658591	-2.984100	3.142700	-9.377100	28.240617	3.965241E-5	20.935080
2459.656913	-3.009400	3.141300	-9.452600	28.222207	4.004844E-5	20.971069
2460.657766	-3.018800	3.140600	-9.479800	28.239966	3.919038E-5	20.945329
2461.658896	-2.976200	3.140800	-9.347000	28.278721	4.100551E-5	20.956372
2462.657074	-3.015200	3.138100	-9.459900	28.305743	4.245762E-5	20.931900
2463.659557	-2.994400	3.137400	-9.394000	28.286820	4.202859E-5	20.957888
2464.656736	-3.005800	3.137600	-9.430000	28.279833	3.820031E-5	20.941372
2465.658509	-3.022000	3.137000	-9.478400	28.201527	3.839832E-5	20.960681
2466.658874	-3.035700	3.135500	-9.517400	28.144496	3.780428E-5	20.940253
2467.657897	-3.008600	3.134400	-9.429100	28.141841	4.064249E-5	20.937106
2468.657449	-3.002000	3.133800	-9.406900	28.172112	3.925639E-5	20.949561
2469.664013	-2.993000	3.133800	-9.378800	28.255498	3.862934E-5	20.946742
2470.657262	-2.986000	3.133200	-9.354600	28.285064	3.704522E-5	20.959439
2471.658338	-2.968200	3.132900	-9.297300	28.323629	3.803530E-5	20.975033
2472.661073	-2.995800	3.130700	-9.378500	28.328517	3.856333E-5	20.955776
2473.659070	-3.005900	3.129400	-9.406500	28.324202	3.694622E-5	20.930097
2474.659273	-3.032700	3.129400	-9.490000	28.358732	3.552711E-5	20.963439
2475.660372	-2.999300	3.128200	-9.381800	28.284395	3.895936E-5	20.965403
2476.658545	-2.975900	3.128200	-9.308200	28.294474	3.813430E-5	20.934777
2477.660112	-2.984100	3.126400	-9.328800	28.312010	3.641818E-5	20.953854
2478.662597	-2.998500	3.124500	-9.368000	28.287496	3.869534E-5	20.972791
2479.659979	-2.979400	3.126000	-9.312800	28.296614	3.655019E-5	20.956844
2480.669551	-2.993200	3.123400	-9.348300	28.347482	3.730924E-5	20.956853
2481.661261	-3.003000	3.122600	-9.375800	28.388844	3.744125E-5	20.974317
2482.660450	-2.963500	3.123300	-9.254800	28.358518	3.915738E-5	20.984556
2483.662485	-2.986400	3.120900	-9.319300	28.323491	3.688021E-5	20.963516
2484.661768	-2.986800	3.119800	-9.317400	28.323696	3.668220E-5	20.975575
2485.664674	-3.006800	3.119200	-9.377800	28.358252	3.526309E-5	20.965800
2486.661250	-3.002300	3.118900	-9.362300	28.378510	3.476806E-5	20.966757
2487.663139	-3.002600	3.117100	-9.358600	28.407961	3.622016E-5	20.981712
2488.667006	-3.000800	3.116800	-9.352000	28.395196	3.691321E-5	20.987823
2489.660749	-3.019200	3.115400	-9.404800	28.416821	3.622016E-5	20.957921
2490.663765	-3.000300	3.115500	-9.346800	28.387037	3.711123E-5	20.977713
2491.667035	-3.013300	3.113800	-9.382000	28.382319	3.565912E-5	20.981496
2492.663157	-2.991700	3.113300	-9.313000	28.436306	3.575813E-5	20.981806
2493.663058	-2.996100	3.111900	-9.323200	28.411110	3.490007E-5	20.971134
2494.666349	-3.000700	3.110600	-9.333200	28.407087	3.361297E-5	20.983202
2495.665215	-2.998000	3.109600	-9.321400	28.438891	3.430602E-5	20.977297
2496.663324	-3.030700	3.108700	-9.420700	28.462716	3.549411E-5	20.981848
2497.666380	-2.991300	3.108700	-9.298300	28.407497	3.328295E-5	20.990252
2498.666489	-3.001900	3.108300	-9.329800	28.366581	3.315094E-5	20.989830
2499.665085	-2.984900	3.106800	-9.272600	28.337017	3.344796E-5	20.994200
2500.671952	-2.981100	3.105200	-9.255900	28.374628	3.318394E-5	20.978968
2501.666092	-2.996100	3.105500	-9.303900	28.402497	3.262290E-5	20.982374
2502.667432	-2.983300	3.104400	-9.260400	28.406888	3.298593E-5	21.003388
2503.669122	-2.990500	3.102400	-9.277100	28.386743	3.344796E-5	20.978839
2504.666574	-2.978300	3.102000	-9.238300	28.366623	3.351396E-5	21.005042
2505.665698	-2.991000	3.100400	-9.272500	28.363429	3.249089E-5	20.985235
2506.672905	-2.983500	3.099800	-9.247400	28.338677	3.156682E-5	20.990656
2507.666750	-2.997200	3.099200	-9.288500	28.309781	3.123680E-5	20.982425
2508.670753	-3.017800	3.097800	-9.348100	28.314660	3.384399E-5	20.988286
2509.670218	-2.981600	3.097100	-9.233800	28.360630	3.272191E-5	20.997112
2510.666575	-3.017800	3.095800	-9.341200	28.370227	3.084077E-5	20.980700
2511.669888	-3.019300	3.096200	-9.347400	28.302074	3.374498E-5	20.988415
2512.669094	-3.015200	3.094000	-9.328300	28.328762	3.067576E-5	20.968822
2513.666583	-3.017300	3.092400	-9.329500	28.372556	3.235888E-5	20.987786
2514.668804	-3.001200	3.091600	-9.277000	28.401476	3.186384E-5	21.009316
2515.668769	-2.984400	3.092000	-9.226800	28.390107	3.156682E-5	20.991233
2516.668094	-3.013800	3.087900	-9.304900	28.457886	3.074176E-5	20.990259
2517.670941	-3.001100	3.088300	-9.266900	28.467003	3.169883E-5	20.990431
2518.668404	-2.990900	3.087300	-9.233300	28.476291	3.229287E-5	20.986509
2519.670822	-2.974400	3.086400	-9.178600	28.526962	3.166583E-5	20.964995
2520.670562	-2.987600	3.085500	-9.217200	28.578879	3.080777E-5	20.976028
2521.670393	-3.009900	3.083700	-9.280600	28.632754	2.915764E-5	20.968649
2522.671674	-2.991400	3.083900	-9.223800	28.627841	3.414101E-5	20.976028
2523.669569	-3.004800	3.082000	-9.259100	28.627105	3.054375E-5	20.971967
2524.671484	-2.979800	3.082500	-9.184900	28.588020	3.222687E-5	20.951572
2525.672054	-2.985400	3.079000	-9.191000	28.600639	2.922365E-5	20.993672
2526.669895	-3.022100	3.079900	-9.306600	28.620146	3.166583E-5	20.972545
2527.670968	-2.998500	3.076600	-9.224300	28.634269	3.199585E-5	20.987241
2528.669837	-3.020600	3.076900	-9.293100	28.632642	3.047774E-5	20.971855
2529.671031	-2.984200	3.076400	-9.179700	28.630186	2.889362E-5	20.986448
2530.674415	-2.988300	3.074800	-9.187100	28.642811	2.889362E-5	20.967398
2531.673693	-2.976400	3.073300	-9.146000	28.655239	3.004871E-5	20.954788
2532.673234	-3.013700	3.071800	-9.256800	28.654769	3.301893E-5	20.964269
2533.676201	-2.983000	3.070900	-9.159300	28.575043	2.892663E-5	20.942297
2534.675189	-2.987700	3.071400	-9.176200	28.533372	2.922365E-5	20.966234
2535.675841	-2.980900	3.069800	-9.149500	28.482317	2.958668E-5	20.946115
2536.676755	-2.986300	3.067600	-9.159600	28.460837	3.057675E-5	20.947244
2537.675323	-2.993800	3.066900	-9.180900	28.484226	2.846459E-5	20.968423
2538.675935	-3.006200	3.066100	-9.216500	28.528766	2.961968E-5	20.964441
2539.676531	-2.992300	3.065200	-9.170100	28.540597	2.846459E-5	20.944116
2540.675722	-3.014700	3.063100	-9.233500	28.520659	2.730951E-5	20.964337
2541.674776	-3.011100	3.061600	-9.218400	28.506723	2.711149E-5	20.951727
2542.678349	-2.986600	3.062300	-9.145200	28.515009	2.859660E-5	20.970026
2543.680977	-2.995700	3.060200	-9.167100	28.582070	2.952067E-5	20.967388
2544.676335	-3.007000	3.058700	-9.196800	28.597376	2.882762E-5	20.933970
2545.679529	-3.004700	3.057800	-9.186800	28.640012	2.846459E-5	20.933763
2546.678524	-2.988500	3.057400	-9.136600	28.575873	2.846459E-5	20.952614
2547.678150	-3.011400	3.054800	-9.198000	28.571799	2.760653E-5	20.943297
2548.682657	-2.986300	3.055600	-9.124500	28.574332	3.037873E-5	20.954856
2549.678706	-2.994900	3.053400	-9.143700	28.587841	2.750752E-5	20.936220
2550.679713	-2.997500	3.050400	-9.141800	28.585718	3.031273E-5	20.936453
2551.682138	-3.015700	3.050100	-9.197600	28.607169	2.859660E-5	20.950469
2552.679014	-3.005400	3.049400	-9.163800	28.613075	2.724350E-5	20.951201
2553.681386	-2.991600	3.048700	-9.119500	28.694184	2.806856E-5	20.943754
2554.681394	-2.992400	3.046700	-9.116300	28.728548	2.806856E-5	20.932376
2555.679439	-2.983600	3.046300	-9.087700	28.736234	2.909164E-5	20.919256
2556.680152	-2.975700	3.044900	-9.060200	28.642314	2.928965E-5	20.933237
2557.681875	-2.975300	3.043600	-9.054800	28.620085	3.001571E-5	20.925074
2558.683292	-3.000100	3.042300	-9.125500	28.597436	2.796956E-5	20.908903
2559.683537	-2.994000	3.041200	-9.104500	28.534511	2.796956E-5	20.944151
2560.685306	-2.986900	3.040300	-9.080300	28.569326	2.608842E-5	20.937962
2561.684824	-3.013600	3.037900	-9.154400	28.530668	2.836559E-5	20.925110
2562.684993	-3.004500	3.037300	-9.125000	28.550862	2.958668E-5	20.932644
2563.684775	-3.007100	3.035500	-9.126900	28.640671	2.909164E-5	20.928738
2564.689264	-2.975100	3.035200	-9.028900	28.694047	2.866261E-5	20.933660
2565.686407	-2.987000	3.034300	-9.061700	28.671623	2.958668E-5	20.927670
2566.687656	-3.007600	3.031500	-9.117100	28.628559	2.671546E-5	20.938349
2567.687260	-3.018800	3.029200	-9.142100	28.646954	2.770554E-5	20.921317
2568.687105	-2.994900	3.029100	-9.070700	28.709581	2.978469E-5	20.917540
2569.687862	-3.015000	3.027800	-9.128100	28.747634	2.879462E-5	20.935479
2570.687524	-2.990900	3.026700	-9.051900	28.739426	2.889362E-5	20.933850
2571.688577	-3.007800	3.025900	-9.100500	28.656780	2.721050E-5	20.931686
2572.688644	-3.020300	3.024800	-9.135100	28.690486	2.691348E-5	20.929125
2573.688897	-2.998400	3.023700	-9.065400	28.697607	2.655045E-5	20.946254
2574.687901	-3.026600	3.020900	-9.141600	28.706286	2.767254E-5	20.923230
2575.686959	-3.023100	3.020200	-9.128800	28.693525	2.711149E-5	20.922704
2576.688181	-3.002800	3.019000	-9.065200	28.718355	2.754053E-5	20.895086
2577.687003	-2.986100	3.019200	-9.014600	28.765607	2.552738E-5	20.928454
2578.690848	-3.018700	3.015400	-9.101700	28.826610	2.704549E-5	20.932531
2579.690347	-2.995800	3.014500	-9.029400	28.865686	2.721050E-5	20.936807
2580.692810	-2.981500	3.015500	-8.990000	28.922216	2.767254E-5	20.915050
2581.690573	-3.017700	3.012600	-9.090400	28.831198	2.546137E-5	20.924352
2582.690757	-3.000300	3.011100	-9.033200	28.796700	2.661646E-5	20.906197
2583.692596	-3.019700	3.009900	-9.087500	28.716994	2.625343E-5	20.909835
2584.693740	-2.998200	3.007500	-9.016900	28.697207	2.572539E-5	20.923568
2585.694354	-2.985000	3.007400	-8.976200	28.654957	2.813457E-5	20.942177
2586.694150	-2.989200	3.006000	-8.984600	28.637334	2.810157E-5	20.932015
2587.693017	-3.009600	3.004700	-9.041800	28.624161	2.542837E-5	20.909741
2588.692755	-2.990500	3.002800	-8.978000	28.659546	2.757353E-5	20.916456
2589.696206	-2.979000	3.001500	-8.940800	28.791035	2.869561E-5	20.903336
2590.692381	-3.007700	2.999800	-9.022300	28.828819	2.919065E-5	20.901569
2591.692790	-2.997300	2.999200	-8.988800	28.810215	2.737551E-5	20.918388
2592.693714	-2.962700	2.997500	-8.878900	28.750794	2.651745E-5	20.918275
2593.693594	-3.001400	2.996300	-8.992100	28.704499	2.810157E-5	20.898198
2594.692994	-3.044600	2.993900	-9.114500	28.711012	2.486733E-5	20.892431
2595.693253	-3.016800	2.992900	-9.027400	28.632267	2.707849E-5	20.912689
2596.693964	-2.987100	2.991900	-8.935400	28.635751	2.608842E-5	20.910509
2597.693353	-3.000200	2.990600	-8.971600	28.574421	2.886062E-5	20.918439
2598.694265	-3.005100	2.988200	-8.978800	28.567349	2.569239E-5	20.918430
2599.694580	-2.994500	2.987800	-8.945900	28.661986	2.793655E-5	20.911802
2600.695024	-2.979500	2.985800	-8.894700	28.747345	2.829958E-5	20.913853
2601.695509	-2.976000	2.985600	-8.884600	28.782392	2.810157E-5	20.896527
2602.696240	-2.997800	2.983600	-8.943100	28.804275	2.889362E-5	20.893441
2603.699247	-3.009500	2.982400	-8.974500	28.879063	2.691348E-5	20.900027
2604.695480	-2.968200	2.980700	-8.845700	28.972413	2.579140E-5	20.920103
2605.694847	-2.985800	2.980800	-8.898900	28.985300	2.763953E-5	20.918862
2606.695409	-2.999700	2.976400	-8.927300	29.017618	2.668246E-5	20.916811
2607.696768	-2.983500	2.976900	-8.881000	29.051159	2.829958E-5	20.887071
2608.696131	-2.991400	2.974600	-8.896900	29.033628	2.744152E-5	20.916820
2609.696772	-3.010200	2.973200	-8.949200	28.973835	2.612142E-5	20.914424
2610.698961	-2.983500	2.972000	-8.866500	28.957747	2.780454E-5	20.915759
2611.698070	-2.983000	2.970000	-8.858800	28.942037	2.678147E-5	20.892347
2612.700098	-3.024200	2.967700	-8.973500	28.847588	2.552738E-5	20.918104
2613.699319	-3.006200	2.966900	-8.918600	28.764438	2.463631E-5	20.900252
2614.699563	-2.983500	2.967300	-8.851200	28.769324	2.734251E-5	20.882416
2615.700480	-3.004100	2.965500	-8.908100	28.800810	2.664946E-5	20.909863
2616.705225	-2.984600	2.964200	-8.845100	28.841274	2.556038E-5	20.909847
2617.699417	-3.002500	2.962400	-8.893900	28.886577	2.490033E-5	20.909967
2618.699593	-3.027300	2.960500	-8.961600	28.928423	2.750752E-5	20.908502
2619.698833	-2.989400	2.958200	-8.842100	28.944185	2.648445E-5	20.903993
2620.699447	-3.016300	2.957100	-8.918500	28.920387	2.404227E-5	20.920794
2621.699709	-2.993200	2.956700	-8.849500	28.825501	2.635244E-5	20.910079
2622.700373	-3.010200	2.954400	-8.891900	28.813100	2.592341E-5	20.903277
2623.701087	-3.003700	2.951400	-8.864700	28.746284	2.486733E-5	20.918949
2624.702423	-3.035300	2.950800	-8.955800	28.768879	2.546137E-5	20.901881
2625.704396	-3.005300	2.949000	-8.862400	28.775418	2.371224E-5	20.897562
2626.701875	-2.999600	2.947300	-8.839600	28.777096	2.575839E-5	20.918217
2627.701496	-3.023500	2.946100	-8.906600	28.881768	2.592341E-5	20.892795
2628.705866	-2.980000	2.944800	-8.774500	28.941182	2.668246E-5	20.917562
2629.706203	-2.995300	2.943000	-8.814600	28.921799	2.648445E-5	20.904674
2630.706273	-2.984900	2.942800	-8.783300	28.982450	2.417428E-5	20.888967
2631.704514	-3.033300	2.939200	-8.913500	28.961487	2.559338E-5	20.883494
2632.707160	-3.003800	2.939300	-8.827400	28.996389	2.681447E-5	20.898269
2633.705549	-3.016900	2.937300	-8.861000	29.055506	2.625343E-5	20.912785
2634.704194	-2.987400	2.936400	-8.771400	29.017439	2.503234E-5	20.896243
2635.707046	-3.003300	2.933600	-8.809700	29.017858	2.542837E-5	20.893347
2636.708332	-3.013500	2.931400	-8.833100	28.983948	2.549438E-5	20.899485
2637.708461	-2.993000	2.931200	-8.772500	29.020535	2.661646E-5	20.891303
2638.708647	-3.040700	2.927600	-8.900700	29.060417	2.552738E-5	20.898295
2639.708649	-3.033500	2.926200	-8.875900	29.063676	2.839859E-5	20.881191
2640.707165	-2.989700	2.926200	-8.747200	29.089301	2.519735E-5	20.904165
2641.707348	-3.020300	2.924300	-8.831800	29.120932	2.532936E-5	20.894312
2642.712758	-3.010600	2.922800	-8.798700	29.069348	2.744152E-5	20.884536
2643.706979	-3.030000	2.920500	-8.847300	29.032754	2.714450E-5	20.880856
2644.709168	-2.983800	2.919100	-8.708500	28.949583	2.655045E-5	20.895208
2645.709910	-3.011100	2.917300	-8.783300	28.888082	2.612142E-5	20.891570
2646.708349	-3.003500	2.916300	-8.757300	28.878044	2.259016E-5	20.873399
2647.707780	-3.019800	2.912600	-8.793300	28.873098	2.371224E-5	20.880269
2648.709022	-3.012900	2.911100	-8.770500	28.805268	2.648445E-5	20.892544
2649.708602	-3.013900	2.910500	-8.771400	28.827134	2.542837E-5	20.903191
2650.709291	-3.008500	2.907700	-8.746000	28.949318	2.813457E-5	20.887355
2651.711762	-2.994500	2.907400	-8.705400	28.965293	2.490033E-5	20.902026
2652.715064	-2.966100	2.906100	-8.617900	28.956720	2.595641E-5	20.893389
2653.716496	-3.002200	2.903000	-8.714400	29.018284	2.625343E-5	20.880501
2654.713827	-2.963400	2.901900	-8.598500	29.100774	2.414128E-5	20.871157
2655.715077	-2.992400	2.899800	-8.676700	29.131300	2.420728E-5	20.896224
2656.714807	-3.001500	2.898500	-8.698600	29.138932	2.457031E-5	20.869303
2657.716025	-2.971400	2.896600	-8.605500	29.054024	2.377825E-5	20.886639
2658.715697	-3.004800	2.894400	-8.695700	29.005920	2.433929E-5	20.887010
2659.714312	-3.005600	2.892400	-8.692900	29.020356	2.331622E-5	20.872157
2660.718396	-2.994400	2.891300	-8.656900	29.049481	2.595641E-5	20.881588
2661.716593	-2.989700	2.890100	-8.639500	29.097189	2.592341E-5	20.878924
2662.721291	-3.021000	2.887100	-8.721100	29.082541	2.569239E-5	20.867958
2663.718667	-2.995200	2.885100	-8.640500	29.143749	2.532936E-5	20.869416
2664.716362	-2.983100	2.884000	-8.602400	29.112555	2.575839E-5	20.877811
2665.719863	-2.994300	2.881100	-8.626000	29.086725	2.532936E-5	20.875018
2666.717997	-3.001500	2.881900	-8.649200	29.151115	2.526336E-5	20.867355
2667.716185	-2.995500	2.879800	-8.625500	29.148000	2.598941E-5	20.873225
2668.716684	-2.963900	2.877300	-8.527000	29.121803	2.470232E-5	20.864371
2669.717538	-2.982100	2.875100	-8.573600	29.112580	2.437229E-5	20.857450
2670.718889	-2.989500	2.874400	-8.592100	29.097907	2.546137E-5	20.868268
2671.718640	-2.991500	2.870900	-8.587800	29.154921	2.546137E-5	20.861707
2672.719487	-2.969700	2.869300	-8.520500	29.202445	2.443830E-5	20.869293
2673.718833	-3.032400	2.866400	-8.691200	29.124053	2.529636E-5	20.851941
2674.718793	-3.001400	2.866400	-8.601600	29.079324	2.661646E-5	20.888897
2675.720786	-2.981600	2.863800	-8.538000	29.072496	2.592341E-5	20.880121
2676.720539	-2.976100	2.864000	-8.522300	29.098361	2.384425E-5	20.869200
2677.721417	-2.973900	2.859000	-8.501700	29.128554	2.447130E-5	20.867855
2678.722187	-2.992500	2.858100	-8.551400	29.170330	2.381125E-5	20.870596
2679.721736	-2.999900	2.857100	-8.569700	29.183812	2.549438E-5	20.865691
2680.721380	-3.004700	2.853400	-8.573100	29.126800	2.433929E-5	20.867510
2681.724442	-3.006200	2.850600	-8.569000	29.177644	2.453730E-5	20.866587
2682.726858	-3.000600	2.849500	-8.548700	29.173195	2.414128E-5	20.864001
2683.722140	-2.996600	2.848600	-8.535000	29.275117	2.400927E-5	20.877569
2684.724244	-3.010600	2.845400	-8.565000	29.315767	2.450430E-5	20.872544
2685.723953	-2.995200	2.844500	-8.519000	29.358886	2.556038E-5	20.873328
2686.723605	-3.006100	2.841500	-8.540500	29.402244	2.532936E-5	20.881466
2687.730764	-3.040800	2.839300	-8.632900	29.372033	2.463631E-5	20.870932
2688.724873	-3.012400	2.837000	-8.545800	29.359305	2.704549E-5	20.854786
2689.724174	-3.023000	2.834600	-8.568100	29.373736	2.453730E-5	20.864113
2690.727173	-3.022700	2.832500	-8.561100	29.388387	2.473532E-5	20.852328
2691.724340	-2.986800	2.832400	-8.459300	29.373521	2.674847E-5	20.847777
2692.725829	-3.019000	2.826900	-8.533100	29.330393	2.466931E-5	20.849828
2693.731150	-3.020700	2.826300	-8.537000	29.257049	2.311820E-5	20.837553
2694.725669	-3.003000	2.825900	-8.485100	29.151688	2.635244E-5	20.871725
2695.727359	-3.008300	2.821400	-8.486900	29.116019	2.724350E-5	20.862811
2696.730632	-3.005300	2.819300	-8.471400	29.129691	2.595641E-5	20.859043
2697.727800	-3.013500	2.817200	-8.489300	29.259043	2.615442E-5	20.878440
2698.729343	-3.018000	2.814000	-8.491800	29.359818	2.480132E-5	20.856250
2699.730876	-3.021100	2.812400	-8.496000	29.384076	2.717750E-5	20.859837
2700.728077	-3.007100	2.809700	-8.447900	29.318100	2.460331E-5	20.867784
2701.730854	-3.030500	2.806400	-8.504200	29.356054	2.532936E-5	20.872371
2702.735560	-2.998200	2.805100	-8.409700	29.380226	2.595641E-5	20.843629
2703.729272	-2.996200	2.802600	-8.396700	29.403620	2.717750E-5	20.864362
2704.729774	-3.002500	2.798300	-8.401200	29.395101	2.463631E-5	20.851509
2705.733997	-3.008800	2.797900	-8.417700	29.296750	2.661646E-5	20.865233
2706.731320	-2.993800	2.793600	-8.362400	29.295671	2.565939E-5	20.853241
2707.730715	-2.991700	2.792100	-8.352200	29.336029	2.523036E-5	20.844129
2708.732995	-3.006100	2.790100	-8.386800	29.295278	2.678147E-5	20.855689
2709.730650	-3.008700	2.785400	-8.379100	29.334695	2.721050E-5	20.873603
2710.732383	-3.002000	2.784700	-8.358800	29.339365	2.311820E-5	20.849387
2711.732716	-2.996200	2.781100	-8.331800	29.382937	2.612142E-5	20.843991
2712.733413	-3.000200	2.777800	-8.333300	29.409247	2.562638E-5	20.858180
2713.732940	-2.966300	2.776300	-8.234900	29.422367	2.490033E-5	20.842482
2714.733396	-3.004400	2.770900	-8.323900	29.421059	2.523036E-5	20.862024
2715.733406	-2.962400	2.770100	-8.204900	29.482426	2.671546E-5	20.840904
2716.732916	-2.986900	2.766000	-8.261000	29.534374	2.813457E-5	20.844430
2717.733892	-3.014900	2.762800	-8.328800	29.614984	2.486733E-5	20.834654
2718.737150	-2.987400	2.762000	-8.250200	29.650755	2.377825E-5	20.851748
2719.737719	-3.020700	2.755800	-8.324000	29.666454	2.499934E-5	20.844343
2720.736079	-2.997600	2.754900	-8.257100	29.624442	2.308520E-5	20.851300
2721.738411	-3.007200	2.750600	-8.270000	29.555300	2.384425E-5	20.838973
2722.737588	-2.995700	2.747900	-8.230400	29.546508	2.440530E-5	20.841015
2723.735916	-3.004500	2.744100	-8.242500	29.548219	2.638544E-5	20.850800
2724.735647	-3.016200	2.739700	-8.262100	29.527514	2.592341E-5	20.844627
2725.737437	-3.003200	2.739000	-8.224300	29.528121	2.523036E-5	20.836705
2726.736672	-3.000400	2.735900	-8.207500	29.480808	2.457031E-5	20.847333
2727.737040	-3.008900	2.730900	-8.215800	29.426746	2.397626E-5	20.847369
2728.737642	-3.000700	2.728100	-8.185300	29.368121	2.480132E-5	20.844704
2729.738139	-2.989300	2.726100	-8.148000	29.349533	2.476832E-5	20.852049
2730.738385	-3.026100	2.720400	-8.231400	29.412649	2.625343E-5	20.848807
2731.738092	-3.004300	2.718800	-8.166300	29.425779	2.638544E-5	20.831222
2732.739913	-3.007200	2.715000	-8.163500	29.458930	2.668246E-5	20.829074
2733.738876	-3.030800	2.709800	-8.211700	29.522407	2.635244E-5	20.834264
2734.739135	-3.021600	2.706700	-8.177100	29.509690	2.846459E-5	20.833299
2735.741207	-3.030200	2.701900	-8.186000	29.513547	2.631944E-5	20.824859
2736.741076	-3.000700	2.699400	-8.098900	29.532678	2.661646E-5	20.834187
2737.739641	-3.015500	2.696100	-8.129300	29.563902	2.265617E-5	20.848591
2738.741757	-2.995200	2.692800	-8.064900	29.607517	2.565939E-5	20.830445
2739.743841	-2.982100	2.688600	-8.016600	29.574429	2.559338E-5	20.845453
2740.739893	-2.987600	2.685300	-8.021600	29.556325	2.499934E-5	20.834790
2741.739727	-2.973800	2.680900	-7.971500	29.527949	2.565939E-5	20.844592
2742.740570	-3.018000	2.674500	-8.070700	29.521774	2.714450E-5	20.836470
2743.739994	-3.017800	2.671300	-8.059900	29.521201	2.344822E-5	20.818350
2744.741257	-2.988400	2.667400	-7.970600	29.531840	2.460331E-5	20.824333
2745.740372	-3.005900	2.662100	-8.000700	29.592671	2.486733E-5	20.837290
2746.738520	-2.995300	2.658200	-7.961900	29.580698	2.595641E-5	20.818582
2747.738829	-2.997300	2.654000	-7.953700	29.618146	2.694648E-5	20.822669
2748.741466	-3.020800	2.648700	-7.999800	29.688361	2.552738E-5	20.813799
2749.743286	-2.994500	2.643700	-7.915800	29.698126	2.704549E-5	20.813686
2750.740613	-2.993300	2.639700	-7.900400	29.743239	2.523036E-5	20.835935
2751.747764	-2.996100	2.635900	-7.895700	29.818772	2.483433E-5	20.826272
2752.740839	-3.013600	2.629800	-7.923900	29.857495	2.721050E-5	20.820746
2753.742213	-3.040100	2.624500	-7.977600	29.737921	2.612142E-5	20.815876
2754.743984	-3.012000	2.620200	-7.890900	29.643304	2.516435E-5	20.823375
2755.743841	-3.016000	2.614000	-7.882000	29.677996	2.691348E-5	20.819944
2756.743776	-3.021100	2.609800	-7.882800	29.756441	2.641844E-5	20.828384
2757.742796	-3.024600	2.603300	-7.873200	29.767856	2.721050E-5	20.836574
2758.744859	-3.019400	2.600200	-7.850200	29.706659	2.648445E-5	20.822289
2759.742789	-3.023500	2.593400	-7.839900	29.685965	2.526336E-5	20.827504
2760.744740	-3.026800	2.588000	-7.832700	29.746470	2.730951E-5	20.820702
2761.742677	-2.998100	2.581900	-7.740000	29.825449	2.684747E-5	20.812141
2762.742754	-3.000400	2.576700	-7.729600	29.861059	2.777154E-5	20.817228
2763.744156	-3.011600	2.572900	-7.747500	29.801038	2.724350E-5	20.826882
2764.744677	-3.004800	2.565600	-7.708500	29.844847	2.615442E-5	20.801830
2765.758560	-3.004600	2.560300	-7.691600	29.875729	2.635244E-5	20.822063
2766.745517	-3.007400	2.552600	-7.675800	29.961587	2.727651E-5	20.806226
2767.745636	-2.992500	2.548700	-7.626300	29.939805	2.780454E-5	20.801804
2768.746658	-3.021900	2.541300	-7.678600	29.999329	2.747452E-5	20.831959
2769.746916	-2.995600	2.535500	-7.594300	30.017503	2.631944E-5	20.806191
2770.744369	-2.977500	2.529900	-7.530800	30.038976	2.787055E-5	20.818364
2771.745872	-2.985900	2.524000	-7.535000	30.065423	2.717750E-5	20.824173
2772.750523	-2.941300	2.519900	-7.410600	29.986539	2.859660E-5	20.828070
2773.745924	-2.996600	2.513700	-7.531800	29.904624	2.862961E-5	20.833656
2774.748065	-3.001200	2.506200	-7.520900	29.930322	2.869561E-5	20.828276
2775.748581	-3.007200	2.499300	-7.515300	29.936700	2.499934E-5	20.827596
