LabVIEW Measurement	
Writer_Version	2
Reader_Version	2
Separator	Tab
Decimal_Separator	.
Multi_Headings	No
X_Columns	One
Time_Pref	Absolute
Operator	admin
Description	Clolumns are: time, Current, Voltage, Power, Battery Temp, and Chamber Temp
Date	2024/08/16
Time	13:07:17.8513970375061035156
***End_of_Header***	
	
Channels	6						
Samples	1	1	1	1	1	1	
Date	2024/09/13	2024/09/13	2024/09/13	2024/09/13	2024/09/13	2024/09/13	
Time	17:17:40.4199538230895996094	17:17:40.4261617660522460938	17:17:40.4331374168395996094	17:17:40.402286529541015625	17:17:40.402286529541015625	17:17:40.402286529541015625	
X_Dimension	Time	Time	Time	Time	Time	Time	
X0	0.0000000000000000E+0	0.0000000000000000E+0	0.0000000000000000E+0	0.0000000000000000E+0	0.0000000000000000E+0	0.0000000000000000E+0	
Delta_X	1.000000	1.000000	1.000000	1.000000	1.000000	1.000000	
***End_of_Header***							
X_Value	Untitled	Untitled 1	Untitled 2	Untitled 3	Untitled 4	Untitled 5	Comment
0.000000	0.000777	4.087100	0.003289	20.749295	0.000467	20.769684
1.000016	-3.037100	3.917500	-11.895000	20.768810	0.000466	20.776397
1.999034	-3.000800	3.911100	-11.736000	20.779472	0.000467	20.763350
2.998196	-3.006300	3.906800	-11.745000	20.758361	0.000464	20.769267
3.998691	-3.001200	3.903400	-11.713000	20.759734	0.000467	20.782494
4.999333	-3.018300	3.899200	-11.768000	20.777982	0.000464	20.783198
5.999382	-3.005200	3.896900	-11.709000	20.780402	0.000463	20.761436
6.999920	-3.006000	3.895600	-11.710000	20.794730	0.000462	20.778608
8.002654	-2.990900	3.894800	-11.648000	20.787667	0.000463	20.783874
9.002665	-3.005500	3.892500	-11.697000	20.783952	0.000462	20.760243
10.001641	-3.015400	3.889400	-11.727000	20.788714	0.000460	20.788240
10.999969	-3.006600	3.889400	-11.693000	20.816820	0.000461	20.779836
12.002376	-3.007600	3.887800	-11.692000	20.823756	0.000461	20.784401
13.001788	-2.990900	3.886300	-11.623000	20.809506	0.000461	20.778212
14.002268	-3.018000	3.883700	-11.720000	20.825401	0.000460	20.777986
15.021223	-2.974300	3.885300	-11.556000	20.855742	0.000458	20.773715
16.006893	-3.007900	3.882300	-11.675000	20.848361	0.000459	20.783403
17.005345	-2.984300	3.883500	-11.588000	20.840418	0.000461	20.776882
18.004805	-3.003400	3.880600	-11.654000	20.854620	0.000458	20.776386
19.005744	-3.001700	3.881000	-11.649000	20.858463	0.000458	20.760314
20.005692	-2.996800	3.880200	-11.627000	20.884490	0.000457	20.774015
21.009947	-3.012200	3.877800	-11.679000	20.883761	0.000459	20.777554
22.005332	-3.023600	3.876600	-11.721000	20.887604	0.000456	20.764801
23.007136	-2.994000	3.878100	-11.610000	20.918994	0.000455	20.790031
24.010793	-3.021800	3.875600	-11.711000	20.932916	0.000455	20.803006
25.007737	-2.979700	3.877300	-11.553000	20.916047	0.000454	20.774755
26.010069	-2.963500	3.877400	-11.489000	20.942073	0.000455	20.782766
27.011788	-2.991900	3.875100	-11.593000	20.937707	0.000450	20.775080
28.009001	-3.017800	3.874900	-11.692000	20.946191	0.000454	20.784514
29.015453	-3.003100	3.874100	-11.632000	20.949156	0.000450	20.774203
30.011643	-2.999100	3.872800	-11.614000	20.966103	0.000451	20.789730
31.008418	-2.993700	3.873100	-11.594000	20.986909	0.000453	20.798212
32.008806	-2.995300	3.873400	-11.599000	20.972361	0.000451	20.782713
33.010734	-3.006600	3.872000	-11.640000	20.986187	0.000453	20.786110
34.010614	-3.001700	3.872100	-11.621000	20.994247	0.000452	20.767143
35.014988	-3.015400	3.870800	-11.671000	20.992227	0.000452	20.788831
36.014116	-2.992900	3.870400	-11.583000	21.028549	0.000452	20.782961
37.013290	-2.983300	3.870500	-11.546000	21.025256	0.000452	20.797210
38.009802	-3.003000	3.869600	-11.619000	21.043093	0.000451	20.815999
39.012949	-3.000300	3.869600	-11.608000	21.051403	0.000452	20.814354
40.009395	-3.004000	3.869300	-11.623000	21.058008	0.000450	20.779235
41.010119	-3.017700	3.867300	-11.669000	21.058011	0.000451	20.798679
42.012483	-3.003100	3.868000	-11.616000	21.087798	0.000452	20.791014
43.010418	-2.983400	3.868600	-11.540000	21.087097	0.000451	20.793633
44.011598	-2.984400	3.868100	-11.543000	21.080535	0.000450	20.794655
45.013480	-2.994800	3.868300	-11.583000	21.090211	0.000453	20.799117
46.012676	-3.004600	3.866900	-11.617000	21.097470	0.000453	20.805904
47.012798	-2.985600	3.866800	-11.544000	21.132218	0.000453	20.788031
48.014390	-2.995100	3.867100	-11.582000	21.114807	0.000451	20.785788
49.011585	-2.978100	3.866700	-11.515000	21.147288	0.000452	20.795993
50.013522	-3.002400	3.866800	-11.609000	21.122632	0.000452	20.821590
51.013402	-3.013900	3.865300	-11.649000	21.127146	0.000454	20.808087
52.013927	-3.002300	3.865800	-11.605000	21.159902	0.000450	20.818568
53.014848	-3.002600	3.865300	-11.605000	21.184370	0.000451	20.816491
54.016088	-2.991900	3.865400	-11.564000	21.184444	0.000450	20.797599
55.013040	-2.996300	3.864300	-11.577000	21.192622	0.000450	20.809099
56.015285	-3.013900	3.864200	-11.645000	21.197684	0.000450	20.819853
57.017920	-3.008700	3.863400	-11.622000	21.210952	0.000450	20.798987
58.013072	-3.008000	3.865200	-11.626000	21.238966	0.000450	20.811838
59.016028	-2.986600	3.865300	-11.543000	21.244251	0.000450	20.815228
60.014702	-2.997900	3.864400	-11.584000	21.249811	0.000448	20.804669
61.020461	-3.014700	3.864100	-11.648000	21.252577	0.000450	20.815023
62.018483	-3.007400	3.864300	-11.620000	21.277195	0.000451	20.810253
63.018043	-3.012600	3.863800	-11.638000	21.290788	0.000451	20.797773
64.020176	-3.017800	3.863700	-11.659000	21.281058	0.000451	20.802263
65.017174	-3.019100	3.862100	-11.658000	21.271327	0.000451	20.810547
66.016737	-2.984700	3.863800	-11.531000	21.303853	0.000450	20.816060
67.018349	-3.004500	3.861800	-11.602000	21.322482	0.000451	20.817153
68.018419	-3.009700	3.861900	-11.621000	21.314248	0.000450	20.825037
69.016484	-2.983700	3.863600	-11.527000	21.319688	0.000450	20.836643
70.018790	-2.996400	3.861300	-11.569000	21.332127	0.000451	20.815897
71.017051	-3.001700	3.861300	-11.590000	21.365525	0.000451	20.820862
72.019743	-3.001500	3.861600	-11.590000	21.351332	0.000450	20.808084
73.021031	-3.025900	3.861000	-11.681000	21.357065	0.000450	20.828519
74.019750	-2.985400	3.861500	-11.527000	21.366296	0.000452	20.825900
75.018995	-2.993100	3.859900	-11.552000	21.381734	0.000450	20.821431
76.019859	-2.993900	3.860200	-11.556000	21.393302	0.000450	20.835376
77.020616	-2.990500	3.861500	-11.547000	21.412407	0.000451	20.823197
78.018520	-2.986700	3.860900	-11.531000	21.407491	0.000451	20.824917
79.021863	-3.018700	3.858100	-11.645000	21.419166	0.000452	20.825692
80.019805	-2.990900	3.861100	-11.548000	21.422960	0.000451	20.831385
81.019734	-2.974000	3.859900	-11.478000	21.465228	0.000453	20.812986
82.019970	-2.976800	3.861300	-11.493000	21.467700	0.000450	20.851493
83.020797	-2.986500	3.860400	-11.528000	21.481415	0.000450	20.839612
84.019269	-2.987800	3.859000	-11.529000	21.478472	0.000451	20.823866
85.024137	-2.991200	3.858100	-11.539000	21.500168	0.000450	20.816651
86.023821	-3.020100	3.858300	-11.651000	21.484976	0.000450	20.821839
87.023622	-3.006300	3.859300	-11.601000	21.505529	0.000449	20.831973
88.024926	-2.992600	3.858400	-11.546000	21.497569	0.000451	20.836336
89.019857	-3.032400	3.857500	-11.697000	21.505151	0.000451	20.835861
90.022494	-2.987700	3.858600	-11.527000	21.526223	0.000450	20.826602
91.025476	-2.993200	3.858000	-11.547000	21.529293	0.000450	20.844371
92.021497	-2.983500	3.857600	-11.507000	21.516849	0.000449	20.857049
93.019484	-3.022200	3.857500	-11.656000	21.525799	0.000451	20.839453
94.024549	-3.004300	3.858600	-11.591000	21.556999	0.000450	20.849335
95.024534	-3.012600	3.857500	-11.620000	21.557023	0.000451	20.837981
96.019465	-2.976500	3.858400	-11.484000	21.576903	0.000449	20.846968
97.026973	-3.001500	3.855700	-11.572000	21.584428	0.000450	20.858765
98.021906	-2.985200	3.856600	-11.511000	21.597222	0.000450	20.834110
99.021199	-2.999800	3.856100	-11.566000	21.598972	0.000452	20.850085
100.026492	-3.011700	3.856300	-11.613000	21.597603	0.000452	20.843975
101.020938	-2.996400	3.855900	-11.553000	21.601595	0.000450	20.859823
102.026985	-3.015600	3.856400	-11.628000	21.622988	0.000450	20.845670
103.029989	-2.975300	3.857200	-11.476000	21.625905	0.000451	20.844322
104.024153	-3.007300	3.856200	-11.596000	21.631347	0.000452	20.848819
105.026004	-2.982400	3.857400	-11.504000	21.664092	0.000452	20.851242
106.030687	-2.999300	3.855100	-11.561000	21.678974	0.000451	20.851437
107.027937	-2.985200	3.856100	-11.511000	21.680891	0.000452	20.830122
108.028117	-2.994200	3.855800	-11.544000	21.667854	0.000453	20.870179
109.029508	-2.988800	3.856100	-11.524000	21.701020	0.000452	20.852636
110.024716	-2.974500	3.856000	-11.469000	21.712217	0.000454	20.855782
111.027957	-2.992800	3.855800	-11.538000	21.736899	0.000454	20.860095
112.028686	-3.018400	3.853200	-11.629000	21.719274	0.000453	20.854310
113.026192	-2.994600	3.854600	-11.542000	21.734233	0.000453	20.850315
114.026005	-2.984700	3.855600	-11.506000	21.720770	0.000456	20.849169
115.027640	-3.009800	3.854300	-11.600000	21.751939	0.000455	20.868035
116.025256	-2.999500	3.854300	-11.560000	21.756854	0.000453	20.868686
117.027794	-3.008000	3.852600	-11.588000	21.770243	0.000455	20.875922
118.025726	-3.026800	3.852900	-11.661000	21.781436	0.000456	20.874796
119.026571	-2.983700	3.854700	-11.500000	21.796794	0.000455	20.861245
120.026124	-3.019600	3.851900	-11.630000	21.802779	0.000458	20.869606
121.026306	-3.009000	3.852700	-11.592000	21.801457	0.000457	20.870653
122.027199	-2.994400	3.852500	-11.535000	21.818936	0.000458	20.865862
123.025984	-3.000800	3.852700	-11.560000	21.789366	0.000458	20.863294
124.028287	-2.977300	3.852000	-11.468000	21.819806	0.000458	20.869578
125.026541	-2.992600	3.851800	-11.526000	21.820679	0.000457	20.882779
126.027563	-2.985500	3.852100	-11.500000	21.842124	0.000460	20.854933
127.026849	-2.979300	3.853600	-11.481000	21.851072	0.000459	20.872897
128.035865	-3.003800	3.851800	-11.569000	21.865404	0.000459	20.857371
129.034539	-3.002900	3.850600	-11.562000	21.861115	0.000460	20.863984
130.028099	-2.996500	3.851500	-11.540000	21.863632	0.000460	20.872193
131.029348	-3.002600	3.851200	-11.563000	21.875747	0.000459	20.879103
132.029474	-2.990500	3.851700	-11.518000	21.875525	0.000460	20.879354
133.027891	-3.019400	3.850500	-11.625000	21.888736	0.000461	20.893999
134.028825	-2.991100	3.851300	-11.519000	21.911424	0.000461	20.876881
135.031932	-2.994100	3.851200	-11.530000	21.893095	0.000462	20.887931
136.028494	-2.998300	3.852200	-11.550000	21.927650	0.000463	20.870838
137.032816	-3.003500	3.850100	-11.563000	21.940012	0.000462	20.878470
138.029646	-2.999600	3.849600	-11.546000	21.944773	0.000463	20.865693
139.030118	-3.017600	3.850000	-11.617000	21.952822	0.000461	20.891767
140.032883	-2.994900	3.850300	-11.531000	21.961299	0.000462	20.888398
141.031539	-2.981400	3.851200	-11.482000	21.962918	0.000459	20.887174
142.033453	-3.002500	3.848500	-11.553000	21.970617	0.000462	20.873071
143.033872	-2.978800	3.850300	-11.468000	21.976549	0.000460	20.893232
144.033237	-2.993900	3.848700	-11.522000	21.990585	0.000459	20.884050
145.031208	-2.994400	3.850300	-11.528000	21.994721	0.000461	20.895776
146.036655	-3.001100	3.848600	-11.549000	21.993427	0.000460	20.879309
147.032932	-3.004700	3.848700	-11.563000	22.012123	0.000459	20.889488
148.036161	-3.000600	3.848400	-11.546000	22.015937	0.000460	20.880979
149.037348	-2.984500	3.849600	-11.488000	22.035678	0.000462	20.890309
150.035073	-3.005900	3.847600	-11.564000	22.044355	0.000463	20.900892
151.036638	-3.004800	3.848700	-11.564000	22.048120	0.000461	20.895178
152.037068	-2.985900	3.847100	-11.486000	22.062329	0.000463	20.882376
153.037530	-3.011800	3.847700	-11.588000	22.061781	0.000462	20.906956
154.035336	-3.028400	3.847400	-11.650000	22.062651	0.000463	20.889336
155.037858	-2.984700	3.848300	-11.485000	22.075262	0.000463	20.897219
156.034703	-3.008000	3.846100	-11.569000	22.106404	0.000465	20.881931
157.039146	-3.021000	3.847500	-11.622000	22.121708	0.000466	20.912897
158.036525	-3.002000	3.847000	-11.548000	22.139178	0.000463	20.880604
159.038127	-3.018100	3.846600	-11.608000	22.143943	0.000463	20.902915
160.035724	-3.016400	3.846200	-11.601000	22.156256	0.000465	20.903390
161.038538	-3.012000	3.846800	-11.585000	22.134523	0.000466	20.895383
162.040717	-3.009400	3.844800	-11.569000	22.153093	0.000466	20.909231
163.038452	-2.999200	3.846100	-11.534000	22.140634	0.000469	20.894388
164.040472	-2.978000	3.845700	-11.452000	22.156683	0.000467	20.908559
165.039268	-2.998200	3.846300	-11.531000	22.163441	0.000468	20.893988
166.040579	-2.995200	3.845200	-11.517000	22.187572	0.000467	20.896338
167.038512	-3.004500	3.845300	-11.552000	22.182437	0.000469	20.883611
168.039278	-2.998400	3.845400	-11.528000	22.174687	0.000469	20.885808
169.038657	-3.001100	3.845300	-11.538000	22.209208	0.000470	20.913731
170.042854	-3.002700	3.844700	-11.544000	22.195549	0.000469	20.870661
171.040638	-3.005200	3.844200	-11.551000	22.197422	0.000468	20.874433
172.042115	-2.991700	3.843600	-11.498000	22.214421	0.000471	20.867271
173.045861	-3.005900	3.842600	-11.549000	22.233685	0.000471	20.883239
174.043974	-2.977700	3.845200	-11.448000	22.211357	0.000472	20.875108
175.043197	-3.007900	3.843500	-11.560000	22.221726	0.000473	20.873162
176.044612	-2.973200	3.844200	-11.429000	22.237279	0.000473	20.857442
177.043372	-2.980000	3.843200	-11.452000	22.239548	0.000471	20.879627
178.043175	-2.998100	3.843700	-11.523000	22.257547	0.000472	20.870622
179.046165	-2.982500	3.844300	-11.465000	22.264848	0.000474	20.880776
180.042677	-3.005800	3.842600	-11.549000	22.267268	0.000473	20.882726
181.045155	-2.996500	3.842600	-11.514000	22.285037	0.000471	20.846940
182.047281	-3.003500	3.842100	-11.539000	22.300815	0.000474	20.854678
183.045969	-3.023400	3.841200	-11.613000	22.310760	0.000475	20.860368
184.043984	-2.995500	3.841800	-11.508000	22.299420	0.000476	20.866556
185.045533	-2.981100	3.841900	-11.451000	22.305130	0.000475	20.871326
186.045463	-3.006600	3.841600	-11.550000	22.309968	0.000476	20.864316
187.043402	-3.002400	3.841500	-11.533000	22.314502	0.000476	20.866485
188.048512	-3.022700	3.840900	-11.609000	22.334891	0.000476	20.864617
189.046747	-3.023200	3.841400	-11.612000	22.349217	0.000476	20.863315
190.049952	-2.995300	3.841600	-11.506000	22.331298	0.000476	20.860545
191.046762	-2.990400	3.840900	-11.485000	22.340394	0.000477	20.860644
192.046697	-3.011700	3.839400	-11.562000	22.349238	0.000476	20.847690
193.046126	-3.021300	3.840600	-11.602000	22.346503	0.000477	20.859649
194.050182	-3.012900	3.839800	-11.569000	22.385624	0.000477	20.853305
195.049073	-3.023700	3.838900	-11.607000	22.365260	0.000478	20.858991
196.044710	-3.013000	3.839200	-11.567000	22.378444	0.000479	20.845641
197.052235	-3.020200	3.838600	-11.593000	22.369596	0.000478	20.852902
198.044630	-3.001300	3.840000	-11.523000	22.394766	0.000479	20.855347
199.047721	-3.033300	3.839300	-11.645000	22.414847	0.000481	20.837525
200.048652	-2.985400	3.839700	-11.462000	22.453371	0.000480	20.850974
201.045115	-3.010700	3.838700	-11.556000	22.441309	0.000481	20.864971
202.044882	-3.013800	3.839100	-11.569000	22.465233	0.000479	20.856214
203.050722	-3.007400	3.837400	-11.539000	22.447238	0.000481	20.869012
204.047609	-2.991500	3.839200	-11.483000	22.480581	0.000481	20.840292
205.045753	-2.986800	3.838600	-11.464000	22.499067	0.000482	20.840787
206.049169	-2.985100	3.837900	-11.456000	22.493163	0.000482	20.850047
207.060992	-2.993800	3.837600	-11.488000	22.502555	0.000480	20.854237
208.049560	-3.003000	3.838500	-11.526000	22.508512	0.000479	20.851194
209.050593	-2.998200	3.836900	-11.502000	22.505894	0.000479	20.858528
210.051445	-2.987700	3.838100	-11.464000	22.512519	0.000481	20.858051
211.047340	-2.995600	3.836600	-11.492000	22.522613	0.000482	20.845401
212.055673	-3.003100	3.837000	-11.522000	22.526926	0.000481	20.855885
213.052390	-3.001400	3.836600	-11.514000	22.530191	0.000483	20.854413
214.050146	-2.985400	3.836300	-11.451000	22.547761	0.000482	20.840716
215.055192	-2.989700	3.836500	-11.469000	22.519754	0.000483	20.837323
216.050029	-2.991400	3.835600	-11.472000	22.532187	0.000481	20.845507
217.050344	-2.982400	3.836000	-11.438000	22.547839	0.000485	20.838898
218.061969	-3.016700	3.836700	-11.572000	22.560769	0.000483	20.848529
219.050405	-2.993500	3.834200	-11.477000	22.575594	0.000484	20.832557
220.054282	-2.996600	3.835400	-11.492000	22.600614	0.000483	20.836279
221.056146	-2.987700	3.835100	-11.457000	22.583970	0.000483	20.850429
222.050178	-2.987900	3.835400	-11.459000	22.574453	0.000485	20.836155
223.051081	-2.989900	3.835100	-11.465000	22.594166	0.000486	20.830770
224.055170	-3.024400	3.834200	-11.595000	22.573336	0.000488	20.843097
225.052560	-3.010300	3.833800	-11.540000	22.562850	0.000485	20.860095
226.052808	-3.013400	3.833200	-11.550000	22.596537	0.000487	20.849739
227.054333	-3.041000	3.832100	-11.652000	22.591633	0.000487	20.823965
228.051618	-2.999200	3.832000	-11.492000	22.622927	0.000487	20.838239
229.051872	-3.004700	3.832000	-11.513000	22.642562	0.000487	20.821396
230.055432	-3.008200	3.832400	-11.528000	22.654079	0.000487	20.827242
231.053778	-3.013000	3.832800	-11.547000	22.637083	0.000488	20.837245
232.053832	-3.011300	3.831800	-11.538000	22.653482	0.000491	20.826644
233.056751	-3.001600	3.832600	-11.503000	22.670202	0.000489	20.832959
234.054337	-3.000700	3.832100	-11.498000	22.673568	0.000487	20.832538
235.055956	-3.002900	3.831400	-11.504000	22.649974	0.000489	20.823130
236.057769	-3.002400	3.830700	-11.500000	22.661762	0.000489	20.822610
237.055006	-2.988400	3.831900	-11.450000	22.667146	0.000489	20.827054
238.059748	-2.994700	3.831800	-11.474000	22.638520	0.000490	20.860020
239.057352	-2.973800	3.831200	-11.392000	22.653746	0.000491	20.821219
240.055765	-2.981500	3.830300	-11.419000	22.683223	0.000491	20.815656
241.056044	-2.983600	3.831500	-11.430000	22.706421	0.000489	20.821350
242.056703	-3.025700	3.829300	-11.585000	22.703560	0.000492	20.809949
243.057074	-2.994000	3.831000	-11.469000	22.695092	0.000490	20.818062
244.063478	-2.995400	3.829100	-11.468000	22.735953	0.000490	20.812051
245.056924	-2.992900	3.828700	-11.458000	22.745646	0.000491	20.825553
246.061286	-3.004300	3.830100	-11.506000	22.748687	0.000495	20.830496
247.057781	-2.985800	3.828700	-11.431000	22.757433	0.000492	20.813179
248.060113	-2.994100	3.828000	-11.460000	22.734416	0.000496	20.817623
249.059760	-2.994800	3.829900	-11.468000	22.740347	0.000496	20.782313
250.059874	-3.009000	3.827600	-11.517000	22.739580	0.000493	20.822322
251.059349	-3.001500	3.828200	-11.489000	22.733257	0.000492	20.821204
252.058807	-2.985700	3.829300	-11.432000	22.744692	0.000493	20.802787
253.058260	-2.988400	3.829100	-11.441000	22.782142	0.000494	20.807585
254.056345	-3.035100	3.826300	-11.612000	22.779203	0.000494	20.826926
255.057886	-3.012400	3.827900	-11.529000	22.805815	0.000494	20.805695
256.057674	-2.997200	3.828300	-11.473000	22.789825	0.000492	20.804850
257.062510	-3.008100	3.827200	-11.511000	22.812520	0.000494	20.794393
258.058568	-3.001400	3.826800	-11.485000	22.831085	0.000493	20.816310
259.058332	-3.011000	3.826800	-11.522000	22.843267	0.000493	20.822825
260.059489	-3.013000	3.826600	-11.529000	22.825511	0.000495	20.813098
261.063555	-3.008400	3.825800	-11.508000	22.809945	0.000494	20.800349
262.061560	-3.011800	3.826000	-11.523000	22.816896	0.000497	20.795933
263.064637	-2.998700	3.826600	-11.474000	22.847718	0.000497	20.815904
264.063660	-3.014700	3.826000	-11.533000	22.858158	0.000495	20.793647
265.064941	-3.005900	3.825900	-11.500000	22.878962	0.000499	20.806428
266.068030	-2.992400	3.826600	-11.450000	22.846358	0.000497	20.781351
267.065856	-3.014400	3.824700	-11.528000	22.859540	0.000497	20.803565
268.069644	-3.011500	3.824400	-11.517000	22.859416	0.000496	20.810080
269.069564	-2.980200	3.825700	-11.400000	22.859843	0.000498	20.792016
270.071910	-2.994200	3.824600	-11.451000	22.906801	0.000498	20.781687
271.069086	-3.004900	3.823400	-11.488000	22.921897	0.000499	20.802026
272.072741	-2.994500	3.823100	-11.447000	22.913855	0.000500	20.791124
273.071042	-2.982800	3.824600	-11.407000	22.922402	0.000499	20.812489
274.072043	-2.987500	3.823300	-11.421000	22.911393	0.000501	20.789606
275.080208	-2.990000	3.823500	-11.431000	22.917175	0.000500	20.772165
276.075179	-3.002500	3.822400	-11.476000	22.936056	0.000501	20.785866
277.072447	-3.008600	3.823300	-11.502000	22.957455	0.000503	20.779331
278.077610	-3.002500	3.822700	-11.477000	22.942562	0.000503	20.807083
279.074091	-3.003700	3.823000	-11.482000	22.933570	0.000502	20.778634
280.075694	-3.003400	3.822300	-11.479000	22.970661	0.000501	20.777388
281.076461	-3.009500	3.822500	-11.503000	22.991335	0.000503	20.790990
282.075667	-2.996700	3.822600	-11.454000	23.001792	0.000503	20.786294
283.074204	-2.988100	3.821700	-11.419000	23.007023	0.000502	20.799121
284.076585	-3.012700	3.822300	-11.514000	23.000426	0.000503	20.794882
285.077423	-3.010400	3.822000	-11.505000	23.010042	0.000504	20.802621
286.077184	-2.987600	3.820300	-11.413000	22.992080	0.000504	20.776564
287.075808	-2.977700	3.821900	-11.380000	22.975969	0.000506	20.793612
288.078145	-2.990100	3.821300	-11.425000	22.991907	0.000504	20.804840
289.078697	-2.998700	3.820500	-11.456000	22.979857	0.000504	20.789447
290.075794	-2.978600	3.820500	-11.379000	23.015823	0.000505	20.779016
291.077385	-3.007900	3.818100	-11.483000	23.025687	0.000502	20.778942
292.085979	-3.005500	3.819100	-11.477000	23.060681	0.000506	20.786503
293.081773	-3.013700	3.819300	-11.510000	23.064470	0.000506	20.778446
294.079208	-2.993700	3.819800	-11.435000	23.081601	0.000506	20.769533
295.075881	-3.000200	3.818900	-11.456000	23.077473	0.000506	20.776776
296.077606	-3.009000	3.817800	-11.486000	23.061306	0.000508	20.785707
297.080119	-3.014900	3.817700	-11.509000	23.090450	0.000508	20.778400
298.075539	-3.025100	3.816800	-11.545000	23.036006	0.000508	20.785488
299.077318	-2.959400	3.819500	-11.303000	23.056726	0.000509	20.771635
300.077782	-2.984300	3.818100	-11.393000	23.061309	0.000508	20.775279
301.077957	-2.989900	3.817800	-11.415000	23.070279	0.000509	20.785690
302.078730	-3.012600	3.816400	-11.496000	23.045499	0.000509	20.792629
303.078563	-3.003300	3.816800	-11.462000	23.051203	0.000509	20.775584
304.077740	-3.007500	3.817500	-11.480000	23.082583	0.000509	20.774310
305.077394	-2.991800	3.817300	-11.420000	23.087643	0.000509	20.787442
306.079995	-3.016500	3.816400	-11.511000	23.094370	0.000510	20.779484
307.078308	-2.999600	3.816000	-11.446000	23.112306	0.000510	20.773748
308.081155	-2.998800	3.816100	-11.442000	23.134398	0.000510	20.763168
309.081055	-2.987400	3.816900	-11.402000	23.111466	0.000510	20.765319
310.078114	-3.022900	3.814600	-11.531000	23.082124	0.000508	20.775273
311.082830	-2.994300	3.816500	-11.427000	23.111865	0.000510	20.771409
312.079777	-2.991300	3.816000	-11.413000	23.119485	0.000509	20.768139
313.078579	-2.999900	3.814900	-11.443000	23.138116	0.000511	20.762626
314.080773	-3.001800	3.814000	-11.448000	23.145966	0.000512	20.779028
315.079084	-2.982300	3.813300	-11.370000	23.135186	0.000513	20.756371
316.081446	-3.006200	3.813300	-11.462000	23.117780	0.000513	20.767379
317.082222	-2.989700	3.814200	-11.403000	23.127647	0.000511	20.763515
318.079803	-3.000100	3.814200	-11.441000	23.142788	0.000513	20.769205
319.079821	-3.006500	3.813200	-11.464000	23.193318	0.000512	20.765787
320.082478	-2.998900	3.813100	-11.435000	23.166899	0.000514	20.779141
321.082260	-2.993000	3.814500	-11.416000	23.164759	0.000513	20.773204
322.081294	-3.012700	3.812900	-11.487000	23.188068	0.000515	20.750094
323.079652	-3.021200	3.811600	-11.515000	23.182440	0.000514	20.773851
324.083704	-2.995900	3.812800	-11.421000	23.188047	0.000516	20.765246
325.081258	-2.996300	3.812900	-11.425000	23.199526	0.000515	20.754464
326.088285	-2.994500	3.812700	-11.415000	23.201843	0.000514	20.755837
327.086005	-2.990500	3.811700	-11.398000	23.203463	0.000514	20.755090
328.085500	-2.998300	3.810900	-11.426000	23.191878	0.000516	20.759128
329.084142	-2.997700	3.811100	-11.424000	23.232671	0.000516	20.741212
330.091261	-3.030500	3.809500	-11.544000	23.239814	0.000516	20.751215
331.087196	-3.015000	3.810800	-11.489000	23.262771	0.000517	20.753834
332.090277	-2.969300	3.810400	-11.313000	23.273060	0.000517	20.766990
333.085829	-2.992700	3.810800	-11.403000	23.263322	0.000517	20.770508
334.089284	-2.990900	3.809000	-11.391000	23.241509	0.000516	20.786105
335.084637	-3.004600	3.809200	-11.444000	23.305726	0.000517	20.746148
336.086907	-3.005500	3.808100	-11.444000	23.282244	0.000517	20.742054
337.088768	-3.008500	3.808300	-11.455000	23.300720	0.000518	20.747768
338.086080	-2.979200	3.808800	-11.346000	23.297733	0.000516	20.753784
339.086545	-2.978600	3.809600	-11.347000	23.351740	0.000519	20.748168
340.090226	-3.004000	3.807100	-11.436000	23.390208	0.000519	20.744049
341.095118	-2.983200	3.807700	-11.357000	23.390278	0.000519	20.735111
342.089756	-3.020000	3.808400	-11.499000	23.376111	0.000519	20.737980
343.092844	-3.009300	3.807300	-11.456000	23.378727	0.000520	20.735861
344.088659	-2.995800	3.807500	-11.406000	23.357760	0.000521	20.726225
345.093144	-3.006100	3.806000	-11.441000	23.396478	0.000520	20.745592
346.090129	-2.994600	3.809100	-11.406000	23.386091	0.000521	20.748932
347.090367	-3.011900	3.806900	-11.465000	23.417112	0.000522	20.752524
348.089659	-2.997200	3.806600	-11.408000	23.432970	0.000522	20.759884
349.090510	-3.015600	3.805900	-11.477000	23.391217	0.000523	20.737948
350.088543	-3.034600	3.805000	-11.546000	23.378885	0.000524	20.763047
351.088761	-3.014800	3.806500	-11.475000	23.396714	0.000526	20.757683
352.091409	-3.022900	3.805700	-11.503000	23.413946	0.000526	20.733702
353.088502	-3.023000	3.805000	-11.501000	23.391259	0.000522	20.745577
354.089114	-3.008400	3.806000	-11.449000	23.401713	0.000524	20.737562
355.091778	-2.992400	3.804800	-11.384000	23.405342	0.000525	20.726500
356.089231	-2.986100	3.805400	-11.362000	23.426757	0.000525	20.734215
357.088748	-2.985900	3.805000	-11.361000	23.424063	0.000526	20.740050
358.092413	-3.025700	3.803700	-11.508000	23.450024	0.000524	20.749002
359.091287	-2.991000	3.803900	-11.377000	23.476864	0.000524	20.763103
360.090722	-3.010200	3.803400	-11.447000	23.467301	0.000526	20.770113
361.093898	-3.027100	3.802800	-11.510000	23.457783	0.000529	20.736390
362.090060	-3.002700	3.803300	-11.419000	23.479395	0.000526	20.758528
363.090328	-2.999300	3.802400	-11.403000	23.541950	0.000527	20.742997
364.103498	-3.021400	3.802800	-11.488000	23.520887	0.000527	20.738952
365.091060	-3.000800	3.802800	-11.410000	23.486229	0.000525	20.743092
366.092152	-2.987200	3.801500	-11.354000	23.485576	0.000527	20.730583
367.095552	-2.995500	3.802900	-11.391000	23.476807	0.000527	20.730328
368.093150	-2.997600	3.801600	-11.395000	23.474939	0.000529	20.725611
369.094808	-3.005200	3.800800	-11.421000	23.464554	0.000525	20.723261
370.095257	-3.000700	3.801200	-11.406000	23.504807	0.000527	20.735162
371.096081	-3.024600	3.799600	-11.491000	23.525419	0.000526	20.728322
372.096492	-2.996700	3.801300	-11.390000	23.547498	0.000527	20.725798
373.099164	-3.008000	3.799000	-11.425000	23.549489	0.000528	20.742968
374.096913	-2.998600	3.798900	-11.391000	23.524391	0.000527	20.729188
375.098947	-2.990000	3.799600	-11.360000	23.562475	0.000529	20.740339
376.098101	-2.998300	3.800000	-11.393000	23.521048	0.000528	20.729157
377.098150	-2.998100	3.800900	-11.395000	23.529732	0.000528	20.727904
378.100063	-2.994200	3.800400	-11.378000	23.583284	0.000528	20.736542
379.100780	-2.987900	3.801200	-11.357000	23.550742	0.000530	20.733792
380.096198	-3.008100	3.799600	-11.429000	23.565204	0.000531	20.729323
381.099062	-2.964600	3.798800	-11.262000	23.515662	0.000530	20.730395
382.101595	-2.988800	3.797300	-11.348000	23.547925	0.000530	20.733813
383.098641	-2.979700	3.798900	-11.318000	23.541423	0.000530	20.745788
384.101440	-2.981000	3.798300	-11.322000	23.590887	0.000531	20.743215
385.100447	-3.006600	3.798000	-11.418000	23.589987	0.000531	20.744684
386.097864	-3.006500	3.795700	-11.411000	23.591229	0.000532	20.740240
387.099472	-2.983900	3.797800	-11.332000	23.577188	0.000529	20.732327
388.102196	-2.979500	3.797500	-11.314000	23.606114	0.000530	20.742833
389.101192	-3.043800	3.795200	-11.551000	23.619308	0.000531	20.737094
390.101301	-2.986600	3.798100	-11.343000	23.646662	0.000530	20.734645
391.100880	-3.008400	3.795300	-11.418000	23.694851	0.000530	20.729850
392.100772	-3.013100	3.795900	-11.437000	23.682480	0.000532	20.742104
393.104487	-3.005700	3.795600	-11.407000	23.672746	0.000528	20.729974
394.104148	-3.010600	3.795000	-11.424000	23.667469	0.000531	20.742228
395.099912	-2.996900	3.796000	-11.375000	23.698906	0.000530	20.739132
396.099786	-2.990700	3.794700	-11.348000	23.689002	0.000533	20.735367
397.103245	-2.998400	3.794400	-11.377000	23.661543	0.000532	20.741977
398.104841	-2.998400	3.794000	-11.374000	23.673812	0.000532	20.738155
399.102411	-2.972300	3.795500	-11.280000	23.677267	0.000531	20.729765
400.101815	-2.985700	3.794100	-11.327000	23.689941	0.000533	20.751482
401.103909	-2.997700	3.793700	-11.371000	23.681227	0.000533	20.723778
402.101769	-2.997100	3.793200	-11.368000	23.704299	0.000532	20.744539
403.102092	-3.018800	3.792000	-11.447000	23.738276	0.000533	20.763906
404.103498	-3.004300	3.792500	-11.392000	23.732223	0.000531	20.733654
405.103188	-3.011800	3.792200	-11.420000	23.743499	0.000532	20.734528
406.102147	-3.011400	3.790900	-11.415000	23.730903	0.000532	20.747504
407.101059	-2.984400	3.791500	-11.314000	23.749573	0.000529	20.756266
408.103185	-3.013300	3.790400	-11.421000	23.727194	0.000531	20.741889
409.107202	-3.012100	3.790600	-11.417000	23.716690	0.000533	20.735151
410.103669	-3.014600	3.790800	-11.426000	23.706657	0.000530	20.732203
411.105762	-3.003600	3.791200	-11.386000	23.710267	0.000530	20.745781
412.105587	-3.006600	3.791300	-11.399000	23.687146	0.000531	20.749628
413.107154	-2.996300	3.790700	-11.358000	23.721240	0.000531	20.759628
414.106320	-3.020100	3.790000	-11.446000	23.716189	0.000531	20.742710
415.104982	-3.003100	3.790300	-11.382000	23.733787	0.000530	20.754663
416.102840	-3.002300	3.790300	-11.379000	23.754419	0.000531	20.735045
417.106151	-2.966900	3.789700	-11.243000	23.767067	0.000532	20.743934
418.106290	-2.996200	3.788000	-11.349000	23.787498	0.000532	20.736443
419.109760	-2.991500	3.788200	-11.332000	23.792904	0.000532	20.734751
420.109535	-3.012700	3.788600	-11.413000	23.809501	0.000531	20.747126
421.108973	-2.980100	3.790100	-11.293000	23.822873	0.000531	20.736351
422.110719	-3.003000	3.789700	-11.379000	23.848105	0.000529	20.759281
423.108407	-3.009700	3.787100	-11.397000	23.784515	0.000533	20.747204
424.109406	-2.998300	3.788300	-11.357000	23.781780	0.000533	20.737823
425.113691	-3.010900	3.787300	-11.402000	23.812543	0.000530	20.742115
426.108008	-2.999300	3.787900	-11.360000	23.832133	0.000533	20.757964
427.108053	-3.001200	3.786400	-11.363000	23.804532	0.000533	20.768223
428.111107	-2.995000	3.785700	-11.337000	23.813140	0.000535	20.753145
429.114110	-2.969400	3.787400	-11.245000	23.815331	0.000533	20.744911
430.109132	-2.999900	3.786500	-11.358000	23.800499	0.000535	20.743315
431.112397	-3.013900	3.785300	-11.408000	23.775633	0.000535	20.739245
432.110392	-2.987600	3.785600	-11.309000	23.780012	0.000536	20.764026
433.110856	-3.006600	3.784400	-11.378000	23.773614	0.000535	20.741489
434.115138	-2.990400	3.785000	-11.317000	23.780531	0.000535	20.734199
435.111078	-2.992100	3.785500	-11.325000	23.769555	0.000538	20.727462
436.108891	-2.997700	3.785500	-11.347000	23.759501	0.000536	20.741563
437.114361	-2.992700	3.784400	-11.325000	23.779860	0.000536	20.749175
438.113125	-2.997600	3.784700	-11.344000	23.804748	0.000537	20.742359
439.114032	-2.998800	3.782900	-11.342000	23.803506	0.000537	20.753442
440.114847	-3.011800	3.783300	-11.394000	23.814481	0.000536	20.742161
441.111974	-2.994600	3.783800	-11.330000	23.807063	0.000535	20.756061
442.114709	-3.016300	3.782400	-11.408000	23.798177	0.000535	20.779394
443.121062	-3.007700	3.782500	-11.375000	23.791828	0.000538	20.746475
444.113201	-3.022300	3.781300	-11.427000	23.842953	0.000536	20.751744
445.112840	-2.997400	3.782100	-11.335000	23.863858	0.000535	20.755636
446.114065	-3.013000	3.781800	-11.393000	23.867443	0.000537	20.758757
447.111505	-3.026000	3.780600	-11.438000	23.850646	0.000533	20.746181
448.112697	-3.016200	3.780200	-11.401000	23.840490	0.000536	20.756386
449.116992	-2.971100	3.781600	-11.234000	23.860128	0.000536	20.755215
450.113396	-3.003000	3.780200	-11.351000	23.850071	0.000534	20.752717
451.114445	-3.009800	3.780900	-11.378000	23.877374	0.000536	20.761602
452.118325	-2.991800	3.780100	-11.309000	23.915280	0.000533	20.743187
453.113948	-3.005900	3.780000	-11.361000	23.920707	0.000536	20.763803
454.116219	-3.014400	3.780600	-11.395000	23.917499	0.000536	20.761535
455.119169	-3.021600	3.778600	-11.416000	23.913342	0.000536	20.761634
456.115680	-3.022400	3.778400	-11.419000	23.845028	0.000537	20.740547
457.119674	-2.980800	3.778100	-11.261000	23.877857	0.000536	20.766354
458.120523	-2.987800	3.780300	-11.294000	23.919719	0.000537	20.766606
459.116681	-2.994600	3.779100	-11.316000	23.957443	0.000537	20.734733
460.120356	-2.984000	3.779800	-11.277000	23.941720	0.000537	20.754054
461.119792	-3.014400	3.777400	-11.386000	23.928530	0.000538	20.766906
462.119133	-2.999800	3.778700	-11.334000	23.918748	0.000538	20.759468
463.120915	-2.992300	3.776800	-11.300000	23.919920	0.000539	20.768704
464.119766	-2.984900	3.779100	-11.280000	23.961730	0.000538	20.765112
465.117977	-3.010200	3.776200	-11.367000	23.971314	0.000539	20.773300
466.123856	-2.995500	3.777500	-11.314000	23.977256	0.000538	20.752706
467.126025	-3.017900	3.776500	-11.397000	23.994055	0.000538	20.752483
468.119712	-3.004600	3.777100	-11.348000	24.004185	0.000539	20.758375
469.124969	-3.017900	3.774700	-11.391000	24.024421	0.000538	20.772030
470.125483	-2.997200	3.776200	-11.317000	24.029145	0.000539	20.763492
471.121340	-2.996900	3.775300	-11.313000	23.995752	0.000538	20.759875
472.124845	-2.999700	3.776000	-11.326000	23.999066	0.000538	20.761775
473.123640	-2.994600	3.774300	-11.301000	24.012354	0.000540	20.765618
474.123009	-3.001800	3.774400	-11.329000	24.044701	0.000539	20.763920
475.128611	-3.000600	3.774000	-11.323000	24.036396	0.000540	20.760332
476.123745	-3.008300	3.774700	-11.354000	24.023983	0.000538	20.770643
477.122833	-2.997600	3.773700	-11.311000	24.028387	0.000539	20.773162
478.126137	-3.018700	3.772900	-11.387000	23.998229	0.000538	20.771368
479.124379	-2.998700	3.774100	-11.317000	24.026072	0.000539	20.758513
480.125640	-2.983900	3.773400	-11.258000	24.067706	0.000540	20.759489
481.126766	-3.003900	3.772900	-11.332000	24.095998	0.000539	20.757519
482.128402	-2.977800	3.774300	-11.239000	24.111501	0.000540	20.750781
483.125752	-3.019900	3.772700	-11.392000	24.089626	0.000541	20.781949
484.129099	-2.981200	3.772700	-11.247000	24.141658	0.000539	20.774390
485.128428	-2.983400	3.772900	-11.256000	24.157457	0.000538	20.757519
486.128328	-2.970900	3.771400	-11.204000	24.149794	0.000541	20.771170
487.131188	-2.989900	3.772500	-11.278000	24.151261	0.000539	20.770746
488.132036	-3.013100	3.771600	-11.363000	24.127747	0.000540	20.779404
489.130189	-3.014800	3.771000	-11.368000	24.144191	0.000541	20.758439
490.130903	-3.013000	3.770400	-11.359000	24.176412	0.000543	20.761358
491.133756	-3.020400	3.769100	-11.383000	24.112418	0.000542	20.780151
492.129550	-2.985200	3.772000	-11.259000	24.132147	0.000542	20.768644
493.130478	-3.010200	3.769800	-11.347000	24.114030	0.000541	20.776078
494.127942	-2.997800	3.771100	-11.305000	24.136176	0.000543	20.779323
495.130141	-2.995700	3.769100	-11.290000	24.161976	0.000542	20.768690
496.130654	-2.978800	3.770400	-11.231000	24.152323	0.000541	20.784613
497.132700	-2.980100	3.769800	-11.234000	24.180910	0.000541	20.769189
498.129229	-2.982700	3.769800	-11.243000	24.185486	0.000543	20.770459
499.131989	-3.011000	3.768300	-11.346000	24.192506	0.000544	20.772285
500.131585	-3.001300	3.767600	-11.307000	24.156303	0.000544	20.799036
501.131297	-3.001200	3.765800	-11.301000	24.175883	0.000542	20.806346
502.133430	-3.026900	3.765700	-11.398000	24.157965	0.000543	20.786478
503.132772	-2.971100	3.767800	-11.194000	24.135869	0.000542	20.794662
504.132407	-2.999200	3.766500	-11.296000	24.118747	0.000542	20.786025
505.133211	-3.007100	3.766300	-11.324000	24.098196	0.000545	20.788173
506.132897	-2.999600	3.765800	-11.296000	24.131985	0.000544	20.786025
507.134053	-2.989800	3.765300	-11.257000	24.122152	0.000544	20.788491
508.133573	-2.986300	3.766700	-11.247000	24.132129	0.000543	20.777635
509.135817	-3.033600	3.764500	-11.418000	24.137626	0.000546	20.789312
510.133377	-2.989000	3.765600	-11.254000	24.181612	0.000544	20.784118
511.135668	-3.009300	3.764000	-11.326000	24.204751	0.000543	20.791680
512.136107	-2.986600	3.764600	-11.243000	24.183404	0.000541	20.784967
513.135465	-3.001800	3.763500	-11.297000	24.216813	0.000543	20.806148
514.134981	-2.993100	3.764400	-11.267000	24.193127	0.000541	20.810840
515.135906	-2.990000	3.764800	-11.256000	24.221811	0.000543	20.805473
516.135897	-3.000600	3.763400	-11.290000	24.231491	0.000544	20.786733
517.137187	-2.990700	3.764100	-11.257000	24.188520	0.000542	20.791046
518.137732	-3.003200	3.764000	-11.303000	24.175657	0.000543	20.779567
519.137621	-3.000600	3.762000	-11.288000	24.195953	0.000541	20.790441
520.137661	-3.002900	3.762400	-11.297000	24.182000	0.000542	20.805844
521.139421	-3.001600	3.762300	-11.293000	24.201876	0.000542	20.796382
522.138352	-3.000500	3.762000	-11.287000	24.203622	0.000542	20.812358
523.140048	-2.985300	3.761700	-11.229000	24.213892	0.000543	20.801322
524.143822	-3.001400	3.762400	-11.292000	24.236434	0.000542	20.784104
525.138582	-3.000000	3.762200	-11.286000	24.253800	0.000542	20.783506
526.138410	-3.034900	3.760300	-11.412000	24.279675	0.000543	20.789546
527.140063	-3.000500	3.761200	-11.284000	24.275545	0.000541	20.811481
528.143517	-2.983800	3.760800	-11.220000	24.292064	0.000543	20.804344
529.146565	-2.997100	3.761500	-11.273000	24.297115	0.000543	20.805143
530.141284	-2.985100	3.760200	-11.223000	24.287535	0.000542	20.801697
531.140241	-2.971300	3.759700	-11.170000	24.227802	0.000543	20.813377
532.139499	-2.973000	3.761500	-11.182000	24.296717	0.000543	20.808537
533.143323	-3.007000	3.760000	-11.306000	24.299750	0.000544	20.824382
534.142031	-3.011300	3.757800	-11.315000	24.306442	0.000542	20.803120
535.142797	-3.018700	3.758800	-11.345000	24.308604	0.000544	20.795331
536.142128	-3.022200	3.758000	-11.356000	24.289200	0.000543	20.805738
537.145683	-3.021000	3.758600	-11.353000	24.279845	0.000544	20.800621
538.144136	-3.000400	3.759200	-11.279000	24.288477	0.000543	20.828246
539.145290	-2.984600	3.756200	-11.210000	24.284497	0.000545	20.803866
540.148057	-3.002400	3.756600	-11.278000	24.330771	0.000542	20.806187
541.145220	-3.019900	3.755000	-11.338000	24.305119	0.000541	20.818388
542.145614	-2.995500	3.757100	-11.253000	24.321515	0.000542	20.806386
543.150130	-3.005800	3.756500	-11.290000	24.339025	0.000544	20.812097
544.149299	-3.016200	3.755400	-11.325000	24.334824	0.000544	20.816891
545.148066	-3.015700	3.754800	-11.323000	24.325197	0.000544	20.813399
546.151238	-3.017500	3.755000	-11.330000	24.326217	0.000544	20.829120
547.149532	-3.007200	3.754200	-11.289000	24.337035	0.000543	20.816739
548.148316	-2.980800	3.756100	-11.195000	24.300315	0.000543	20.816888
549.150945	-3.015900	3.755400	-11.324000	24.326016	0.000545	20.830341
550.148570	-2.988900	3.754700	-11.221000	24.372135	0.000545	20.830139
551.149864	-2.997600	3.754100	-11.253000	24.397810	0.000544	20.800420
552.151279	-3.004800	3.753300	-11.277000	24.421142	0.000544	20.818137
553.151850	-3.022000	3.754200	-11.344000	24.416634	0.000545	20.815037
554.150190	-2.992700	3.753900	-11.233000	24.389973	0.000545	20.842817
555.153526	-2.992900	3.755200	-11.238000	24.385042	0.000544	20.823172
556.151456	-2.992000	3.753400	-11.229000	24.415516	0.000545	20.842364
557.150245	-2.988700	3.752900	-11.214000	24.426087	0.000543	20.822623
558.153963	-2.991000	3.751600	-11.220000	24.390717	0.000543	20.805632
559.149605	-2.989200	3.753400	-11.219000	24.404247	0.000543	20.824895
560.153656	-3.003700	3.752300	-11.270000	24.459569	0.000543	20.812592
561.153174	-3.004200	3.751400	-11.269000	24.497056	0.000543	20.847831
562.152896	-2.993000	3.752400	-11.230000	24.504046	0.000543	20.844413
563.152541	-2.972500	3.752500	-11.153000	24.483972	0.000542	20.818583
564.154909	-3.010200	3.752000	-11.293000	24.470143	0.000542	20.826519
565.153856	-3.006300	3.751700	-11.278000	24.450564	0.000544	20.816835
566.156117	-2.983100	3.751000	-11.189000	24.382184	0.000542	20.836901
567.158489	-3.001700	3.750900	-11.258000	24.400371	0.000542	20.817687
568.155987	-3.009800	3.750100	-11.286000	24.435243	0.000544	20.822800
569.158680	-3.006400	3.750900	-11.276000	24.420419	0.000542	20.818834
570.158720	-3.007500	3.750900	-11.280000	24.456359	0.000541	20.833079
571.158861	-2.991200	3.749100	-11.213000	24.414324	0.000543	20.838323
572.162195	-2.999600	3.749800	-11.248000	24.429572	0.000540	20.834654
573.169209	-3.003600	3.748300	-11.257000	24.451905	0.000542	20.826714
574.160228	-2.997500	3.747800	-11.233000	24.433624	0.000542	20.838245
575.162446	-3.009100	3.748100	-11.278000	24.427230	0.000543	20.845106
576.167046	-3.005700	3.749200	-11.267000	24.416236	0.000543	20.832655
577.159766	-2.999600	3.747800	-11.241000	24.422877	0.000543	20.843585
578.162218	-3.014700	3.747300	-11.296000	24.474019	0.000546	20.850322
579.170366	-2.969100	3.748300	-11.128000	24.464637	0.000544	20.847073
580.164928	-3.003400	3.747500	-11.254000	24.486825	0.000543	20.838988
581.163969	-3.015700	3.746700	-11.298000	24.497568	0.000542	20.823215
582.169364	-2.994900	3.746800	-11.220000	24.492270	0.000543	20.843978
583.166513	-2.995400	3.747800	-11.225000	24.478241	0.000542	20.844600
584.166938	-3.003500	3.745800	-11.250000	24.501941	0.000540	20.859369
585.169434	-2.982100	3.747000	-11.173000	24.491047	0.000541	20.856974
586.164080	-2.992600	3.745700	-11.209000	24.456924	0.000541	20.857352
587.167605	-3.000000	3.746200	-11.238000	24.433935	0.000542	20.853729
588.165479	-3.003500	3.743700	-11.244000	24.488035	0.000541	20.846840
589.165156	-2.991800	3.744700	-11.202000	24.522933	0.000544	20.842973
590.168704	-2.988900	3.744400	-11.189000	24.507087	0.000542	20.848885
591.170333	-2.970800	3.744800	-11.124000	24.495868	0.000542	20.857544
592.167180	-3.005600	3.743100	-11.249000	24.565341	0.000541	20.869874
593.168945	-2.986100	3.743400	-11.177000	24.554694	0.000542	20.855873
594.174082	-3.008600	3.743000	-11.261000	24.538330	0.000541	20.858895
595.165732	-3.001900	3.743700	-11.238000	24.545592	0.000541	20.844370
596.166122	-2.973800	3.744400	-11.134000	24.552134	0.000540	20.868951
597.172535	-3.020700	3.742900	-11.305000	24.579320	0.000540	20.867780
598.168978	-2.998600	3.743100	-11.222000	24.558556	0.000539	20.862118
599.176009	-2.996100	3.741000	-11.207000	24.532712	0.000538	20.846147
600.175646	-3.009400	3.742200	-11.261000	24.489308	0.000539	20.843376
601.170721	-3.000100	3.741800	-11.225000	24.481799	0.000540	20.869032
602.169171	-3.002800	3.741800	-11.235000	24.500111	0.000537	20.859903
603.173978	-3.006000	3.741400	-11.245000	24.486352	0.000540	20.850368
604.170117	-3.005200	3.741400	-11.243000	24.538891	0.000538	20.868940
605.170925	-2.995600	3.740300	-11.204000	24.542820	0.000536	20.862451
606.173001	-3.021000	3.741600	-11.302000	24.540460	0.000538	20.863402
607.171417	-2.979500	3.742400	-11.149000	24.525263	0.000538	20.855268
608.172045	-3.008700	3.740800	-11.254000	24.548720	0.000539	20.851776
609.175848	-3.026400	3.738800	-11.315000	24.527785	0.000538	20.871073
610.171986	-3.017100	3.739100	-11.280000	24.533357	0.000538	20.852957
611.172072	-3.024700	3.739700	-11.310000	24.567136	0.000539	20.885898
612.176126	-3.006900	3.739300	-11.243000	24.591060	0.000540	20.880506
613.171129	-2.978000	3.739700	-11.136000	24.606435	0.000537	20.851839
614.174532	-2.990300	3.738700	-11.178000	24.623645	0.000540	20.859149
615.172308	-3.000800	3.738000	-11.216000	24.613802	0.000540	20.877247
616.174552	-2.987000	3.737600	-11.163000	24.605448	0.000540	20.862702
617.175034	-3.009200	3.736500	-11.244000	24.629371	0.000539	20.883860
618.175099	-2.995400	3.737700	-11.194000	24.627333	0.000537	20.872807
619.174848	-3.013000	3.736000	-11.256000	24.666532	0.000538	20.867096
620.172873	-3.002300	3.736800	-11.218000	24.686177	0.000539	20.863576
621.176501	-3.007600	3.737200	-11.239000	24.679318	0.000537	20.866176
622.175178	-2.994100	3.736000	-11.185000	24.622735	0.000539	20.863926
623.177672	-3.001400	3.736700	-11.214000	24.653255	0.000539	20.871317
624.176108	-2.996100	3.736700	-11.194000	24.669893	0.000539	20.878404
625.178580	-2.996400	3.736400	-11.195000	24.661359	0.000540	20.884189
626.177756	-3.008100	3.734300	-11.232000	24.666610	0.000538	20.896569
627.177534	-3.006000	3.736100	-11.230000	24.610004	0.000538	20.870118
628.178575	-2.994700	3.735000	-11.184000	24.633332	0.000537	20.873136
629.177260	-2.990000	3.734900	-11.167000	24.620347	0.000539	20.883814
630.178601	-2.991200	3.735600	-11.172000	24.655985	0.000538	20.872633
631.178494	-3.011500	3.734100	-11.244000	24.650392	0.000541	20.886935
632.180308	-3.003700	3.734500	-11.216000	24.632979	0.000538	20.890324
633.178135	-3.013700	3.732900	-11.249000	24.605250	0.000539	20.892847
634.179296	-3.004300	3.732500	-11.213000	24.644024	0.000540	20.881967
635.179523	-3.007200	3.732900	-11.224000	24.687912	0.000538	20.894712
636.179451	-2.996300	3.733900	-11.187000	24.659539	0.000537	20.861976
637.178739	-3.006700	3.732800	-11.223000	24.635268	0.000537	20.888828
638.180302	-3.013100	3.732100	-11.244000	24.643124	0.000539	20.896237
639.183961	-2.984300	3.732300	-11.137000	24.649764	0.000536	20.892469
640.186430	-2.996800	3.732900	-11.185000	24.652325	0.000539	20.914950
641.180701	-3.002200	3.732100	-11.204000	24.636107	0.000537	20.887299
642.189801	-3.010000	3.731800	-11.232000	24.640240	0.000537	20.899980
643.183414	-3.018000	3.730700	-11.258000	24.639393	0.000535	20.878270
644.182676	-3.000900	3.731000	-11.195000	24.672865	0.000536	20.907113
645.181852	-3.018600	3.729600	-11.257000	24.691942	0.000536	20.885481
646.183146	-3.024200	3.729500	-11.278000	24.664684	0.000536	20.899379
647.185190	-2.985800	3.730600	-11.138000	24.666574	0.000534	20.898905
648.184126	-2.980800	3.731300	-11.121000	24.668489	0.000533	20.891344
649.183574	-2.997800	3.729700	-11.180000	24.682044	0.000534	20.900203
650.186518	-3.008000	3.730000	-11.219000	24.667770	0.000534	20.882088
651.187354	-3.009200	3.729000	-11.221000	24.631660	0.000534	20.892320
652.190113	-3.037500	3.727800	-11.322000	24.625912	0.000534	20.888923
653.187923	-3.000600	3.728900	-11.188000	24.622731	0.000532	20.881465
654.190243	-3.012200	3.728700	-11.231000	24.629301	0.000535	20.879996
655.192431	-3.024300	3.728100	-11.274000	24.653499	0.000535	20.874880
656.189985	-3.004100	3.728300	-11.199000	24.695380	0.000535	20.886086
657.191975	-2.998300	3.728500	-11.178000	24.672700	0.000535	20.884189
658.190239	-3.001700	3.727600	-11.189000	24.643999	0.000534	20.871512
659.191986	-3.018400	3.727000	-11.248000	24.691156	0.000535	20.873787
660.190184	-3.003800	3.727400	-11.195000	24.751385	0.000534	20.858838
661.197701	-3.002800	3.727900	-11.193000	24.774163	0.000536	20.884540
662.189230	-3.007100	3.726500	-11.206000	24.742331	0.000533	20.899534
663.191757	-2.998300	3.727000	-11.174000	24.755462	0.000536	20.876678
664.195317	-2.988200	3.726900	-11.135000	24.736142	0.000535	20.865826
665.190442	-2.999300	3.726700	-11.177000	24.746685	0.000535	20.871664
666.191608	-3.013900	3.725900	-11.229000	24.743896	0.000536	20.889252
667.194905	-3.007600	3.725700	-11.204000	24.734274	0.000532	20.870588
668.193258	-2.996400	3.726200	-11.165000	24.771004	0.000535	20.875206
669.200609	-2.961300	3.727200	-11.035000	24.755211	0.000533	20.854617
670.196648	-3.021400	3.724900	-11.253000	24.720698	0.000534	20.856018
671.192169	-2.995500	3.724400	-11.156000	24.717987	0.000534	20.859461
672.196360	-2.998100	3.725000	-11.167000	24.701149	0.000532	20.868168
673.192304	-2.995900	3.723800	-11.155000	24.723484	0.000532	20.869244
674.196244	-3.004600	3.723100	-11.185000	24.684118	0.000531	20.872888
675.199110	-2.992300	3.726000	-11.148000	24.659169	0.000531	20.857338
676.197921	-3.001200	3.722900	-11.173000	24.670065	0.000533	20.859262
677.195330	-3.018500	3.722600	-11.236000	24.703787	0.000531	20.852798
678.198376	-3.004000	3.722900	-11.183000	24.733032	0.000531	20.860334
679.196249	-3.004800	3.723600	-11.187000	24.746735	0.000531	20.850378
680.195374	-2.965000	3.723400	-11.039000	24.757778	0.000532	20.840124
681.193158	-3.022500	3.721800	-11.248000	24.769368	0.000531	20.848909
682.197929	-2.984100	3.722800	-11.108000	24.781504	0.000531	20.843545
683.195216	-3.000000	3.722400	-11.166000	24.780859	0.000530	20.854277
684.195697	-3.017200	3.721800	-11.227000	24.793718	0.000530	20.843474
685.197433	-3.014100	3.720700	-11.214000	24.792600	0.000532	20.877912
686.198524	-2.999100	3.721800	-11.161000	24.820352	0.000529	20.872573
687.202456	-2.998500	3.720100	-11.154000	24.852503	0.000532	20.856478
688.198148	-3.001200	3.720500	-11.165000	24.839324	0.000531	20.847519
689.198266	-3.009400	3.720700	-11.196000	24.829209	0.000531	20.851117
690.197258	-2.994100	3.720300	-11.138000	24.810360	0.000529	20.842632
691.200184	-3.009500	3.718600	-11.190000	24.859671	0.000530	20.858456
692.201502	-2.980900	3.720000	-11.088000	24.835079	0.000529	20.848948
693.198473	-2.997900	3.718300	-11.146000	24.827795	0.000531	20.839267
694.202387	-3.003800	3.718000	-11.167000	24.856861	0.000532	20.843782
695.201172	-2.980400	3.720000	-11.086000	24.842586	0.000529	20.842257
696.201605	-2.969100	3.719200	-11.041000	24.873894	0.000529	20.844755
697.202722	-2.970400	3.720300	-11.050000	24.886300	0.000528	20.829233
698.201802	-3.007800	3.718500	-11.184000	24.880878	0.000529	20.845127
699.202115	-3.019600	3.718700	-11.228000	24.831846	0.000530	20.842859
700.202809	-3.008000	3.716500	-11.179000	24.830457	0.000529	20.837672
701.200465	-3.003600	3.716800	-11.163000	24.874715	0.000528	20.822821
702.202130	-3.006000	3.717400	-11.173000	24.896101	0.000527	20.845233
703.203935	-2.997200	3.716700	-11.139000	24.885108	0.000527	20.843209
704.201093	-3.002500	3.716500	-11.158000	24.885232	0.000530	20.852341
705.202457	-3.019300	3.715300	-11.216000	24.821579	0.000527	20.824021
706.204563	-3.007400	3.715700	-11.174000	24.824142	0.000527	20.864998
707.202410	-3.002200	3.715600	-11.153000	24.831155	0.000528	20.825096
708.202017	-3.020600	3.715100	-11.220000	24.842078	0.000526	20.834162
709.204192	-3.005400	3.715800	-11.167000	24.826335	0.000526	20.825949
710.202973	-2.997700	3.713900	-11.132000	24.789237	0.000524	20.826650
711.202638	-2.984400	3.715200	-11.086000	24.808386	0.000528	20.842547
712.204007	-3.001400	3.715000	-11.149000	24.813431	0.000528	20.822956
713.203018	-3.015500	3.715900	-11.205000	24.835989	0.000528	20.834689
714.201781	-3.004600	3.713800	-11.157000	24.814408	0.000527	20.820617
715.204640	-3.003400	3.713200	-11.151000	24.787329	0.000525	20.830899
716.202993	-2.993800	3.714400	-11.119000	24.808470	0.000524	20.808494
717.203479	-3.035800	3.712600	-11.270000	24.844500	0.000525	20.811463
718.204041	-3.032400	3.713000	-11.258000	24.821177	0.000527	20.834048
719.204816	-3.019800	3.713100	-11.212000	24.829311	0.000523	20.831780
720.205816	-3.001500	3.712400	-11.141000	24.801362	0.000526	20.836922
721.207508	-3.004500	3.712000	-11.151000	24.851294	0.000526	20.824445
722.204672	-3.017300	3.711000	-11.196000	24.858783	0.000526	20.825323
723.205122	-2.983200	3.712800	-11.076000	24.856921	0.000524	20.830093
724.209678	-3.009300	3.710700	-11.166000	24.859953	0.000525	20.819860
725.206141	-2.989200	3.711100	-11.092000	24.823681	0.000526	20.823759
726.205989	-2.966700	3.712300	-11.012000	24.806175	0.000525	20.835588
727.208617	-2.961800	3.713700	-10.999000	24.799864	0.000525	20.817875
728.204729	-2.987600	3.711800	-11.088000	24.818717	0.000523	20.817829
729.205209	-2.992900	3.711200	-11.107000	24.821079	0.000526	20.824467
730.204901	-2.989600	3.710200	-11.091000	24.824509	0.000526	20.820323
731.204039	-2.991600	3.710500	-11.100000	24.828071	0.000523	20.816311
732.204472	-3.003100	3.710100	-11.141000	24.881407	0.000523	20.802985
733.207505	-3.008000	3.709600	-11.158000	24.878001	0.000523	20.814266
734.207179	-3.010300	3.710400	-11.169000	24.928082	0.000525	20.830864
735.206996	-3.007800	3.708200	-11.153000	24.906051	0.000525	20.814917
736.207592	-3.013300	3.709600	-11.177000	24.892605	0.000524	20.818965
737.207445	-3.004000	3.708700	-11.140000	24.900311	0.000523	20.815795
738.207395	-2.969500	3.709200	-11.014000	24.938704	0.000522	20.804542
739.208657	-2.996700	3.707300	-11.108000	24.949795	0.000524	20.815200
740.208521	-2.990300	3.708900	-11.090000	24.931174	0.000524	20.804097
741.205873	-2.989800	3.708100	-11.085000	24.944627	0.000524	20.807168
742.209795	-2.992100	3.706600	-11.089000	24.941344	0.000521	20.806719
743.215022	-2.999900	3.707400	-11.120000	24.921479	0.000521	20.797685
744.207045	-3.006400	3.707900	-11.146000	24.928791	0.000521	20.794593
745.210837	-3.023000	3.707100	-11.206000	24.958273	0.000523	20.799054
746.211481	-3.012800	3.706900	-11.167000	24.937618	0.000521	20.808194
747.208500	-2.995600	3.705500	-11.099000	24.910465	0.000521	20.789476
748.215197	-3.008200	3.707200	-11.151000	24.897710	0.000521	20.789476
749.211694	-3.016700	3.705300	-11.177000	24.872276	0.000522	20.781967
750.209230	-2.992500	3.706400	-11.090000	24.901517	0.000521	20.792349
751.211435	-2.981100	3.706200	-11.047000	24.869491	0.000523	20.811414
752.210759	-3.005600	3.705500	-11.136000	24.880805	0.000519	20.801907
753.206454	-3.026600	3.704100	-11.209000	24.882617	0.000521	20.788078
754.212386	-3.002700	3.704600	-11.123000	24.920735	0.000521	20.803577
755.212116	-3.004300	3.704700	-11.129000	24.902660	0.000519	20.802979
756.209657	-2.987400	3.704600	-11.066000	24.891667	0.000519	20.805696
757.213992	-2.992500	3.704200	-11.082000	24.898827	0.000520	20.790123
758.211172	-2.981900	3.705700	-11.048000	24.905445	0.000519	20.779221
759.210012	-2.994300	3.704500	-11.092000	24.906509	0.000519	20.801627
760.212973	-3.014900	3.703300	-11.164000	24.925681	0.000518	20.797161
761.218875	-3.005900	3.704300	-11.135000	24.961781	0.000518	20.816325
762.209216	-2.995700	3.703400	-11.093000	24.958996	0.000517	20.797883
763.214779	-2.996400	3.701900	-11.090000	24.982341	0.000519	20.789072
764.209524	-2.986100	3.703100	-11.057000	24.961157	0.000518	20.797207
765.209980	-2.993700	3.703700	-11.087000	24.945963	0.000518	20.795233
766.216997	-3.021100	3.701000	-11.180000	24.940068	0.000519	20.806386
767.213162	-3.024300	3.700500	-11.189000	24.923061	0.000519	20.769876
768.217109	-2.979300	3.701900	-11.028000	24.944119	0.000521	20.790537
769.219558	-2.979100	3.703000	-11.030000	25.004059	0.000517	20.798070
770.216238	-3.015900	3.701600	-11.163000	24.990258	0.000517	20.794649
771.211246	-2.994300	3.701300	-11.082000	24.989014	0.000517	20.795296
772.213398	-2.991700	3.701400	-11.072000	24.968775	0.000518	20.800586
773.214118	-3.003200	3.700900	-11.113000	24.987318	0.000516	20.795965
774.213575	-3.021300	3.701200	-11.181000	25.000044	0.000516	20.776496
775.211034	-3.015000	3.699100	-11.152000	25.029130	0.000519	20.790045
776.216465	-3.005100	3.699300	-11.116000	25.064680	0.000517	20.772151
777.214148	-3.009200	3.699700	-11.132000	25.101597	0.000517	20.781708
778.215314	-3.002100	3.699600	-11.105000	25.084712	0.000517	20.787993
779.215340	-2.996000	3.698800	-11.080000	25.068723	0.000515	20.789012
780.212544	-2.998400	3.699200	-11.091000	25.005850	0.000516	20.790859
781.210578	-2.994800	3.699000	-11.077000	24.988742	0.000515	20.793127
782.215124	-2.981300	3.699500	-11.028000	24.939511	0.000515	20.781170
783.211572	-2.999200	3.697300	-11.087000	24.946921	0.000514	20.781496
784.211378	-2.975700	3.697800	-11.001000	24.986796	0.000516	20.768888
785.227368	-2.983800	3.697000	-11.029000	24.968122	0.000515	20.795190
786.214670	-2.996600	3.698100	-11.080000	24.946519	0.000514	20.813335
787.216953	-3.009200	3.696100	-11.121000	24.941520	0.000513	20.780342
788.216100	-3.010600	3.695600	-11.125000	24.976893	0.000514	20.779337
789.216458	-2.990900	3.698400	-11.060000	25.013439	0.000514	20.811279
790.216537	-2.991700	3.696200	-11.057000	24.993000	0.000513	20.781754
791.217523	-2.995400	3.697600	-11.074000	25.045208	0.000512	20.799071
792.215985	-2.994900	3.696000	-11.068000	25.054753	0.000511	20.781152
793.215957	-2.991800	3.695900	-11.057000	25.077772	0.000513	20.782922
794.219334	-3.007600	3.695900	-11.115000	25.101110	0.000512	20.771736
795.217478	-3.005200	3.695700	-11.105000	25.066107	0.000511	20.774058
796.218524	-2.996200	3.694800	-11.069000	25.059294	0.000513	20.773382
797.219970	-3.007900	3.694300	-11.112000	25.087335	0.000511	20.786358
798.217829	-2.995500	3.693300	-11.061000	25.086785	0.000510	20.795763
799.218241	-2.997900	3.695500	-11.077000	25.070052	0.000511	20.786078
800.221129	-2.993900	3.695000	-11.060000	25.091656	0.000513	20.806817
801.219806	-3.014600	3.693000	-11.133000	25.040068	0.000510	20.778265
802.219754	-2.978200	3.693300	-10.998000	25.013016	0.000510	20.788095
803.223133	-2.997200	3.694300	-11.071000	25.004982	0.000512	20.780505
804.222262	-2.993300	3.692200	-11.050000	25.001923	0.000510	20.785494
805.222402	-3.004500	3.692700	-11.093000	24.994414	0.000510	20.767051
806.225371	-2.994200	3.693200	-11.057000	24.959651	0.000510	20.793325
807.222713	-3.006900	3.691600	-11.099000	24.991724	0.000507	20.797069
808.224452	-2.972700	3.692900	-10.976000	24.974665	0.000512	20.799386
809.226021	-2.975800	3.692900	-10.988000	24.996839	0.000509	20.763796
810.224328	-2.992300	3.692300	-11.047000	25.018466	0.000511	20.771754
811.223985	-2.996700	3.691800	-11.062000	25.034499	0.000507	20.783106
812.226502	-3.006200	3.691600	-11.097000	25.057940	0.000509	20.795731
813.227480	-3.000500	3.690000	-11.071000	25.056742	0.000509	20.768449
814.228326	-2.984500	3.691700	-11.016000	25.054528	0.000507	20.779504
815.230069	-2.971600	3.691500	-10.969000	25.039162	0.000507	20.789684
816.229511	-3.018400	3.690300	-11.138000	25.020959	0.000506	20.771886
817.230025	-2.980900	3.691100	-11.002000	25.012358	0.000505	20.767519
818.232069	-3.005400	3.689200	-11.086000	25.019468	0.000506	20.760905
819.228821	-2.991800	3.690600	-11.041000	25.022545	0.000505	20.778694
820.229897	-3.025100	3.689100	-11.159000	25.061628	0.000506	20.781889
821.233914	-3.016500	3.688600	-11.125000	25.084276	0.000507	20.769536
822.230054	-3.019400	3.687900	-11.134000	25.129715	0.000504	20.763468
823.229583	-3.003800	3.688100	-11.078000	25.168765	0.000503	20.794136
824.232265	-2.992100	3.688600	-11.036000	25.181842	0.000502	20.766486
825.231327	-2.979600	3.688700	-10.990000	25.188747	0.000504	20.775315
826.231637	-3.025800	3.688000	-11.158000	25.179572	0.000504	20.767526
827.234946	-2.991500	3.688400	-11.032000	25.132419	0.000503	20.777088
828.232110	-2.991700	3.687800	-11.032000	25.117399	0.000503	20.769597
829.235578	-3.001900	3.686600	-11.066000	25.064522	0.000502	20.786691
830.236668	-3.014700	3.687400	-11.116000	25.089849	0.000504	20.774183
831.231779	-3.014100	3.687900	-11.115000	25.052685	0.000503	20.767696
832.232459	-2.997800	3.686600	-11.051000	25.067575	0.000505	20.792126
833.233339	-3.002800	3.685900	-11.066000	25.100635	0.000503	20.783114
834.232150	-3.004800	3.685900	-11.075000	25.093723	0.000502	20.772856
835.233111	-2.987100	3.685800	-11.009000	25.117139	0.000502	20.780241
836.236550	-2.980500	3.685600	-10.984000	25.062320	0.000503	20.765039
837.235464	-2.980300	3.685300	-10.983000	25.082704	0.000501	20.764640
838.233617	-2.972400	3.686600	-10.957000	25.074921	0.000501	20.771051
839.236582	-3.002100	3.683400	-11.056000	25.084069	0.000500	20.770277
840.232193	-2.996500	3.684700	-11.040000	25.115641	0.000500	20.764512
841.233049	-2.978200	3.685000	-10.974000	25.071760	0.000499	20.760291
842.231761	-2.995000	3.684500	-11.034000	25.037077	0.000499	20.745864
843.232949	-2.993700	3.685100	-11.030000	25.036108	0.000498	20.775712
844.232039	-2.990500	3.683100	-11.014000	25.040482	0.000498	20.763033
845.235641	-3.018700	3.682800	-11.116000	25.045706	0.000498	20.746466
846.233585	-3.004700	3.681900	-11.063000	25.047247	0.000499	20.762711
847.238489	-2.991900	3.683000	-11.018000	25.091052	0.000495	20.769700
848.235058	-3.020300	3.682000	-11.119000	25.096646	0.000496	20.751607
849.236262	-2.990200	3.682900	-11.012000	25.128415	0.000496	20.752205
850.237146	-2.998100	3.682300	-11.040000	25.109399	0.000497	20.762987
851.237101	-3.005600	3.681600	-11.065000	25.126283	0.000497	20.756703
852.238060	-2.977500	3.682500	-10.964000	25.140054	0.000494	20.776218
853.237940	-3.011900	3.681000	-11.086000	25.117456	0.000498	20.769654
854.240677	-3.011200	3.681700	-11.085000	25.180729	0.000495	20.756833
855.243108	-3.006800	3.681600	-11.069000	25.180757	0.000497	20.742162
856.240009	-3.009700	3.680200	-11.075000	25.158083	0.000497	20.740262
857.241547	-3.015300	3.678400	-11.090000	25.169101	0.000492	20.760807
858.241754	-3.014200	3.679500	-11.089000	25.161396	0.000493	20.745011
859.239732	-2.997400	3.679600	-11.028000	25.133783	0.000491	20.749533
860.241436	-3.000100	3.679700	-11.038000	25.091051	0.000495	20.762587
861.240476	-2.977700	3.680100	-10.958000	25.104132	0.000496	20.760071
862.240201	-2.994500	3.678400	-11.014000	25.135355	0.000494	20.751585
863.241440	-2.995200	3.678800	-11.018000	25.126236	0.000494	20.762820
864.241393	-3.013500	3.678800	-11.084000	25.091312	0.000492	20.736295
865.242133	-2.999400	3.678600	-11.033000	25.089200	0.000494	20.756461
866.245524	-3.010200	3.676200	-11.065000	25.098798	0.000494	20.764200
867.245466	-3.012200	3.678200	-11.079000	25.126941	0.000493	20.749302
868.244243	-2.997700	3.677700	-11.024000	25.115781	0.000492	20.755643
869.246840	-3.004300	3.676700	-11.045000	25.190382	0.000494	20.758464
870.244281	-3.011400	3.677400	-11.073000	25.135890	0.000493	20.748329
871.243057	-3.007300	3.676600	-11.056000	25.066485	0.000493	20.759263
872.245343	-3.005900	3.676900	-11.052000	25.090427	0.000495	20.751528
873.243694	-3.029600	3.675200	-11.133000	25.069069	0.000493	20.767073
874.241402	-3.002300	3.677000	-11.038000	25.034661	0.000491	20.755767
875.244090	-2.993900	3.675000	-11.002000	25.019792	0.000494	20.736574
876.248004	-2.991400	3.676600	-10.997000	25.056442	0.000493	20.729741
877.243510	-2.999700	3.675300	-11.024000	25.084307	0.000493	20.738747
878.246273	-3.018200	3.673700	-11.088000	25.088907	0.000489	20.725346
879.246164	-3.009200	3.674700	-11.056000	25.114114	0.000492	20.739270
880.243087	-2.993800	3.675700	-11.004000	25.099598	0.000491	20.747459
881.244667	-3.001100	3.673800	-11.024000	25.153588	0.000491	20.732904
882.248813	-2.997900	3.674000	-11.013000	25.187421	0.000488	20.754543
883.242441	-2.993900	3.674500	-11.000000	25.191397	0.000489	20.754741
884.245707	-2.980300	3.673200	-10.947000	25.179392	0.000488	20.763078
885.244999	-2.989700	3.674700	-10.985000	25.175416	0.000489	20.743913
886.242812	-2.973700	3.673400	-10.921000	25.180615	0.000489	20.738701
887.244375	-2.988700	3.673100	-10.977000	25.182948	0.000488	20.753372
888.249297	-3.011500	3.672100	-11.057000	25.144371	0.000490	20.744515
889.246135	-3.032200	3.671100	-11.130000	25.176065	0.000486	20.751677
890.249056	-2.993900	3.672500	-10.994000	25.141759	0.000484	20.746634
891.260944	-2.989200	3.672700	-10.978000	25.139249	0.000485	20.748856
892.246376	-3.003900	3.672100	-11.030000	25.130130	0.000487	20.741124
893.249675	-2.990800	3.671800	-10.980000	25.114568	0.000486	20.747788
894.249781	-2.978900	3.672900	-10.941000	25.119316	0.000483	20.753977
895.246853	-2.999000	3.670300	-11.006000	25.136792	0.000485	20.754451
896.251482	-3.015400	3.670500	-11.068000	25.104477	0.000483	20.754253
897.250357	-3.021300	3.670800	-11.090000	25.117730	0.000483	20.752384
898.249187	-3.000600	3.671500	-11.016000	25.147536	0.000482	20.752908
899.255076	-2.979900	3.670100	-10.935000	25.157155	0.000483	20.758297
900.252816	-3.003300	3.671200	-11.025000	25.179829	0.000482	20.741705
901.248065	-3.012900	3.668800	-11.053000	25.210778	0.000482	20.758552
902.253173	-2.985100	3.669000	-10.951000	25.202552	0.000482	20.751715
903.252633	-3.000200	3.668200	-11.005000	25.228453	0.000484	20.747374
904.248305	-2.989200	3.668500	-10.965000	25.245529	0.000480	20.736542
905.253266	-3.004400	3.668000	-11.019000	25.223385	0.000483	20.750820
906.255206	-3.007300	3.668600	-11.032000	25.242826	0.000483	20.765597
907.249717	-3.015100	3.666500	-11.054000	25.262316	0.000480	20.746284
908.256353	-2.998300	3.667300	-10.994000	25.263165	0.000481	20.759939
909.252585	-3.018400	3.667400	-11.069000	25.218821	0.000480	20.767575
910.256362	-3.003300	3.666800	-11.010000	25.208060	0.000480	20.739228
911.251819	-3.015000	3.666000	-11.051000	25.199062	0.000478	20.750583
912.252085	-2.991300	3.668000	-10.971000	25.179529	0.000481	20.744249
913.251503	-2.999600	3.666500	-10.998000	25.198100	0.000477	20.743927
914.254418	-3.001900	3.666500	-11.005000	25.165413	0.000478	20.740508
915.250588	-2.995200	3.665100	-10.977000	25.137127	0.000477	20.762373
916.253192	-3.009500	3.665900	-11.031000	25.206982	0.000478	20.758534
917.255872	-3.011800	3.665900	-11.040000	25.217474	0.000479	20.752947
918.257213	-3.002300	3.664400	-11.001000	25.262393	0.000477	20.746361
919.256318	-3.008800	3.665400	-11.027000	25.263091	0.000478	20.742320
920.254776	-3.018800	3.664700	-11.062000	25.238089	0.000475	20.747090
921.255821	-3.000500	3.664800	-10.995000	25.212515	0.000474	20.738484
922.254539	-3.018200	3.662400	-11.052000	25.238815	0.000474	20.745448
923.253825	-2.980400	3.664000	-10.919000	25.232954	0.000474	20.748099
924.252560	-2.976700	3.663700	-10.905000	25.279039	0.000474	20.759755
925.254997	-2.998700	3.662700	-10.981000	25.270714	0.000473	20.747603
926.255027	-2.991100	3.662600	-10.954000	25.311585	0.000474	20.735533
927.261739	-2.988700	3.662800	-10.946000	25.320685	0.000472	20.769327
928.254791	-2.983500	3.663600	-10.929000	25.300357	0.000474	20.745123
929.253993	-2.979200	3.663900	-10.914000	25.287758	0.000473	20.747646
930.257901	-2.986600	3.662200	-10.936000	25.258778	0.000472	20.756008
931.255393	-3.014200	3.661800	-11.036000	25.235291	0.000470	20.756135
932.256219	-3.007000	3.662300	-11.011000	25.213795	0.000472	20.762055
933.258906	-3.011300	3.660800	-11.023000	25.215092	0.000473	20.770470
934.254609	-2.998400	3.660700	-10.975000	25.286980	0.000470	20.748287
935.254335	-2.991600	3.660100	-10.948000	25.299307	0.000471	20.764932
936.253356	-2.996500	3.660300	-10.967000	25.269090	0.000471	20.774897
937.254763	-2.990000	3.659700	-10.942000	25.302973	0.000470	20.771458
938.255576	-3.007200	3.659300	-11.003000	25.284978	0.000470	20.731104
939.254108	-2.996300	3.661100	-10.968000	25.234597	0.000470	20.746430
940.256954	-2.992700	3.659300	-10.950000	25.242626	0.000469	20.750223
941.256011	-2.997500	3.659200	-10.967000	25.240765	0.000468	20.760209
942.255914	-3.001000	3.659300	-10.981000	25.207857	0.000469	20.766525
943.255893	-3.031400	3.657300	-11.085000	25.222502	0.000468	20.759891
944.256854	-2.980100	3.658800	-10.902000	25.204879	0.000470	20.746465
945.263380	-2.996700	3.657700	-10.960000	25.212341	0.000468	20.733567
946.257623	-3.001000	3.656500	-10.972000	25.207843	0.000467	20.758925
947.256573	-2.985000	3.657500	-10.917000	25.191317	0.000469	20.758928
948.260367	-3.037900	3.657800	-11.111000	25.225174	0.000468	20.755461
949.258876	-3.007700	3.656600	-10.997000	25.200569	0.000468	20.751621
950.260196	-3.005300	3.657900	-10.992000	25.208129	0.000468	20.755418
951.263383	-3.014000	3.655900	-11.017000	25.211037	0.000471	20.760234
952.260592	-2.983200	3.656700	-10.908000	25.219291	0.000469	20.765677
953.261322	-2.976300	3.655800	-10.880000	25.261299	0.000467	20.753798
954.264300	-2.984200	3.657100	-10.913000	25.286956	0.000468	20.750635
955.259156	-3.005500	3.655200	-10.985000	25.269434	0.000467	20.739205
956.259385	-2.994200	3.656700	-10.948000	25.249225	0.000465	20.747839
957.263566	-2.993600	3.654500	-10.939000	25.246839	0.000469	20.749711
958.261243	-3.027300	3.654600	-11.063000	25.223722	0.000466	20.761116
959.264123	-3.023600	3.653300	-11.045000	25.295855	0.000468	20.759095
960.265123	-2.982700	3.654400	-10.900000	25.287231	0.000468	20.768929
961.264005	-2.997600	3.653700	-10.951000	25.273413	0.000465	20.765960
962.263553	-3.010800	3.652900	-10.996000	25.276243	0.000468	20.760267
963.268526	-3.006400	3.654400	-10.986000	25.254145	0.000466	20.757521
964.263391	-3.001200	3.654100	-10.965000	25.232819	0.000467	20.762188
965.266964	-3.004000	3.653200	-10.973000	25.242888	0.000466	20.750486
966.268888	-3.020600	3.652700	-11.033000	25.264736	0.000466	20.756300
967.264812	-2.993100	3.652300	-10.931000	25.249003	0.000464	20.756625
968.271760	-2.995500	3.652400	-10.939000	25.258177	0.000463	20.761569
969.268741	-2.984900	3.651800	-10.899000	25.267019	0.000464	20.767602
970.268787	-2.976700	3.652500	-10.872000	25.273730	0.000464	20.770546
971.269446	-2.979400	3.650900	-10.877000	25.240424	0.000463	20.762712
972.272106	-3.002800	3.651800	-10.965000	25.253891	0.000461	20.773387
973.268760	-2.983500	3.652200	-10.895000	25.204034	0.000461	20.753204
974.269781	-2.981400	3.650700	-10.883000	25.196847	0.000460	20.782973
975.268448	-3.008600	3.649900	-10.980000	25.174875	0.000462	20.769449
976.268398	-3.014000	3.649800	-11.000000	25.237714	0.000458	20.750507
977.270339	-2.995600	3.648700	-10.928000	25.264905	0.000462	20.768324
978.268434	-2.992300	3.649200	-10.919000	25.298484	0.000461	20.791607
979.269249	-3.005200	3.648300	-10.963000	25.284669	0.000459	20.777736
980.270548	-3.005000	3.648900	-10.964000	25.293441	0.000459	20.786069
981.270012	-3.005800	3.649200	-10.968000	25.332214	0.000461	20.778058
982.270405	-3.000600	3.649800	-10.951000	25.341905	0.000459	20.794901
983.273302	-2.993600	3.649600	-10.924000	25.380282	0.000459	20.775588
984.269561	-3.008400	3.648100	-10.973000	25.387517	0.000458	20.781905
985.270683	-3.000200	3.647100	-10.941000	25.380483	0.000458	20.774842
986.269694	-2.992500	3.647900	-10.914000	25.342410	0.000457	20.781183
987.271470	-3.008900	3.646900	-10.972000	25.368998	0.000456	20.765206
988.271260	-2.967900	3.649000	-10.829000	25.351900	0.000456	20.762262
989.270086	-3.009300	3.646300	-10.971000	25.359484	0.000456	20.798327
990.273525	-3.013700	3.647400	-10.991000	25.335724	0.000458	20.789169
991.273247	-2.997100	3.647100	-10.930000	25.335675	0.000458	20.755928
992.275474	-2.999300	3.645000	-10.931000	25.356728	0.000457	20.790344
993.279243	-2.985700	3.645000	-10.882000	25.300729	0.000458	20.784378
994.276471	-2.985700	3.645400	-10.884000	25.301050	0.000455	20.793235
995.274795	-2.980700	3.645400	-10.865000	25.290985	0.000457	20.785974
996.278700	-2.984600	3.643900	-10.874000	25.321779	0.000456	20.788918
997.275243	-2.982800	3.644800	-10.871000	25.361619	0.000458	20.783876
998.274830	-2.982600	3.643500	-10.866000	25.365200	0.000457	20.789842
999.275475	-2.998400	3.642900	-10.922000	25.345736	0.000455	20.797325
1000.275442	-2.977800	3.643900	-10.850000	25.300895	0.000455	20.785018
1001.276769	-3.008300	3.642300	-10.956000	25.308927	0.000456	20.789764
1002.276626	-2.998300	3.643900	-10.925000	25.274301	0.000454	20.794353
1003.276542	-3.005500	3.642500	-10.947000	25.317025	0.000455	20.797895
1004.274721	-2.975800	3.642100	-10.837000	25.334498	0.000456	20.797895
1005.276863	-3.005900	3.642400	-10.948000	25.274892	0.000453	20.785464
1006.278147	-2.986600	3.641200	-10.874000	25.267858	0.000455	20.787884
1007.283632	-2.990300	3.643100	-10.893000	25.269817	0.000454	20.801231
1008.274930	-3.002000	3.640800	-10.928000	25.283069	0.000452	20.789406
1009.280723	-2.989100	3.642900	-10.888000	25.342469	0.000452	20.799735
1010.275598	-3.006500	3.639900	-10.942000	25.369308	0.000452	20.818623
1011.277065	-3.001400	3.641200	-10.928000	25.352731	0.000452	20.818573
1012.280769	-2.995500	3.639800	-10.902000	25.400129	0.000451	20.807371
1013.276443	-3.009300	3.640300	-10.953000	25.410538	0.000451	20.804073
1014.278792	-3.001600	3.640600	-10.927000	25.394081	0.000450	20.820264
1015.279948	-2.998300	3.638800	-10.910000	25.405594	0.000450	20.802427
1016.276213	-2.987700	3.639600	-10.873000	25.433302	0.000450	20.815551
1017.275470	-2.997000	3.640000	-10.908000	25.378277	0.000450	20.828576
1018.280805	-3.007100	3.639400	-10.943000	25.366298	0.000448	20.815601
1019.279521	-3.009100	3.637400	-10.944000	25.354736	0.000448	20.788344
1020.275574	-3.002100	3.639100	-10.923000	25.377702	0.000447	20.810930
1021.279989	-3.004800	3.636700	-10.927000	25.384806	0.000449	20.819486
1022.275330	-3.009700	3.636700	-10.944000	25.419379	0.000450	20.829545
1023.278051	-2.994000	3.637300	-10.889000	25.380482	0.000447	20.828420
1024.279870	-2.985000	3.636300	-10.854000	25.367954	0.000446	20.804936
1025.278037	-3.015800	3.636200	-10.965000	25.419302	0.000447	20.806234
1026.277972	-3.013500	3.634700	-10.952000	25.453891	0.000447	20.806355
1027.282639	-2.988100	3.635000	-10.861000	25.471140	0.000446	20.799019
1028.280711	-2.991500	3.635600	-10.875000	25.472031	0.000445	20.824096
1029.278714	-2.997600	3.634700	-10.894000	25.458835	0.000444	20.841190
1030.286333	-2.990400	3.635700	-10.871000	25.438404	0.000444	20.821623
1031.282774	-2.996800	3.635300	-10.894000	25.406591	0.000444	20.826661
1032.286256	-2.992400	3.635000	-10.876000	25.389391	0.000442	20.825037
1033.286153	-3.002800	3.633900	-10.911000	25.381190	0.000441	20.803527
1034.282406	-3.008300	3.632500	-10.926000	25.363567	0.000442	20.833720
1035.282540	-2.977900	3.634400	-10.822000	25.347384	0.000443	20.818894
1036.287515	-2.991500	3.633300	-10.867000	25.378403	0.000440	20.812108
1037.286701	-2.991600	3.631400	-10.864000	25.402038	0.000441	20.826357
1038.285990	-3.015000	3.632400	-10.951000	25.439588	0.000439	20.826130
1039.287411	-3.007500	3.631800	-10.922000	25.408074	0.000441	20.807288
1040.283346	-3.015800	3.631600	-10.951000	25.366869	0.000441	20.839406
1041.288565	-3.002900	3.632000	-10.905000	25.328618	0.000437	20.837035
1042.289922	-2.991800	3.631900	-10.864000	25.353622	0.000439	20.837485
1043.285374	-3.000400	3.631200	-10.894000	25.393513	0.000440	20.818272
1044.285825	-2.998000	3.630400	-10.883000	25.400124	0.000438	20.833444
1045.291687	-2.997100	3.631100	-10.881000	25.387449	0.000437	20.841105
1046.285449	-2.995200	3.630100	-10.872000	25.342542	0.000438	20.819722
1047.289233	-3.004400	3.629300	-10.903000	25.347811	0.000437	20.829280
1048.292883	-3.014400	3.630200	-10.942000	25.325341	0.000437	20.846072
1049.288256	-3.006900	3.629500	-10.912000	25.327850	0.000438	20.824885
1050.289776	-3.019500	3.628100	-10.953000	25.353802	0.000436	20.831502
1051.292301	-3.016500	3.628700	-10.945000	25.361456	0.000436	20.840135
1052.290635	-2.998800	3.629300	-10.883000	25.373980	0.000437	20.822840
1053.289405	-2.997700	3.627600	-10.874000	25.420605	0.000437	20.825561
1054.291747	-3.018900	3.626900	-10.947000	25.465540	0.000436	20.827535
1055.291293	-3.007900	3.627800	-10.912000	25.432886	0.000437	20.829832
1056.290418	-3.004600	3.627600	-10.898000	25.447721	0.000434	20.848521
1057.293836	-3.001400	3.627900	-10.889000	25.470114	0.000433	20.854412
1058.291574	-2.995800	3.628300	-10.868000	25.504706	0.000434	20.845054
1059.293520	-3.007400	3.626200	-10.905000	25.508388	0.000433	20.819355
1060.290955	-3.019100	3.625600	-10.945000	25.491838	0.000434	20.842563
1061.290686	-2.996400	3.626200	-10.865000	25.477521	0.000434	20.835773
1062.289784	-3.008200	3.625300	-10.905000	25.481549	0.000431	20.842188
1063.294162	-3.003200	3.625100	-10.886000	25.444497	0.000432	20.839120
1064.290911	-3.016800	3.624700	-10.934000	25.414005	0.000431	20.837899
1065.291652	-3.006400	3.624400	-10.895000	25.411669	0.000429	20.859734
1066.294816	-2.990800	3.624000	-10.838000	25.394370	0.000429	20.847106
1067.296449	-2.968700	3.624900	-10.760000	25.407049	0.000431	20.845613
1068.291939	-3.000800	3.623500	-10.872000	25.428446	0.000431	20.865201
1069.298191	-2.994900	3.624500	-10.854000	25.490950	0.000427	20.848783
1070.292493	-2.995800	3.622900	-10.853000	25.476415	0.000430	20.858369
1071.293657	-2.992300	3.624700	-10.845000	25.506108	0.000429	20.844566
1072.297997	-3.015300	3.621800	-10.919000	25.485115	0.000426	20.865208
1073.296331	-2.980900	3.622100	-10.797000	25.465777	0.000428	20.858117
1074.299631	-3.009500	3.621200	-10.897000	25.455150	0.000428	20.853610
1075.296926	-3.006600	3.621000	-10.886000	25.460566	0.000427	20.849091
1076.294413	-3.007700	3.620900	-10.890000	25.507261	0.000426	20.870378
1077.295869	-2.989700	3.622100	-10.827000	25.536383	0.000427	20.838933
1078.298303	-3.002100	3.620800	-10.869000	25.502867	0.000425	20.849845
1079.296643	-2.968500	3.622000	-10.751000	25.499463	0.000427	20.864918
1080.295846	-3.013100	3.619900	-10.906000	25.490320	0.000424	20.850047
1081.298657	-2.989800	3.619800	-10.822000	25.438384	0.000424	20.853844
1082.297631	-3.005600	3.618700	-10.876000	25.447306	0.000426	20.860432
1083.296531	-2.987500	3.620200	-10.815000	25.459016	0.000424	20.859862
1084.299438	-2.999300	3.618900	-10.853000	25.494104	0.000423	20.860011
1085.295387	-3.014400	3.618200	-10.906000	25.528452	0.000424	20.881701
1086.300526	-3.008500	3.617700	-10.883000	25.514985	0.000424	20.871496
1087.299296	-3.001400	3.618100	-10.860000	25.524802	0.000421	20.866182
1088.297587	-2.983400	3.618400	-10.795000	25.582131	0.000422	20.856427
1089.299032	-3.005800	3.617400	-10.872000	25.573439	0.000423	20.857181
1090.303268	-2.996800	3.616600	-10.836000	25.572819	0.000420	20.880265
1091.299805	-3.009400	3.617100	-10.884000	25.552345	0.000422	20.875824
1092.297457	-2.985300	3.616500	-10.795000	25.570015	0.000422	20.845208
1093.300250	-2.994200	3.617800	-10.831000	25.560400	0.000419	20.867318
1094.296814	-2.998900	3.617300	-10.847000	25.554738	0.000420	20.862107
1095.298825	-3.017700	3.615000	-10.908000	25.508968	0.000421	20.877781
1096.301583	-2.986100	3.615800	-10.797000	25.502527	0.000419	20.854245
1097.298222	-3.001100	3.615100	-10.849000	25.478277	0.000420	20.876833
1098.301768	-2.992900	3.614600	-10.817000	25.412376	0.000419	20.869927
1099.301329	-3.005400	3.613800	-10.860000	25.398284	0.000419	20.852932
1100.298305	-2.992600	3.615000	-10.818000	25.395278	0.000418	20.883577
1101.298293	-2.990600	3.614600	-10.809000	25.389189	0.000417	20.867507
1102.302349	-2.995100	3.614500	-10.824000	25.402640	0.000418	20.872952
1103.299442	-2.981300	3.614000	-10.774000	25.474162	0.000418	20.856106
1104.298661	-3.014600	3.613500	-10.892000	25.528711	0.000418	20.885279
1105.304317	-2.984100	3.613700	-10.783000	25.525853	0.000418	20.881462
1106.298941	-2.990700	3.611400	-10.800000	25.492182	0.000420	20.884158
1107.296185	-2.987900	3.611300	-10.790000	25.512062	0.000416	20.879940
1108.303236	-2.968900	3.612800	-10.725000	25.473123	0.000416	20.871183
1109.300333	-3.021500	3.610800	-10.909000	25.476104	0.000418	20.892667
1110.297080	-3.004100	3.610700	-10.845000	25.465445	0.000415	20.890024
1111.303432	-3.009000	3.611000	-10.865000	25.433735	0.000418	20.882838
1112.299104	-2.987600	3.610100	-10.784000	25.458436	0.000417	20.888202
1113.300003	-2.987500	3.610900	-10.786000	25.463359	0.000419	20.889352
1114.304628	-2.999300	3.609400	-10.824000	25.517461	0.000418	20.874930
1115.300404	-2.976700	3.610000	-10.745000	25.573296	0.000419	20.861779
1116.301947	-2.994400	3.610800	-10.812000	25.576950	0.000416	20.879672
1117.303566	-2.982100	3.609700	-10.764000	25.574389	0.000415	20.870936
1118.302112	-3.006300	3.607900	-10.846000	25.570115	0.000415	20.879445
1119.301860	-2.988600	3.609100	-10.785000	25.563382	0.000416	20.878373
1120.301921	-2.984700	3.608000	-10.768000	25.585050	0.000414	20.869315
1121.299903	-2.993200	3.609400	-10.802000	25.573169	0.000415	20.885831
1122.304375	-3.024600	3.606800	-10.909000	25.547378	0.000414	20.868940
1123.303586	-3.011000	3.607400	-10.861000	25.499166	0.000413	20.875999
1124.302193	-3.012200	3.607300	-10.865000	25.470639	0.000414	20.870585
1125.299664	-3.028800	3.606000	-10.921000	25.507513	0.000414	20.871105
1126.304048	-3.006100	3.605400	-10.837000	25.539398	0.000413	20.882261
1127.300837	-3.013000	3.605400	-10.863000	25.557635	0.000413	20.881610
1128.302886	-2.993000	3.606400	-10.792000	25.525332	0.000412	20.877145
1129.306201	-2.979400	3.605200	-10.741000	25.562109	0.000412	20.871406
1130.301049	-2.974000	3.606300	-10.724000	25.612901	0.000410	20.869786
1131.302806	-3.003000	3.605100	-10.825000	25.596406	0.000409	20.862702
1132.305165	-3.009800	3.603200	-10.844000	25.597322	0.000411	20.863622
1133.303593	-2.983700	3.606100	-10.758000	25.612380	0.000411	20.851245
1134.304168	-2.976100	3.603800	-10.725000	25.608402	0.000411	20.858629
1135.306828	-3.009600	3.602700	-10.842000	25.583014	0.000409	20.863003
1136.304239	-2.987700	3.602500	-10.762000	25.538757	0.000407	20.849851
1137.302119	-2.964100	3.602700	-10.678000	25.545666	0.000409	20.859160
1138.304976	-3.000300	3.603300	-10.810000	25.600059	0.000407	20.848829
1139.302226	-3.003100	3.603500	-10.821000	25.610725	0.000407	20.848634
1140.303963	-3.018000	3.602200	-10.870000	25.603467	0.000405	20.855095
1141.310166	-3.010100	3.602500	-10.843000	25.597505	0.000409	20.853850
1142.304531	-2.996700	3.603200	-10.797000	25.544060	0.000407	20.835737
1143.304575	-3.018800	3.600600	-10.869000	25.525502	0.000406	20.851239
1144.308669	-2.997600	3.599800	-10.790000	25.466010	0.000405	20.849343
1145.304778	-2.994900	3.600800	-10.784000	25.467754	0.000403	20.857732
1146.303361	-3.035100	3.598500	-10.921000	25.478040	0.000405	20.850992
1147.304742	-3.010500	3.599200	-10.835000	25.497998	0.000405	20.861076
1148.304752	-3.017900	3.597600	-10.856000	25.503146	0.000404	20.852022
1149.305890	-2.989600	3.599000	-10.758000	25.514083	0.000405	20.840720
1150.306472	-2.983200	3.598900	-10.735000	25.586690	0.000404	20.838247
1151.308437	-3.008200	3.598700	-10.825000	25.563855	0.000406	20.861780
1152.305582	-2.991500	3.599200	-10.766000	25.516370	0.000403	20.846810
1153.312233	-3.004800	3.598100	-10.811000	25.534858	0.000403	20.843091
1154.310190	-3.007400	3.597000	-10.817000	25.561047	0.000402	20.848529
1155.309142	-3.024500	3.597500	-10.880000	25.556999	0.000403	20.843516
1156.310950	-3.006200	3.596400	-10.810000	25.562340	0.000402	20.830863
1157.309712	-3.018500	3.596500	-10.855000	25.568355	0.000399	20.827420
1158.307864	-3.019400	3.595700	-10.855000	25.570321	0.000401	20.826075
1159.311556	-3.010400	3.596200	-10.825000	25.567386	0.000399	20.831662
1160.308766	-3.005700	3.595500	-10.806000	25.588508	0.000400	20.842918
1161.308970	-3.023300	3.594000	-10.865000	25.545171	0.000398	20.825948
1162.313262	-3.000000	3.595300	-10.785000	25.529143	0.000398	20.827395
1163.310534	-2.991500	3.594800	-10.753000	25.503868	0.000399	20.820506
1164.309665	-2.993100	3.594900	-10.759000	25.571462	0.000397	20.831489
1165.314598	-3.007300	3.593400	-10.806000	25.619766	0.000396	20.833534
1166.312447	-2.998900	3.593000	-10.774000	25.638359	0.000397	20.824232
1167.309781	-2.999500	3.592700	-10.775000	25.566671	0.000398	20.829522
1168.313540	-3.014300	3.592300	-10.827000	25.566322	0.000396	20.828697
1169.314337	-3.009000	3.592400	-10.808000	25.553032	0.000396	20.814403
1170.309709	-2.990000	3.592700	-10.742000	25.559022	0.000396	20.830375
1171.312260	-2.995900	3.591400	-10.758000	25.538322	0.000395	20.820966
1172.311025	-2.994800	3.593200	-10.760000	25.559350	0.000395	20.819799
1173.312286	-2.996400	3.592100	-10.762000	25.547399	0.000393	20.822021
1174.314057	-3.000500	3.590300	-10.771000	25.516660	0.000393	20.821024
1175.315252	-2.991600	3.591100	-10.741000	25.580000	0.000392	20.834848
1176.314351	-2.994200	3.591500	-10.752000	25.628308	0.000393	20.816983
1177.315200	-3.007700	3.591100	-10.800000	25.668116	0.000392	20.819506
1178.313202	-2.982700	3.591500	-10.711000	25.589873	0.000391	20.829116
1179.312962	-2.992900	3.590900	-10.746000	25.551307	0.000389	20.825946
1180.314979	-3.013600	3.589300	-10.816000	25.548823	0.000392	20.817762
1181.318603	-3.009300	3.589200	-10.800000	25.544955	0.000391	20.821463
1182.319206	-3.001500	3.587500	-10.767000	25.501689	0.000388	20.805516
1183.320714	-3.002400	3.587600	-10.771000	25.509847	0.000388	20.829828
1184.316973	-2.977800	3.589600	-10.688000	25.507363	0.000387	20.814532
1185.317307	-2.997600	3.588800	-10.757000	25.514498	0.000387	20.803206
1186.319083	-3.007400	3.587200	-10.787000	25.556096	0.000388	20.818428
1187.316847	-2.997100	3.587100	-10.750000	25.553144	0.000389	20.828739
1188.322058	-3.006700	3.587300	-10.785000	25.612135	0.000387	20.820654
1189.318760	-3.006700	3.586200	-10.782000	25.572431	0.000387	20.804962
1190.317566	-3.021700	3.586900	-10.838000	25.541595	0.000387	20.819986
1191.319592	-3.011300	3.585700	-10.797000	25.543089	0.000386	20.793986
1192.321709	-2.998800	3.586300	-10.754000	25.517100	0.000387	20.805344
1193.318084	-3.000100	3.586400	-10.758000	25.573634	0.000386	20.810910
1194.320845	-3.017200	3.584900	-10.816000	25.557466	0.000384	20.801311
1195.326515	-2.987900	3.584500	-10.709000	25.582016	0.000385	20.799415
1196.319354	-3.007200	3.585200	-10.781000	25.582123	0.000387	20.800944
1197.319782	-3.024000	3.582400	-10.832000	25.644117	0.000385	20.821007
1198.321877	-3.017800	3.583600	-10.814000	25.680176	0.000385	20.808386
1199.318372	-3.030200	3.582200	-10.854000	25.746643	0.000385	20.805446
1200.323370	-3.014200	3.583200	-10.799000	25.647462	0.000384	20.795443
1201.323365	-2.990200	3.583100	-10.713000	25.605994	0.000384	20.789831
1202.320286	-2.989900	3.582400	-10.710000	25.598490	0.000383	20.793200
1203.320416	-3.024000	3.581200	-10.829000	25.582819	0.000382	20.797376
1204.320629	-3.023900	3.582600	-10.832000	25.585652	0.000382	20.813971
1205.321099	-3.001600	3.582200	-10.751000	25.595225	0.000381	20.797033
1206.322366	-2.982900	3.580700	-10.680000	25.607529	0.000381	20.803226
1207.319887	-3.005000	3.580000	-10.757000	25.580667	0.000380	20.790948
1208.323306	-3.014300	3.580200	-10.790000	25.523468	0.000379	20.804628
1209.321665	-2.987900	3.580700	-10.698000	25.536072	0.000381	20.785043
1210.321513	-2.981700	3.581500	-10.678000	25.549567	0.000380	20.787690
1211.327323	-2.996700	3.579100	-10.725000	25.568087	0.000380	20.796331
1212.324006	-3.008700	3.578700	-10.766000	25.528177	0.000378	20.790864
1213.325566	-3.006300	3.578500	-10.758000	25.498509	0.000378	20.798529
1214.325004	-2.983800	3.579700	-10.680000	25.549505	0.000379	20.774351
1215.324073	-2.994200	3.578900	-10.715000	25.599850	0.000379	20.793618
1216.325233	-2.992300	3.579700	-10.711000	25.649130	0.000379	20.784316
1217.325870	-2.997100	3.577700	-10.722000	25.667168	0.000380	20.791527
1218.326280	-2.974200	3.579800	-10.646000	25.617823	0.000378	20.800289
1219.324690	-2.999900	3.578200	-10.733000	25.590071	0.000378	20.793754
1220.326928	-3.007200	3.577800	-10.758000	25.576355	0.000378	20.791358
1221.328571	-3.000000	3.576500	-10.729000	25.528369	0.000376	20.784893
1222.329316	-3.015500	3.576600	-10.784000	25.540575	0.000376	20.787668
1223.329421	-3.004200	3.576100	-10.742000	25.578723	0.000377	20.780935
1224.326957	-3.014000	3.575900	-10.777000	25.568238	0.000376	20.776568
1225.327614	-2.999800	3.576600	-10.728000	25.583765	0.000377	20.780308
1226.328083	-3.011300	3.575300	-10.766000	25.555367	0.000376	20.784979
1227.329891	-2.959900	3.576700	-10.585000	25.568537	0.000375	20.764067
1228.328113	-2.989200	3.575200	-10.686000	25.586088	0.000375	20.761304
1229.328349	-2.986600	3.574100	-10.673000	25.587554	0.000377	20.782691
1230.327660	-2.985800	3.575100	-10.674000	25.561463	0.000373	20.776877
1231.326377	-2.984600	3.574500	-10.668000	25.612108	0.000375	20.769418
1232.327934	-2.997100	3.572900	-10.707000	25.629276	0.000373	20.775755
1233.328881	-3.022000	3.573800	-10.799000	25.658677	0.000374	20.772094
1234.330800	-2.999500	3.572900	-10.716000	25.648242	0.000374	20.785321
1235.330432	-2.990400	3.574100	-10.686000	25.617358	0.000373	20.761889
1236.328408	-3.008600	3.572000	-10.745000	25.602226	0.000372	20.770873
1237.332582	-3.000700	3.572200	-10.718000	25.626927	0.000374	20.780983
1238.329991	-3.013000	3.571000	-10.758000	25.602825	0.000372	20.782381
1239.331260	-2.983500	3.572600	-10.657000	25.571164	0.000371	20.761015
1240.330640	-3.000300	3.571900	-10.715000	25.577359	0.000372	20.777194
1241.329127	-3.003200	3.571800	-10.726000	25.573332	0.000370	20.775520
1242.330304	-3.009100	3.570300	-10.743000	25.602181	0.000370	20.776044
1243.331204	-2.986300	3.569900	-10.660000	25.633220	0.000371	20.774976
1244.331691	-3.013800	3.570000	-10.759000	25.585710	0.000371	20.767088
1245.333146	-2.995100	3.569500	-10.690000	25.537946	0.000370	20.765113
1246.330457	-2.984500	3.569000	-10.652000	25.498934	0.000369	20.778093
1247.331553	-3.004500	3.569100	-10.722000	25.512380	0.000370	20.774526
1248.330944	-3.004900	3.569000	-10.724000	25.587947	0.000370	20.769335
1249.330412	-3.016800	3.568900	-10.765000	25.658537	0.000368	20.768160
1250.333037	-3.015400	3.568500	-10.759000	25.677569	0.000369	20.777318
1251.333140	-3.005000	3.567500	-10.719000	25.708500	0.000370	20.764763
1252.331884	-2.967600	3.567700	-10.587000	25.691481	0.000368	20.774695
1253.332807	-2.976500	3.567600	-10.618000	25.689913	0.000368	20.763637
1254.332197	-2.977400	3.567800	-10.621000	25.685262	0.000369	20.759914
1255.333899	-3.002600	3.566700	-10.709000	25.734332	0.000366	20.764157
1256.332080	-2.974500	3.567800	-10.611000	25.727748	0.000366	20.763707
1257.332759	-2.980400	3.566900	-10.630000	25.700664	0.000366	20.760685
1258.335635	-2.984800	3.566000	-10.643000	25.700512	0.000366	20.763852
1259.334422	-2.985100	3.566200	-10.645000	25.715249	0.000366	20.772490
1260.333364	-2.987500	3.565500	-10.650000	25.715118	0.000366	20.744856
1261.332890	-2.994100	3.564800	-10.673000	25.630512	0.000364	20.758030
1262.333446	-2.983700	3.565700	-10.638000	25.625142	0.000363	20.754534
1263.334402	-3.018300	3.563000	-10.753000	25.642310	0.000366	20.763242
1264.334781	-3.011600	3.564300	-10.733000	25.662561	0.000364	20.758451
1265.334537	-2.993900	3.564800	-10.672000	25.661116	0.000364	20.756051
1266.336940	-3.000300	3.561800	-10.684000	25.669413	0.000362	20.776238
1267.335285	-2.980100	3.563700	-10.619000	25.718529	0.000365	20.764405
1268.338584	-2.986300	3.563200	-10.640000	25.740174	0.000365	20.784724
1269.335199	-2.984300	3.562600	-10.631000	25.707672	0.000363	20.765353
1270.334770	-3.030700	3.561500	-10.793000	25.671716	0.000363	20.751050
1271.337319	-2.976800	3.562600	-10.604000	25.632381	0.000360	20.731931
1272.335003	-2.996900	3.562700	-10.676000	25.655189	0.000362	20.783290
1273.335078	-2.995300	3.562400	-10.670000	25.617269	0.000360	20.755636
1274.336088	-3.004500	3.560000	-10.695000	25.615697	0.000362	20.743151
1275.335853	-2.968800	3.561000	-10.571000	25.593060	0.000361	20.755030
1276.340740	-3.018100	3.560300	-10.744000	25.557425	0.000360	20.756700
1277.336292	-3.017300	3.560400	-10.742000	25.575165	0.000360	20.752704
1278.336792	-2.992800	3.558400	-10.648000	25.598143	0.000361	20.762980
1279.340113	-2.990200	3.559000	-10.642000	25.620604	0.000360	20.758036
1280.344422	-2.985700	3.558700	-10.624000	25.626146	0.000358	20.761706
1281.340528	-2.977800	3.559900	-10.600000	25.660901	0.000359	20.771482
1282.340204	-2.984400	3.559200	-10.621000	25.681521	0.000361	20.781287
1283.339534	-2.978000	3.558500	-10.596000	25.673344	0.000358	20.777342
1284.342136	-3.009600	3.557200	-10.705000	25.693685	0.000359	20.751778
1285.339189	-2.997000	3.556300	-10.657000	25.731725	0.000357	20.774340
1286.344781	-3.007300	3.557800	-10.698000	25.750455	0.000357	20.756644
1287.339906	-2.985500	3.557300	-10.620000	25.762943	0.000356	20.747849
1288.340920	-3.005800	3.556400	-10.689000	25.780461	0.000353	20.736523
1289.341488	-2.988700	3.555700	-10.626000	25.830443	0.000355	20.765868
1290.342402	-2.988800	3.555000	-10.623000	25.755883	0.000355	20.762095
1291.341814	-2.989900	3.555500	-10.629000	25.678386	0.000355	20.758698
1292.345253	-3.017800	3.554900	-10.727000	25.671005	0.000353	20.749388
1293.343139	-2.991200	3.554500	-10.631000	25.658678	0.000351	20.770672
1294.342929	-2.994200	3.553800	-10.640000	25.684466	0.000352	20.757693
1295.347922	-3.013000	3.555000	-10.711000	25.625180	0.000351	20.750304
1296.342777	-3.015100	3.553600	-10.714000	25.652213	0.000352	20.749953
1297.347371	-2.996800	3.552900	-10.645000	25.673605	0.000353	20.732557
1298.344945	-2.952500	3.554800	-10.494000	25.690903	0.000351	20.741872
1299.345838	-2.997000	3.552900	-10.647000	25.664737	0.000349	20.749256
1300.344986	-3.005200	3.552000	-10.674000	25.623689	0.000349	20.741694
1301.347463	-2.999000	3.551600	-10.650000	25.633752	0.000348	20.748007
1302.349412	-2.998100	3.551000	-10.645000	25.621629	0.000349	20.733934
1303.348941	-3.000800	3.552800	-10.661000	25.629827	0.000348	20.763980
1304.348969	-3.004600	3.550100	-10.665000	25.630697	0.000347	20.731188
1305.348516	-3.006000	3.551100	-10.674000	25.661055	0.000346	20.743187
1306.349164	-3.004100	3.550500	-10.665000	25.629006	0.000348	20.740396
1307.348706	-3.001400	3.549900	-10.654000	25.639244	0.000343	20.743092
1308.351203	-3.006400	3.549100	-10.669000	25.602773	0.000348	20.730169
1309.351826	-3.005700	3.548700	-10.665000	25.642750	0.000345	20.752303
1310.348976	-3.006600	3.548500	-10.668000	25.684502	0.000347	20.745875
1311.351400	-2.994600	3.548700	-10.626000	25.694609	0.000346	20.752233
1312.350932	-3.001900	3.548200	-10.650000	25.703533	0.000346	20.745549
1313.359577	-3.020000	3.548300	-10.716000	25.682938	0.000344	20.730552
1314.354249	-3.021800	3.547400	-10.718000	25.670619	0.000342	20.736197
1315.353037	-3.030900	3.547900	-10.752000	25.604352	0.000344	20.733179
1316.353284	-3.029900	3.546000	-10.743000	25.614760	0.000344	20.732725
1317.351795	-3.009600	3.547500	-10.676000	25.595312	0.000341	20.726944
1318.355431	-3.005800	3.546400	-10.659000	25.642921	0.000341	20.741569
1319.355876	-2.998500	3.546100	-10.632000	25.695027	0.000343	20.737005
1320.352242	-2.982500	3.546600	-10.577000	25.706459	0.000340	20.736159
1321.352934	-3.012500	3.544700	-10.678000	25.681538	0.000343	20.732465
1322.356061	-3.002200	3.545100	-10.642000	25.671751	0.000341	20.763414
1323.354930	-3.011100	3.544800	-10.673000	25.704726	0.000338	20.740109
1324.358851	-3.010900	3.544700	-10.672000	25.722468	0.000340	20.721418
1325.355076	-2.999000	3.545400	-10.632000	25.706143	0.000337	20.741057
1326.355293	-3.018300	3.544800	-10.698000	25.639410	0.000339	20.734249
1327.357208	-3.009000	3.544600	-10.665000	25.616823	0.000338	20.715356
1328.355691	-3.016900	3.544200	-10.692000	25.636852	0.000337	20.724568
1329.358529	-2.991700	3.542300	-10.596000	25.660707	0.000338	20.754692
1330.355325	-2.995900	3.543700	-10.615000	25.646495	0.000337	20.729986
1331.355161	-3.023700	3.542800	-10.711000	25.639139	0.000338	20.734451
1332.357406	-2.985400	3.542900	-10.576000	25.618842	0.000338	20.721652
1333.357244	-2.989900	3.542100	-10.590000	25.637952	0.000337	20.718086
1334.356387	-2.961100	3.542300	-10.488000	25.650399	0.000337	20.721578
1335.359433	-3.011100	3.540700	-10.661000	25.638449	0.000336	20.708627
1336.356753	-2.986700	3.541000	-10.575000	25.636885	0.000337	20.712746
1337.356487	-3.007900	3.541400	-10.651000	25.657058	0.000336	20.722576
1338.360728	-3.000500	3.539800	-10.620000	25.696273	0.000336	20.731144
1339.356616	-3.014500	3.539500	-10.669000	25.687148	0.000337	20.712020
1340.358094	-2.988300	3.539800	-10.576000	25.680071	0.000337	20.730991
1341.357841	-3.013200	3.538100	-10.661000	25.640961	0.000337	20.719211
1342.357145	-3.018000	3.538600	-10.678000	25.667871	0.000337	20.717314
1343.359241	-3.015800	3.536500	-10.665000	25.677509	0.000338	20.729841
1344.357850	-3.022900	3.537100	-10.692000	25.638297	0.000335	20.736451
1345.364346	-2.987200	3.537700	-10.566000	25.621523	0.000337	20.716758
1346.362526	-2.987000	3.537100	-10.564000	25.633749	0.000335	20.717183
1347.358406	-2.984400	3.537700	-10.558000	25.619832	0.000336	20.734027
1348.360883	-3.008000	3.537500	-10.640000	25.648852	0.000338	20.708169
1349.358915	-3.010400	3.535100	-10.642000	25.611383	0.000334	20.714635
1350.361604	-2.991200	3.535900	-10.575000	25.607951	0.000335	20.714033
1351.361795	-3.010800	3.534000	-10.638000	25.664649	0.000335	20.710759
1352.360824	-2.994100	3.535600	-10.584000	25.679731	0.000333	20.709786
1353.360041	-2.971500	3.535700	-10.505000	25.695035	0.000334	20.711881
1354.360583	-2.996400	3.535000	-10.591000	25.732131	0.000330	20.720218
1355.361532	-2.993700	3.535300	-10.582000	25.722985	0.000331	20.714351
1356.365389	-2.997400	3.533400	-10.590000	25.780354	0.000332	20.720766
1357.362411	-2.980600	3.534700	-10.534000	25.777222	0.000331	20.711930
1358.361305	-3.011900	3.533700	-10.643000	25.767210	0.000331	20.734592
1359.362764	-2.984600	3.533300	-10.544000	25.754092	0.000330	20.711456
1360.361613	-2.988300	3.532700	-10.556000	25.743879	0.000331	20.723010
1361.363026	-2.989600	3.532200	-10.559000	25.719336	0.000330	20.726807
1362.363051	-2.988300	3.532300	-10.555000	25.723313	0.000331	20.713732
1363.362451	-3.019500	3.531300	-10.662000	25.719438	0.000327	20.717901
1364.362918	-2.972900	3.532800	-10.502000	25.706294	0.000328	20.715604
1365.363780	-3.013600	3.531800	-10.643000	25.676455	0.000328	20.717876
1366.366557	-3.001900	3.529400	-10.594000	25.698569	0.000328	20.744356
1367.365116	-3.000700	3.530400	-10.593000	25.638441	0.000327	20.730431
1368.363778	-2.989400	3.530200	-10.552000	25.636031	0.000328	20.739865
1369.365210	-3.009500	3.529100	-10.620000	25.623063	0.000326	20.720201
1370.365442	-2.991500	3.530800	-10.562000	25.687292	0.000327	20.708371
1371.365021	-2.988900	3.530900	-10.552000	25.641651	0.000328	20.701411
1372.366665	-2.998300	3.528900	-10.580000	25.658199	0.000324	20.724196
1373.365459	-2.995900	3.528700	-10.571000	25.701610	0.000327	20.729866
1374.365252	-3.002700	3.527100	-10.590000	25.735898	0.000328	20.722580
1375.367482	-3.008900	3.527200	-10.612000	25.714758	0.000327	20.719838
1376.365316	-2.976400	3.528200	-10.500000	25.708198	0.000326	20.724629
1377.370017	-2.985000	3.528600	-10.532000	25.780418	0.000325	20.720832
1378.366614	-3.005700	3.526300	-10.598000	25.795150	0.000326	20.714292
1379.367425	-3.002300	3.525000	-10.583000	25.760121	0.000323	20.735531
1380.368056	-2.990100	3.526100	-10.543000	25.765785	0.000323	20.728893
1381.366627	-2.997800	3.524700	-10.566000	25.782803	0.000323	20.728443
1382.366183	-3.004500	3.526000	-10.593000	25.782183	0.000325	20.722605
1383.370537	-3.007300	3.524400	-10.598000	25.781962	0.000323	20.744668
1384.368588	-2.986600	3.525200	-10.528000	25.750754	0.000323	20.715690
1385.367606	-2.980000	3.524400	-10.502000	25.734630	0.000322	20.732212
1386.371114	-2.988100	3.524600	-10.531000	25.711450	0.000323	20.730266
1387.369259	-3.003500	3.524600	-10.584000	25.680071	0.000322	20.729569
1388.371387	-2.989700	3.523900	-10.535000	25.712940	0.000322	20.724176
1389.367687	-3.006400	3.522600	-10.589000	25.690875	0.000320	20.711971
1390.379216	-3.017600	3.521900	-10.626000	25.687920	0.000319	20.721331
1391.369442	-3.011900	3.522500	-10.609000	25.708941	0.000319	20.719685
1392.368678	-3.013900	3.521400	-10.613000	25.719084	0.000321	20.720390
1393.370688	-3.015000	3.522800	-10.621000	25.703654	0.000318	20.733816
1394.368971	-3.010300	3.521800	-10.601000	25.683379	0.000322	20.725305
1395.369166	-3.024900	3.521300	-10.651000	25.686413	0.000320	20.740207
1396.369430	-3.010900	3.521100	-10.600000	25.704577	0.000320	20.736166
1397.369799	-2.977900	3.522700	-10.489000	25.687135	0.000317	20.720542
1398.369826	-2.993400	3.520600	-10.536000	25.654438	0.000317	20.710461
1399.370185	-2.974500	3.519800	-10.469000	25.673519	0.000317	20.720617
1400.369600	-2.984100	3.520400	-10.504000	25.686170	0.000318	20.733799
1401.370375	-2.990500	3.519900	-10.525000	25.686540	0.000319	20.731325
1402.372772	-3.003600	3.518000	-10.566000	25.638091	0.000318	20.731502
1403.370927	-2.980000	3.518900	-10.485000	25.656675	0.000318	20.732624
1404.374245	-3.000500	3.518100	-10.555000	25.674093	0.000317	20.725462
1405.371528	-2.992300	3.516600	-10.522000	25.660280	0.000315	20.717277
1406.374147	-2.993700	3.518700	-10.533000	25.701749	0.000316	20.733799
1407.373245	-3.005000	3.516800	-10.566000	25.719412	0.000316	20.737790
1408.373679	-2.983300	3.517600	-10.493000	25.724929	0.000315	20.735271
1409.375187	-2.999100	3.515300	-10.542000	25.692997	0.000313	20.734018
1410.377950	-2.997900	3.516800	-10.542000	25.698342	0.000317	20.750766
1411.373821	-2.984200	3.515200	-10.488000	25.689844	0.000313	20.718048
1412.375608	-2.995900	3.513500	-10.525000	25.682365	0.000315	20.733770
1413.376520	-2.990400	3.515900	-10.512000	25.737864	0.000315	20.750635
1414.377065	-2.988300	3.514100	-10.500000	25.737318	0.000315	20.728748
1415.378914	-2.982700	3.514700	-10.483000	25.745938	0.000313	20.742623
1416.377639	-3.013200	3.513600	-10.586000	25.796767	0.000313	20.732987
1417.378138	-2.977200	3.514500	-10.462000	25.825015	0.000313	20.738603
1418.378835	-3.009500	3.514000	-10.574000	25.852634	0.000313	20.747382
1419.380120	-2.980600	3.514200	-10.473000	25.810822	0.000310	20.753270
1420.381292	-2.975700	3.513800	-10.454000	25.817873	0.000312	20.731429
1421.379888	-2.989700	3.511600	-10.497000	25.825426	0.000309	20.747551
1422.379783	-2.986500	3.512200	-10.488000	25.816651	0.000309	20.744426
1423.381141	-3.004900	3.511200	-10.550000	25.834911	0.000309	20.753761
1424.382297	-3.010300	3.512100	-10.571000	25.803582	0.000308	20.737462
1425.382752	-2.992100	3.511900	-10.508000	25.762342	0.000309	20.744401
1426.383816	-3.004400	3.509900	-10.544000	25.713893	0.000307	20.755480
1427.384564	-3.027100	3.509000	-10.620000	25.775387	0.000307	20.754186
1428.383161	-2.995500	3.510100	-10.514000	25.796994	0.000308	20.765933
1429.385889	-3.017000	3.509600	-10.587000	25.797396	0.000308	20.749267
1430.384830	-2.987700	3.511100	-10.489000	25.825989	0.000306	20.757600
1431.385613	-3.010200	3.510300	-10.566000	25.843355	0.000306	20.745647
1432.385411	-3.013700	3.507300	-10.569000	25.826263	0.000306	20.746022
1433.385544	-3.018200	3.508400	-10.588000	25.799756	0.000303	20.754008
1434.385330	-3.028300	3.507800	-10.622000	25.746161	0.000306	20.755650
1435.389609	-2.986900	3.506600	-10.473000	25.729348	0.000304	20.753934
1436.390739	-2.988400	3.507500	-10.481000	25.728601	0.000303	20.756503
1437.387872	-3.010800	3.507100	-10.558000	25.729824	0.000304	20.744929
1438.388697	-3.006600	3.505800	-10.539000	25.749654	0.000304	20.761529
1439.395753	-3.008000	3.505500	-10.544000	25.766048	0.000304	20.759978
1440.389951	-2.996300	3.507000	-10.507000	25.743989	0.000302	20.732604
1441.391757	-2.990400	3.507800	-10.488000	25.762822	0.000301	20.763376
1442.390543	-3.015200	3.504400	-10.565000	25.812435	0.000302	20.766745
1443.390348	-3.012300	3.505100	-10.558000	25.845033	0.000301	20.741168
1444.391317	-2.986400	3.504300	-10.464000	25.853430	0.000300	20.759562
1445.389657	-3.025500	3.502800	-10.597000	25.832169	0.000299	20.758118
1446.391037	-3.008800	3.504000	-10.541000	25.815078	0.000297	20.767029
1447.390024	-2.993200	3.503900	-10.487000	25.762637	0.000300	20.766509
1448.389736	-2.979400	3.504600	-10.440000	25.767882	0.000299	20.762769
1449.389536	-3.014400	3.502900	-10.558000	25.712652	0.000299	20.773201
1450.391490	-3.032400	3.502100	-10.618000	25.656626	0.000300	20.745377
1451.391275	-3.027500	3.501600	-10.599000	25.677229	0.000301	20.763700
1452.394616	-3.015100	3.501000	-10.554000	25.711592	0.000301	20.751273
1453.390877	-3.019200	3.501100	-10.570000	25.729535	0.000298	20.752225
1454.390708	-3.015200	3.501100	-10.555000	25.736213	0.000297	20.759408
1455.392342	-3.008700	3.500800	-10.532000	25.749706	0.000299	20.746407
1456.399223	-3.012400	3.498900	-10.540000	25.780943	0.000296	20.759292
1457.391824	-3.003700	3.499700	-10.510000	25.823799	0.000297	20.760616
1458.390224	-3.023400	3.499700	-10.580000	25.845191	0.000297	20.767881
1459.391229	-3.004900	3.499200	-10.514000	25.790338	0.000296	20.782007
1460.390409	-3.010000	3.499300	-10.532000	25.759483	0.000295	20.759548
1461.390392	-3.013500	3.499500	-10.545000	25.700053	0.000297	20.761494
1462.393276	-3.002400	3.498200	-10.501000	25.696629	0.000296	20.763745
1463.392964	-3.004100	3.497900	-10.506000	25.702914	0.000298	20.755833
1464.391570	-2.988800	3.498000	-10.453000	25.714494	0.000296	20.750394
1465.390857	-2.998300	3.497500	-10.486000	25.750620	0.000294	20.743533
1466.392744	-2.993400	3.498100	-10.470000	25.793482	0.000298	20.763353
1467.393244	-3.001800	3.496300	-10.495000	25.815117	0.000294	20.760904
1468.393771	-2.984700	3.497200	-10.436000	25.856231	0.000294	20.769488
1469.392529	-2.980900	3.496500	-10.422000	25.809703	0.000294	20.754043
1470.392488	-2.996700	3.495500	-10.474000	25.778873	0.000293	20.764326
1471.395348	-2.999300	3.495900	-10.484000	25.763821	0.000297	20.756319
1472.395606	-2.987300	3.495300	-10.440000	25.731176	0.000294	20.766676
1473.398741	-3.005100	3.496300	-10.505000	25.671969	0.000291	20.770746
1474.394790	-3.023900	3.494800	-10.567000	25.635196	0.000294	20.786442
1475.395797	-3.005500	3.494400	-10.502000	25.624415	0.000294	20.763287
1476.394193	-3.007000	3.494100	-10.504000	25.654186	0.000293	20.779437
1477.394452	-2.988300	3.494600	-10.442000	25.712473	0.000291	20.785824
1478.394784	-3.006600	3.492400	-10.500000	25.747636	0.000293	20.753811
1479.398930	-2.975700	3.493000	-10.393000	25.818663	0.000292	20.776794
1480.395129	-2.988400	3.493900	-10.439000	25.829868	0.000290	20.780464
1481.395795	-2.976300	3.493200	-10.397000	25.817522	0.000292	20.770432
1482.400589	-2.987100	3.492600	-10.432000	25.778795	0.000293	20.777998
1483.396749	-2.984600	3.490900	-10.417000	25.760114	0.000291	20.765871
1484.399480	-2.991200	3.490900	-10.441000	25.794868	0.000289	20.778971
1485.398137	-2.993000	3.491300	-10.448000	25.805085	0.000291	20.778327
1486.399023	-2.996600	3.491800	-10.462000	25.830824	0.000290	20.769570
1487.398863	-2.994200	3.492100	-10.455000	25.861033	0.000289	20.776682
1488.400623	-2.989600	3.492200	-10.439000	25.867792	0.000288	20.779680
1489.401191	-3.020600	3.489300	-10.539000	25.851592	0.000289	20.774311
1490.400226	-3.007600	3.489300	-10.494000	25.837239	0.000288	20.781704
1491.399323	-2.993700	3.489900	-10.447000	25.852516	0.000289	20.782351
1492.402865	-3.019200	3.487800	-10.529000	25.813318	0.000289	20.779486
1493.399505	-3.001500	3.489400	-10.473000	25.806332	0.000289	20.781952
1494.401178	-3.002400	3.488800	-10.474000	25.867645	0.000290	20.766729
1495.401494	-2.995200	3.487500	-10.445000	25.895147	0.000288	20.791987
1496.400631	-3.016300	3.487300	-10.518000	25.866676	0.000289	20.784248
1497.401414	-3.012000	3.486600	-10.501000	25.887673	0.000289	20.793488
1498.403593	-3.010800	3.486500	-10.496000	25.874257	0.000287	20.803717
1499.401537	-2.991800	3.486200	-10.430000	25.836295	0.000288	20.782652
1500.403858	-2.990600	3.486200	-10.425000	25.840519	0.000287	20.796378
1501.402977	-2.994900	3.486600	-10.441000	25.871695	0.000285	20.785023
1502.403276	-2.990200	3.485500	-10.422000	25.843523	0.000284	20.791336
1503.404934	-3.011600	3.483400	-10.490000	25.799699	0.000287	20.798996
1504.401127	-2.991900	3.485700	-10.428000	25.802035	0.000285	20.790911
1505.403398	-3.008000	3.483300	-10.477000	25.784594	0.000286	20.786194
1506.399998	-2.990800	3.483600	-10.417000	25.784397	0.000283	20.781729
1507.400654	-3.026800	3.482000	-10.538000	25.821909	0.000284	20.795702
1508.401019	-3.017500	3.483300	-10.510000	25.829313	0.000283	20.805511
1509.401152	-2.981600	3.484000	-10.387000	25.812739	0.000283	20.802612
1510.403198	-2.984000	3.483300	-10.392000	25.850501	0.000282	20.776060
1511.403162	-3.004400	3.482600	-10.462000	25.837510	0.000282	20.795253
1512.402241	-2.999200	3.481800	-10.441000	25.809140	0.000282	20.791410
1513.404585	-2.983700	3.481400	-10.387000	25.784791	0.000282	20.792556
1514.403353	-3.016600	3.482100	-10.504000	25.783876	0.000280	20.794482
1515.403902	-3.028200	3.480200	-10.537000	25.813142	0.000281	20.790214
1516.404159	-3.010400	3.479800	-10.475000	25.836344	0.000280	20.781279
1517.402961	-2.994400	3.480100	-10.420000	25.869610	0.000279	20.780084
1518.404995	-3.021400	3.478900	-10.510000	25.831497	0.000279	20.803911
1519.405756	-3.007900	3.478200	-10.462000	25.795648	0.000279	20.786866
1520.404748	-3.002400	3.479900	-10.448000	25.771898	0.000280	20.820383
1521.410799	-2.999900	3.478200	-10.433000	25.830927	0.000278	20.816140
1522.406441	-3.010300	3.478300	-10.470000	25.768520	0.000282	20.815093
1523.406783	-3.036800	3.476800	-10.557000	25.803693	0.000278	20.816284
1524.407363	-2.993100	3.477200	-10.407000	25.844512	0.000277	20.815563
1525.406877	-2.981900	3.478100	-10.370000	25.930140	0.000277	20.827140
1526.406990	-3.010700	3.476700	-10.467000	25.888852	0.000278	20.808422
1527.409857	-2.971600	3.478200	-10.335000	25.871831	0.000277	20.807445
1528.406463	-3.001100	3.476000	-10.429000	25.867312	0.000280	20.801009
1529.406085	-3.004700	3.477600	-10.448000	25.929065	0.000278	20.810413
1530.411906	-3.007500	3.476400	-10.454000	25.945731	0.000277	20.818148
1531.406488	-3.018400	3.475400	-10.489000	25.920939	0.000275	20.804621
1532.408811	-3.012400	3.473900	-10.463000	25.892866	0.000277	20.821463
1533.405478	-3.025000	3.475000	-10.511000	25.876765	0.000278	20.834686
1534.408473	-2.980000	3.475700	-10.357000	25.807650	0.000276	20.806983
1535.408665	-3.028800	3.472100	-10.516000	25.760714	0.000272	20.827166
1536.409918	-2.998700	3.473900	-10.416000	25.734082	0.000277	20.812269
1537.412411	-3.022500	3.473600	-10.498000	25.733507	0.000276	20.815960
1538.411129	-3.006400	3.472900	-10.440000	25.706969	0.000275	20.814434
1539.410784	-2.985200	3.473600	-10.368000	25.739735	0.000274	20.826008
1540.411716	-2.983600	3.473700	-10.363000	25.767586	0.000274	20.814154
1541.412162	-2.997100	3.472400	-10.406000	25.838361	0.000274	20.829298
1542.412395	-2.997300	3.471700	-10.404000	25.810434	0.000273	20.834909
1543.415106	-3.006500	3.472100	-10.439000	25.837286	0.000274	20.837227
1544.412783	-2.996700	3.470400	-10.398000	25.861207	0.000272	20.817160
1545.415104	-3.040000	3.470100	-10.548000	25.902541	0.000272	20.830234
1546.425187	-2.995800	3.470600	-10.396000	25.881351	0.000273	20.817956
1547.415686	-3.003500	3.470800	-10.423000	25.859635	0.000271	20.828383
1548.419430	-2.981700	3.469900	-10.345000	25.837845	0.000272	20.824512
1549.417975	-2.993700	3.469900	-10.387000	25.814392	0.000269	20.829402
1550.416524	-2.983000	3.469700	-10.349000	25.759985	0.000270	20.840183
1551.416765	-2.984100	3.470000	-10.354000	25.790470	0.000269	20.843778
1552.416921	-2.989000	3.470400	-10.372000	25.799579	0.000266	20.837281
1553.424010	-2.999900	3.469300	-10.407000	25.810911	0.000268	20.837759
1554.418629	-2.987000	3.469000	-10.361000	25.800945	0.000270	20.847663
1555.418571	-2.987000	3.468200	-10.359000	25.806064	0.000267	20.861338
1556.419301	-2.990500	3.467200	-10.368000	25.855244	0.000266	20.865696
1557.419909	-3.018900	3.467500	-10.467000	25.823726	0.000269	20.858217
1558.419868	-2.984300	3.467100	-10.346000	25.765806	0.000267	20.870685
1559.418586	-3.002000	3.466000	-10.404000	25.788591	0.000265	20.842365
1560.418860	-2.985800	3.466100	-10.348000	25.825105	0.000267	20.860077
1561.420100	-2.991900	3.465500	-10.366000	25.827191	0.000266	20.873077
1562.422041	-2.999600	3.466900	-10.398000	25.800109	0.000266	20.846822
1563.420474	-3.017000	3.465200	-10.453000	25.844306	0.000263	20.854235
1564.423124	-3.011600	3.466100	-10.436000	25.888646	0.000263	20.873172
1565.421136	-3.001200	3.464100	-10.395000	25.944167	0.000264	20.845973
1566.420401	-3.008300	3.465000	-10.423000	25.918532	0.000263	20.845825
1567.420341	-3.002100	3.464500	-10.400000	25.874186	0.000264	20.850587
1568.422214	-2.981800	3.464800	-10.330000	25.847508	0.000263	20.868356
1569.420827	-3.020100	3.461600	-10.454000	25.854958	0.000262	20.853555
1570.423339	-2.989200	3.462200	-10.349000	25.854387	0.000264	20.855353
1571.421896	-2.988300	3.462600	-10.347000	25.851584	0.000263	20.870079
1572.419894	-2.985100	3.461800	-10.333000	25.866384	0.000264	20.867404
1573.421143	-3.002400	3.461300	-10.391000	25.930303	0.000263	20.852434
1574.421534	-2.958600	3.462300	-10.242000	25.932758	0.000264	20.862011
1575.422644	-3.000400	3.460900	-10.384000	25.938967	0.000265	20.875361
1576.423105	-2.990700	3.461700	-10.352000	25.929848	0.000261	20.854821
1577.423231	-3.008500	3.460100	-10.409000	25.965418	0.000262	20.865900
1578.423352	-3.017800	3.459700	-10.440000	25.924008	0.000262	20.873135
1579.424742	-3.019200	3.460000	-10.445000	25.889849	0.000263	20.874854
1580.425456	-2.993500	3.459700	-10.356000	25.910518	0.000261	20.866221
1581.430480	-3.000700	3.459800	-10.381000	25.952093	0.000261	20.874323
1582.426580	-2.982200	3.459200	-10.315000	25.965829	0.000260	20.895708
1583.427017	-2.999100	3.459200	-10.373000	25.939871	0.000264	20.864890
1584.426910	-2.984000	3.459400	-10.323000	25.982249	0.000260	20.881385
1585.426424	-2.998300	3.457700	-10.366000	25.973725	0.000261	20.861918
1586.428380	-3.005700	3.458800	-10.395000	25.947866	0.000260	20.884775
1587.425693	-2.999400	3.455900	-10.364000	25.906550	0.000261	20.882623
1588.426453	-3.004100	3.456400	-10.381000	25.898551	0.000260	20.874113
1589.429574	-3.009400	3.455500	-10.398000	25.911418	0.000258	20.874237
1590.428450	-2.966800	3.456800	-10.255000	25.917997	0.000256	20.896492
1591.431408	-2.996100	3.454900	-10.350000	25.918416	0.000260	20.898809
1592.427778	-3.015800	3.454700	-10.417000	25.873697	0.000256	20.875223
1593.427422	-3.006400	3.454700	-10.385000	25.907979	0.000259	20.892592
1594.426946	-2.999400	3.455100	-10.362000	25.944194	0.000258	20.893887
1595.428957	-2.990700	3.454500	-10.330000	25.955690	0.000258	20.881730
1596.429765	-2.989900	3.455400	-10.330000	25.935022	0.000257	20.895104
1597.432312	-3.003500	3.454500	-10.374000	25.932010	0.000257	20.878803
1598.429767	-3.002900	3.453600	-10.370000	25.907119	0.000255	20.876556
1599.430739	-2.979300	3.452700	-10.285000	25.906745	0.000256	20.895620
1600.435890	-2.996500	3.452700	-10.345000	25.913472	0.000254	20.890050
1601.431696	-2.981500	3.452800	-10.294000	25.944478	0.000252	20.867148
1602.433960	-2.990800	3.451300	-10.322000	25.928223	0.000256	20.907238
1603.431415	-2.975200	3.452800	-10.272000	25.935102	0.000253	20.886176
1604.432479	-2.992300	3.452500	-10.330000	25.921816	0.000253	20.886105
1605.431788	-2.979000	3.452300	-10.283000	25.927328	0.000253	20.888323
1606.433342	-3.003000	3.452100	-10.366000	25.878763	0.000252	20.890743
1607.435889	-3.000400	3.451000	-10.353000	25.901542	0.000252	20.896082
1608.433139	-3.004900	3.450500	-10.368000	25.957034	0.000250	20.886872
1609.435142	-3.003500	3.449500	-10.359000	25.946404	0.000250	20.889944
1610.435338	-2.996100	3.450500	-10.337000	25.922908	0.000253	20.882935
1611.435012	-3.004200	3.449700	-10.363000	25.925539	0.000253	20.878940
1612.436445	-3.008700	3.448900	-10.375000	25.921263	0.000251	20.879386
1613.438158	-3.028700	3.449800	-10.447000	25.950877	0.000248	20.895386
1614.437009	-2.988100	3.449100	-10.305000	25.935623	0.000250	20.878639
1615.436354	-3.003600	3.447900	-10.355000	25.950331	0.000248	20.855959
1616.438853	-3.023300	3.447800	-10.423000	25.913465	0.000248	20.867759
1617.436620	-2.999700	3.448700	-10.344000	25.940318	0.000249	20.854434
1618.440032	-3.013600	3.447200	-10.387000	25.960415	0.000248	20.850443
1619.436445	-2.982200	3.447900	-10.282000	25.984854	0.000247	20.867409
1620.436450	-3.000600	3.446000	-10.339000	26.035820	0.000249	20.863612
1621.436433	-3.017100	3.446100	-10.396000	26.028096	0.000248	20.851585
1622.437366	-3.001500	3.445700	-10.341000	26.019052	0.000250	20.868102
1623.439502	-2.975100	3.445400	-10.249000	26.018531	0.000248	20.874690
1624.441450	-3.003600	3.445300	-10.348000	25.998139	0.000250	20.861790
1625.438954	-3.028300	3.444600	-10.430000	25.943709	0.000248	20.864004
1626.439013	-3.008400	3.445200	-10.364000	25.927662	0.000246	20.829392
1627.440152	-3.010900	3.444300	-10.369000	25.930145	0.000247	20.878826
1628.440300	-3.003700	3.443800	-10.342000	25.923854	0.000248	20.856386
1629.440319	-3.007400	3.443500	-10.355000	25.929842	0.000246	20.871883
1630.440633	-3.024000	3.443700	-10.413000	25.933335	0.000244	20.857850
1631.440280	-2.991300	3.443000	-10.298000	25.929535	0.000247	20.876316
1632.440440	-3.033200	3.441900	-10.439000	25.947917	0.000244	20.863964
1633.444207	-3.025900	3.442000	-10.415000	25.960459	0.000245	20.847168
1634.441323	-2.987700	3.442700	-10.284000	25.924114	0.000245	20.859966
1635.441858	-2.992600	3.443200	-10.303000	25.911838	0.000243	20.862807
1636.441397	-3.004200	3.442700	-10.341000	25.881061	0.000245	20.860337
1637.442052	-2.990600	3.442500	-10.294000	25.906294	0.000245	20.847754
1638.442913	-3.016100	3.440900	-10.377000	25.941347	0.000244	20.853572
1639.445917	-2.993200	3.441500	-10.300000	26.006321	0.000244	20.849148
1640.443853	-2.987800	3.441000	-10.279000	25.976987	0.000244	20.855712
1641.446244	-3.009800	3.439200	-10.350000	25.966970	0.000242	20.850864
1642.449882	-3.014200	3.440800	-10.371000	26.006462	0.000242	20.864936
1643.447761	-3.010400	3.439200	-10.353000	25.960580	0.000240	20.846816
1644.448855	-2.998100	3.438300	-10.308000	25.986686	0.000243	20.870671
1645.446496	-3.016600	3.438900	-10.371000	25.983481	0.000241	20.861761
1646.446004	-2.991600	3.438400	-10.285000	25.995177	0.000243	20.837952
1647.446441	-2.985500	3.438400	-10.264000	25.977338	0.000242	20.844211
1648.450516	-2.997500	3.438800	-10.307000	25.991267	0.000242	20.827860
1649.448695	-3.004700	3.438200	-10.330000	25.976929	0.000241	20.855179
1650.448256	-3.002800	3.437100	-10.319000	26.000797	0.000241	20.822262
1651.448183	-3.003200	3.436400	-10.319000	26.016339	0.000239	20.835980
1652.448700	-3.018900	3.435400	-10.370000	26.038942	0.000239	20.835930
1653.449028	-3.012800	3.436800	-10.353000	26.002325	0.000241	20.826642
1654.449837	-3.013200	3.435900	-10.352000	26.031680	0.000240	20.835272
1655.450557	-2.982200	3.437000	-10.248000	26.082344	0.000241	20.827855
1656.450979	-2.998100	3.435400	-10.299000	26.059364	0.000239	20.845069
1657.450739	-3.000000	3.434900	-10.304000	25.987775	0.000240	20.845214
1658.452976	-3.003700	3.435300	-10.318000	25.973711	0.000237	20.838197
1659.453504	-2.967200	3.435600	-10.193000	25.972764	0.000238	20.833926
1660.459287	-3.020800	3.433700	-10.372000	26.003088	0.000237	20.843055
1661.452820	-2.989500	3.434200	-10.266000	26.035303	0.000237	20.853136
1662.453372	-2.991200	3.433400	-10.269000	26.004972	0.000237	20.832146
1663.452670	-3.014500	3.432200	-10.345000	25.971760	0.000235	20.844297
1664.454001	-3.019800	3.432100	-10.363000	25.993790	0.000237	20.832765
1665.455309	-2.988500	3.432900	-10.258000	25.994779	0.000237	20.823803
1666.458878	-2.986300	3.432500	-10.249000	26.006697	0.000234	20.846207
1667.455429	-2.984100	3.432100	-10.240000	26.064272	0.000233	20.827242
1668.456656	-3.001300	3.430900	-10.296000	26.079345	0.000236	20.827213
1669.459860	-3.012000	3.430600	-10.332000	26.025620	0.000234	20.833451
1670.455137	-2.980000	3.431400	-10.225000	25.990894	0.000231	20.817529
1671.459263	-3.009800	3.429100	-10.319000	25.985900	0.000231	20.820572
1672.456067	-2.974300	3.430700	-10.203000	25.984107	0.000233	20.828727
1673.455345	-2.989900	3.430200	-10.255000	25.981120	0.000231	20.827623
1674.456001	-2.995600	3.429400	-10.272000	25.959833	0.000233	20.823307
1675.455224	-2.988500	3.428700	-10.245000	25.946241	0.000232	20.830988
1676.456696	-3.004600	3.427800	-10.298000	25.931237	0.000230	20.832036
1677.457505	-3.001100	3.428900	-10.290000	25.929398	0.000230	20.839197
1678.455699	-2.987400	3.428700	-10.242000	25.937915	0.000233	20.823572
1679.456464	-2.988500	3.428700	-10.246000	25.964443	0.000229	20.832205
1680.456028	-3.001800	3.426200	-10.284000	25.936664	0.000230	20.827531
1681.456812	-2.998800	3.427700	-10.278000	25.915450	0.000232	20.830401
1682.458127	-3.005500	3.426400	-10.297000	25.964035	0.000232	20.828002
1683.457388	-3.007700	3.426800	-10.306000	25.974988	0.000230	20.809609
1684.456754	-2.999600	3.426700	-10.278000	26.005562	0.000230	20.819463
1685.458376	-3.020400	3.425700	-10.346000	25.983578	0.000228	20.857592
1686.455966	-3.018000	3.425100	-10.336000	25.977464	0.000229	20.837700
1687.460310	-3.016800	3.424100	-10.329000	26.013032	0.000230	20.846408
1688.458649	-3.011000	3.425200	-10.312000	25.961611	0.000227	20.827464
1689.458985	-2.973800	3.425600	-10.187000	25.961333	0.000228	20.826236
1690.459081	-2.987700	3.423800	-10.229000	26.000353	0.000228	20.809963
1691.458798	-2.977300	3.424400	-10.194000	26.035026	0.000226	20.817772
1692.460834	-2.989200	3.423500	-10.233000	26.073794	0.000227	20.833015
1693.463891	-2.989800	3.422700	-10.232000	26.119917	0.000228	20.805865
1694.461383	-2.970200	3.423400	-10.167000	26.088571	0.000225	20.827000
1695.460334	-2.996600	3.423600	-10.258000	26.011891	0.000227	20.828667
1696.461454	-2.987700	3.422100	-10.223000	26.037844	0.000225	20.833879
1697.459602	-2.983200	3.421400	-10.206000	26.009081	0.000227	20.810670
1698.461516	-3.019600	3.420600	-10.328000	25.991788	0.000224	20.814633
1699.459347	-2.981300	3.421100	-10.199000	25.995887	0.000226	20.819226
1700.459447	-3.000700	3.420200	-10.261000	25.985924	0.000223	20.837190
1701.461691	-2.998000	3.420100	-10.253000	26.037685	0.000224	20.833245
1702.459286	-2.977000	3.421600	-10.185000	26.049656	0.000225	20.831522
1703.460320	-3.000600	3.418800	-10.258000	26.027102	0.000222	20.817871
1704.459584	-2.977400	3.420100	-10.182000	25.996247	0.000223	20.816268
1705.459936	-2.988800	3.419000	-10.218000	26.006728	0.000222	20.812100
1706.460334	-2.987300	3.419700	-10.214000	26.034072	0.000222	20.818235
1707.461480	-3.005600	3.418600	-10.275000	26.029677	0.000222	20.799121
1708.461175	-3.003000	3.418900	-10.266000	26.038936	0.000223	20.802260
1709.462106	-3.001000	3.418500	-10.259000	25.981606	0.000221	20.832378
1710.460334	-2.975400	3.419500	-10.173000	25.953761	0.000220	20.814835
1711.462194	-2.993900	3.418300	-10.232000	26.020027	0.000220	20.836840
1712.463280	-3.025700	3.416700	-10.337000	26.051671	0.000222	20.817899
1713.461685	-3.006800	3.417300	-10.274000	26.094882	0.000221	20.815798
1714.463931	-3.025500	3.416300	-10.336000	26.090906	0.000220	20.841200
1715.463234	-3.001300	3.415400	-10.250000	26.039066	0.000219	20.810925
1716.461019	-3.003500	3.415300	-10.257000	26.033674	0.000218	20.809775
1717.464252	-2.996600	3.415000	-10.232000	26.035710	0.000219	20.797122
1718.464960	-2.991700	3.415600	-10.217000	26.049170	0.000219	20.813491
1719.468748	-2.991800	3.415100	-10.216000	26.061289	0.000219	20.801485
1720.465774	-2.979900	3.414400	-10.174000	26.110811	0.000217	20.811888
1721.465121	-2.999000	3.414900	-10.241000	26.085233	0.000216	20.803258
1722.464942	-2.986000	3.413900	-10.193000	26.020422	0.000217	20.816849
1723.465658	-2.988100	3.413800	-10.201000	26.085772	0.000218	20.805696
1724.465640	-2.992100	3.412900	-10.211000	26.123199	0.000216	20.795887
1725.466341	-3.021100	3.412300	-10.307000	26.178412	0.000215	20.806322
1726.467354	-2.984700	3.412900	-10.186000	26.142571	0.000214	20.801602
1727.465476	-2.999700	3.412200	-10.235000	26.128915	0.000215	20.808268
1728.470974	-2.960800	3.413900	-10.105000	26.149477	0.000216	20.808067
1729.466488	-2.994900	3.411500	-10.216000	26.166714	0.000216	20.823490
1730.470396	-2.987800	3.411900	-10.193000	26.113318	0.000213	20.806821
1731.466665	-3.003900	3.410500	-10.244000	26.080236	0.000211	20.806771
1732.467908	-3.008600	3.410400	-10.259000	26.109768	0.000215	20.807522
1733.468160	-2.994100	3.411900	-10.214000	26.145557	0.000213	20.810766
1734.468098	-3.009300	3.408900	-10.257000	26.177194	0.000212	20.805572
1735.468657	-2.996200	3.410600	-10.217000	26.168926	0.000211	20.802005
1736.471246	-3.002000	3.408500	-10.231000	26.189836	0.000212	20.801206
1737.467695	-3.012100	3.409100	-10.268000	26.250580	0.000214	20.802030
1738.467965	-3.013200	3.408900	-10.270000	26.229520	0.000211	20.806471
1739.468435	-2.989800	3.409700	-10.192000	26.140536	0.000213	20.805721
1740.471620	-2.993300	3.407700	-10.200000	26.156453	0.000210	20.806067
1741.467770	-2.997800	3.407000	-10.213000	26.127746	0.000210	20.789076
1742.468214	-3.016800	3.405700	-10.273000	26.038827	0.000209	20.812582
1743.467646	-3.016300	3.406700	-10.274000	26.042402	0.000212	20.792940
1744.469812	-3.001500	3.406500	-10.224000	26.103081	0.000207	20.819294
1745.471205	-2.990300	3.405900	-10.184000	26.112068	0.000210	20.802720
1746.469578	-2.996000	3.406200	-10.204000	26.080000	0.000209	20.813647
1747.471162	-2.986900	3.405300	-10.170000	26.059236	0.000208	20.794207
1748.470015	-3.022800	3.404500	-10.291000	26.093861	0.000209	20.805763
1749.470929	-2.999100	3.405000	-10.211000	26.066713	0.000209	20.804564
1750.470326	-3.013100	3.404200	-10.256000	26.053619	0.000207	20.799469
1751.473771	-2.992400	3.405100	-10.188000	26.072921	0.000209	20.802267
1752.470392	-2.991000	3.404500	-10.182000	26.072671	0.000207	20.782576
1753.470519	-2.989400	3.403000	-10.172000	26.110346	0.000206	20.805732
1754.473429	-3.024300	3.403100	-10.291000	26.037225	0.000208	20.806231
1755.469699	-2.988900	3.402900	-10.169000	26.034143	0.000205	20.802186
1756.473558	-2.995300	3.402700	-10.191000	26.035136	0.000203	20.805081
1757.470778	-3.004800	3.402000	-10.221000	26.027117	0.000204	20.802239
1758.472117	-2.995700	3.400900	-10.188000	26.043909	0.000204	20.776911
1759.472354	-2.999000	3.401800	-10.201000	26.111065	0.000204	20.791281
1760.472390	-3.005300	3.401100	-10.220000	26.143054	0.000204	20.761783
1761.473899	-2.981300	3.401600	-10.140000	26.117523	0.000202	20.802037
1762.480403	-2.988700	3.401300	-10.164000	26.108983	0.000203	20.790138
1763.473040	-2.978600	3.401800	-10.132000	26.073689	0.000202	20.784547
1764.472619	-2.978100	3.400600	-10.127000	26.080718	0.000200	20.785446
1765.475805	-3.005200	3.400100	-10.216000	26.075855	0.000201	20.791939
1766.474561	-3.014400	3.399800	-10.246000	26.054788	0.000201	20.773616
1767.476492	-3.007900	3.399200	-10.224000	26.058940	0.000199	20.785375
1768.473358	-2.980000	3.399700	-10.130000	26.098408	0.000199	20.766235
1769.474294	-2.989800	3.398700	-10.160000	26.093886	0.000199	20.777339
1770.472898	-2.998000	3.399300	-10.190000	26.090935	0.000197	20.773425
1771.476571	-2.985700	3.399400	-10.149000	26.086864	0.000199	20.788775
1772.474731	-2.990800	3.397500	-10.160000	26.132289	0.000198	20.780364
1773.474888	-2.987200	3.397500	-10.148000	26.145181	0.000197	20.776249
1774.476132	-2.998500	3.396100	-10.182000	26.090540	0.000198	20.775399
1775.475510	-2.989500	3.397400	-10.155000	26.078869	0.000197	20.776949
1776.477509	-2.983100	3.397400	-10.134000	26.122189	0.000197	20.762629
1777.482550	-2.971900	3.397700	-10.097000	26.121667	0.000197	20.777752
1778.479888	-3.011800	3.395300	-10.225000	26.143201	0.000197	20.776156
1779.477462	-3.001100	3.395500	-10.189000	26.154005	0.000197	20.762356
1780.477596	-2.972700	3.395200	-10.092000	26.159076	0.000196	20.779306
1781.478694	-2.991100	3.395000	-10.153000	26.098921	0.000194	20.778605
1782.479244	-3.021700	3.393600	-10.254000	26.083877	0.000194	20.779610
1783.482415	-3.016700	3.393500	-10.236000	26.074016	0.000193	20.773970
1784.479466	-3.006200	3.393600	-10.201000	26.071607	0.000192	20.782929
1785.478820	-2.993100	3.393900	-10.157000	26.119695	0.000195	20.772451
1786.480704	-2.987700	3.394100	-10.140000	26.101513	0.000194	20.783580
1787.479889	-2.987200	3.393000	-10.135000	26.134898	0.000193	20.778244
1788.482800	-2.991800	3.394300	-10.154000	26.174588	0.000190	20.770236
1789.480849	-3.002600	3.391600	-10.183000	26.155540	0.000192	20.766744
1790.479922	-3.012800	3.392000	-10.219000	26.086127	0.000188	20.763853
1791.479632	-3.007300	3.392600	-10.201000	26.070406	0.000190	20.776981
1792.480735	-2.987900	3.391800	-10.134000	26.113229	0.000189	20.756945
1793.480312	-3.009000	3.390500	-10.200000	26.197673	0.000190	20.768304
1794.481194	-3.011000	3.390900	-10.210000	26.262316	0.000188	20.764037
1795.481560	-2.997600	3.390400	-10.162000	26.278136	0.000190	20.745321
1796.481124	-2.991200	3.389500	-10.138000	26.293832	0.000189	20.749242
1797.483231	-3.011500	3.389500	-10.207000	26.276206	0.000190	20.745753
1798.481564	-3.013800	3.389300	-10.214000	26.221449	0.000188	20.749521
1799.483654	-2.999600	3.389400	-10.165000	26.216185	0.000187	20.744705
1800.481806	-3.001900	3.389500	-10.175000	26.168506	0.000188	20.775505
1801.481073	-3.001200	3.387700	-10.166000	26.149955	0.000189	20.756390
1802.481707	-2.993900	3.389600	-10.147000	26.174521	0.000189	20.755944
1803.481621	-3.011100	3.387300	-10.199000	26.201170	0.000188	20.760912
1804.482005	-2.991500	3.388600	-10.136000	26.188057	0.000189	20.759589
1805.484395	-2.998200	3.387200	-10.155000	26.161784	0.000187	20.763534
1806.481760	-2.978800	3.387100	-10.088000	26.150635	0.000187	20.743796
1807.481666	-2.983800	3.387200	-10.106000	26.137524	0.000188	20.736312
1808.484890	-2.977400	3.387200	-10.085000	26.129333	0.000186	20.755583
1809.482384	-2.983500	3.386500	-10.103000	26.117955	0.000187	20.759323
1810.489933	-3.002600	3.386300	-10.166000	26.118800	0.000186	20.763017
1811.484642	-3.000000	3.384400	-10.153000	26.090790	0.000187	20.750993
1812.484809	-2.980700	3.385900	-10.092000	26.083017	0.000186	20.742710
1813.485491	-2.993900	3.383400	-10.129000	26.086870	0.000185	20.755590
1814.485690	-2.999500	3.384900	-10.152000	26.105102	0.000184	20.760158
1815.487292	-3.020000	3.384200	-10.219000	26.087194	0.000186	20.743587
1816.488909	-2.990600	3.384600	-10.121000	26.109183	0.000188	20.760941
1817.485932	-3.013000	3.382700	-10.191000	26.145617	0.000185	20.764359
1818.486521	-2.991300	3.383100	-10.119000	26.161562	0.000184	20.738654
1819.492859	-3.020000	3.382400	-10.214000	26.222263	0.000182	20.765038
1820.487496	-3.018300	3.382300	-10.207000	26.177236	0.000184	20.774320
1821.492488	-2.993800	3.382900	-10.127000	26.187395	0.000185	20.756553
1822.487692	-2.982300	3.381800	-10.085000	26.189434	0.000183	20.753386
1823.488657	-3.002700	3.381000	-10.151000	26.213129	0.000186	20.743057
1824.490301	-3.001600	3.381400	-10.149000	26.240647	0.000185	20.754115
1825.488733	-3.011500	3.381100	-10.181000	26.268703	0.000183	20.764292
1826.490946	-2.975700	3.381600	-10.062000	26.300889	0.000182	20.750169
1827.490808	-2.993200	3.380200	-10.115000	26.313258	0.000183	20.750746
1828.491014	-3.002400	3.379200	-10.145000	26.267267	0.000183	20.770435
1829.491093	-3.021000	3.379900	-10.210000	26.236147	0.000183	20.753860
1830.491183	-3.008600	3.379700	-10.168000	26.201406	0.000181	20.743131
1831.490267	-3.020900	3.379400	-10.207000	26.170119	0.000181	20.753892
1832.493787	-3.022000	3.379100	-10.211000	26.187103	0.000181	20.752466
1833.492203	-2.980100	3.379800	-10.071000	26.171478	0.000178	20.750042
1834.491306	-2.995200	3.377900	-10.117000	26.187127	0.000178	20.737317
1835.494091	-3.014600	3.378300	-10.183000	26.241214	0.000179	20.726708
1836.491765	-2.965200	3.378700	-10.017000	26.275559	0.000178	20.752689
1837.493677	-2.993700	3.378700	-10.114000	26.254946	0.000178	20.748096
1838.491374	-3.013700	3.376600	-10.175000	26.257087	0.000178	20.768266
1839.495696	-2.993700	3.377700	-10.111000	26.227386	0.000175	20.752169
1840.492207	-3.006200	3.375800	-10.146000	26.283534	0.000176	20.765919
1841.492158	-2.997300	3.377400	-10.122000	26.247650	0.000174	20.760679
1842.495039	-3.026600	3.375200	-10.215000	26.226520	0.000175	20.765997
1843.494917	-3.010300	3.375400	-10.160000	26.255577	0.000176	20.755368
1844.494408	-2.993300	3.376300	-10.105000	26.244901	0.000175	20.749380
1845.492252	-2.987100	3.375700	-10.082000	26.235837	0.000175	20.749755
1846.492614	-2.990300	3.376000	-10.094000	26.292953	0.000175	20.755944
1847.493160	-3.008500	3.375200	-10.153000	26.276365	0.000174	20.761560
1848.495474	-3.000300	3.374800	-10.125000	26.278207	0.000175	20.748237
1849.492507	-3.004900	3.373200	-10.135000	26.267129	0.000174	20.725250
1850.493133	-2.983300	3.373200	-10.063000	26.232365	0.000174	20.748637
1851.495110	-3.004200	3.373100	-10.132000	26.235718	0.000173	20.742523
1852.493036	-3.014300	3.371800	-10.163000	26.237355	0.000173	20.745591
1853.496871	-3.016500	3.372300	-10.171000	26.239443	0.000175	20.762862
1854.493528	-3.003500	3.372500	-10.128000	26.288164	0.000171	20.772470
1855.496078	-3.006500	3.371500	-10.136000	26.322979	0.000174	20.740127
1856.494242	-3.015500	3.371700	-10.167000	26.297674	0.000173	20.764009
1857.495531	-3.013500	3.370300	-10.156000	26.290224	0.000170	20.756995
1858.496133	-3.009100	3.370700	-10.140000	26.292706	0.000171	20.750007
1859.500060	-3.016100	3.368800	-10.159000	26.332313	0.000171	20.766578
1860.496758	-2.986500	3.370100	-10.064000	26.324785	0.000170	20.768970
1861.499389	-2.991000	3.369000	-10.076000	26.331067	0.000174	20.750626
1862.501047	-2.986900	3.368600	-10.061000	26.292132	0.000173	20.747059
1863.497825	-2.996500	3.368600	-10.093000	26.321701	0.000169	20.762551
1864.498333	-3.000100	3.367800	-10.103000	26.314427	0.000171	20.775629
1865.499043	-2.986400	3.369700	-10.062000	26.274770	0.000168	20.752844
1866.498193	-2.983900	3.368300	-10.050000	26.298780	0.000166	20.762749
1867.500264	-3.007400	3.367300	-10.126000	26.274791	0.000168	20.765668
1868.503296	-2.995900	3.367400	-10.088000	26.313054	0.000168	20.771878
1869.501536	-3.003100	3.367200	-10.111000	26.325172	0.000167	20.768411
1870.499697	-2.982900	3.368600	-10.048000	26.316803	0.000168	20.762370
1871.499965	-3.017200	3.365200	-10.152000	26.263464	0.000168	20.755233
1872.499949	-2.982600	3.367400	-10.043000	26.236992	0.000165	20.758028
1873.500562	-2.975200	3.368100	-10.020000	26.240911	0.000165	20.761018
1874.500277	-2.994600	3.366700	-10.081000	26.281865	0.000167	20.746698
1875.500996	-2.997300	3.364500	-10.083000	26.291474	0.000167	20.767735
1876.500542	-2.983600	3.365300	-10.040000	26.283974	0.000164	20.771577
1877.500018	-3.019600	3.363900	-10.157000	26.307839	0.000162	20.749568
1878.499863	-2.988800	3.364800	-10.055000	26.312532	0.000164	20.779889
1879.499133	-3.003600	3.363600	-10.102000	26.292843	0.000162	20.780017
1880.504131	-2.989200	3.362400	-10.050000	26.243601	0.000162	20.788378
1881.500716	-2.997500	3.362400	-10.077000	26.251872	0.000160	20.775827
1882.500863	-3.011900	3.362600	-10.127000	26.273823	0.000161	20.776075
1883.500352	-3.002000	3.363000	-10.095000	26.298435	0.000161	20.782317
1884.500775	-3.008000	3.362300	-10.113000	26.307727	0.000161	20.741394
1885.501865	-3.028600	3.361600	-10.180000	26.316120	0.000159	20.774486
1886.502490	-2.989200	3.362600	-10.050000	26.302811	0.000161	20.772017
1887.501145	-2.991300	3.362600	-10.058000	26.321064	0.000160	20.759540
1888.501782	-3.017000	3.360100	-10.137000	26.329359	0.000160	20.776411
1889.501913	-3.024700	3.359700	-10.162000	26.331648	0.000162	20.775392
1890.505854	-2.983400	3.360500	-10.025000	26.354167	0.000159	20.785222
1891.504205	-3.013400	3.359500	-10.122000	26.382822	0.000160	20.760442
1892.504898	-3.027400	3.359900	-10.171000	26.393279	0.000159	20.770003
1893.502450	-3.020700	3.358600	-10.145000	26.361719	0.000160	20.777165
1894.503430	-3.006200	3.358600	-10.096000	26.288964	0.000157	20.764738
1895.502988	-3.009000	3.358200	-10.104000	26.297234	0.000158	20.770205
1896.502832	-3.010100	3.357900	-10.106000	26.265446	0.000160	20.781408
1897.504651	-2.962200	3.358600	-9.947700	26.274563	0.000158	20.774448
1898.505213	-3.029000	3.355800	-10.164000	26.274858	0.000158	20.774745
1899.518006	-3.000200	3.358000	-10.074000	26.251165	0.000159	20.780332
1900.506304	-2.980500	3.358100	-10.008000	26.245232	0.000156	20.783379
1901.509333	-3.001100	3.355700	-10.070000	26.311512	0.000156	20.784554
1902.506153	-2.967500	3.358300	-9.964800	26.329757	0.000157	20.803838
1903.506366	-2.980600	3.357900	-10.008000	26.308656	0.000157	20.777417
1904.506218	-3.006100	3.355100	-10.084000	26.319754	0.000156	20.790466
1905.509622	-2.993200	3.354600	-10.041000	26.324669	0.000155	20.795406
1906.507313	-3.018200	3.355300	-10.126000	26.319332	0.000156	20.787671
1907.512917	-3.005200	3.354700	-10.081000	26.267880	0.000154	20.784801
1908.509629	-3.000500	3.355300	-10.067000	26.264380	0.000154	20.773698
1909.510268	-3.002300	3.355400	-10.072000	26.330257	0.000156	20.808134
1910.514246	-3.018000	3.353800	-10.121000	26.366187	0.000155	20.781181
1911.509812	-2.990600	3.352300	-10.025000	26.330232	0.000153	20.799100
1912.515704	-2.982200	3.353900	-10.001000	26.346939	0.000153	20.788389
1913.510986	-2.996400	3.352900	-10.045000	26.287626	0.000153	20.802749
1914.511226	-3.004400	3.351700	-10.069000	26.277911	0.000153	20.785399
1915.511464	-3.013300	3.352100	-10.100000	26.283179	0.000155	20.749915
1916.511201	-2.996100	3.353500	-10.047000	26.357572	0.000153	20.772049
1917.512524	-3.009600	3.351700	-10.086000	26.407206	0.000152	20.802968
1918.513022	-2.993400	3.351300	-10.031000	26.440004	0.000151	20.790887
1919.513075	-2.958800	3.352900	-9.919000	26.427791	0.000153	20.789992
1920.515772	-2.990000	3.352000	-10.022000	26.473223	0.000154	20.791086
1921.513960	-3.000700	3.351400	-10.056000	26.500308	0.000152	20.793654
1922.517656	-2.987200	3.350200	-10.006000	26.479109	0.000151	20.805063
1923.514916	-2.998900	3.349800	-10.045000	26.445489	0.000152	20.785969
1924.515213	-2.999700	3.349600	-10.047000	26.392972	0.000151	20.800990
1925.515208	-3.003800	3.349000	-10.059000	26.410727	0.000151	20.784221
1926.514328	-2.997200	3.349500	-10.038000	26.385276	0.000150	20.793729
1927.514901	-3.023700	3.347200	-10.121000	26.361511	0.000151	20.804457
1928.519394	-3.013000	3.347700	-10.086000	26.399475	0.000150	20.788085
1929.515646	-3.027400	3.347300	-10.132000	26.443225	0.000150	20.796970
1930.514615	-3.002400	3.348700	-10.052000	26.478355	0.000150	20.803357
1931.517795	-2.997900	3.347900	-10.036000	26.470410	0.000151	20.807698
1932.516165	-2.993500	3.347200	-10.019000	26.373996	0.000148	20.786185
1933.520644	-3.017000	3.345100	-10.091000	26.349780	0.000150	20.804521
1934.517406	-3.037200	3.344600	-10.158000	26.351142	0.000149	20.817744
1935.517445	-3.004600	3.346800	-10.054000	26.363532	0.000150	20.821187
1936.520710	-2.994900	3.345800	-10.020000	26.371802	0.000148	20.811481
1937.518168	-2.991000	3.345200	-10.005000	26.395306	0.000147	20.807603
1938.519512	-2.993900	3.345800	-10.016000	26.380635	0.000149	20.798548
1939.517640	-3.026100	3.343100	-10.115000	26.405959	0.000147	20.819258
1940.518129	-2.994600	3.344700	-10.015000	26.415092	0.000144	20.821325
1941.517606	-3.011700	3.345000	-10.073000	26.448980	0.000147	20.817453
1942.517615	-3.013300	3.343600	-10.074000	26.499255	0.000146	20.825786
1943.518659	-2.990500	3.344000	-9.999400	26.536545	0.000145	20.809690
1944.520663	-3.012800	3.342500	-10.069000	26.549549	0.000143	20.831296
1945.518709	-3.004700	3.342400	-10.042000	26.526759	0.000144	20.829250
1946.520119	-2.996300	3.342700	-10.015000	26.476155	0.000144	20.824378
1947.521333	-2.973600	3.343900	-9.941800	26.478411	0.000143	20.816689
1948.518731	-3.008700	3.340900	-10.050000	26.470166	0.000145	20.817411
1949.521369	-2.980100	3.341500	-9.957300	26.514266	0.000142	20.829495
1950.519616	-2.983500	3.340800	-9.966500	26.526745	0.000143	20.826865
1951.519757	-2.984900	3.340800	-9.971300	26.486350	0.000142	20.820401
1952.519452	-2.994900	3.340800	-10.005000	26.475993	0.000144	20.833224
1953.520295	-2.989400	3.340600	-9.985600	26.447583	0.000141	20.831695
1954.522311	-2.995800	3.339400	-10.004000	26.430526	0.000141	20.856276
1955.526069	-3.035700	3.339700	-10.137000	26.429604	0.000144	20.816944
1956.521005	-2.998900	3.340600	-10.018000	26.466470	0.000143	20.839299
1957.521680	-2.984200	3.339300	-9.964400	26.516814	0.000142	20.836798
1958.523301	-2.997600	3.338300	-10.005000	26.557979	0.000141	20.824597
1959.520753	-3.019300	3.337900	-10.077000	26.602783	0.000141	20.848297
1960.522189	-2.979300	3.338800	-9.946300	26.629668	0.000142	20.820323
1961.523398	-2.997200	3.337600	-10.003000	26.621445	0.000140	20.827704
1962.521121	-2.993400	3.337000	-9.988000	26.582120	0.000138	20.825157
1963.522418	-2.996000	3.338400	-10.001000	26.614986	0.000138	20.831168
1964.520179	-2.996900	3.339100	-10.006000	26.612529	0.000138	20.846716
1965.530098	-2.995600	3.337600	-9.996500	26.637028	0.000137	20.839101
1966.521319	-2.999500	3.336600	-10.007000	26.696952	0.000137	20.857143
1967.521577	-3.008200	3.336400	-10.035000	26.685629	0.000136	20.826321
1968.520333	-2.997600	3.334800	-9.995200	26.659664	0.000136	20.837201
1969.520548	-2.992900	3.336100	-9.983000	26.689821	0.000137	20.836225
1970.521209	-2.998800	3.334800	-9.999600	26.669713	0.000136	20.852993
1971.524408	-3.007700	3.334800	-10.029000	26.616437	0.000135	20.847325
1972.521393	-2.997400	3.334700	-9.993800	26.623885	0.000135	20.841062
1973.522317	-3.005100	3.333700	-10.017000	26.596352	0.000135	20.828557
1974.523056	-3.007100	3.333800	-10.024000	26.626360	0.000134	20.835015
1975.524345	-3.009000	3.333200	-10.029000	26.632590	0.000135	20.846019
1976.522636	-2.998400	3.332600	-9.992100	26.688069	0.000134	20.849161
1977.522778	-2.975900	3.334200	-9.920700	26.687843	0.000134	20.856995
1978.524295	-2.987100	3.332500	-9.953900	26.730610	0.000134	20.841197
1979.523953	-3.014000	3.332300	-10.043000	26.718123	0.000136	20.855668
1980.525611	-3.002900	3.331000	-10.002000	26.703351	0.000135	20.837973
1981.524564	-2.982400	3.332500	-9.938000	26.678773	0.000133	20.859256
1982.524738	-3.008800	3.331400	-10.022000	26.695925	0.000132	20.872231
1983.527385	-2.990100	3.331000	-9.958600	26.673853	0.000132	20.851939
1984.525178	-2.999100	3.329800	-9.985700	26.663801	0.000132	20.863170
1985.532017	-3.002600	3.329300	-9.995600	26.657863	0.000133	20.871899
1986.527058	-2.990500	3.331000	-9.960500	26.666673	0.000133	20.854204
1987.526123	-3.015100	3.329300	-10.037000	26.674364	0.000131	20.856720
1988.526542	-2.995800	3.329100	-9.971700	26.669795	0.000131	20.857817
1989.526078	-2.998000	3.328100	-9.976800	26.634865	0.000131	20.850677
1990.528323	-3.002700	3.329300	-9.995800	26.607332	0.000131	20.883214
1991.530985	-3.015800	3.328000	-10.035000	26.679566	0.000130	20.852467
1992.527534	-2.996900	3.327600	-9.971700	26.657026	0.000129	20.876273
1993.530446	-3.003100	3.327200	-9.991400	26.625273	0.000126	20.862371
1994.532414	-2.996000	3.327500	-9.968100	26.635372	0.000128	20.881057
1995.529123	-2.990900	3.327200	-9.950600	26.655721	0.000128	20.870219
1996.532634	-3.016100	3.324800	-10.027000	26.689383	0.000126	20.875137
1997.529698	-2.994200	3.326900	-9.959800	26.685536	0.000127	20.869848
1998.530984	-2.972100	3.326200	-9.884300	26.663088	0.000128	20.881892
1999.531283	-3.013800	3.325300	-10.021000	26.698883	0.000125	20.859085
2000.531460	-3.002400	3.325100	-9.981300	26.709851	0.000127	20.889075
2001.531315	-2.987500	3.324900	-9.931400	26.712631	0.000126	20.864845
2002.532076	-3.005100	3.325300	-9.991400	26.728638	0.000124	20.885204
2003.532588	-3.018600	3.322900	-10.030000	26.768102	0.000125	20.886949
2004.531985	-3.001100	3.323700	-9.973700	26.727590	0.000126	20.896477
2005.533041	-3.006400	3.323200	-9.990100	26.687924	0.000124	20.886471
2006.533413	-3.005500	3.322400	-9.983900	26.642765	0.000123	20.884695
2007.536892	-3.001700	3.324000	-9.976700	26.598499	0.000125	20.890930
2008.534051	-2.974400	3.323700	-9.884300	26.658351	0.000125	20.884717
2009.534869	-2.997300	3.321400	-9.954500	26.690796	0.000125	20.897893
2010.536416	-2.995100	3.323000	-9.951500	26.672571	0.000123	20.896167
2011.534432	-3.005200	3.321200	-9.979600	26.694439	0.000122	20.916727
2012.536264	-3.014600	3.319400	-10.005000	26.639876	0.000123	20.887480
2013.535473	-2.989200	3.320900	-9.925500	26.680191	0.000122	20.885810
2014.537132	-2.982300	3.321300	-9.904200	26.723255	0.000122	20.899231
2015.535227	-2.977200	3.320900	-9.886000	26.739508	0.000120	20.913674
2016.535914	-3.000600	3.320100	-9.961700	26.693363	0.000120	20.878664
2017.537529	-3.005000	3.319500	-9.974100	26.595283	0.000119	20.884378
2018.538304	-2.986200	3.320000	-9.913700	26.608166	0.000119	20.900172
2019.537329	-2.976800	3.318000	-9.876000	26.680724	0.000119	20.892035
2020.539713	-2.989300	3.317600	-9.916400	26.728953	0.000117	20.882676
2021.536611	-2.973000	3.317600	-9.862200	26.781077	0.000119	20.911845
2022.536980	-2.990900	3.317800	-9.921800	26.847320	0.000121	20.914913
2023.537793	-2.988400	3.317200	-9.912400	26.784800	0.000119	20.911321
2024.536684	-2.983700	3.318100	-9.899100	26.706112	0.000115	20.916134
2025.537139	-2.991400	3.318100	-9.924800	26.725769	0.000114	20.893224
2026.539807	-2.971500	3.317000	-9.856100	26.746569	0.000117	20.907971
2027.537202	-3.005600	3.315000	-9.962800	26.792441	0.000115	20.899090
2028.543704	-2.986100	3.316600	-9.902600	26.742226	0.000115	20.902183
2029.537812	-2.994100	3.314900	-9.924400	26.794078	0.000113	20.892676
2030.537558	-2.991400	3.314700	-9.914800	26.878465	0.000113	20.917305
2031.538381	-3.002000	3.315400	-9.951900	26.900779	0.000114	20.912716
2032.538651	-2.991500	3.315100	-9.916100	26.868636	0.000112	20.916905
2033.540012	-2.986400	3.314400	-9.897500	26.834634	0.000113	20.930130
2034.541972	-3.023600	3.314000	-10.019000	26.810707	0.000113	20.901808
2035.537781	-3.015800	3.313900	-9.992900	26.841458	0.000112	20.928457
2036.538046	-3.021500	3.312700	-10.008000	26.837907	0.000113	20.925361
2037.554049	-2.989500	3.313700	-9.905500	26.832371	0.000111	20.914107
2038.552072	-3.016000	3.312200	-9.988900	26.797946	0.000110	20.906047
2039.578345	-3.011900	3.312700	-9.975900	26.815767	0.000111	20.924438
2040.559345	-2.994500	3.312400	-9.917700	26.854307	0.000111	20.929048
2041.540273	-3.017200	3.311500	-9.991000	26.845646	0.000110	20.916074
2042.541518	-3.018000	3.309500	-9.987200	26.794567	0.000111	20.907866
2043.540730	-3.037300	3.309500	-10.050000	26.760486	0.000108	20.925754
2044.546488	-3.008000	3.310600	-9.957100	26.780244	0.000109	20.926179
2045.544305	-3.007400	3.310000	-9.952500	26.745591	0.000110	20.920737
2046.543734	-3.015200	3.309200	-9.977000	26.699172	0.000110	20.928122
2047.545427	-3.002800	3.309000	-9.935000	26.655580	0.000109	20.935980
2048.545879	-3.011600	3.309800	-9.967100	26.757277	0.000107	20.938173
2049.545777	-3.020400	3.308700	-9.992800	26.795430	0.000110	20.920586
2050.547965	-2.994900	3.308800	-9.908200	26.835736	0.000107	20.930291
2051.545946	-3.033200	3.307100	-10.030000	26.836556	0.000107	20.914047
2052.547842	-2.996500	3.308400	-9.912500	26.869914	0.000108	20.906812
2053.550792	-3.021500	3.306600	-9.989800	26.891947	0.000108	20.931335
2054.547806	-3.018200	3.305200	-9.974600	26.876882	0.000106	20.932782
2055.551332	-2.982200	3.307200	-9.861800	26.850675	0.000105	20.934405
2056.546954	-3.008000	3.305900	-9.942900	26.836054	0.000106	20.921601
2057.546313	-3.004000	3.306900	-9.932700	26.818781	0.000107	20.909451
2058.546686	-3.011500	3.304200	-9.949500	26.882566	0.000104	20.903412
2059.548206	-2.988900	3.305000	-9.877200	26.939492	0.000106	20.923668
2060.547299	-2.974900	3.305800	-9.833600	26.932866	0.000105	20.926962
2061.548797	-3.014800	3.303000	-9.956200	26.921623	0.000104	20.936044
2062.548051	-3.000800	3.303600	-9.913100	26.977981	0.000106	20.906898
2063.546946	-3.003600	3.305300	-9.927100	27.030465	0.000103	20.925062
2064.550374	-3.000400	3.305800	-9.918000	27.011658	0.000105	20.922271
2065.546169	-3.017800	3.301400	-9.962100	27.014931	0.000103	20.914657
2066.553496	-2.990700	3.302800	-9.876900	27.070344	0.000103	20.918227
2067.547854	-2.991700	3.303500	-9.882100	27.097787	0.000103	20.921170
2068.548281	-2.993300	3.301900	-9.882900	27.109496	0.000100	20.900232
2069.548626	-2.991900	3.302400	-9.879500	27.092179	0.000103	20.905100
2070.547756	-3.012500	3.300900	-9.943200	27.062100	0.000101	20.915152
2071.550741	-3.006700	3.302300	-9.928500	27.048153	9.737364E-5	20.927203
2072.549861	-2.984200	3.301600	-9.852100	26.934595	9.842972E-5	20.911632
2073.549750	-2.999600	3.300000	-9.896900	26.922113	0.000102	20.906668
2074.550017	-3.016700	3.300800	-9.956300	26.957129	9.819870E-5	20.926704
2075.550558	-2.993800	3.300900	-9.881300	26.959061	9.872674E-5	20.917269
2076.550941	-3.004700	3.298700	-9.910700	26.984646	9.727463E-5	20.906488
2077.553156	-3.008800	3.298500	-9.923900	27.022761	9.668059E-5	20.903092
2078.549822	-3.017400	3.298300	-9.950200	26.979386	9.737364E-5	20.895035
2079.551123	-3.022100	3.298000	-9.965900	26.958836	9.499747E-5	20.902345
2080.551408	-3.001600	3.299300	-9.902200	26.971811	9.674659E-5	20.899745
2081.549091	-2.969000	3.299200	-9.794300	27.001818	9.925478E-5	20.899101
2082.553849	-2.985200	3.299300	-9.848100	26.938360	9.687860E-5	20.903092
2083.551148	-3.012400	3.297200	-9.932000	26.970695	9.668059E-5	20.893408
2084.553473	-3.005900	3.296900	-9.908800	26.979034	9.512948E-5	20.907957
2085.556228	-3.018000	3.296200	-9.946800	27.026800	9.407340E-5	20.915688
2086.552787	-3.030600	3.294600	-9.983800	26.968929	9.384238E-5	20.911545
2087.552685	-2.991200	3.296200	-9.858500	26.931802	9.328134E-5	20.900290
2088.555118	-2.998000	3.296600	-9.882100	26.939470	9.390839E-5	20.887139
2089.552221	-2.999100	3.294500	-9.879600	26.966322	9.602054E-5	20.884744
2090.553835	-2.994700	3.294500	-9.864700	27.004014	9.493146E-5	20.914110
2091.558326	-2.986500	3.294300	-9.837300	27.002104	9.443643E-5	20.902707
2092.553041	-3.031700	3.292400	-9.981400	27.048458	9.258829E-5	20.894796
2093.555705	-3.014100	3.292600	-9.923800	27.123519	9.258829E-5	20.908644
2094.553288	-3.009700	3.293100	-9.910500	27.121704	9.262129E-5	20.884536
2095.552836	-2.973900	3.295100	-9.797900	27.118379	9.090517E-5	20.910113
2096.553925	-2.996100	3.292200	-9.862200	27.163834	9.225827E-5	20.878071
2097.553847	-3.002500	3.294000	-9.889400	27.183859	9.153221E-5	20.906270
2098.556422	-2.979700	3.292100	-9.807900	27.176458	9.067415E-5	20.888871
2099.555172	-3.014800	3.291700	-9.923200	27.100460	9.093817E-5	20.900153
2100.557257	-3.009800	3.291300	-9.904600	27.051825	8.994810E-5	20.883011
2101.555142	-2.994300	3.291200	-9.853700	27.019536	8.945306E-5	20.890367
2102.555283	-2.989700	3.291600	-9.839500	27.049113	8.981609E-5	20.889292
2103.559173	-3.001900	3.289500	-9.872800	27.063307	8.905703E-5	20.871325
2104.555869	-3.002200	3.288100	-9.870000	27.089558	8.836398E-5	20.886819
2105.556472	-3.006000	3.289600	-9.887500	27.078662	8.955207E-5	20.912842
2106.557410	-3.022300	3.287900	-9.936300	27.059852	8.707689E-5	20.882075
2107.559030	-2.989800	3.288500	-9.831000	27.057245	8.572379E-5	20.889409
2108.558736	-3.008300	3.288300	-9.891600	27.062308	8.430469E-5	20.916310
2109.562920	-2.997800	3.288000	-9.855000	27.115510	8.621883E-5	20.880203
2110.560222	-2.992900	3.286700	-9.835600	27.153049	8.786895E-5	20.879552
2111.564201	-2.990700	3.286600	-9.827800	27.130765	8.374364E-5	20.876106
2112.564386	-2.983900	3.287700	-9.808900	27.169028	8.545977E-5	20.865279
2113.559826	-3.029000	3.285700	-9.951600	27.203692	8.572379E-5	20.877857
2114.563351	-3.016200	3.285800	-9.909500	27.162080	8.374364E-5	20.893376
2115.559503	-2.992300	3.286600	-9.833200	27.160096	8.354563E-5	20.879053
2116.558865	-3.003400	3.284900	-9.865200	27.147367	8.532776E-5	20.870993
2117.563031	-3.013300	3.283700	-9.893200	27.136798	8.473372E-5	20.876010
2118.561658	-2.991000	3.284200	-9.822100	27.173866	8.126846E-5	20.896220
2119.561622	-3.007600	3.282500	-9.871500	27.238871	8.265456E-5	20.875310
2120.561048	-2.998500	3.284700	-9.848100	27.253808	8.255556E-5	20.873739
2121.561982	-3.025400	3.283700	-9.933800	27.251352	8.219253E-5	20.874588
2122.562681	-3.024400	3.282000	-9.924800	27.189623	8.308360E-5	20.887414
2123.562129	-3.004200	3.282100	-9.859800	27.173743	8.215953E-5	20.861960
2124.569195	-3.008000	3.283100	-9.874200	27.163048	8.229154E-5	20.870169
2125.568629	-3.011500	3.281100	-9.880300	27.099751	8.074042E-5	20.867200
2126.563535	-3.030700	3.281700	-9.944700	27.098059	8.278657E-5	20.869766
2127.563143	-2.999700	3.281700	-9.842700	27.161433	8.159849E-5	20.879450
2128.567626	-2.991900	3.281100	-9.815600	27.174011	8.407367E-5	20.853221
2129.563932	-3.019800	3.279900	-9.904000	27.170362	8.176350E-5	20.873732
2130.564089	-2.997200	3.279800	-9.829700	27.240824	8.107045E-5	20.878697
2131.563102	-3.011700	3.279200	-9.875300	27.296546	8.219253E-5	20.858408
2132.563949	-2.994800	3.278900	-9.818600	27.339985	8.083943E-5	20.881241
2133.564963	-3.007300	3.277600	-9.855900	27.403862	8.199452E-5	20.879118
2134.564686	-3.022500	3.276500	-9.902300	27.404087	8.215953E-5	20.879818
2135.568139	-3.005900	3.278300	-9.853400	27.434047	8.008038E-5	20.861123
2136.568261	-3.009300	3.277300	-9.861300	27.425866	8.186251E-5	20.883710
2137.566011	-3.020700	3.276200	-9.895600	27.448806	7.846326E-5	20.855108
2138.566196	-3.013500	3.276800	-9.872600	27.449520	7.915631E-5	20.869102
2139.569107	-2.993900	3.276200	-9.807400	27.420277	7.892529E-5	20.871451
2140.565307	-3.001200	3.276800	-9.833200	27.368006	7.612009E-5	20.867231
2141.567986	-3.004600	3.275400	-9.839800	27.308419	7.486600E-5	20.872248
2142.564526	-2.990700	3.275500	-9.795600	27.278621	7.592207E-5	20.864085
2143.566469	-3.015400	3.275500	-9.875200	27.282768	7.513001E-5	20.870627
2144.568679	-2.995800	3.275600	-9.811800	27.334618	7.479999E-5	20.839334
2145.567242	-2.960800	3.275300	-9.695600	27.383440	7.489900E-5	20.854308
2146.571494	-3.007000	3.272700	-9.840700	27.308243	7.443696E-5	20.854528
2147.566494	-2.986100	3.274200	-9.776100	27.337175	7.199478E-5	20.862294
2148.567605	-2.996800	3.272000	-9.804900	27.302516	7.516302E-5	20.872474
2149.567117	-2.999400	3.272100	-9.813100	27.260342	7.427195E-5	20.866087
2150.566825	-2.985100	3.272900	-9.769000	27.234292	7.291885E-5	20.844153
2151.566161	-3.000200	3.272100	-9.816100	27.198342	7.057568E-5	20.858253
2152.570374	-3.018300	3.271100	-9.872400	27.225191	7.014665E-5	20.857283
2153.567587	-2.997000	3.272000	-9.805200	27.288631	7.262183E-5	20.867990
2154.565797	-3.001400	3.270600	-9.814600	27.364498	7.130173E-5	20.877925
2155.571795	-3.015700	3.269000	-9.858100	27.409471	6.889256E-5	20.873856
2156.567519	-3.014400	3.270100	-9.856100	27.453158	6.948660E-5	20.859961
2157.570277	-3.003000	3.268700	-9.814900	27.486965	7.021265E-5	20.850351
2158.568445	-3.002400	3.268600	-9.812800	27.432073	6.925558E-5	20.848706
2159.569783	-2.996100	3.268900	-9.792800	27.374030	6.935459E-5	20.858117
2160.570082	-3.002100	3.269500	-9.814800	27.340814	6.866154E-5	20.861213
2161.569952	-2.996800	3.268000	-9.792600	27.359523	6.737445E-5	20.853007
2162.573794	-3.004300	3.268400	-9.818500	27.353149	6.915658E-5	20.845648
2163.570911	-3.005900	3.268000	-9.822200	27.354690	7.054268E-5	20.855257
2164.572669	-2.978100	3.266500	-9.726700	27.333380	6.902457E-5	20.849943
2165.572535	-3.010600	3.264900	-9.828600	27.326781	6.991563E-5	20.840460
2166.571975	-3.016500	3.266400	-9.852100	27.333430	7.004764E-5	20.838139
2167.574922	-2.990200	3.266100	-9.765200	27.360223	6.872755E-5	20.863194
2168.573909	-3.004400	3.266100	-9.812300	27.348344	7.064169E-5	20.833227
2169.572934	-3.007000	3.265300	-9.818200	27.280468	6.786948E-5	20.865468
2170.575076	-2.988100	3.263700	-9.751800	27.238243	6.727544E-5	20.829636
2171.573830	-3.000500	3.263800	-9.792200	27.274019	6.691241E-5	20.849974
2172.579994	-3.008900	3.263900	-9.819700	27.325201	6.707742E-5	20.881542
2173.575465	-2.995900	3.264800	-9.779000	27.336760	6.678040E-5	20.841015
2174.573613	-2.995100	3.263000	-9.772000	27.333039	6.496527E-5	20.847228
2175.573966	-3.013600	3.262100	-9.829400	27.358963	6.727544E-5	20.843909
2176.575009	-2.998800	3.262900	-9.783700	27.305007	6.674740E-5	20.837048
2177.574403	-3.029900	3.260900	-9.879400	27.310737	6.704442E-5	20.844235
2178.579370	-2.977900	3.262300	-9.713800	27.311079	6.846353E-5	20.842682
2179.575689	-3.006300	3.261400	-9.803900	27.301901	6.519629E-5	20.860002
2180.576230	-3.012100	3.259800	-9.818200	27.364911	6.509728E-5	20.849419
2181.579268	-3.015800	3.259300	-9.828200	27.355463	6.456924E-5	20.841337
2182.577094	-2.990200	3.260100	-9.747200	27.345885	6.331515E-5	20.850194
2183.580772	-2.996100	3.260900	-9.769200	27.285576	6.394220E-5	20.834572
2184.577292	-3.013400	3.258100	-9.817500	27.293789	6.351316E-5	20.831929
2185.578731	-3.018100	3.258200	-9.832800	27.332167	6.169803E-5	20.850618
2186.578176	-3.009000	3.259500	-9.806700	27.352090	6.381019E-5	20.835099
2187.577725	-3.011500	3.258000	-9.810600	27.344249	6.169803E-5	20.842385
2188.580313	-2.986500	3.257300	-9.726700	27.399796	6.074096E-5	20.841839
2189.578641	-3.004400	3.257700	-9.785600	27.390641	6.196205E-5	20.836897
2190.578803	-3.006300	3.258100	-9.793300	27.356507	5.915684E-5	20.848552
2191.578140	-3.018500	3.256600	-9.829100	27.340956	5.981689E-5	20.822477
2192.579753	-3.001400	3.257400	-9.775400	27.332799	5.750672E-5	20.826599
2193.579093	-2.994900	3.254900	-9.746500	27.273927	5.938786E-5	20.838976
2194.581295	-3.016800	3.254200	-9.816500	27.312780	5.988290E-5	20.851979
2195.580955	-2.988300	3.253700	-9.722000	27.336597	6.050994E-5	20.820937
2196.581354	-3.008100	3.253400	-9.785000	27.330522	6.120299E-5	20.829999
2197.582654	-3.004500	3.253200	-9.773000	27.283038	5.879382E-5	20.829175
2198.581569	-3.008700	3.255500	-9.794100	27.264734	5.786975E-5	20.824988
2199.585030	-2.972600	3.254300	-9.672000	27.332984	5.635164E-5	20.832949
2200.580937	-3.029200	3.252100	-9.851200	27.392601	5.909084E-5	20.859256
2201.582397	-3.007600	3.251900	-9.779400	27.398929	5.661566E-5	20.815363
2202.583979	-2.993500	3.252800	-9.736700	27.383969	5.664866E-5	20.841565
2203.580081	-2.992900	3.252200	-9.733400	27.403272	5.806777E-5	20.842017
2204.583750	-3.006400	3.250000	-9.769900	27.476553	5.539457E-5	20.815221
2205.586932	-3.007300	3.250000	-9.773300	27.515420	5.879382E-5	20.811651
2206.582012	-2.996500	3.249600	-9.735500	27.562278	5.737471E-5	20.819442
2207.581830	-3.007200	3.250100	-9.772600	27.571232	5.506455E-5	20.815175
2208.584893	-2.991000	3.250000	-9.719900	27.575501	5.678067E-5	20.832746
2209.582701	-2.984000	3.249600	-9.695200	27.622579	5.918985E-5	20.822269
2210.584949	-3.001600	3.247700	-9.747400	27.611519	5.668166E-5	20.825365
2211.582568	-3.004400	3.246700	-9.753400	27.545966	5.499854E-5	20.815358
2212.585302	-2.996400	3.248800	-9.733800	27.522628	5.674767E-5	20.809420
2213.584483	-2.997400	3.246300	-9.729900	27.498966	5.513055E-5	20.824494
2214.583153	-3.005500	3.246300	-9.755200	27.502662	5.793576E-5	20.808299
2215.586442	-2.993100	3.247100	-9.717000	27.520448	5.714370E-5	20.843261
2216.583382	-3.014100	3.244600	-9.778600	27.529405	5.443750E-5	20.812445
2217.584812	-2.995800	3.245900	-9.723300	27.490416	5.579060E-5	20.816366
2218.582485	-2.989900	3.247000	-9.707300	27.534835	5.559258E-5	20.800839
2219.583920	-3.003700	3.244900	-9.744900	27.573780	5.555958E-5	20.816790
2220.585143	-3.009500	3.245000	-9.764200	27.588761	5.489953E-5	20.810527
2221.584920	-3.006800	3.244500	-9.754400	27.588860	5.394246E-5	20.808256
2222.583494	-3.001900	3.243200	-9.735100	27.541510	5.341442E-5	20.804710
2223.585487	-2.993900	3.244300	-9.712400	27.597810	5.103825E-5	20.810623
2224.584200	-3.007000	3.242700	-9.749800	27.552226	5.440450E-5	20.807905
2225.583209	-3.010200	3.241400	-9.756200	27.563610	5.179731E-5	20.816989
2226.585242	-2.991000	3.242400	-9.697300	27.576287	5.176430E-5	20.792761
2227.582967	-2.967300	3.242500	-9.620600	27.609320	5.305140E-5	20.804187
2228.583533	-3.039200	3.240500	-9.847000	27.572563	5.183031E-5	20.825997
2229.585754	-3.003200	3.241700	-9.734700	27.541513	5.285338E-5	20.814671
2230.583307	-3.004100	3.241400	-9.736800	27.511799	4.968515E-5	20.804689
2231.586710	-3.010400	3.238500	-9.747600	27.456581	5.140128E-5	20.802715
2232.585124	-2.980900	3.240100	-9.657800	27.476770	5.113726E-5	20.800266
2233.585184	-2.996700	3.238200	-9.703700	27.542653	5.189631E-5	20.812972
2234.584728	-2.995100	3.238800	-9.699300	27.562020	5.123626E-5	20.800217
2235.586258	-2.993600	3.238000	-9.692300	27.539375	5.037820E-5	20.797347
2236.590371	-2.991300	3.239000	-9.688000	27.558121	5.189631E-5	20.810043
2237.587717	-2.992800	3.236800	-9.686200	27.584464	5.305140E-5	20.801936
2238.587384	-2.983100	3.238300	-9.659300	27.560083	4.932212E-5	20.827664
2239.588562	-3.006100	3.235700	-9.725900	27.574122	4.892610E-5	20.810496
2240.590729	-2.975000	3.236200	-9.626900	27.544402	5.067522E-5	20.792921
2241.590246	-3.004800	3.237500	-9.726900	27.538743	4.975116E-5	20.792443
2242.593978	-3.011900	3.234700	-9.741900	27.566600	4.843106E-5	20.813833
2243.591889	-3.001600	3.234400	-9.707800	27.583460	4.892610E-5	20.797132
2244.590362	-3.026900	3.234600	-9.788900	27.551714	5.021319E-5	20.813080
2245.592501	-3.013500	3.232900	-9.741700	27.553940	4.859607E-5	20.788768
2246.591545	-3.014100	3.233500	-9.745200	27.569171	5.070823E-5	20.778962
2247.595485	-3.011200	3.233000	-9.733800	27.606072	4.734198E-5	20.792858
2248.592702	-3.014700	3.231800	-9.742100	27.600963	4.734198E-5	20.805261
2249.591359	-3.003900	3.230500	-9.703400	27.577151	4.892610E-5	20.815441
2250.591891	-3.004300	3.231300	-9.706800	27.549298	4.767200E-5	20.783623
2251.592484	-2.994400	3.232300	-9.677500	27.598603	4.806803E-5	20.802886
2252.595705	-2.992200	3.230200	-9.664900	27.645723	4.912411E-5	20.800987
2253.594378	-2.984000	3.231500	-9.641300	27.663555	4.447077E-5	20.809921
2254.592332	-3.011800	3.230400	-9.728900	27.718309	4.615389E-5	20.773033
2255.592628	-2.971000	3.232300	-9.601900	27.742887	4.813404E-5	20.797293
2256.594678	-3.013700	3.227800	-9.726700	27.801381	4.744099E-5	20.794993
2257.592933	-3.008300	3.228300	-9.709800	27.782932	4.730898E-5	20.783065
2258.592611	-3.003400	3.227800	-9.693100	27.743278	4.499881E-5	20.774926
2259.593082	-2.995200	3.229400	-9.672100	27.700502	4.539484E-5	20.779770
2260.592636	-2.982500	3.227500	-9.624800	27.702833	4.542784E-5	20.785910
2261.593996	-2.991900	3.226900	-9.654200	27.654398	4.612089E-5	20.791224
2262.592252	-2.996600	3.226500	-9.667700	27.659923	4.387672E-5	20.793465
2263.593425	-3.001400	3.226300	-9.682700	27.683483	4.331568E-5	20.789672
2264.591076	-2.992300	3.224600	-9.648500	27.707613	4.414074E-5	20.791193
2265.593597	-3.003800	3.224200	-9.683100	27.739699	4.519682E-5	20.783653
2266.593857	-3.003800	3.223500	-9.681800	27.764375	4.344769E-5	20.782407
2267.593060	-3.014900	3.223700	-9.718600	27.714104	4.447077E-5	20.788717
2268.594259	-2.984200	3.224300	-9.620900	27.758345	4.588987E-5	20.782029
2269.597381	-2.976200	3.224600	-9.596300	27.777583	4.595588E-5	20.800914
2270.593636	-3.018000	3.223300	-9.727200	27.785395	4.344769E-5	20.791233
2271.595384	-3.025000	3.221700	-9.744400	27.765136	4.305166E-5	20.770844
2272.598988	-2.999700	3.222300	-9.665500	27.759229	4.466878E-5	20.793349
2273.596626	-3.003200	3.221500	-9.674100	27.780628	4.367871E-5	20.780271
2274.598513	-2.988600	3.220300	-9.623600	27.762626	4.324968E-5	20.792500
2275.596632	-3.004700	3.220600	-9.676100	27.724039	4.225961E-5	20.772635
2276.598409	-3.027800	3.219300	-9.747300	27.662457	4.225961E-5	20.780367
2277.599800	-3.024400	3.218500	-9.732800	27.656652	4.179757E-5	20.785905
2278.602377	-3.003900	3.220400	-9.672300	27.644723	4.133554E-5	20.770109
2279.604099	-2.999900	3.218500	-9.654500	27.718452	4.156656E-5	20.801627
2280.603262	-3.013000	3.221000	-9.703500	27.737370	4.173157E-5	20.785102
2281.602763	-2.988100	3.219200	-9.618800	27.769212	4.060948E-5	20.789646
2282.602741	-2.956600	3.217300	-9.510500	27.775380	3.975142E-5	20.782577
2283.602937	-3.025100	3.216500	-9.728100	27.801912	3.839832E-5	20.783199
2284.602958	-3.000600	3.215900	-9.647800	27.808955	3.760626E-5	20.781752
2285.604910	-2.984100	3.216400	-9.597400	27.857355	4.159956E-5	20.783522
2286.604158	-3.006900	3.215600	-9.667700	27.839428	3.859634E-5	20.779704
2287.605127	-2.996700	3.215400	-9.634300	27.835163	3.856333E-5	20.797697
2288.606353	-2.975700	3.215300	-9.567000	27.830599	3.783728E-5	20.787414
2289.604953	-3.016800	3.213500	-9.692400	27.854205	3.655019E-5	20.780351
2290.607093	-2.987400	3.214100	-9.600900	27.826606	3.704522E-5	20.790033
2291.606511	-2.983500	3.212900	-9.584600	27.732898	3.684721E-5	20.772067
2292.605987	-2.990800	3.212200	-9.605900	27.761861	3.572513E-5	20.787938
2293.605347	-2.973300	3.213200	-9.552900	27.790324	3.483406E-5	20.783391
2294.605057	-3.006200	3.211800	-9.654700	27.758806	3.334895E-5	20.775380
2295.609699	-3.018600	3.211200	-9.692400	27.688705	3.361297E-5	20.782598
2296.610782	-3.012400	3.210500	-9.670800	27.737856	3.499907E-5	20.773738
2297.607393	-2.964500	3.211100	-9.518600	27.689176	3.417401E-5	20.768847
2298.607400	-2.977200	3.209100	-9.552400	27.710281	3.140181E-5	20.762110
2299.613868	-2.989500	3.209400	-9.593900	27.741699	3.338195E-5	20.786614
2300.607636	-3.012500	3.208100	-9.663700	27.735725	3.374498E-5	20.777283
2301.609467	-2.989300	3.207700	-9.588000	27.787926	3.262290E-5	20.758217
2302.607931	-2.965600	3.210100	-9.518600	27.858993	3.176484E-5	20.772368
2303.607854	-2.981600	3.207500	-9.562500	27.809602	3.143481E-5	20.759643
2304.608481	-3.004100	3.207600	-9.635600	27.843203	3.084077E-5	20.782555
2305.607688	-2.996300	3.206800	-9.608200	27.873530	3.536210E-5	20.757127
2306.611513	-2.993100	3.206200	-9.595200	27.924708	3.381099E-5	20.755057
2307.608407	-2.982300	3.206800	-9.562700	27.920472	3.206186E-5	20.764543
2308.609017	-3.009400	3.204900	-9.644200	27.901304	3.159982E-5	20.761373
2309.607321	-2.982200	3.205400	-9.558500	27.833193	3.041174E-5	20.760626
2310.608704	-3.020900	3.203200	-9.675600	27.856949	2.899263E-5	20.766517
2311.610117	-3.000000	3.204200	-9.612300	27.876638	3.090677E-5	20.759306
2312.613432	-3.009000	3.203400	-9.637500	27.936196	3.084077E-5	20.750972
2313.611019	-2.999500	3.201400	-9.601900	27.851200	3.159982E-5	20.774008
2314.611717	-3.015100	3.200700	-9.649900	27.824894	2.839859E-5	20.764128
2315.612317	-2.980900	3.202200	-9.544200	27.863083	3.074176E-5	20.757044
2316.610228	-3.004200	3.201200	-9.616000	27.909301	3.229287E-5	20.768473
2317.613181	-3.002500	3.200600	-9.609200	27.932437	3.060975E-5	20.774690
2318.611251	-3.020700	3.200100	-9.666400	27.885675	2.846459E-5	20.772670
2319.610380	-2.999800	3.200800	-9.601400	27.863958	3.169883E-5	20.770727
2320.612174	-3.008000	3.199500	-9.623200	27.842986	3.018072E-5	20.766215
2321.614294	-3.008100	3.198000	-9.618600	27.816725	2.938866E-5	20.760174
2322.613279	-3.018100	3.197300	-9.649300	27.895406	2.981769E-5	20.770609
2323.616537	-3.019100	3.198500	-9.656400	27.832898	3.060975E-5	20.755114
2324.613278	-2.979500	3.197200	-9.525200	27.797686	2.882762E-5	20.748125
2325.611876	-3.015300	3.197300	-9.640000	27.831460	3.364597E-5	20.764098
2326.614040	-3.018100	3.194900	-9.641700	27.919312	2.935566E-5	20.757686
2327.615577	-2.983800	3.195300	-9.532600	27.891594	3.024672E-5	20.774359
2328.617837	-2.975300	3.196000	-9.508400	27.858915	2.866261E-5	20.764229
2329.614988	-2.987400	3.194300	-9.542200	27.897820	3.064275E-5	20.758340
2330.614919	-3.001800	3.193900	-9.587100	27.908803	2.909164E-5	20.755644
2331.616364	-2.983400	3.193500	-9.526100	27.970789	2.938866E-5	20.762084
2332.615094	-3.002000	3.192200	-9.582600	27.929285	3.103878E-5	20.758715
2333.617300	-2.991400	3.192900	-9.550800	27.948775	3.113779E-5	20.777384
2334.616341	-2.987500	3.191800	-9.534400	27.890458	2.981769E-5	20.760414
2335.616173	-2.993400	3.191300	-9.552600	27.873671	2.938866E-5	20.776709
2336.615450	-3.013600	3.189900	-9.612100	27.882643	3.084077E-5	20.769618
2337.613861	-3.031600	3.189900	-9.669600	27.939424	2.816757E-5	20.778404
2338.616742	-2.991500	3.189900	-9.541700	27.930006	3.103878E-5	20.741896
2339.617924	-2.986100	3.188700	-9.520400	27.883663	2.793655E-5	20.764954
2340.616608	-3.000100	3.187700	-9.562400	27.876895	2.664946E-5	20.767625
2341.616629	-2.975400	3.188000	-9.484000	27.924103	2.902563E-5	20.781001
2342.617362	-2.981100	3.187700	-9.502200	28.001880	3.110479E-5	20.766352
2343.616977	-2.990700	3.188200	-9.534500	28.062620	2.750752E-5	20.755895
2344.627525	-2.999200	3.186400	-9.555400	28.057164	2.836559E-5	20.759887
2345.616441	-2.979400	3.185000	-9.488500	28.050914	2.694648E-5	20.780149
2346.617097	-2.994200	3.185600	-9.537800	28.019977	2.582440E-5	20.767498
2347.617092	-3.001100	3.183000	-9.551700	27.975050	2.602241E-5	20.791029
2348.618458	-2.989500	3.185200	-9.521100	27.974727	2.486733E-5	20.771263
2349.619635	-2.991400	3.182400	-9.518600	27.942198	2.711149E-5	20.772661
2350.621390	-3.002600	3.182400	-9.554000	27.927120	2.869561E-5	20.754165
2351.618584	-2.991100	3.182800	-9.519200	27.958437	2.833258E-5	20.766246
2352.618736	-2.993700	3.181900	-9.525100	27.991904	2.645145E-5	20.761052
2353.624779	-3.003000	3.178600	-9.544400	28.044658	2.813457E-5	20.792343
2354.619679	-3.000100	3.180900	-9.542200	28.129912	2.750752E-5	20.787127
2355.622932	-3.018300	3.179200	-9.595000	28.131055	2.559338E-5	20.758879
2356.620948	-2.994000	3.178400	-9.514700	28.149965	2.681447E-5	20.782184
2357.622060	-2.982400	3.178300	-9.477800	28.137396	2.569239E-5	20.776643
2358.621264	-2.985900	3.177000	-9.485200	28.111343	2.490033E-5	20.776494
2359.620797	-3.004100	3.176100	-9.540400	28.110075	2.552738E-5	20.772372
2360.627541	-3.002600	3.176600	-9.537400	28.097533	2.744152E-5	20.769230
2361.622899	-2.988100	3.176600	-9.490700	28.082679	2.912464E-5	20.770398
2362.622662	-2.991600	3.175500	-9.499000	28.084464	2.509835E-5	20.766980
2363.625345	-3.005000	3.175000	-9.540100	28.128139	2.625343E-5	20.769220
2364.622521	-3.003700	3.174000	-9.532600	28.063585	2.278818E-5	20.773937
2365.624739	-3.007200	3.173000	-9.541300	28.015345	2.249115E-5	20.770423
2366.625892	-2.991400	3.173300	-9.491200	27.984499	2.387726E-5	20.790582
2367.624690	-3.018200	3.171400	-9.570900	27.944113	2.440530E-5	20.769846
2368.629768	-2.990500	3.171700	-9.484300	27.945129	2.288718E-5	20.776559
2369.627659	-2.971000	3.171600	-9.421400	27.915471	2.275517E-5	20.783219
2370.625060	-2.995200	3.169200	-9.491100	27.936846	2.328321E-5	20.767748
2371.628177	-2.984700	3.170500	-9.462100	28.013082	2.298619E-5	20.767670
2372.637733	-3.004700	3.167200	-9.516000	28.047714	2.542837E-5	20.778350
2373.626080	-3.023500	3.166700	-9.573800	28.106248	2.414128E-5	20.769942
2374.626691	-2.991800	3.169100	-9.480300	28.107879	2.516435E-5	20.773007
2375.635512	-2.984700	3.168400	-9.455600	28.037127	2.351423E-5	20.769589
2376.631340	-3.004500	3.167200	-9.515400	27.993467	2.226014E-5	20.791549
2377.627403	-3.013700	3.165600	-9.539500	27.951446	2.239215E-5	20.791453
2378.628764	-3.002300	3.163800	-9.496800	27.968750	2.259016E-5	20.774256
2379.627394	-2.990700	3.163700	-9.460600	27.949109	2.272217E-5	20.807118
2380.627857	-2.970600	3.162900	-9.394500	27.940975	2.222714E-5	20.792292
2381.627118	-2.985900	3.162000	-9.439600	27.994723	2.199612E-5	20.807986
2382.631089	-2.999800	3.161600	-9.483300	28.048352	2.047801E-5	20.780414
2383.631646	-2.979800	3.162600	-9.422100	28.076459	2.410827E-5	20.773146
2384.631694	-2.986000	3.159900	-9.434100	28.024125	2.080803E-5	20.809606
2385.628741	-3.000600	3.161000	-9.483600	28.021271	2.206212E-5	20.769749
2386.631740	-3.009500	3.159600	-9.508100	27.947613	1.938893E-5	20.782378
2387.641740	-3.015000	3.158800	-9.522800	27.935534	1.859687E-5	20.782074
2388.629533	-3.002300	3.157400	-9.479300	27.988417	1.958694E-5	20.798794
2389.638251	-3.009500	3.156400	-9.497300	28.022681	1.793682E-5	20.780178
2390.631108	-2.999300	3.156100	-9.464500	28.097522	1.783781E-5	20.791031
2391.634591	-2.987000	3.156200	-9.426900	28.070650	1.777181E-5	20.804756
2392.633236	-3.001800	3.155700	-9.472100	28.059046	1.853086E-5	20.773635
2393.639281	-3.002800	3.154600	-9.471500	28.118767	1.971895E-5	20.804356
2394.636504	-3.007200	3.153500	-9.481900	28.169585	1.635270E-5	20.784392
2395.632916	-2.998100	3.153300	-9.453100	28.247417	1.697975E-5	20.786887
2396.645140	-3.004900	3.150700	-9.466800	28.252050	1.470258E-5	20.815733
2397.634377	-2.978700	3.151500	-9.386500	28.224193	1.589067E-5	20.803334
2398.638484	-3.016100	3.148900	-9.496800	28.206321	1.275544E-5	20.821850
2399.636894	-2.983900	3.150600	-9.399900	28.210954	1.351449E-5	20.793324
2400.638420	-3.009100	3.149000	-9.474900	28.149059	1.476859E-5	20.796919
2401.636759	-3.025700	3.146900	-9.520700	28.123031	1.400953E-5	20.791579
2402.637297	-3.002800	3.147500	-9.450700	28.205376	1.509861E-5	20.793872
2403.643214	-3.014100	3.145700	-9.480800	28.270915	1.193038E-5	20.798217
2404.641847	-3.006900	3.146300	-9.459700	28.291264	1.278844E-5	20.817757
2405.641407	-3.006200	3.144000	-9.449300	28.286727	1.476859E-5	20.793748
2406.640130	-2.995100	3.143800	-9.415200	28.271288	1.179837E-5	20.798592
2407.646110	-2.995400	3.144400	-9.417800	28.286755	1.374551E-5	20.805156
2408.640940	-2.998600	3.143000	-9.423200	28.325644	1.288745E-5	20.802113
2409.642947	-3.026100	3.140600	-9.502600	28.304576	1.222740E-5	20.797021
2410.640772	-3.002100	3.141700	-9.430100	28.315035	1.453757E-5	20.800913
2411.641186	-2.998700	3.140000	-9.414500	28.292806	1.321747E-5	20.800343
2412.641781	-3.025100	3.139100	-9.495600	28.275108	1.232641E-5	20.820456
2413.641074	-2.968900	3.138400	-9.316600	28.247174	1.305246E-5	20.792332
2414.643975	-3.007300	3.137200	-9.433000	28.221866	1.344849E-5	20.804310
2415.641860	-3.003300	3.137000	-9.419900	28.248015	1.424055E-5	20.812144
2416.642209	-2.993800	3.135800	-9.387100	28.263460	1.242541E-5	20.821531
2417.641260	-3.010300	3.135700	-9.438000	28.288688	1.143534E-5	20.822749
2418.640763	-2.999400	3.133500	-9.398100	28.316029	1.018125E-5	20.811398
2419.641233	-3.008100	3.133400	-9.424600	28.342994	1.473558E-5	20.820056
2420.644197	-3.013500	3.131500	-9.436500	28.364430	1.265643E-5	20.810821
2421.641748	-2.995400	3.133300	-9.384500	28.360365	1.077529E-5	20.802460
2422.641196	-3.039300	3.130600	-9.513900	28.336450	1.381152E-5	20.808726
2423.642272	-3.004400	3.131100	-9.407000	28.309436	1.120432E-5	20.813294
2424.641568	-3.004700	3.129500	-9.402700	28.263411	1.272244E-5	20.811050
2425.645352	-3.000400	3.129200	-9.388100	28.247525	1.146834E-5	20.809281
2426.641710	-2.998800	3.126400	-9.374200	28.275511	1.265643E-5	20.815646
2427.641908	-2.987400	3.127700	-9.342500	28.268275	1.120432E-5	20.812154
2428.641169	-3.017300	3.125500	-9.429100	28.289716	1.117132E-5	20.820940
2429.643827	-3.014500	3.124900	-9.419300	28.251074	1.199638E-5	20.835613
2430.645543	-3.013100	3.123400	-9.410400	28.252786	9.653210E-6	20.827853
2431.645494	-3.021700	3.122800	-9.434800	28.307864	8.432121E-6	20.823565
2432.643353	-3.010700	3.122300	-9.399700	28.324201	1.037926E-5	20.823893
2433.641874	-2.969900	3.123500	-9.275500	28.351243	1.292045E-5	20.816508
2434.647420	-3.012200	3.120300	-9.398500	28.368497	1.150135E-5	20.806381
2435.644582	-2.994400	3.119900	-9.340700	28.393528	7.541055E-6	20.811671
2436.646123	-3.008000	3.119000	-9.381800	28.401065	7.013016E-6	20.830166
2437.646188	-3.000300	3.117400	-9.351500	28.381738	9.158174E-6	20.823032
2438.645921	-2.985300	3.117900	-9.306500	28.387912	9.191176E-6	20.813128
2439.648923	-3.003800	3.117000	-9.362100	28.322854	7.277036E-6	20.817795
2440.646297	-3.004900	3.114500	-9.357400	28.285004	1.209539E-5	20.829472
2441.648890	-3.007100	3.114900	-9.366100	28.228298	8.663138E-6	20.811734
2442.646889	-3.008700	3.114000	-9.368700	28.280274	1.070929E-5	20.820442
2443.647405	-3.032600	3.111600	-9.435400	28.288184	6.781999E-6	20.827458
2444.648252	-2.997900	3.111700	-9.327700	28.277251	7.838077E-6	20.823088
2445.649099	-3.008300	3.109500	-9.352500	28.198135	8.036092E-6	20.806496
2446.648402	-2.994300	3.109800	-9.310300	28.238865	7.145026E-6	20.823321
2447.650687	-2.999000	3.108800	-9.321700	28.311238	8.003089E-6	20.827911
2448.648083	-3.040100	3.106700	-9.442900	28.325144	7.310038E-6	20.810618
2449.647727	-3.011100	3.106400	-9.352800	28.380763	8.498126E-6	20.830111
2450.650222	-2.993300	3.106000	-9.296100	28.416599	9.752218E-6	20.816885
2451.648539	-3.006200	3.104600	-9.331700	28.449858	8.036092E-6	20.837573
2452.649587	-2.999000	3.104500	-9.309100	28.366415	8.399118E-6	20.809500
2453.648463	-3.002400	3.103900	-9.318000	28.364753	6.715994E-6	20.822051
2454.648891	-3.021500	3.102200	-9.372500	28.311740	7.442048E-6	20.844063
2455.648289	-3.001500	3.101000	-9.306800	28.259815	6.286963E-6	20.819758
2456.648950	-2.994900	3.100100	-9.283200	28.238942	8.267109E-6	20.821028
2457.650593	-3.004600	3.098200	-9.308300	28.250245	7.805075E-6	20.832882
2458.649716	-2.978400	3.097500	-9.224900	28.282712	7.574058E-6	20.827638
2459.652736	-2.971700	3.097200	-9.202100	28.349237	8.597133E-6	20.831558
2460.652308	-3.007600	3.095900	-9.310300	28.359942	6.583985E-6	20.813414
2461.652484	-3.014600	3.094700	-9.328100	28.386906	6.253960E-6	20.840089
2462.651514	-2.996900	3.093600	-9.270600	28.392876	5.758924E-6	20.838041
2463.652012	-3.004200	3.092200	-9.288300	28.424551	7.937084E-6	20.832953
2464.651672	-2.984900	3.092800	-9.230900	28.403805	7.211031E-6	20.815381
2465.652504	-3.007300	3.090500	-9.293100	28.391488	7.739070E-6	20.854186
2466.654944	-3.037500	3.087900	-9.378700	28.396566	5.890934E-6	20.840334
2467.654189	-2.998100	3.088500	-9.258400	28.339985	5.890934E-6	20.817501
2468.654581	-2.991600	3.087500	-9.235100	28.377928	7.541055E-6	20.835791
2469.655175	-2.965200	3.087000	-9.152300	28.406849	7.178028E-6	20.845946
2470.653416	-2.966300	3.085600	-9.152200	28.404586	9.719215E-6	20.837030
2471.655682	-3.006300	3.084000	-9.269700	28.462506	6.815002E-6	20.828973
2472.655450	-2.959300	3.084200	-9.126200	28.487208	7.079021E-6	20.834408
2473.656364	-2.994600	3.082000	-9.228100	28.502918	6.815002E-6	20.844065
2474.654917	-2.991600	3.081100	-9.216600	28.543830	6.154953E-6	20.845912
2475.655265	-2.988600	3.080100	-9.203800	28.501902	7.211031E-6	20.854421
2476.654327	-3.015600	3.079500	-9.285900	28.525068	5.263888E-6	20.839819
2477.655190	-3.003400	3.077400	-9.241900	28.511885	7.772072E-6	20.833655
2478.658534	-3.011300	3.077400	-9.265700	28.464032	6.385970E-6	20.855165
2479.659892	-3.003200	3.074900	-9.233200	28.444450	7.211031E-6	20.845403
2480.655670	-3.000900	3.075100	-9.226200	28.467297	6.385970E-6	20.843280
2481.660846	-2.995300	3.073700	-9.205100	28.520277	7.343041E-6	20.858700
2482.657672	-3.005700	3.072800	-9.234900	28.545529	5.791926E-6	20.846673
2483.657073	-2.996300	3.071500	-9.202400	28.608736	7.640062E-6	20.851061
2484.660494	-2.981800	3.069600	-9.152200	28.564878	8.036092E-6	20.839134
2485.658146	-2.997700	3.067900	-9.195500	28.557936	5.857931E-6	20.845892
2486.657988	-3.040000	3.067000	-9.322100	28.539648	5.890934E-6	20.875837
2487.659079	-3.007900	3.067500	-9.225300	28.579565	6.418973E-6	20.864829
2488.657861	-3.004200	3.065700	-9.209000	28.563656	5.263888E-6	20.828420
2489.661429	-3.008900	3.063800	-9.217500	28.551858	6.715994E-6	20.861108
2490.658602	-2.973900	3.064500	-9.111800	28.497562	5.758924E-6	20.854792
2491.658028	-3.010100	3.062900	-9.219400	28.520211	5.263888E-6	20.850574
2492.669674	-2.987300	3.061700	-9.144800	28.531730	6.583985E-6	20.856010
2493.660334	-2.983100	3.059000	-9.124000	28.579949	6.253960E-6	20.857630
2494.659559	-2.999600	3.058600	-9.173900	28.550507	7.871079E-6	20.866859
2495.661577	-3.012300	3.057200	-9.208300	28.581057	6.517980E-6	20.864909
2496.659501	-2.996700	3.055500	-9.155800	28.602984	7.343041E-6	20.864708
2497.660440	-3.016400	3.054900	-9.214000	28.581377	6.748997E-6	20.879930
2498.660883	-2.997000	3.054400	-9.153700	28.589276	5.131878E-6	20.867971
2499.661129	-3.021900	3.051100	-9.219500	28.606889	5.494905E-6	20.877174
2500.663597	-3.019400	3.051100	-9.212000	28.627403	6.815002E-6	20.885981
2501.661276	-2.949800	3.052000	-9.000800	28.623138	7.541055E-6	20.864618
2502.661490	-2.967900	3.049900	-9.050400	28.681039	6.682992E-6	20.887847
2503.663009	-2.978200	3.048400	-9.077200	28.721299	7.904082E-6	20.886198
2504.662099	-2.993500	3.047200	-9.121200	28.731280	6.947011E-6	20.877760
2505.663809	-3.016500	3.045600	-9.186500	28.715865	6.947011E-6	20.890208
2506.664265	-2.984800	3.045300	-9.087800	28.779881	7.046019E-6	20.884041
2507.663465	-3.002500	3.043600	-9.137800	28.767839	6.947011E-6	20.888032
2508.661550	-2.999800	3.041200	-9.122100	28.803487	6.583985E-6	20.870837
2509.666441	-3.016500	3.039200	-9.167300	28.876935	6.319965E-6	20.891720
2510.662605	-3.001900	3.040200	-9.125400	28.847381	6.088948E-6	20.897034
2511.666776	-2.990900	3.037800	-9.084900	28.777118	3.745776E-6	20.879836
2512.661746	-2.996900	3.037400	-9.101600	28.694913	3.217737E-6	20.886173
2513.663456	-3.018500	3.034500	-9.158500	28.721991	5.098875E-6	20.895903
2514.663023	-2.988300	3.034800	-9.068200	28.713272	5.263888E-6	20.896130
2515.662768	-3.000800	3.034100	-9.104100	28.720327	5.428900E-6	20.893753
2516.666104	-3.012400	3.031400	-9.130800	28.804413	6.484977E-6	20.885993
2517.664849	-3.006400	3.031400	-9.112800	28.830375	5.164880E-6	20.910247
2518.667998	-3.013700	3.029000	-9.128000	28.838001	5.098875E-6	20.908921
2519.663373	-2.995400	3.028100	-9.069400	28.863565	5.428900E-6	20.904329
2520.662873	-2.981500	3.026000	-9.020900	28.848479	7.013016E-6	20.900037
2521.663913	-3.016500	3.024700	-9.123300	28.833688	5.461902E-6	20.887983
2522.670930	-2.979000	3.025400	-9.012100	28.808538	4.603839E-6	20.914803
2523.664798	-2.994600	3.022400	-9.050300	28.800638	4.702846E-6	20.904475
2524.665555	-2.980300	3.020900	-9.002100	28.847827	5.329892E-6	20.911233
2525.669200	-2.993700	3.019600	-9.039300	28.781779	4.570836E-6	20.891168
2526.665597	-3.001200	3.018600	-9.058700	28.742014	4.141805E-6	20.916070
2527.667419	-2.997100	3.016500	-9.039500	28.807071	4.900861E-6	20.908109
2528.667202	-2.997000	3.014900	-9.034300	28.759357	5.593912E-6	20.908884
2529.667336	-3.012500	3.015500	-9.083000	28.751109	3.217737E-6	20.896309
2530.666120	-2.993300	3.012500	-9.016400	28.779275	5.395897E-6	20.908559
2531.666347	-2.990400	3.012600	-9.008400	28.854509	3.448754E-6	20.894258
2532.668726	-2.993300	3.011400	-9.013000	28.895903	3.019722E-6	20.927421
2533.668596	-3.019800	3.008900	-9.085100	28.877277	2.524686E-6	20.907236
2534.670625	-2.965700	3.008500	-8.921200	28.837266	4.273815E-6	20.901069
2535.668646	-2.967100	3.007100	-8.921100	28.758610	2.788705E-6	20.906709
2536.668441	-2.968700	3.007000	-8.925500	28.764237	1.732628E-6	20.919488
2537.674840	-3.011600	3.003500	-9.044300	28.747315	2.326671E-6	20.888222
2538.669383	-2.986500	3.001800	-8.964300	28.779001	1.369601E-6	20.912076
2539.669369	-2.993200	3.001200	-8.982800	28.747066	1.864637E-6	20.921632
2540.670698	-2.988200	2.998800	-8.960000	28.727695	1.402603E-6	20.914924
2541.669920	-3.005300	2.997400	-9.007600	28.800186	4.339819E-6	20.914449
2542.670147	-2.990000	2.995200	-8.955000	28.826840	2.326671E-6	20.928496
2543.673414	-3.000500	2.996000	-8.987800	28.820573	2.689698E-6	20.927399
2544.669864	-3.027400	2.994300	-9.064300	28.807422	2.161659E-6	20.908937
2545.670603	-2.980400	2.992400	-8.917400	28.830809	3.382749E-6	20.897409
2546.674858	-3.011600	2.990600	-9.005500	28.872102	1.732628E-6	20.928099
2547.670280	-2.998500	2.989900	-8.964700	28.884392	3.019722E-6	20.922937
2548.673265	-3.024400	2.987800	-9.035400	28.926431	1.501611E-6	20.929726
2549.670790	-3.015900	2.986300	-9.005600	28.960046	1.831635E-6	20.932772
2550.670761	-3.021900	2.985100	-9.019700	28.912708	9.405693E-7	20.927755
2551.670883	-3.011900	2.982800	-8.983200	28.936019	1.831635E-6	20.929903
2552.671351	-3.011100	2.982300	-8.978600	28.904636	2.359674E-6	20.924839
2553.671525	-2.997800	2.981200	-8.935800	28.892698	1.435606E-6	20.927036
2554.672120	-3.004600	2.981100	-8.956800	28.938947	3.795279E-7	20.909147
2555.671841	-3.028000	2.977000	-9.013000	28.948831	5.115377E-7	20.919578
2556.672090	-3.018700	2.975600	-8.981800	29.002882	3.795279E-7	20.941315
2557.674182	-3.003500	2.974400	-8.933000	29.070970	1.963645E-6	20.924099
2558.675654	-2.990800	2.974200	-8.895100	29.079444	1.204589E-6	20.937377
2559.672455	-3.010600	2.971800	-8.946100	29.028325	-3.795279E-7	20.913374
2560.672110	-2.969300	2.971700	-8.822500	28.949486	6.765498E-7	20.921660
2561.672691	-2.978800	2.969600	-8.844500	28.993998	-6.435474E-7	20.939478
2562.675167	-2.993700	2.966600	-8.880000	29.039875	2.524686E-6	20.920743
2563.672205	-2.953800	2.968200	-8.766200	29.104569	1.815134E-7	20.923340
2564.677722	-3.024600	2.964000	-8.963500	29.129167	6.435474E-7	20.924418
2565.672864	-2.983400	2.963900	-8.841600	29.075473	9.405693E-7	20.926265
2566.672774	-3.039700	2.961300	-9.000700	29.058089	2.755703E-6	20.920129
2567.672918	-3.023200	2.960200	-8.948000	29.092494	9.075668E-7	20.941991
2568.672044	-3.017100	2.959200	-8.927200	29.024259	2.326671E-6	20.914967
2569.671801	-3.029600	2.956600	-8.956600	28.999120	1.171586E-6	20.909079
2570.675064	-3.023800	2.955200	-8.934400	28.969449	4.009795E-6	20.918066
2571.673461	-3.008900	2.952600	-8.882900	28.964740	1.402603E-6	20.939397
2572.673241	-3.001800	2.951600	-8.859700	28.945946	2.392676E-6	20.917145
2573.679762	-3.008100	2.950300	-8.873400	28.943642	2.887713E-6	20.891593
2574.677175	-2.996700	2.948600	-8.834200	28.900517	1.996647E-6	20.929224
2575.681273	-3.023600	2.946700	-8.908600	28.899004	3.745776E-6	20.922485
2576.676396	-3.007700	2.945500	-8.858000	28.926551	4.042798E-6	20.903771
2577.676617	-2.994000	2.945600	-8.818600	28.966752	4.273815E-6	20.891169
2578.676494	-2.995100	2.942600	-8.812500	29.040764	2.887713E-6	20.899830
2579.676792	-2.993200	2.940200	-8.799800	29.061073	3.679771E-6	20.907964
2580.679398	-2.990300	2.940500	-8.792000	28.992018	1.105581E-6	20.897657
2581.677756	-3.003500	2.938800	-8.825700	28.996924	6.435474E-7	20.909712
2582.677456	-2.993500	2.937800	-8.793100	28.922466	-7.425547E-7	20.886381
2583.678672	-3.026100	2.934500	-8.878700	28.902526	-3.795279E-7	20.901853
2584.677359	-3.004500	2.933200	-8.812300	28.906962	-1.485109E-7	20.896365
2585.677936	-3.004100	2.932400	-8.808000	29.013002	2.359674E-6	20.910263
2586.679623	-3.000500	2.930200	-8.791300	29.038839	5.775425E-7	20.870391
2587.677836	-3.003300	2.928200	-8.793200	29.016120	1.485109E-7	20.897286
2588.678060	-2.994700	2.926600	-8.763400	29.010649	-1.650122E-8	20.872334
2589.678266	-2.986400	2.926400	-8.738400	29.075941	6.435474E-7	20.899712
2590.678084	-3.024700	2.923100	-8.839600	29.124782	-6.435474E-7	20.908621
2591.681381	-3.006600	2.921700	-8.783700	29.122927	1.435606E-6	20.892055
2592.678299	-3.011900	2.920000	-8.794100	29.154903	-1.237591E-6	20.885396
2593.679103	-2.994800	2.918200	-8.738800	29.193884	-4.455328E-7	20.896700
2594.678291	-2.988900	2.917000	-8.717900	29.200197	6.105450E-7	20.892632
2595.679221	-2.965900	2.914300	-8.642000	29.127491	-6.435474E-7	20.869629
2596.682054	-2.997100	2.912500	-8.728700	29.129401	4.950364E-8	20.874398
2597.682915	-3.005300	2.910200	-8.744500	29.166156	-1.996647E-6	20.875873
2598.680121	-3.015700	2.908800	-8.771300	29.191741	-1.650122E-8	20.874628
2599.678654	-2.986900	2.909100	-8.687900	29.176019	-1.204589E-6	20.881544
2600.684659	-3.007100	2.907600	-8.742800	29.107249	-1.336598E-6	20.864879
2601.679760	-2.991300	2.904100	-8.686000	29.033736	-5.775425E-7	20.873311
2602.683506	-2.989500	2.901800	-8.672900	28.984621	1.204589E-6	20.875982
2603.679144	-2.993200	2.900700	-8.681900	28.958543	-1.650122E-8	20.890959
2604.679577	-2.995600	2.900600	-8.687500	29.059576	-4.785352E-7	20.877535
2605.679901	-3.010300	2.897400	-8.720800	29.089226	-1.650122E-8	20.850987
2606.679843	-3.025100	2.894800	-8.755600	29.102079	5.445401E-7	20.881006
2607.680293	-2.995400	2.892700	-8.663800	29.108150	-2.805207E-7	20.882382
2608.680445	-2.996500	2.891700	-8.664400	29.082247	-1.270594E-6	20.879515
2609.681990	-2.995800	2.890800	-8.659500	29.020133	-1.798632E-6	20.861502
2610.679335	-2.982000	2.887200	-8.609100	29.079971	-1.534613E-6	20.875326
2611.679189	-2.989500	2.886200	-8.627400	29.023304	-3.795279E-7	20.878920
2612.678728	-3.002700	2.884600	-8.660500	29.069179	1.270594E-6	20.881995
2613.681279	-3.005100	2.882700	-8.661400	29.065018	1.039577E-6	20.865001
2614.679600	-2.989100	2.881700	-8.612900	29.165029	8.415620E-7	20.857669
2615.681799	-2.988800	2.879200	-8.603900	29.122139	2.953717E-6	20.870873
2616.684323	-3.026500	2.877100	-8.706300	29.135763	-1.039577E-6	20.871800
2617.682681	-3.000500	2.874000	-8.622700	29.123258	1.534613E-6	20.856830
2618.686208	-2.999300	2.872900	-8.615800	29.161124	1.039577E-6	20.864165
2619.682581	-3.023500	2.869900	-8.675800	29.141638	2.788705E-6	20.842159
2620.682331	-3.011100	2.868500	-8.635800	29.209647	-3.135231E-7	20.856164
2621.681518	-3.022300	2.865900	-8.661000	29.296837	-1.155085E-7	20.841614
2622.683203	-3.002900	2.864800	-8.601800	29.355449	1.996647E-6	20.869864
2623.682364	-3.007700	2.862800	-8.609800	29.351292	-1.765630E-6	20.846709
2624.685717	-2.959300	2.862200	-8.469300	29.273590	-5.115377E-7	20.863703
2625.682770	-2.989900	2.859900	-8.550500	29.205219	-4.950365E-8	20.868770
2626.683302	-3.004100	2.857700	-8.583800	29.151108	3.465255E-7	20.855020
2627.685142	-2.992400	2.855800	-8.545100	29.132338	-1.650122E-8	20.851754
2628.683873	-3.011600	2.853400	-8.592700	29.125381	3.250739E-6	20.841900
2629.688665	-2.989800	2.850700	-8.522700	29.203635	2.953717E-6	20.843942
2630.684562	-3.021500	2.849100	-8.607700	29.248734	1.155085E-7	20.843397
2631.685144	-3.013800	2.846300	-8.576000	29.295958	1.039577E-6	20.837884
2632.684253	-3.021800	2.844600	-8.595100	29.332803	-1.155085E-7	20.845619
2633.684632	-3.011700	2.841700	-8.556700	29.347166	-9.405693E-7	20.841603
2634.687766	-3.001800	2.839900	-8.523800	29.425754	2.227664E-6	20.839257
2635.686576	-2.995400	2.837800	-8.499500	29.425339	1.666623E-6	20.844528
2636.685339	-3.004300	2.837500	-8.523700	29.360492	1.633620E-6	20.828956
2637.686277	-3.006700	2.833700	-8.518900	29.364284	1.963645E-6	20.826613
2638.688532	-2.978200	2.833200	-8.436600	29.295670	1.666623E-6	20.823843
2639.684959	-3.024000	2.829200	-8.555000	29.333581	1.897640E-6	20.841188
2640.688880	-3.003600	2.828100	-8.493400	29.400631	1.831635E-6	20.812039
2641.685858	-3.014200	2.823800	-8.509300	29.364235	1.996647E-6	20.841736
2642.687301	-2.989800	2.824500	-8.443900	29.340736	1.072579E-6	20.832278
2643.689392	-3.017500	2.819000	-8.505400	29.433339	-3.465255E-7	20.840264
2644.691240	-3.010300	2.817900	-8.481700	29.340217	5.775425E-7	20.827013
2645.691128	-3.025700	2.815800	-8.518700	29.283686	7.755571E-7	20.835473
2646.687734	-3.020900	2.813500	-8.498700	29.176512	2.145158E-7	20.856912
2647.686487	-2.987500	2.811100	-8.397700	29.202117	5.115377E-7	20.828188
2648.686272	-3.014400	2.807900	-8.462700	29.217742	3.052725E-6	20.828287
2649.687978	-3.002800	2.805300	-8.422500	29.260460	-1.815134E-7	20.829136
2650.687729	-3.004600	2.802000	-8.417800	29.258009	6.435474E-7	20.825718
2651.689821	-3.004900	2.800400	-8.414300	29.301171	3.795279E-7	20.812792
2652.687995	-3.022400	2.796900	-8.452200	29.345743	1.798632E-6	20.827367
2653.688329	-2.998200	2.794000	-8.376000	29.383902	1.650122E-8	20.829790
2654.691388	-2.997100	2.791300	-8.365100	29.382318	-1.633620E-6	20.812074
2655.689753	-3.029900	2.787900	-8.446000	29.432753	6.105450E-7	20.842518
2656.691629	-2.975000	2.787700	-8.292500	29.491058	1.402603E-6	20.826846
2657.690082	-2.982500	2.785500	-8.307400	29.578579	4.950364E-8	20.818343
2658.691141	-3.008400	2.781400	-8.366400	29.545057	-8.085595E-7	20.807785
2659.690524	-2.996900	2.778300	-8.324800	29.472298	-7.425547E-7	20.813152
2660.700022	-3.013000	2.775500	-8.361700	29.488025	-2.805207E-7	20.848918
2661.694539	-2.982000	2.772800	-8.266900	29.399836	-2.475182E-7	20.806496
2662.694990	-3.008200	2.768100	-8.325600	29.477827	-1.815134E-7	20.826785
2663.692983	-3.023400	2.765700	-8.360500	29.547296	8.250607E-8	20.819999
2664.693747	-2.996300	2.763600	-8.278800	29.636964	1.798632E-6	20.831208
2665.696252	-2.990500	2.760700	-8.254800	29.635802	-4.785352E-7	20.833830
2666.694818	-3.027300	2.755100	-8.338800	29.589635	1.402603E-6	20.830911
2667.694212	-2.974200	2.755400	-8.193900	29.648378	1.435606E-6	20.819007
2668.694865	-3.024800	2.751100	-8.320400	29.624468	2.821708E-6	20.808654
2669.694432	-2.998500	2.747000	-8.236300	29.599663	5.115377E-7	20.810200
2670.697073	-2.974000	2.745600	-8.164600	29.557454	1.699625E-6	20.808902
2671.696651	-3.006800	2.741700	-8.242900	29.611028	-1.303596E-6	20.803166
2672.700082	-3.036500	2.736500	-8.308400	29.644324	8.250607E-8	20.820610
2673.696574	-3.018300	2.734600	-8.252700	29.571839	-9.075668E-7	20.811548
2674.697219	-2.975400	2.731100	-8.125200	29.549584	-4.455328E-7	20.832262
2675.695250	-2.988800	2.727200	-8.150300	29.561466	1.930642E-6	20.813420
2676.696996	-2.987100	2.723100	-8.133300	29.528291	-7.095522E-7	20.805109
2677.696754	-3.024000	2.719100	-8.221800	29.521589	-7.755571E-7	20.818742
2678.699649	-2.980900	2.717300	-8.099700	29.534855	-1.336598E-6	20.816467
2679.702677	-3.007800	2.711900	-8.156100	29.555404	-1.155085E-7	20.800197
2680.696060	-2.993700	2.709700	-8.111000	29.555232	1.039577E-6	20.801446
2681.700470	-3.010100	2.703600	-8.137600	29.568826	-2.475182E-7	20.802822
2682.697709	-3.033500	2.700500	-8.191200	29.567387	-1.485109E-7	20.795682
2683.700958	-3.009400	2.697400	-8.115700	29.564741	-5.115377E-7	20.798703
2684.697960	-2.999000	2.693300	-8.075700	29.534413	2.805207E-7	20.805115
2685.698956	-3.023100	2.688500	-8.127000	29.516120	-1.633620E-6	20.819393
2686.697945	-2.977400	2.685000	-7.993800	29.578581	1.831635E-6	20.807914
2687.700249	-2.980300	2.681600	-7.991400	29.624604	-7.425547E-7	20.820171
2688.700500	-2.977700	2.677000	-7.970500	29.590515	-5.775425E-7	20.811410
2689.699813	-3.005300	2.672300	-8.030600	29.594383	-1.996647E-6	20.819102
2690.699564	-3.031200	2.667800	-8.086200	29.582719	-1.831635E-6	20.804025
2691.700517	-2.999400	2.663900	-7.989000	29.572276	-1.732628E-6	20.808671
2692.700164	-2.985500	2.660400	-7.941400	29.558218	-1.534613E-6	20.817732
2693.699360	-2.976000	2.655400	-7.901000	29.625158	-1.468608E-6	20.815514
2694.701314	-2.991000	2.648800	-7.922100	29.675086	-1.270594E-6	20.815588
2695.702185	-3.003900	2.644400	-7.943000	29.657635	-9.735717E-7	20.812694
2696.702245	-2.986000	2.641200	-7.886100	29.678508	1.666623E-6	20.801968
2697.704720	-2.990900	2.637000	-7.886300	29.675714	1.155085E-7	20.809583
2698.701880	-2.999200	2.629900	-7.886400	29.663511	-1.864637E-6	20.807711
2699.705875	-2.981000	2.625900	-7.827200	29.699654	-4.125304E-7	20.774449
2700.702888	-3.004600	2.620500	-7.872900	29.750322	1.897640E-6	20.803249
2701.702286	-3.016400	2.614400	-7.884400	29.726959	1.600618E-6	20.792970
2702.702761	-3.015900	2.609400	-7.868100	29.784483	3.283742E-6	20.790277
2703.702558	-3.020900	2.602500	-7.860500	29.759338	-2.805207E-7	20.807123
2704.705364	-2.986700	2.599100	-7.761800	29.798721	2.029649E-6	20.793727
2705.706619	-2.989000	2.594100	-7.753200	29.773477	3.135231E-7	20.791982
2706.703101	-3.005100	2.586700	-7.772200	29.740586	-1.650122E-8	20.803864
2707.704856	-2.994200	2.582300	-7.731500	29.791923	-5.445401E-7	20.802519
2708.710246	-3.001800	2.577600	-7.736400	29.888051	4.785352E-7	20.769530
2709.704741	-3.007300	2.570200	-7.728300	29.886816	-4.125304E-7	20.782983
2710.708601	-3.008700	2.563200	-7.710500	29.843534	5.775425E-7	20.795764
2711.705078	-2.966700	2.559500	-7.591600	29.796337	-1.633620E-6	20.790375
2712.706190	-2.999100	2.551400	-7.650500	29.874548	-4.950365E-8	20.782466
2713.706272	-2.992100	2.546500	-7.618900	29.887644	-8.415620E-7	20.800888
2714.706098	-2.961000	2.539900	-7.519300	29.869681	2.557688E-6	20.781826
2715.709538	-3.037900	2.533600	-7.695900	29.966669	4.455328E-7	20.774366
2716.706302	-2.981100	2.527200	-7.532600	29.973525	-1.039577E-6	20.790290
2717.707476	-2.990000	2.522700	-7.542500	29.979072	1.303596E-6	20.787349
2718.706915	-3.028300	2.514100	-7.613000	29.985830	1.798632E-6	20.787526
2719.705038	-3.007200	2.508800	-7.543700	29.968581	6.105450E-7	20.782933
2720.706614	-3.025000	2.503200	-7.571700	29.937233	2.425679E-6	20.795417
2721.705969	-2.989200	2.496400	-7.461100	29.928299	2.475182E-7	20.784985
