LabVIEW Measurement	
Writer_Version	2
Reader_Version	2
Separator	Tab
Decimal_Separator	.
Multi_Headings	No
X_Columns	One
Time_Pref	Absolute
Operator	admin
Description	Clolumns are: time, Current, Voltage, Power, Battery Temp, and Chamber Temp
Date	2024/08/16
Time	13:07:17.8513970375061035156
***End_of_Header***	
	
Channels	6						
Samples	1	1	1	1	1	1	
Date	2024/09/01	2024/09/01	2024/09/01	2024/09/01	2024/09/01	2024/09/01	
Time	07:02:10.4638032913208007813	07:02:10.4699358940124511719	07:02:10.4758024215698242188	07:02:10.4471583366394042969	07:02:10.4471583366394042969	07:02:10.4471583366394042969	
X_Dimension	Time	Time	Time	Time	Time	Time	
X0	0.0000000000000000E+0	0.0000000000000000E+0	0.0000000000000000E+0	0.0000000000000000E+0	0.0000000000000000E+0	0.0000000000000000E+0	
Delta_X	1.000000	1.000000	1.000000	1.000000	1.000000	1.000000	
***End_of_Header***							
X_Value	Untitled	Untitled 1	Untitled 2	Untitled 3	Untitled 4	Untitled 5	Comment
0.000000	0.018682	4.086400	0.076510	20.840188	0.000459	20.841136
0.999353	-3.027700	3.922700	-11.876000	20.842059	0.000457	20.867188
1.999151	-3.007800	3.918700	-11.786000	20.841733	0.000458	20.851690
3.001836	-3.018400	3.914800	-11.816000	20.848469	0.000458	20.848469
3.999358	-2.990000	3.911700	-11.695000	20.842955	0.000457	20.863343
5.000348	-2.995300	3.908000	-11.704000	20.870379	0.000455	20.844776
6.002179	-2.994100	3.905900	-11.693000	20.854382	0.000457	20.858649
7.000386	-3.005800	3.904900	-11.737000	20.864589	0.000455	20.867434
8.001929	-2.984200	3.903100	-11.647000	20.878886	0.000454	20.867507
9.001661	-3.000300	3.900800	-11.703000	20.883926	0.000453	20.859271
10.002638	-2.999500	3.899900	-11.697000	20.901666	0.000451	20.864211
11.001165	-2.994600	3.897400	-11.671000	20.888466	0.000451	20.860493
12.001666	-3.010700	3.895300	-11.726000	20.907007	0.000454	20.880930
13.005447	-2.999600	3.894400	-11.681000	20.917264	0.000453	20.866534
14.006266	-3.005400	3.893500	-11.701000	20.923924	0.000452	20.850436
15.001654	-2.985900	3.892300	-11.622000	20.937123	0.000450	20.866007
16.001982	-3.010400	3.891400	-11.714000	20.937798	0.000452	20.851035
17.005201	-2.985500	3.891800	-11.618000	20.937899	0.000449	20.859196
18.003124	-3.007000	3.888800	-11.692000	20.948477	0.000451	20.870723
19.008892	-2.999300	3.888400	-11.661000	20.963971	0.000448	20.883848
20.005031	-3.016500	3.889300	-11.730000	20.975326	0.000449	20.864860
21.005588	-3.024800	3.886600	-11.755000	20.961377	0.000449	20.862289
22.002455	-3.007100	3.886100	-11.686000	21.001049	0.000448	20.875414
23.003896	-3.012800	3.884700	-11.703000	20.995586	0.000448	20.878959
24.004403	-2.998400	3.886600	-11.653000	20.983386	0.000447	20.883825
25.003514	-3.021300	3.884700	-11.735000	21.008359	0.000446	20.870397
26.004054	-3.023200	3.884600	-11.743000	20.997957	0.000447	20.861890
27.005226	-2.990800	3.884200	-11.616000	21.004744	0.000445	20.879583
28.005025	-3.000000	3.883000	-11.648000	21.020188	0.000445	20.869900
29.006511	-3.013300	3.883400	-11.701000	21.063404	0.000446	20.892262
30.011668	-3.005600	3.881500	-11.666000	21.030717	0.000443	20.864311
31.009095	-3.009700	3.881300	-11.680000	21.059584	0.000446	20.859520
32.009022	-2.996800	3.881000	-11.629000	21.048483	0.000443	20.887769
33.011993	-2.992000	3.881400	-11.613000	21.084410	0.000444	20.903788
34.009998	-2.991200	3.880700	-11.607000	21.081142	0.000444	20.872547
35.013025	-3.000100	3.879900	-11.640000	21.076750	0.000444	20.898024
36.009258	-2.990100	3.880400	-11.601000	21.110384	0.000443	20.898949
37.009479	-3.006500	3.879000	-11.662000	21.108887	0.000442	20.886073
38.011336	-3.003400	3.879900	-11.652000	21.111831	0.000444	20.880958
39.012150	-2.990800	3.878200	-11.598000	21.120687	0.000444	20.879385
40.012635	-3.007200	3.878200	-11.660000	21.140297	0.000443	20.899474
41.012517	-3.012600	3.877000	-11.679000	21.125377	0.000445	20.894981
42.012029	-3.024300	3.876400	-11.723000	21.155915	0.000444	20.885225
43.013437	-3.011600	3.877300	-11.676000	21.169412	0.000444	20.884503
44.011720	-3.011000	3.877400	-11.674000	21.181413	0.000441	20.912152
45.011664	-3.005900	3.876300	-11.651000	21.170260	0.000442	20.890566
46.012149	-3.007700	3.876500	-11.659000	21.179966	0.000444	20.888895
47.012228	-3.010000	3.875000	-11.662000	21.190720	0.000440	20.893014
48.014039	-3.005900	3.876200	-11.651000	21.212696	0.000444	20.887498
49.012422	-3.010600	3.874700	-11.664000	21.214743	0.000441	20.899975
50.012135	-2.981900	3.875400	-11.556000	21.210625	0.000442	20.900123
51.011400	-2.978700	3.875700	-11.544000	21.256801	0.000441	20.907436
52.012490	-3.008700	3.873100	-11.652000	21.252061	0.000442	20.906961
53.014050	-3.012400	3.874800	-11.671000	21.263710	0.000443	20.899649
54.014678	-2.985200	3.875200	-11.568000	21.249814	0.000443	20.894283
55.014553	-2.990400	3.874600	-11.585000	21.270867	0.000441	20.897326
56.017148	-3.022700	3.873500	-11.707000	21.263785	0.000441	20.900199
57.014250	-2.985000	3.873300	-11.560000	21.274012	0.000444	20.916118
58.014210	-2.979300	3.873400	-11.539000	21.298532	0.000444	20.906510
59.019505	-2.986100	3.873500	-11.566000	21.299806	0.000445	20.912051
60.014300	-3.004900	3.872400	-11.636000	21.313349	0.000444	20.896205
61.016245	-3.008600	3.872600	-11.650000	21.312351	0.000443	20.890940
62.014366	-2.983000	3.873100	-11.553000	21.315145	0.000444	20.896105
63.014791	-2.997800	3.872500	-11.607000	21.328067	0.000443	20.918513
64.013001	-2.995000	3.872900	-11.597000	21.364835	0.000441	20.908359
65.013451	-2.985600	3.872100	-11.560000	21.334526	0.000441	20.910278
66.017526	-2.976000	3.872400	-11.523000	21.360843	0.000443	20.905787
67.016590	-2.986600	3.872100	-11.563000	21.370720	0.000444	20.928469
68.016818	-2.989900	3.869700	-11.569000	21.385238	0.000445	20.906487
69.016562	-2.982500	3.872000	-11.548000	21.385063	0.000442	20.910105
70.017138	-3.000300	3.870200	-11.611000	21.396412	0.000444	20.915769
71.017931	-2.972500	3.870900	-11.505000	21.415120	0.000445	20.909831
72.018794	-3.012500	3.870600	-11.659000	21.419535	0.000443	20.943643
73.018397	-3.025200	3.869000	-11.702000	21.427368	0.000443	20.926826
74.017786	-3.007700	3.868900	-11.635000	21.423078	0.000444	20.917793
75.020589	-3.000100	3.868500	-11.605000	21.436096	0.000443	20.910431
76.022192	-2.979900	3.870300	-11.531000	21.463660	0.000442	20.946540
77.023008	-2.995800	3.870800	-11.595000	21.453583	0.000444	20.925080
78.021728	-3.003700	3.868600	-11.619000	21.463780	0.000443	20.929119
79.021694	-2.986400	3.869100	-11.553000	21.494085	0.000443	20.905391
80.024015	-3.005300	3.867800	-11.623000	21.478796	0.000442	20.920911
81.021974	-2.977300	3.869200	-11.519000	21.499797	0.000443	20.915372
82.025873	-3.016100	3.868200	-11.666000	21.501740	0.000444	20.963304
83.023141	-2.977900	3.868200	-11.518000	21.517154	0.000446	20.923731
84.021842	-3.015800	3.866700	-11.660000	21.533789	0.000443	20.939900
85.023192	-2.965900	3.868400	-11.472000	21.517555	0.000443	20.933140
86.022712	-2.996800	3.867500	-11.588000	21.538154	0.000445	20.937156
87.025131	-3.012500	3.866600	-11.647000	21.563742	0.000445	20.928622
88.026038	-2.992800	3.868000	-11.575000	21.565264	0.000444	20.940101
89.023001	-3.019400	3.867000	-11.675000	21.567106	0.000444	20.928670
90.023055	-2.986000	3.867400	-11.547000	21.587258	0.000445	20.938403
91.027845	-3.001800	3.867700	-11.609000	21.585064	0.000444	20.944267
92.023506	-2.983300	3.866300	-11.533000	21.606186	0.000445	20.930318
93.027842	-3.008400	3.865900	-11.628000	21.582272	0.000443	20.939577
94.024427	-3.019300	3.866700	-11.674000	21.605963	0.000445	20.933887
95.024397	-3.016300	3.865100	-11.657000	21.630850	0.000448	20.930817
96.025817	-3.017700	3.865500	-11.664000	21.618681	0.000446	20.931916
97.024254	-3.008200	3.867000	-11.632000	21.634362	0.000443	20.951399
98.028861	-3.015600	3.865900	-11.657000	21.626259	0.000447	20.940921
99.026011	-3.026000	3.865500	-11.696000	21.648704	0.000445	20.951527
100.025814	-3.007000	3.865100	-11.621000	21.651847	0.000444	20.935235
101.025528	-2.999100	3.864900	-11.590000	21.671120	0.000443	20.936504
102.026558	-2.991400	3.865600	-11.561000	21.666781	0.000446	20.931688
103.025825	-3.017500	3.864700	-11.661000	21.689899	0.000448	20.928745
104.029437	-2.967300	3.866400	-11.472000	21.709798	0.000445	20.916419
105.027894	-2.977000	3.864400	-11.503000	21.706379	0.000447	20.920583
106.028635	-2.974300	3.865500	-11.496000	21.705085	0.000447	20.942993
107.034022	-2.988500	3.863800	-11.546000	21.722490	0.000447	20.911103
108.029212	-2.964500	3.865600	-11.459000	21.700320	0.000446	20.941543
109.032282	-3.003500	3.863900	-11.605000	21.713463	0.000448	20.935257
110.030754	-3.004800	3.864600	-11.612000	21.730368	0.000448	20.927995
111.029464	-2.978500	3.863200	-11.505000	21.738024	0.000448	20.906736
112.029312	-2.986200	3.863500	-11.536000	21.742613	0.000448	20.911803
113.030730	-2.989900	3.863200	-11.550000	21.753482	0.000448	20.908931
114.034174	-3.009800	3.863200	-11.626000	21.768044	0.000450	20.911650
115.031886	-2.993300	3.862100	-11.560000	21.768743	0.000451	20.896704
116.039102	-2.997600	3.862800	-11.578000	21.772380	0.000449	20.923575
117.032174	-3.021500	3.862000	-11.668000	21.783825	0.000449	20.917961
118.031492	-2.993400	3.862000	-11.560000	21.776521	0.000448	20.909703
119.032513	-2.987800	3.861300	-11.536000	21.791729	0.000451	20.925396
120.033977	-2.983900	3.862900	-11.526000	21.803271	0.000449	20.895227
121.035809	-3.014800	3.862700	-11.645000	21.804520	0.000451	20.896002
122.032689	-2.996000	3.862100	-11.570000	21.823642	0.000452	20.888115
123.036882	-2.999400	3.860900	-11.580000	21.833041	0.000450	20.899893
124.033222	-2.976200	3.862500	-11.495000	21.835558	0.000451	20.908100
125.035350	-2.963500	3.862900	-11.447000	21.829502	0.000451	20.900617
126.033077	-2.992700	3.861800	-11.556000	21.850842	0.000453	20.924345
127.035033	-2.971400	3.861100	-11.472000	21.864330	0.000452	20.922198
128.034424	-2.996400	3.861700	-11.570000	21.867921	0.000455	20.901139
129.034173	-3.003700	3.859700	-11.592000	21.881759	0.000454	20.899817
130.035397	-2.993000	3.861000	-11.555000	21.895895	0.000455	20.898320
131.033549	-2.993700	3.860700	-11.556000	21.892304	0.000454	20.893777
132.035603	-2.983600	3.860000	-11.516000	21.904048	0.000453	20.908376
133.036267	-2.992400	3.860500	-11.551000	21.924766	0.000453	20.886916
134.036684	-2.978500	3.860400	-11.497000	21.916861	0.000452	20.902236
135.039651	-2.989700	3.860000	-11.538000	21.935262	0.000453	20.891732
136.037422	-3.002400	3.859000	-11.586000	21.898813	0.000455	20.897447
137.037587	-2.996600	3.859600	-11.565000	21.919304	0.000454	20.902311
138.039423	-3.024700	3.858500	-11.670000	21.945184	0.000457	20.895974
139.040263	-3.002400	3.858300	-11.583000	21.955430	0.000454	20.909074
140.040481	-2.998200	3.858500	-11.567000	21.940472	0.000455	20.905956
141.042176	-3.000900	3.859200	-11.580000	21.969489	0.000457	20.901812
142.042053	-3.008000	3.858200	-11.605000	21.972108	0.000456	20.903011
143.041199	-3.011800	3.857700	-11.618000	21.986394	0.000457	20.898819
144.042811	-3.001700	3.858300	-11.581000	21.999358	0.000457	20.878133
145.043463	-3.017300	3.859400	-11.644000	21.991256	0.000456	20.883773
146.046661	-3.000500	3.857900	-11.575000	22.014116	0.000457	20.900966
147.041885	-3.000900	3.857300	-11.575000	22.004593	0.000458	20.861564
148.041560	-3.007300	3.858400	-11.602000	22.014738	0.000455	20.878357
149.042531	-3.017200	3.856800	-11.636000	22.032288	0.000457	20.885968
150.042168	-3.007000	3.857500	-11.599000	22.033985	0.000460	20.890036
151.040557	-3.001200	3.856500	-11.573000	22.041886	0.000460	20.875188
152.044815	-2.991000	3.858300	-11.539000	22.037323	0.000458	20.861612
153.042655	-3.010200	3.857300	-11.611000	22.067437	0.000460	20.887016
154.041208	-3.003600	3.856500	-11.582000	22.061205	0.000461	20.872717
155.046193	-3.017400	3.856600	-11.636000	22.095354	0.000461	20.874187
156.043104	-3.018100	3.856000	-11.636000	22.088525	0.000460	20.871144
157.048444	-3.010600	3.856600	-11.609000	22.099368	0.000461	20.863508
158.043483	-2.996000	3.856900	-11.554000	22.083090	0.000459	20.868074
159.044786	-3.010500	3.856400	-11.609000	22.106796	0.000460	20.878530
160.044709	-3.004300	3.856400	-11.585000	22.121129	0.000460	20.877707
161.044230	-3.002600	3.856500	-11.579000	22.133045	0.000460	20.881575
162.044991	-3.002200	3.854700	-11.571000	22.145782	0.000462	20.864931
163.044115	-3.002500	3.856100	-11.578000	22.149793	0.000461	20.866576
164.045152	-3.027000	3.853900	-11.665000	22.117588	0.000462	20.866102
165.046725	-2.979700	3.855500	-11.488000	22.142567	0.000461	20.877358
166.048493	-2.992300	3.855100	-11.535000	22.137407	0.000461	20.874564
167.046052	-2.995300	3.855700	-11.548000	22.129404	0.000462	20.869870
168.047309	-3.006800	3.853600	-11.585000	22.158919	0.000462	20.889462
169.046670	-3.012500	3.854700	-11.611000	22.171729	0.000463	20.880002
170.046125	-3.027000	3.852200	-11.660000	22.167344	0.000465	20.885095
171.048171	-3.009800	3.853900	-11.598000	22.189552	0.000464	20.871769
172.048105	-3.003000	3.852300	-11.568000	22.198848	0.000464	20.861163
173.051713	-2.983300	3.854000	-11.497000	22.197576	0.000466	20.867000
174.047823	-3.032200	3.852000	-11.680000	22.207693	0.000464	20.867173
175.048283	-3.009700	3.852900	-11.596000	22.214246	0.000465	20.870889
176.048075	-3.012900	3.852400	-11.606000	22.231843	0.000465	20.855792
177.048870	-2.994100	3.853600	-11.537000	22.228601	0.000465	20.870563
178.052530	-2.981500	3.852300	-11.485000	22.246621	0.000466	20.856364
179.052717	-2.979200	3.852000	-11.475000	22.235103	0.000466	20.873279
180.050608	-2.996800	3.850500	-11.539000	22.253945	0.000467	20.872231
181.050954	-2.998400	3.852000	-11.549000	22.265658	0.000467	20.866890
182.052046	-2.995500	3.852700	-11.539000	22.258079	0.000466	20.851241
183.049461	-3.000400	3.850400	-11.551000	22.253865	0.000467	20.867884
184.052914	-3.003100	3.850800	-11.563000	22.295038	0.000468	20.867384
185.052091	-2.985700	3.850300	-11.495000	22.307571	0.000468	20.851011
186.051407	-3.007800	3.849100	-11.577000	22.314328	0.000472	20.847820
187.053898	-3.032700	3.850600	-11.676000	22.303955	0.000468	20.874890
188.051121	-2.996900	3.850900	-11.540000	22.303331	0.000470	20.850085
189.053517	-3.000000	3.848800	-11.546000	22.312754	0.000470	20.854305
190.051454	-2.987400	3.851400	-11.505000	22.327754	0.000469	20.853204
191.051734	-2.987000	3.849300	-11.497000	22.345224	0.000472	20.862162
192.050292	-2.989300	3.850700	-11.510000	22.334782	0.000472	20.837482
193.051415	-2.992400	3.848600	-11.515000	22.327652	0.000469	20.852627
194.055020	-2.995400	3.849300	-11.529000	22.330468	0.000469	20.849757
195.054711	-3.007600	3.849200	-11.575000	22.336150	0.000471	20.858765
196.052174	-2.995400	3.849100	-11.529000	22.344225	0.000471	20.837928
197.052139	-2.998200	3.848600	-11.537000	22.360495	0.000474	20.847108
198.060058	-3.003400	3.847300	-11.554000	22.373878	0.000472	20.843914
199.053380	-2.987300	3.849400	-11.498000	22.370536	0.000472	20.849102
200.055422	-2.999700	3.847800	-11.541000	22.382226	0.000476	20.850851
201.054277	-2.989100	3.848300	-11.502000	22.378959	0.000473	20.837149
202.054780	-2.990600	3.847100	-11.504000	22.411455	0.000474	20.856887
203.053032	-3.019700	3.846000	-11.612000	22.385385	0.000476	20.862074
204.052919	-2.996100	3.847400	-11.526000	22.399515	0.000474	20.836870
205.056867	-3.014000	3.846700	-11.593000	22.406317	0.000474	20.847474
206.054690	-3.022600	3.846300	-11.624000	22.436116	0.000475	20.844126
207.053622	-3.018700	3.846000	-11.609000	22.421862	0.000475	20.841231
208.054991	-2.992300	3.846600	-11.509000	22.446808	0.000476	20.841557
209.055226	-2.976100	3.848000	-11.451000	22.463300	0.000478	20.840054
210.055031	-2.999200	3.844900	-11.530000	22.457220	0.000476	20.839181
211.055244	-3.003900	3.845700	-11.550000	22.460855	0.000476	20.841399
212.057282	-3.034300	3.845600	-11.668000	22.451809	0.000477	20.841823
213.056358	-3.005800	3.846100	-11.560000	22.470472	0.000478	20.837280
214.060200	-2.966600	3.846600	-11.411000	22.475405	0.000477	20.828470
215.058596	-2.997800	3.844400	-11.524000	22.517366	0.000478	20.832561
216.059349	-2.993000	3.845000	-11.507000	22.520230	0.000477	20.826894
217.058151	-3.013600	3.843600	-11.583000	22.537574	0.000478	20.839523
218.058527	-3.017600	3.843900	-11.599000	22.532063	0.000477	20.825470
219.059790	-3.018400	3.844100	-11.602000	22.541557	0.000478	20.851098
220.058939	-3.001800	3.843600	-11.536000	22.522642	0.000481	20.836897
221.061258	-3.003900	3.843700	-11.545000	22.534130	0.000479	20.860729
222.059406	-3.000500	3.844900	-11.535000	22.521470	0.000481	20.819128
223.059221	-3.017100	3.842200	-11.591000	22.522394	0.000481	20.832381
224.061257	-3.012200	3.842000	-11.573000	22.531735	0.000482	20.830831
225.059907	-3.001900	3.842600	-11.534000	22.548626	0.000480	20.837316
226.061909	-3.018900	3.842500	-11.599000	22.536319	0.000480	20.828784
227.064747	-3.011200	3.843000	-11.571000	22.542620	0.000483	20.828930
228.060693	-3.015200	3.842800	-11.586000	22.582189	0.000481	20.823990
229.061836	-2.974100	3.843100	-11.429000	22.583757	0.000480	20.830302
230.063777	-2.991600	3.840400	-11.488000	22.588441	0.000483	20.828829
231.061922	-2.983300	3.843900	-11.466000	22.621630	0.000484	20.831724
232.064219	-2.984700	3.842700	-11.468000	22.626737	0.000484	20.832572
233.064442	-3.015700	3.841400	-11.584000	22.629552	0.000484	20.831125
234.064948	-2.991600	3.840900	-11.490000	22.638199	0.000484	20.846423
235.066989	-2.996300	3.841500	-11.510000	22.659273	0.000483	20.813479
236.064305	-2.990800	3.841500	-11.488000	22.681524	0.000484	20.836714
237.068505	-3.007500	3.840900	-11.551000	22.640663	0.000484	20.810486
238.065200	-3.008300	3.840800	-11.553000	22.656012	0.000485	20.832971
239.067816	-2.992400	3.841200	-11.493000	22.662364	0.000485	20.828428
240.066250	-2.982100	3.840500	-11.452000	22.701153	0.000485	20.813702
241.067679	-3.011800	3.839700	-11.562000	22.672403	0.000487	20.818569
242.068569	-3.017600	3.840000	-11.586000	22.679726	0.000485	20.827801
243.072492	-3.006400	3.838100	-11.538000	22.693033	0.000486	20.831647
244.068994	-2.999600	3.839100	-11.515000	22.686108	0.000487	20.823762
245.068682	-2.984400	3.838900	-11.455000	22.708975	0.000489	20.817270
246.070807	-2.991400	3.839200	-11.483000	22.692282	0.000488	20.829946
247.068877	-2.985500	3.839600	-11.462000	22.708304	0.000490	20.817071
248.073699	-3.010300	3.838400	-11.554000	22.721781	0.000491	20.822984
249.070597	-3.018100	3.837600	-11.581000	22.699132	0.000490	20.810255
250.071640	-2.977300	3.839400	-11.430000	22.723173	0.000491	20.817267
251.070885	-3.019500	3.836200	-11.583000	22.726114	0.000490	20.823532
252.070335	-2.972200	3.838100	-11.407000	22.737372	0.000491	20.813472
253.071923	-2.988800	3.837400	-11.469000	22.760042	0.000490	20.825275
254.074676	-2.971200	3.838300	-11.404000	22.780919	0.000491	20.799722
255.071514	-2.988100	3.836600	-11.462000	22.782662	0.000490	20.799571
256.071477	-2.993200	3.836600	-11.483000	22.783559	0.000493	20.816590
257.072160	-3.002300	3.837200	-11.519000	22.769557	0.000491	20.814418
258.072437	-2.996800	3.837600	-11.500000	22.749278	0.000493	20.795527
259.074825	-3.007900	3.836500	-11.539000	22.750298	0.000492	20.817411
260.072607	-2.988300	3.835900	-11.461000	22.739684	0.000492	20.790184
261.072542	-2.976400	3.836300	-11.418000	22.744194	0.000492	20.825047
262.075966	-2.977400	3.836100	-11.421000	22.763251	0.000494	20.802411
263.072583	-3.010200	3.835100	-11.544000	22.772991	0.000494	20.808849
264.076129	-3.007500	3.834800	-11.532000	22.755752	0.000493	20.802012
265.073938	-2.968700	3.835300	-11.385000	22.809887	0.000494	20.810723
266.074597	-2.993900	3.835700	-11.483000	22.819426	0.000494	20.803683
267.074604	-3.000300	3.833900	-11.502000	22.786915	0.000495	20.820427
268.074787	-2.996100	3.834500	-11.488000	22.810581	0.000494	20.822797
269.083106	-2.999600	3.833800	-11.498000	22.830909	0.000496	20.787211
270.080554	-2.984500	3.833300	-11.439000	22.827696	0.000498	20.783044
271.078145	-3.004000	3.832000	-11.511000	22.847124	0.000496	20.806774
272.079690	-3.012600	3.832200	-11.544000	22.873080	0.000495	20.796742
273.079142	-3.012700	3.831700	-11.543000	22.871137	0.000495	20.795744
274.082054	-2.991300	3.833000	-11.465000	22.842516	0.000497	20.792201
275.082763	-2.983700	3.831900	-11.432000	22.844157	0.000495	20.781042
276.079661	-3.008400	3.831200	-11.524000	22.873699	0.000496	20.779344
277.079690	-3.001300	3.831400	-11.499000	22.872630	0.000497	20.793920
278.079620	-2.990000	3.831400	-11.455000	22.882992	0.000497	20.796715
279.079811	-2.979000	3.832500	-11.415000	22.860076	0.000497	20.794620
280.081459	-2.975700	3.832300	-11.402000	22.895122	0.000498	20.783263
281.080288	-2.980900	3.831800	-11.421000	22.870659	0.000496	20.801429
282.080047	-2.985000	3.831300	-11.436000	22.909346	0.000497	20.795616
283.080400	-2.974800	3.831900	-11.398000	22.899307	0.000499	20.784610
284.081352	-3.010400	3.830700	-11.531000	22.901398	0.000501	20.786231
285.083405	-3.002300	3.830400	-11.499000	22.925587	0.000501	20.785809
286.080101	-2.999200	3.830000	-11.485000	22.927480	0.000500	20.785335
287.082167	-2.980200	3.830800	-11.416000	22.946584	0.000501	20.786931
288.083682	-2.977900	3.830400	-11.406000	22.956101	0.000501	20.796940
289.083003	-3.003800	3.828600	-11.499000	22.971393	0.000501	20.783812
290.084739	-3.003200	3.829600	-11.500000	22.955826	0.000503	20.808992
291.085237	-2.992200	3.827600	-11.451000	22.956600	0.000500	20.788905
292.083888	-3.005700	3.828500	-11.507000	22.977298	0.000500	20.788779
293.083643	-3.008100	3.828200	-11.515000	22.978044	0.000503	20.793795
294.085886	-2.993500	3.828000	-11.459000	22.990573	0.000504	20.796865
295.086412	-3.008900	3.826900	-11.513000	23.009005	0.000504	20.789728
296.088754	-3.009300	3.828300	-11.520000	22.990275	0.000501	20.797989
297.086505	-2.992500	3.828000	-11.454000	23.020114	0.000507	20.776677
298.088194	-3.016600	3.826700	-11.543000	23.014260	0.000503	20.790252
299.090568	-2.975300	3.828000	-11.389000	23.010176	0.000503	20.767668
300.090646	-2.977000	3.827800	-11.395000	23.024000	0.000506	20.775355
301.094352	-3.002700	3.825500	-11.486000	23.035308	0.000504	20.786210
302.089136	-2.977200	3.826600	-11.391000	23.060090	0.000506	20.791127
303.089789	-3.026600	3.825200	-11.575000	23.095954	0.000507	20.776802
304.089420	-3.024100	3.824500	-11.565000	23.072694	0.000506	20.780997
305.089870	-3.018700	3.825800	-11.548000	23.074161	0.000507	20.773932
306.090096	-3.000200	3.824800	-11.475000	23.103700	0.000507	20.761805
307.093647	-2.994500	3.824600	-11.452000	23.088833	0.000507	20.788634
308.091561	-2.983800	3.825600	-11.414000	23.095357	0.000507	20.793749
309.092194	-3.006100	3.823000	-11.491000	23.086069	0.000505	20.780174
310.096087	-3.014300	3.823600	-11.525000	23.112893	0.000507	20.762956
311.091706	-3.017900	3.823400	-11.537000	23.110377	0.000507	20.786039
312.096094	-2.993500	3.825200	-11.450000	23.121190	0.000508	20.762735
313.095570	-3.023100	3.823600	-11.558000	23.123781	0.000507	20.778134
314.091646	-3.016100	3.822000	-11.526000	23.120864	0.000507	20.775685
315.094724	-2.987000	3.823700	-11.420000	23.124652	0.000509	20.773791
316.095097	-3.018100	3.822700	-11.537000	23.149756	0.000510	20.771445
317.097274	-2.993700	3.822500	-11.443000	23.157079	0.000509	20.773093
318.097391	-3.013100	3.822900	-11.518000	23.146223	0.000509	20.773121
319.095551	-3.018200	3.822700	-11.537000	23.151976	0.000511	20.785524
320.100132	-2.985400	3.822600	-11.411000	23.156858	0.000510	20.775717
321.097525	-2.978800	3.822700	-11.386000	23.139824	0.000511	20.795632
322.101410	-3.000600	3.821500	-11.466000	23.145552	0.000511	20.765336
323.098362	-3.002900	3.820300	-11.470000	23.156585	0.000510	20.765961
324.098722	-2.979300	3.821700	-11.385000	23.198301	0.000512	20.782160
325.099708	-3.008700	3.821700	-11.497000	23.191106	0.000511	20.763095
326.100620	-3.007300	3.821000	-11.491000	23.219968	0.000511	20.778268
327.099626	-3.001000	3.821500	-11.467000	23.220516	0.000511	20.774076
328.102846	-2.983600	3.820700	-11.399000	23.250474	0.000513	20.795564
329.102313	-3.002400	3.819900	-11.467000	23.221665	0.000514	20.768589
330.101202	-2.987500	3.819800	-11.411000	23.199302	0.000512	20.772731
331.105163	-2.999900	3.820100	-11.459000	23.202168	0.000513	20.773707
332.100364	-2.992400	3.820700	-11.432000	23.207222	0.000515	20.767392
333.104317	-3.013100	3.819000	-11.506000	23.236485	0.000515	20.756414
334.105727	-2.981500	3.820500	-11.390000	23.219379	0.000514	20.769617
335.103658	-2.970800	3.819000	-11.345000	23.223262	0.000516	20.773983
336.102789	-3.011500	3.818700	-11.498000	23.227673	0.000515	20.761807
337.102878	-2.992200	3.818300	-11.424000	23.230837	0.000516	20.758814
338.106139	-2.998700	3.818600	-11.450000	23.245754	0.000515	20.787989
339.104947	-3.022000	3.817700	-11.536000	23.251805	0.000514	20.775561
340.103731	-2.995900	3.817500	-11.436000	23.266424	0.000517	20.761762
341.106211	-2.977100	3.817600	-11.364000	23.314309	0.000517	20.775139
342.106011	-2.974400	3.818000	-11.355000	23.317696	0.000518	20.778533
343.106364	-2.992000	3.816700	-11.419000	23.317698	0.000517	20.773794
344.107302	-3.013100	3.816600	-11.499000	23.331393	0.000518	20.759544
345.106641	-2.988200	3.816400	-11.403000	23.330374	0.000518	20.764687
346.106915	-2.994600	3.816900	-11.430000	23.327212	0.000517	20.777166
347.106978	-3.006800	3.816300	-11.474000	23.336003	0.000520	20.788821
348.106709	-2.977600	3.816400	-11.363000	23.311002	0.000519	20.790791
349.109555	-3.006500	3.815800	-11.471000	23.337971	0.000519	20.771827
350.106563	-2.995100	3.816400	-11.430000	23.368969	0.000519	20.779188
351.106377	-2.979000	3.817300	-11.371000	23.387845	0.000520	20.781037
352.110089	-3.008500	3.815200	-11.477000	23.369895	0.000519	20.762572
353.108735	-2.978300	3.815500	-11.363000	23.384288	0.000520	20.762772
354.110397	-2.992900	3.813500	-11.413000	23.372186	0.000520	20.771031
355.108390	-2.982100	3.814200	-11.374000	23.380403	0.000519	20.767888
356.109169	-3.003700	3.814000	-11.455000	23.390836	0.000520	20.782612
357.109206	-2.998800	3.813000	-11.434000	23.386082	0.000522	20.780693
358.112939	-2.998700	3.812100	-11.430000	23.367560	0.000520	20.772559
359.110334	-3.015500	3.812500	-11.495000	23.373535	0.000520	20.777125
360.111214	-3.010000	3.813700	-11.478000	23.394973	0.000521	20.772060
361.111520	-3.000300	3.812100	-11.436000	23.379935	0.000521	20.759832
362.113660	-3.000200	3.811800	-11.435000	23.390590	0.000520	20.779521
363.110449	-3.007200	3.811800	-11.462000	23.401771	0.000522	20.782667
364.114829	-2.998900	3.810900	-11.429000	23.369327	0.000522	20.782391
365.110949	-2.989200	3.812400	-11.395000	23.396617	0.000522	20.767070
366.112211	-2.989400	3.811000	-11.392000	23.446814	0.000522	20.770916
367.112343	-3.001300	3.811600	-11.439000	23.462873	0.000521	20.768994
368.111917	-2.996200	3.811400	-11.419000	23.481073	0.000521	20.795298
369.116917	-3.007500	3.809800	-11.457000	23.474351	0.000523	20.782396
370.115038	-3.002000	3.808700	-11.432000	23.486352	0.000522	20.781149
371.112698	-3.000600	3.810000	-11.431000	23.473582	0.000523	20.769771
372.112854	-3.001200	3.809900	-11.433000	23.457872	0.000522	20.757817
373.112597	-3.001300	3.810600	-11.436000	23.481972	0.000525	20.777233
374.116422	-3.000500	3.809700	-11.430000	23.520662	0.000522	20.783299
375.117204	-2.993400	3.809300	-11.402000	23.527635	0.000522	20.794555
376.115735	-3.005900	3.807600	-11.443000	23.549616	0.000521	20.787192
377.116341	-3.000300	3.808700	-11.426000	23.529827	0.000523	20.773519
378.119804	-2.996500	3.808200	-11.410000	23.503981	0.000524	20.795027
379.115582	-2.997400	3.808800	-11.416000	23.508313	0.000524	20.797947
380.117432	-2.999200	3.808100	-11.421000	23.533734	0.000526	20.770797
381.116253	-2.990700	3.807700	-11.387000	23.526566	0.000525	20.785898
382.116704	-3.014800	3.806900	-11.475000	23.526764	0.000526	20.790363
383.120302	-3.013900	3.805600	-11.469000	23.554123	0.000524	20.791236
384.117822	-3.013600	3.806700	-11.471000	23.565898	0.000526	20.794031
385.122857	-2.997600	3.806900	-11.410000	23.523302	0.000524	20.808705
386.117448	-2.998400	3.807300	-11.415000	23.533236	0.000525	20.775040
387.118123	-3.007800	3.806800	-11.448000	23.516630	0.000525	20.789689
388.117630	-3.021300	3.806100	-11.499000	23.527387	0.000525	20.793833
389.118055	-3.003600	3.805600	-11.430000	23.551283	0.000525	20.790760
390.118306	-3.005500	3.806300	-11.439000	23.559451	0.000529	20.798474
391.119814	-3.003700	3.805700	-11.430000	23.553525	0.000526	20.805336
392.117467	-2.998700	3.804900	-11.409000	23.578098	0.000527	20.792511
393.118995	-2.990900	3.804900	-11.379000	23.601149	0.000526	20.785273
394.119917	-3.012000	3.803000	-11.453000	23.622756	0.000527	20.786545
395.120452	-2.998100	3.804700	-11.406000	23.617381	0.000527	20.792062
396.123864	-3.001600	3.804600	-11.419000	23.625669	0.000529	20.793733
397.120561	-2.991800	3.803400	-11.379000	23.610934	0.000528	20.789392
398.119098	-2.993500	3.804100	-11.387000	23.598537	0.000528	20.806836
399.119798	-2.992100	3.803400	-11.379000	23.598910	0.000530	20.803416
400.119818	-3.000700	3.802900	-11.411000	23.605484	0.000529	20.788196
401.122381	-3.006400	3.803700	-11.433000	23.599260	0.000529	20.800923
402.121339	-2.973000	3.802400	-11.302000	23.582032	0.000530	20.787446
403.123970	-2.986900	3.801600	-11.354000	23.595378	0.000527	20.802247
404.122661	-2.974300	3.802500	-11.309000	23.574267	0.000532	20.793886
405.122595	-3.016100	3.802100	-11.467000	23.606254	0.000530	20.798451
406.125633	-2.980600	3.800800	-11.328000	23.624703	0.000531	20.810308
407.122650	-3.001800	3.800500	-11.407000	23.644966	0.000531	20.795060
408.122486	-3.012800	3.801600	-11.453000	23.616064	0.000530	20.799277
409.122829	-2.995100	3.801700	-11.385000	23.640909	0.000531	20.807588
410.123219	-3.008800	3.800700	-11.434000	23.647208	0.000531	20.796833
411.124656	-2.977600	3.800000	-11.314000	23.653133	0.000531	20.778592
412.126699	-2.989800	3.799900	-11.360000	23.638472	0.000531	20.772902
413.124964	-2.991500	3.799100	-11.364000	23.653481	0.000531	20.812606
414.123774	-2.999000	3.799000	-11.392000	23.665505	0.000530	20.810436
415.123843	-2.971500	3.799400	-11.289000	23.677777	0.000532	20.807091
416.126430	-2.999200	3.798700	-11.393000	23.696097	0.000531	20.797957
417.128205	-2.997200	3.798700	-11.385000	23.725894	0.000530	20.807443
418.128304	-3.010800	3.797700	-11.433000	23.732165	0.000528	20.811359
419.125403	-2.989600	3.799800	-11.359000	23.712552	0.000535	20.831049
420.126220	-3.001300	3.796900	-11.393000	23.720119	0.000530	20.817299
421.126841	-3.023500	3.796700	-11.478000	23.706404	0.000531	20.820144
422.126608	-3.004400	3.797100	-11.407000	23.713173	0.000532	20.804645
423.128846	-2.990000	3.798100	-11.356000	23.691965	0.000531	20.819419
424.126261	-3.002200	3.797800	-11.401000	23.693111	0.000531	20.814404
425.128879	-2.982900	3.796900	-11.326000	23.722681	0.000532	20.790471
426.130379	-2.988000	3.795600	-11.340000	23.750534	0.000532	20.821715
427.127230	-2.992800	3.794700	-11.356000	23.742942	0.000533	20.836862
428.131552	-2.998400	3.795600	-11.380000	23.764549	0.000533	20.775549
429.129765	-2.987200	3.796900	-11.341000	23.713721	0.000533	20.805195
430.131592	-2.994200	3.795000	-11.362000	23.736146	0.000535	20.808712
431.129846	-2.984300	3.795800	-11.327000	23.751800	0.000535	20.833415
432.130455	-3.013900	3.794900	-11.436000	23.806109	0.000533	20.823383
433.129973	-2.997100	3.794600	-11.372000	23.801753	0.000532	20.810481
434.133365	-2.983300	3.795700	-11.323000	23.832914	0.000534	20.809482
435.130830	-2.999700	3.794400	-11.381000	23.799411	0.000533	20.813823
436.131350	-2.989300	3.793200	-11.338000	23.794682	0.000532	20.807184
437.135526	-2.999800	3.791800	-11.373000	23.783655	0.000533	20.818888
438.132158	-3.022000	3.792700	-11.461000	23.821685	0.000533	20.847060
439.134984	-3.016300	3.792000	-11.435000	23.789676	0.000535	20.810699
440.135672	-3.008000	3.791800	-11.404000	23.798983	0.000533	20.803437
441.132378	-3.025200	3.792400	-11.471000	23.789523	0.000536	20.811969
442.135511	-2.997900	3.791300	-11.366000	23.793084	0.000533	20.819332
443.134370	-3.004800	3.791900	-11.393000	23.832829	0.000534	20.817932
444.133659	-3.002300	3.791300	-11.381000	23.863914	0.000534	20.825393
445.133813	-3.015600	3.790700	-11.431000	23.865603	0.000533	20.829931
446.134688	-3.007600	3.791400	-11.402000	23.852390	0.000534	20.826166
447.134252	-2.999600	3.790600	-11.370000	23.830312	0.000535	20.841486
448.133850	-2.998100	3.790800	-11.365000	23.825183	0.000534	20.823542
449.136248	-3.018900	3.790100	-11.441000	23.857464	0.000533	20.844055
450.136404	-2.978300	3.790000	-11.287000	23.862293	0.000532	20.829931
451.135701	-2.986400	3.790200	-11.317000	23.905871	0.000534	20.827162
452.145390	-2.990400	3.789300	-11.331000	23.914582	0.000535	20.831156
453.137521	-2.990200	3.789800	-11.331000	23.920081	0.000534	20.820075
454.140498	-2.988100	3.788300	-11.319000	23.905398	0.000535	20.840438
455.138822	-3.010600	3.788400	-11.405000	23.924810	0.000534	20.814385
456.142917	-2.990800	3.788400	-11.329000	23.927747	0.000535	20.824442
457.139742	-2.988300	3.788400	-11.320000	23.930584	0.000535	20.825865
458.141565	-2.990000	3.787900	-11.325000	23.906171	0.000535	20.835523
459.144907	-3.010900	3.787900	-11.404000	23.890990	0.000535	20.844007
460.142346	-3.005800	3.786800	-11.381000	23.936010	0.000535	20.830358
461.141693	-3.009300	3.787300	-11.396000	23.934119	0.000536	20.825616
462.141268	-3.008500	3.786400	-11.391000	23.936008	0.000537	20.833674
463.140449	-2.999300	3.786000	-11.354000	23.946613	0.000537	20.842886
464.141577	-3.012300	3.785800	-11.403000	23.941559	0.000537	20.818853
465.142879	-3.004800	3.785600	-11.373000	23.964931	0.000538	20.850349
466.140950	-3.006300	3.786400	-11.383000	23.956742	0.000536	20.848302
467.140861	-3.003700	3.785500	-11.370000	23.931557	0.000537	20.830159
468.141513	-3.001400	3.784300	-11.357000	23.977894	0.000537	20.842487
469.142683	-3.010500	3.785100	-11.394000	24.002681	0.000537	20.826093
470.150534	-2.978200	3.784400	-11.269000	23.988672	0.000536	20.849975
471.142037	-3.013300	3.784800	-11.404000	23.996162	0.000537	20.841366
472.142693	-3.016000	3.784200	-11.412000	23.989492	0.000537	20.846057
473.143881	-3.004500	3.784200	-11.368000	23.966524	0.000537	20.858111
474.141525	-2.991500	3.783500	-11.318000	24.013458	0.000537	20.851124
475.143651	-3.003800	3.783000	-11.362000	24.003279	0.000538	20.849451
476.142146	-2.987400	3.783600	-11.302000	24.032968	0.000537	20.850775
477.142958	-2.997600	3.783300	-11.339000	24.041501	0.000536	20.847479
478.141442	-2.975500	3.782600	-11.254000	24.049938	0.000538	20.869690
479.146255	-2.996300	3.783000	-11.334000	24.041478	0.000539	20.846982
480.142303	-2.990400	3.781700	-11.308000	24.034339	0.000539	20.856891
481.146530	-3.006200	3.781500	-11.366000	24.059146	0.000537	20.880821
482.142553	-2.995500	3.781000	-11.325000	24.067706	0.000537	20.853372
483.143958	-2.982300	3.782100	-11.279000	24.025503	0.000538	20.839971
484.143973	-2.991900	3.781600	-11.313000	24.017515	0.000540	20.869891
485.144121	-2.976100	3.780500	-11.250000	24.053743	0.000537	20.855963
486.146517	-2.985500	3.781700	-11.289000	24.048993	0.000537	20.864001
487.144718	-2.999200	3.780200	-11.336000	24.027217	0.000538	20.869189
488.145296	-2.982800	3.779600	-11.273000	24.061233	0.000540	20.864422
489.145133	-2.997600	3.780000	-11.330000	24.056455	0.000538	20.864846
490.144864	-2.991900	3.779700	-11.307000	24.044185	0.000540	20.856809
491.146420	-3.008500	3.779000	-11.368000	24.024355	0.000538	20.860155
492.148733	-2.998000	3.778600	-11.328000	24.049436	0.000539	20.880565
493.147392	-2.990200	3.779900	-11.301000	24.075214	0.000540	20.849996
494.147844	-2.986300	3.779500	-11.286000	24.087504	0.000538	20.880337
495.150811	-3.011100	3.777900	-11.375000	24.075684	0.000539	20.848097
496.150912	-3.001400	3.778200	-11.339000	24.076182	0.000539	20.845277
497.150658	-3.029600	3.777100	-11.442000	24.099668	0.000538	20.878787
498.149324	-3.005600	3.776800	-11.351000	24.085460	0.000538	20.867857
499.148424	-3.001800	3.777000	-11.338000	24.053681	0.000538	20.874392
500.148097	-3.013500	3.775000	-11.375000	24.042707	0.000539	20.876188
501.147795	-3.024100	3.775700	-11.417000	24.050397	0.000540	20.871098
502.151917	-3.011600	3.775600	-11.369000	24.041934	0.000541	20.874939
503.152333	-3.000000	3.775000	-11.325000	24.062634	0.000539	20.898068
504.149186	-3.023900	3.774400	-11.413000	24.041261	0.000541	20.878057
505.149707	-3.010300	3.774400	-11.362000	24.058132	0.000540	20.868899
506.150545	-3.006400	3.774000	-11.345000	24.066367	0.000538	20.869097
507.150462	-2.999400	3.775000	-11.322000	24.057534	0.000539	20.869247
508.155546	-3.006000	3.773000	-11.341000	24.077938	0.000539	20.869797
509.152238	-2.982700	3.775100	-11.258000	24.141336	0.000539	20.890232
510.152642	-2.997800	3.775000	-11.316000	24.124590	0.000541	20.868696
511.152067	-3.010500	3.772000	-11.354000	24.105702	0.000543	20.874882
512.151857	-2.993000	3.774200	-11.295000	24.134020	0.000540	20.886213
513.152432	-2.992200	3.771900	-11.286000	24.150864	0.000539	20.877977
514.165677	-2.992100	3.771700	-11.284000	24.144493	0.000540	20.886760
515.152550	-2.991800	3.772000	-11.284000	24.082787	0.000537	20.859961
516.153524	-3.022600	3.771200	-11.397000	24.111228	0.000540	20.869044
517.153838	-2.993000	3.771000	-11.286000	24.133147	0.000540	20.886286
518.155064	-2.999100	3.771500	-11.310000	24.167981	0.000542	20.905574
519.153002	-2.993500	3.771800	-11.289000	24.182983	0.000539	20.889329
520.154747	-3.022300	3.771500	-11.397000	24.206247	0.000540	20.903653
521.153632	-3.006800	3.771100	-11.337000	24.226474	0.000539	20.904026
522.156098	-3.013300	3.770000	-11.360000	24.229535	0.000540	20.876753
523.157549	-3.015000	3.770100	-11.366000	24.218565	0.000541	20.888508
524.157927	-2.991100	3.768900	-11.272000	24.166240	0.000540	20.873485
525.156032	-2.992700	3.769000	-11.278000	24.166860	0.000540	20.884063
526.156378	-2.980700	3.770200	-11.237000	24.156910	0.000541	20.877403
527.158135	-2.976800	3.769300	-11.220000	24.152355	0.000541	20.899386
528.155565	-2.996500	3.768900	-11.292000	24.158003	0.000539	20.898886
529.159791	-3.005200	3.767000	-11.320000	24.173478	0.000538	20.900657
530.157957	-3.014500	3.767300	-11.355000	24.214283	0.000541	20.896067
531.156276	-2.996100	3.767800	-11.288000	24.229908	0.000541	20.904626
532.157059	-2.992200	3.768300	-11.275000	24.238889	0.000540	20.894195
533.157054	-2.984600	3.768700	-11.247000	24.271828	0.000538	20.897838
534.158997	-2.992500	3.767400	-11.273000	24.293624	0.000542	20.907847
535.156128	-2.952300	3.767500	-11.122000	24.300737	0.000542	20.896965
536.159614	-3.009900	3.766000	-11.335000	24.291211	0.000541	20.907796
537.157875	-2.983600	3.766400	-11.236000	24.289343	0.000540	20.909242
538.157022	-3.029900	3.765000	-11.407000	24.240880	0.000540	20.912312
539.157800	-3.011500	3.764800	-11.337000	24.242323	0.000539	20.906648
540.160653	-2.994200	3.766400	-11.276000	24.221176	0.000541	20.917203
541.158666	-3.007400	3.765200	-11.322000	24.241725	0.000543	20.911737
542.158217	-3.021300	3.764800	-11.373000	24.254788	0.000541	20.904927
543.159150	-2.976000	3.765300	-11.205000	24.279318	0.000540	20.911040
544.157688	-3.014300	3.764200	-11.345000	24.241305	0.000542	20.898515
545.159798	-2.983900	3.763900	-11.229000	24.260536	0.000542	20.914958
546.159572	-3.022600	3.763000	-11.373000	24.243021	0.000541	20.921096
547.157609	-2.994900	3.763900	-11.272000	24.242800	0.000541	20.919927
548.158922	-3.012200	3.763300	-11.334000	24.242025	0.000541	20.905875
549.159512	-3.016100	3.762400	-11.346000	24.247675	0.000544	20.934773
550.162584	-2.994400	3.763700	-11.269000	24.271708	0.000542	20.924267
551.162043	-3.007400	3.763300	-11.316000	24.300592	0.000540	20.910094
552.159633	-2.977700	3.763000	-11.203000	24.328457	0.000542	20.912442
553.160299	-3.008100	3.762200	-11.315000	24.341244	0.000538	20.922423
554.162574	-2.979100	3.761800	-11.205000	24.368333	0.000540	20.910719
555.162731	-3.007300	3.761900	-11.312000	24.350697	0.000539	20.921949
556.167250	-3.013000	3.761300	-11.332000	24.292308	0.000543	20.921224
557.162499	-2.999000	3.760700	-11.277000	24.289425	0.000540	20.931133
558.162573	-2.998100	3.761000	-11.275000	24.313231	0.000540	20.921824
559.163291	-3.001500	3.760800	-11.287000	24.365252	0.000540	20.930385
560.164400	-2.986600	3.761500	-11.233000	24.384108	0.000540	20.935550
561.167564	-2.972200	3.760400	-11.176000	24.394404	0.000539	20.939240
562.164644	-2.999500	3.759500	-11.276000	24.390673	0.000539	20.922697
563.166880	-3.012200	3.759500	-11.324000	24.426270	0.000539	20.919528
564.167924	-3.010400	3.759300	-11.316000	24.395549	0.000541	20.929485
565.167775	-3.016800	3.758600	-11.337000	24.431321	0.000541	20.938344
566.168403	-3.007000	3.760000	-11.305000	24.430574	0.000540	20.932853
567.172112	-3.018600	3.759500	-11.348000	24.419728	0.000539	20.933827
568.167979	-3.008400	3.759100	-11.307000	24.397990	0.000541	20.954689
569.168456	-2.992500	3.758400	-11.247000	24.370894	0.000537	20.941734
570.173688	-2.991200	3.757700	-11.237000	24.381892	0.000539	20.936172
571.168585	-3.004000	3.757600	-11.288000	24.405522	0.000539	20.947548
572.171579	-2.998300	3.757500	-11.265000	24.429676	0.000538	20.954235
573.169940	-3.024200	3.756800	-11.361000	24.398880	0.000538	20.934722
574.167689	-2.999400	3.757300	-11.268000	24.407808	0.000540	20.938463
575.169737	-3.007100	3.757100	-11.297000	24.459796	0.000538	20.944152
576.170181	-3.004000	3.756400	-11.283000	24.501086	0.000539	20.947170
577.170791	-2.996600	3.756700	-11.256000	24.473102	0.000539	20.933795
578.169812	-3.018600	3.756000	-11.336000	24.471484	0.000537	20.943076
579.168792	-3.002900	3.755000	-11.275000	24.449372	0.000538	20.945073
580.172888	-3.010200	3.755300	-11.304000	24.451410	0.000540	20.924834
581.171349	-3.005700	3.754900	-11.285000	24.435093	0.000538	20.955402
582.176151	-3.024900	3.754100	-11.355000	24.408276	0.000539	20.960740
583.171869	-3.015600	3.752300	-11.314000	24.437776	0.000538	20.936286
584.172841	-2.972000	3.754900	-11.159000	24.409644	0.000537	20.935563
585.172448	-2.996500	3.755000	-11.251000	24.439319	0.000537	20.942100
586.174093	-2.978300	3.754200	-11.180000	24.407031	0.000538	20.927727
587.176398	-2.979800	3.754700	-11.187000	24.439242	0.000540	20.944867
588.177797	-3.005900	3.753800	-11.283000	24.466031	0.000538	20.935709
589.176980	-2.994200	3.753400	-11.238000	24.492597	0.000535	20.941498
590.174642	-3.009600	3.752500	-11.292000	24.496475	0.000538	20.930218
591.178083	-3.001300	3.751900	-11.260000	24.488416	0.000537	20.935882
592.175128	-3.008500	3.751600	-11.286000	24.490904	0.000537	20.931741
593.177785	-3.004700	3.752400	-11.273000	24.443718	0.000537	20.934660
594.177554	-3.011700	3.751100	-11.296000	24.475356	0.000536	20.928944
595.176219	-3.020700	3.750900	-11.330000	24.468019	0.000538	20.929170
596.176270	-3.016500	3.751100	-11.315000	24.455681	0.000539	20.928645
597.176010	-3.001800	3.749700	-11.255000	24.420160	0.000539	20.920984
598.178629	-3.007500	3.751300	-11.280000	24.451850	0.000537	20.925276
599.175858	-3.013500	3.749500	-11.298000	24.493712	0.000539	20.917490
600.176875	-3.005600	3.749800	-11.269000	24.494485	0.000537	20.919213
601.176569	-2.969000	3.751400	-11.138000	24.453763	0.000536	20.930514
602.178779	-3.014400	3.750300	-11.305000	24.455109	0.000537	20.914796
603.177995	-3.012700	3.749800	-11.295000	24.493067	0.000538	20.929170
604.177598	-3.005200	3.748700	-11.264000	24.485581	0.000536	20.914073
605.175652	-3.003700	3.748200	-11.257000	24.472870	0.000538	20.922183
606.176150	-3.008300	3.748700	-11.277000	24.436829	0.000536	20.889347
607.178506	-3.017900	3.748000	-11.310000	24.397921	0.000536	20.901521
608.177513	-2.998500	3.748100	-11.238000	24.398421	0.000536	20.920039
609.182409	-2.993700	3.747800	-11.219000	24.384066	0.000538	20.941198
610.181607	-2.985400	3.748000	-11.188000	24.409839	0.000537	20.926751
611.179361	-3.007000	3.746300	-11.264000	24.466081	0.000536	20.922010
612.178961	-2.979000	3.748100	-11.165000	24.510181	0.000536	20.911728
613.179855	-3.003100	3.746700	-11.250000	24.549955	0.000537	20.916547
614.181699	-2.994400	3.746200	-11.217000	24.524213	0.000535	20.915849
615.183009	-2.978700	3.747000	-11.161000	24.516004	0.000536	20.911881
616.183433	-3.002100	3.746000	-11.245000	24.475583	0.000535	20.909734
617.181447	-3.007500	3.746200	-11.266000	24.486280	0.000537	20.902923
618.185161	-2.989300	3.746200	-11.198000	24.450537	0.000538	20.902150
619.182715	-2.986700	3.744400	-11.182000	24.439542	0.000537	20.909136
620.184407	-3.017200	3.745000	-11.299000	24.462027	0.000538	20.899454
621.182082	-3.008700	3.743800	-11.262000	24.477131	0.000537	20.920768
622.182208	-2.996100	3.744800	-11.219000	24.484042	0.000534	20.904945
623.185879	-2.993300	3.743400	-11.204000	24.476733	0.000537	20.894293
624.181849	-3.021700	3.743500	-11.310000	24.487253	0.000536	20.891572
625.182843	-2.991100	3.743900	-11.197000	24.462455	0.000537	20.884237
626.182245	-2.978300	3.743500	-11.149000	24.514168	0.000535	20.885385
627.183571	-3.000700	3.741900	-11.228000	24.537475	0.000537	20.907819
628.182893	-2.996700	3.742700	-11.215000	24.534464	0.000535	20.899110
629.182526	-3.002700	3.743200	-11.238000	24.545756	0.000536	20.897637
630.182556	-2.962400	3.743700	-11.090000	24.561921	0.000536	20.891572
631.183331	-3.008600	3.742700	-11.260000	24.603064	0.000535	20.872637
632.182775	-2.985200	3.742300	-11.171000	24.550434	0.000535	20.894745
633.182824	-3.009000	3.741700	-11.257000	24.555903	0.000534	20.889801
634.183918	-2.999300	3.741900	-11.223000	24.553965	0.000535	20.889753
635.182642	-3.023800	3.739900	-11.308000	24.543618	0.000534	20.897863
636.187002	-3.032900	3.740500	-11.343000	24.591993	0.000535	20.898984
637.183422	-3.008700	3.740600	-11.254000	24.587740	0.000534	20.887606
638.183889	-2.977200	3.741900	-11.140000	24.617438	0.000536	20.893696
639.184097	-3.005800	3.739100	-11.238000	24.639222	0.000535	20.892322
640.185075	-3.002400	3.740000	-11.228000	24.629774	0.000533	20.883316
641.186553	-2.963800	3.740800	-11.086000	24.606569	0.000534	20.878524
642.189317	-2.980600	3.741000	-11.150000	24.575528	0.000536	20.892896
643.183960	-2.983300	3.740300	-11.157000	24.574483	0.000534	20.890425
644.184306	-2.986400	3.739300	-11.166000	24.549959	0.000531	20.885260
645.185714	-2.997200	3.738600	-11.203000	24.557648	0.000535	20.888707
646.184493	-2.981100	3.739700	-11.147000	24.590525	0.000533	20.895141
647.187250	-2.998700	3.738900	-11.211000	24.648078	0.000534	20.881294
648.184906	-3.005100	3.738300	-11.233000	24.634149	0.000534	20.882965
649.185482	-2.996000	3.738300	-11.199000	24.625369	0.000533	20.876525
650.186150	-2.975100	3.737600	-11.119000	24.607464	0.000532	20.903128
651.185989	-3.016100	3.738200	-11.274000	24.558888	0.000534	20.885210
652.185653	-3.031400	3.736900	-11.327000	24.617335	0.000533	20.866569
653.185093	-3.009600	3.737000	-11.246000	24.653298	0.000533	20.885584
654.185485	-3.015500	3.736800	-11.268000	24.648450	0.000531	20.897314
655.185959	-3.014600	3.735800	-11.262000	24.642878	0.000531	20.894567
656.186083	-3.033300	3.736300	-11.332000	24.649268	0.000534	20.886281
657.186137	-2.993000	3.735300	-11.179000	24.609105	0.000532	20.868741
658.190486	-2.983600	3.736300	-11.148000	24.613157	0.000533	20.872808
659.188436	-2.996100	3.735200	-11.190000	24.580054	0.000533	20.863300
660.187605	-2.989700	3.735400	-11.167000	24.593958	0.000533	20.891948
661.189633	-2.996900	3.733800	-11.188000	24.636935	0.000533	20.880070
662.188388	-3.014800	3.735100	-11.260000	24.668069	0.000534	20.881440
663.191917	-3.021700	3.734200	-11.283000	24.664166	0.000532	20.858085
664.186723	-2.997300	3.733600	-11.190000	24.656011	0.000531	20.871711
665.188157	-2.992600	3.733900	-11.173000	24.677947	0.000531	20.870489
666.190081	-3.003300	3.734400	-11.215000	24.658226	0.000531	20.879149
667.189562	-3.005500	3.734800	-11.223000	24.631416	0.000532	20.857939
668.190576	-3.015200	3.733600	-11.257000	24.664766	0.000533	20.868169
669.191013	-3.003800	3.734100	-11.216000	24.669591	0.000530	20.882967
670.188852	-3.008000	3.731400	-11.223000	24.680832	0.000530	20.866747
671.189266	-2.987900	3.733200	-11.154000	24.677274	0.000533	20.855591
672.189943	-3.013300	3.731900	-11.245000	24.650540	0.000532	20.894669
673.189422	-2.992400	3.732500	-11.168000	24.674766	0.000531	20.866824
674.191689	-3.001700	3.730700	-11.198000	24.652953	0.000530	20.888556
675.191734	-3.011900	3.731400	-11.238000	24.672154	0.000531	20.884590
676.189709	-2.993800	3.731000	-11.169000	24.721095	0.000530	20.870166
677.196514	-3.028500	3.730300	-11.296000	24.752827	0.000529	20.849379
678.191826	-3.026600	3.729400	-11.287000	24.735047	0.000528	20.853822
679.192642	-3.008100	3.731800	-11.225000	24.730272	0.000530	20.861832
680.194047	-2.999100	3.731200	-11.190000	24.731120	0.000528	20.867424
681.193123	-2.983900	3.732200	-11.135000	24.705580	0.000528	20.881622
682.193421	-2.998300	3.730600	-11.185000	24.701402	0.000530	20.846612
683.193483	-3.003900	3.729800	-11.204000	24.721345	0.000531	20.857615
684.193170	-3.013100	3.728900	-11.234000	24.708787	0.000528	20.859712
685.199144	-3.004600	3.728000	-11.201000	24.707147	0.000528	20.847162
686.195809	-3.013600	3.729300	-11.238000	24.703317	0.000528	20.872714
687.204724	-3.007700	3.729200	-11.215000	24.720997	0.000526	20.836879
688.198814	-3.019800	3.727700	-11.256000	24.719480	0.000528	20.879450
689.195292	-3.002400	3.729400	-11.196000	24.740320	0.000529	20.867173
690.197433	-3.004000	3.728900	-11.200000	24.691602	0.000528	20.861433
691.196472	-2.998800	3.728100	-11.178000	24.657656	0.000527	20.861983
692.196184	-3.002500	3.727700	-11.191000	24.645072	0.000527	20.870692
693.196214	-3.006300	3.726900	-11.203000	24.686429	0.000528	20.872837
694.197906	-3.002200	3.728100	-11.191000	24.671359	0.000528	20.849181
695.199905	-3.004400	3.727300	-11.198000	24.704757	0.000528	20.877478
696.194688	-3.005600	3.726000	-11.198000	24.747532	0.000529	20.854497
697.195383	-2.979700	3.728700	-11.109000	24.750117	0.000527	20.883168
698.198147	-2.980900	3.727400	-11.109000	24.764589	0.000525	20.864975
699.196272	-2.983900	3.726400	-11.118000	24.727662	0.000527	20.843567
700.199923	-3.008400	3.724600	-11.203000	24.748997	0.000523	20.857864
701.196437	-3.000300	3.725700	-11.178000	24.744547	0.000528	20.843915
702.196066	-2.998400	3.724300	-11.166000	24.749022	0.000526	20.855992
703.198009	-3.008500	3.724100	-11.203000	24.731142	0.000527	20.844688
704.196883	-3.008800	3.724900	-11.207000	24.706797	0.000526	20.859138
705.197611	-2.996700	3.724800	-11.162000	24.729973	0.000522	20.844462
706.201044	-2.995600	3.724100	-11.155000	24.737085	0.000525	20.848755
707.198031	-3.006900	3.724800	-11.199000	24.761507	0.000527	20.862831
708.198062	-3.006600	3.724700	-11.198000	24.772424	0.000525	20.868570
709.203303	-3.015500	3.724200	-11.230000	24.767772	0.000523	20.855842
710.200083	-2.992300	3.723500	-11.141000	24.761779	0.000523	20.840820
711.201559	-3.013600	3.722700	-11.218000	24.741512	0.000523	20.842767
712.198299	-3.006700	3.723600	-11.195000	24.751982	0.000526	20.855169
713.198205	-2.996700	3.722000	-11.153000	24.748725	0.000525	20.844314
714.197632	-3.011400	3.721600	-11.206000	24.742905	0.000524	20.846060
715.198192	-3.007200	3.721200	-11.190000	24.782891	0.000523	20.857738
716.199046	-3.019400	3.722400	-11.238000	24.797787	0.000522	20.854670
717.199093	-2.991400	3.721300	-11.130000	24.830984	0.000524	20.839623
718.197933	-2.980700	3.722300	-11.094000	24.767276	0.000523	20.840647
719.197949	-3.011800	3.720400	-11.204000	24.760589	0.000522	20.838677
720.199020	-3.005000	3.720500	-11.178000	24.765434	0.000523	20.840220
721.199125	-2.973800	3.721700	-11.066000	24.787518	0.000522	20.859063
722.200355	-3.003500	3.720300	-11.173000	24.779263	0.000521	20.858365
723.199303	-2.989900	3.720800	-11.124000	24.797292	0.000523	20.847535
724.198676	-2.982600	3.720600	-11.096000	24.834316	0.000520	20.849605
725.203772	-3.014500	3.719000	-11.210000	24.853687	0.000521	20.831114
726.200836	-2.975500	3.720500	-11.070000	24.872162	0.000520	20.851078
727.202680	-3.001800	3.718000	-11.159000	24.871344	0.000521	20.845516
728.203238	-3.015800	3.719400	-11.216000	24.869950	0.000520	20.827995
729.201725	-3.007500	3.718500	-11.182000	24.816163	0.000523	20.833284
730.201397	-2.995200	3.719300	-11.139000	24.802339	0.000520	20.839799
731.201473	-3.022000	3.717200	-11.232000	24.798980	0.000519	20.838324
732.200585	-2.984400	3.719100	-11.098000	24.827352	0.000521	20.834556
733.205070	-3.006900	3.718000	-11.179000	24.815243	0.000520	20.857016
734.201402	-2.996400	3.717700	-11.138000	24.828372	0.000521	20.858812
735.202422	-3.002900	3.717000	-11.161000	24.800197	0.000518	20.850925
736.206928	-3.027500	3.716500	-11.251000	24.794105	0.000521	20.825846
737.201793	-2.992100	3.718400	-11.125000	24.824813	0.000516	20.836749
738.205844	-3.020400	3.716700	-11.225000	24.826578	0.000522	20.830934
739.202954	-2.995700	3.716400	-11.133000	24.824588	0.000518	20.857859
740.203291	-2.989600	3.716500	-11.110000	24.825035	0.000518	20.853567
741.203921	-2.988600	3.715900	-11.105000	24.826230	0.000517	20.819205
742.203125	-3.001000	3.715800	-11.150000	24.815264	0.000517	20.816734
743.204974	-2.990100	3.716100	-11.110000	24.852015	0.000517	20.826117
744.204060	-2.998100	3.717400	-11.143000	24.834977	0.000518	20.849794
745.205882	-2.999400	3.714900	-11.142000	24.857929	0.000517	20.830630
746.205564	-2.995500	3.714500	-11.126000	24.862379	0.000517	20.830829
747.205474	-3.003100	3.714500	-11.154000	24.908032	0.000517	20.826862
748.205476	-2.996600	3.714800	-11.132000	24.861759	0.000516	20.838741
749.206846	-3.001000	3.715200	-11.148000	24.878169	0.000516	20.836719
750.206060	-2.982400	3.715500	-11.080000	24.870933	0.000516	20.815232
751.205997	-3.007600	3.714000	-11.168000	24.893287	0.000516	20.825814
752.206889	-3.000800	3.713500	-11.142000	24.885378	0.000517	20.827833
753.210979	-3.007800	3.712800	-11.165000	24.830895	0.000515	20.831474
754.209997	-3.007900	3.711300	-11.163000	24.867573	0.000515	20.835568
755.205832	-3.011800	3.712500	-11.180000	24.874585	0.000514	20.812733
756.206183	-3.021000	3.712500	-11.213000	24.874982	0.000515	20.797960
757.207526	-2.998600	3.711300	-11.127000	24.884031	0.000515	20.803248
758.205624	-2.972900	3.712600	-11.036000	24.880502	0.000515	20.828155
759.208376	-3.003500	3.712300	-11.149000	24.844224	0.000515	20.814979
760.207990	-3.000700	3.711800	-11.136000	24.846261	0.000514	20.831248
761.207662	-2.994900	3.711000	-11.113000	24.826791	0.000514	20.824510
762.206950	-2.996600	3.711100	-11.119000	24.858542	0.000515	20.819392
763.206309	-2.983700	3.711200	-11.072000	24.887338	0.000513	20.831697
764.207735	-3.000900	3.711300	-11.137000	24.858565	0.000513	20.816570
765.206152	-3.007900	3.710200	-11.159000	24.876247	0.000513	20.841428
766.207709	-3.001700	3.710700	-11.138000	24.887806	0.000512	20.824106
767.207412	-3.010500	3.708900	-11.165000	24.884002	0.000512	20.814598
768.208504	-2.971500	3.710000	-11.023000	24.862442	0.000511	20.814297
769.210858	-2.986000	3.709100	-11.075000	24.809130	0.000513	20.824329
770.211685	-2.995600	3.708700	-11.109000	24.818977	0.000511	20.832789
771.211248	-2.969100	3.709600	-11.013000	24.838320	0.000511	20.812373
772.210246	-2.986400	3.708000	-11.072000	24.856101	0.000511	20.850605
773.212492	-3.013700	3.707200	-11.171000	24.856671	0.000513	20.823677
774.211103	-3.019500	3.707700	-11.194000	24.861893	0.000512	20.805211
775.212991	-3.012700	3.708800	-11.172000	24.920326	0.000511	20.816916
776.211157	-3.002100	3.708200	-11.132000	24.933576	0.000510	20.812672
777.210753	-3.003500	3.708000	-11.136000	24.909880	0.000510	20.823502
778.211837	-3.006400	3.706600	-11.143000	24.874523	0.000512	20.809353
779.212022	-3.018200	3.707200	-11.187000	24.831184	0.000510	20.787193
780.214892	-3.004800	3.707500	-11.140000	24.778886	0.000508	20.832383
781.214830	-3.001500	3.707700	-11.128000	24.770656	0.000510	20.798046
782.212569	-3.004700	3.706600	-11.137000	24.824269	0.000508	20.820557
783.215337	-3.002300	3.706300	-11.126000	24.836303	0.000510	20.812720
784.215369	-2.977700	3.706900	-11.037000	24.832526	0.000509	20.815567
785.213482	-3.008700	3.705600	-11.148000	24.833246	0.000508	20.794953
786.215518	-2.996700	3.704900	-11.101000	24.827002	0.000510	20.799117
787.214941	-2.983700	3.704500	-11.052000	24.773688	0.000506	20.790184
788.215293	-3.007000	3.705200	-11.140000	24.803156	0.000507	20.810274
789.218447	-2.989600	3.704800	-11.075000	24.803579	0.000505	20.800740
790.216521	-2.996100	3.705100	-11.099000	24.815640	0.000506	20.831811
791.218870	-3.017200	3.702300	-11.169000	24.818350	0.000509	20.798021
792.218863	-3.003000	3.703800	-11.121000	24.856171	0.000506	20.811796
793.216053	-3.002900	3.704800	-11.124000	24.828644	0.000507	20.791282
794.215861	-3.018500	3.702600	-11.175000	24.843365	0.000508	20.798944
795.217403	-3.006700	3.704000	-11.136000	24.873104	0.000504	20.785643
796.219164	-2.982300	3.703800	-11.045000	24.878148	0.000507	20.794025
797.222919	-2.991400	3.702500	-11.075000	24.884840	0.000506	20.780352
798.218412	-2.989400	3.701700	-11.064000	24.854031	0.000505	20.810123
799.219707	-2.997600	3.701700	-11.096000	24.881258	0.000507	20.790507
800.224310	-2.996600	3.702900	-11.095000	24.902565	0.000506	20.783443
801.217330	-2.997700	3.701300	-11.095000	24.916614	0.000506	20.816985
802.220807	-2.989500	3.702100	-11.066000	24.934764	0.000506	20.792527
803.218530	-2.999900	3.699500	-11.097000	24.972233	0.000506	20.777504
804.219432	-2.989200	3.702600	-11.066000	24.962883	0.000506	20.795620
805.219268	-3.006700	3.700700	-11.126000	24.945354	0.000508	20.796993
806.223750	-3.002700	3.700700	-11.112000	24.979417	0.000504	20.794672
807.222847	-2.994500	3.700300	-11.080000	24.942695	0.000506	20.793375
808.224728	-2.980600	3.701100	-11.030000	24.938690	0.000504	20.785089
809.222928	-2.974000	3.700400	-11.004000	24.898535	0.000505	20.786985
810.222442	-2.983600	3.700300	-11.039000	24.913650	0.000505	20.804527
811.223273	-2.995200	3.699200	-11.079000	24.884360	0.000502	20.805949
812.224033	-2.997000	3.698400	-11.083000	24.903855	0.000504	20.796592
813.223229	-3.024200	3.696700	-11.178000	24.902835	0.000502	20.808844
814.223333	-2.997000	3.699200	-11.085000	24.867105	0.000504	20.772036
815.225446	-3.004900	3.698900	-11.113000	24.892514	0.000503	20.801331
816.222831	-2.989600	3.697800	-11.054000	24.888935	0.000502	20.792048
817.224956	-3.002700	3.698500	-11.104000	24.929040	0.000501	20.777299
818.225648	-3.019200	3.696700	-11.160000	24.933789	0.000503	20.776850
819.225170	-2.988100	3.698400	-11.050000	24.964818	0.000501	20.784286
820.225056	-3.003500	3.697200	-11.104000	24.946022	0.000500	20.782490
821.225240	-3.027300	3.697300	-11.192000	24.984311	0.000500	20.794369
822.225451	-2.996600	3.696700	-11.076000	24.933539	0.000498	20.790350
823.227511	-2.981800	3.697800	-11.025000	24.937516	0.000501	20.772056
824.225692	-2.976500	3.697200	-11.004000	24.980282	0.000499	20.777997
825.225796	-2.992100	3.695900	-11.057000	24.946020	0.000501	20.787703
826.229310	-2.982100	3.696200	-11.021000	24.970387	0.000500	20.778022
827.225023	-3.008400	3.694400	-11.113000	24.934110	0.000499	20.784284
828.229713	-2.997200	3.695300	-11.074000	24.907059	0.000499	20.783687
829.226507	-3.010300	3.694600	-11.121000	24.931077	0.000499	20.794991
830.227762	-3.004500	3.694400	-11.099000	24.982369	0.000498	20.782937
831.227617	-3.009300	3.695500	-11.119000	25.007628	0.000500	20.782686
832.228117	-3.020600	3.695200	-11.160000	25.060532	0.000499	20.777470
833.230568	-3.007100	3.693900	-11.107000	25.049046	0.000498	20.791545
834.228658	-2.999000	3.694200	-11.078000	25.046062	0.000498	20.790920
835.228628	-3.021300	3.692900	-11.156000	24.965760	0.000497	20.799457
836.229023	-3.005000	3.693800	-11.099000	24.950766	0.000497	20.772079
837.231810	-2.988200	3.692700	-11.034000	24.986121	0.000497	20.787177
838.229440	-2.995600	3.692400	-11.060000	25.004716	0.000498	20.782609
839.232296	-3.012000	3.693500	-11.124000	24.994151	0.000495	20.786229
840.232054	-3.011600	3.691600	-11.117000	24.970234	0.000498	20.792094
841.235581	-2.994900	3.692900	-11.059000	25.004591	0.000496	20.775845
842.233837	-3.001800	3.691400	-11.080000	25.012326	0.000496	20.781238
843.232890	-3.009200	3.691900	-11.109000	25.004569	0.000497	20.780090
844.234976	-2.995900	3.691700	-11.059000	24.976201	0.000495	20.755408
845.234650	-3.013200	3.691400	-11.122000	25.010932	0.000494	20.790744
846.234882	-3.004900	3.691400	-11.092000	24.993777	0.000494	20.787749
847.234369	-3.020000	3.690200	-11.144000	24.966230	0.000494	20.797558
848.234166	-3.016000	3.690400	-11.130000	24.984704	0.000497	20.786229
849.236887	-3.000100	3.691100	-11.073000	25.035120	0.000493	20.761919
850.236889	-3.002300	3.689700	-11.077000	25.038849	0.000497	20.775619
851.235123	-3.016400	3.690600	-11.132000	25.088546	0.000492	20.785203
852.235664	-3.008800	3.689200	-11.099000	25.090608	0.000494	20.772574
853.235821	-3.015200	3.688300	-11.120000	25.101449	0.000494	20.776818
854.234576	-2.990600	3.689300	-11.032000	25.070870	0.000491	20.786425
855.237435	-3.007200	3.689500	-11.094000	25.011452	0.000494	20.788422
856.235204	-2.989800	3.688000	-11.025000	25.039619	0.000492	20.784927
857.234179	-3.004800	3.688100	-11.082000	25.016871	0.000494	20.792438
858.237257	-2.986900	3.689400	-11.019000	25.041409	0.000492	20.789094
859.237057	-3.006500	3.687800	-11.086000	25.012324	0.000491	20.793564
860.241340	-3.004200	3.687900	-11.078000	25.024726	0.000491	20.802220
861.236652	-3.017300	3.686500	-11.122000	25.018488	0.000491	20.824407
862.236177	-3.012800	3.686500	-11.106000	24.996981	0.000490	20.791440
863.235861	-2.995900	3.687400	-11.046000	25.030345	0.000491	20.795532
864.236541	-2.993300	3.687100	-11.036000	25.055777	0.000489	20.804465
865.236645	-3.019100	3.685700	-11.127000	25.033528	0.000491	20.782132
866.239616	-3.023000	3.685100	-11.139000	24.992307	0.000491	20.781533
867.234397	-3.017200	3.686600	-11.122000	25.017666	0.000491	20.791339
868.236074	-3.015800	3.685800	-11.115000	25.036710	0.000490	20.786274
869.243608	-3.012200	3.685200	-11.100000	25.072237	0.000491	20.784478
870.237429	-3.021500	3.684200	-11.130000	25.092770	0.000489	20.782330
871.242077	-2.982700	3.684100	-10.987000	25.071340	0.000491	20.789741
872.237770	-3.028900	3.685200	-11.161000	25.035018	0.000488	20.790740
873.239291	-2.996900	3.684800	-11.042000	25.031959	0.000487	20.788618
874.239732	-2.997100	3.684900	-11.043000	25.048542	0.000490	20.774917
875.241420	-2.979400	3.685200	-10.979000	25.028830	0.000486	20.790218
876.245092	-3.020000	3.683000	-11.122000	25.039494	0.000485	20.792862
877.242033	-3.008700	3.683600	-11.082000	25.039594	0.000487	20.791066
878.242417	-2.986200	3.685500	-11.005000	25.037705	0.000487	20.790592
879.244739	-3.003800	3.684500	-11.066000	25.015504	0.000487	20.803868
880.241956	-2.988800	3.683200	-11.008000	25.008788	0.000486	20.797127
881.247996	-3.015500	3.681700	-11.101000	25.047547	0.000486	20.799997
882.242083	-3.011300	3.682700	-11.089000	25.078597	0.000486	20.794182
883.242241	-2.986100	3.682000	-10.994000	25.085435	0.000484	20.794882
884.243353	-2.986500	3.682500	-10.996000	25.100277	0.000487	20.792238
885.244318	-2.985000	3.681300	-10.988000	25.088666	0.000484	20.805238
886.244287	-2.985400	3.682500	-10.993000	25.077680	0.000485	20.795158
887.246191	-2.992400	3.682000	-11.017000	25.069575	0.000483	20.803143
888.245014	-3.024600	3.681300	-11.133000	25.092570	0.000483	20.811527
889.245393	-2.991800	3.681400	-11.013000	25.069500	0.000485	20.805439
890.248995	-3.005700	3.680200	-11.061000	25.064554	0.000483	20.813750
891.247192	-3.012700	3.680500	-11.088000	25.047350	0.000484	20.796006
892.246105	-3.007000	3.680500	-11.066000	25.050334	0.000481	20.802794
893.246973	-3.001900	3.678900	-11.043000	25.086060	0.000481	20.796457
894.246822	-3.001500	3.680100	-11.045000	25.105700	0.000481	20.821863
895.246769	-2.991300	3.678200	-11.002000	25.101697	0.000483	20.837284
896.247610	-3.003800	3.678900	-11.050000	25.102242	0.000484	20.807960
897.248769	-2.994900	3.677800	-11.014000	25.107367	0.000483	20.809786
898.246893	-2.997000	3.678000	-11.022000	25.094984	0.000481	20.813950
899.249632	-3.006800	3.678100	-11.059000	25.111368	0.000481	20.837035
900.246616	-3.026600	3.678100	-11.131000	25.124391	0.000480	20.815022
901.247581	-2.998500	3.677800	-11.028000	25.142414	0.000483	20.816045
902.247657	-3.001100	3.678000	-11.037000	25.145348	0.000482	20.832267
903.247482	-3.017400	3.676700	-11.092000	25.143681	0.000480	20.796929
904.246390	-3.016800	3.677000	-11.092000	25.140723	0.000479	20.796329
905.248014	-3.021100	3.675700	-11.104000	25.115565	0.000479	20.815644
906.247814	-2.998000	3.677500	-11.024000	25.141545	0.000481	20.819440
907.250269	-2.992000	3.676600	-11.000000	25.080861	0.000478	20.813524
908.247749	-2.979200	3.676600	-10.952000	25.093092	0.000481	20.813000
909.249637	-2.991500	3.675100	-10.993000	25.075866	0.000477	20.820837
910.250677	-3.002000	3.675400	-11.033000	25.042851	0.000478	20.804766
911.249446	-2.999500	3.675300	-11.023000	24.997976	0.000478	20.818991
912.255678	-3.002000	3.674700	-11.030000	25.021819	0.000477	20.831544
913.255156	-2.988400	3.675500	-10.982000	25.049512	0.000475	20.827573
914.254525	-2.990400	3.675000	-10.989000	25.102391	0.000475	20.822809
915.255136	-3.005700	3.674000	-11.042000	25.127052	0.000478	20.812478
916.253264	-3.006700	3.674500	-11.047000	25.124616	0.000477	20.838006
917.258296	-2.987400	3.675000	-10.978000	25.132298	0.000477	20.818218
918.253008	-3.012400	3.673900	-11.065000	25.092995	0.000474	20.811479
919.252914	-3.000200	3.674200	-11.022000	25.052673	0.000477	20.828375
920.255135	-3.012500	3.673000	-11.064000	25.081436	0.000475	20.831170
921.252756	-3.022400	3.672600	-11.099000	25.090136	0.000475	20.828049
922.254907	-3.010100	3.672500	-11.053000	25.130561	0.000475	20.847767
923.256929	-2.997300	3.671600	-11.004000	25.130161	0.000474	20.842150
924.253283	-2.996400	3.672500	-11.003000	25.080541	0.000475	20.843548
925.253009	-2.988400	3.672800	-10.975000	25.035915	0.000477	20.842374
926.257707	-3.000600	3.671600	-11.016000	25.043798	0.000474	20.830372
927.254188	-3.013500	3.670000	-11.059000	25.053892	0.000475	20.813479
928.257326	-3.007200	3.670900	-11.038000	25.107340	0.000474	20.833466
929.256135	-3.003300	3.671800	-11.026000	25.130509	0.000473	20.830172
930.257005	-2.997800	3.672000	-11.007000	25.151016	0.000471	20.845068
931.256658	-2.994200	3.671400	-10.992000	25.134260	0.000472	20.834412
932.256009	-2.991700	3.671400	-10.983000	25.108879	0.000473	20.830744
933.256556	-3.022700	3.668700	-11.088000	25.095727	0.000471	20.818963
934.258432	-2.992400	3.670200	-10.982000	25.105398	0.000472	20.853801
935.257666	-2.989000	3.669700	-10.968000	25.099231	0.000474	20.844765
936.266669	-2.976500	3.670100	-10.924000	25.107533	0.000472	20.836504
937.256147	-2.994300	3.670000	-10.987000	25.093265	0.000471	20.842096
938.258085	-3.007500	3.667000	-11.028000	25.156032	0.000470	20.824026
939.260134	-3.005200	3.669000	-11.025000	25.137934	0.000471	20.844738
940.258481	-2.996200	3.667900	-10.989000	25.157422	0.000470	20.851499
941.259063	-3.003100	3.668100	-11.015000	25.159336	0.000470	20.835877
942.259702	-2.997500	3.667600	-10.993000	25.175914	0.000471	20.840667
943.258341	-3.000300	3.667700	-11.003000	25.220085	0.000469	20.850872
944.262678	-2.990800	3.667100	-10.966000	25.226972	0.000469	20.846406
945.259773	-3.000800	3.667500	-11.005000	25.223763	0.000468	20.823272
946.258965	-3.018600	3.667300	-11.070000	25.195251	0.000469	20.842536
947.261126	-3.040500	3.664200	-11.140000	25.138425	0.000468	20.840963
948.259763	-3.025900	3.666400	-11.093000	25.127907	0.000466	20.839413
949.263795	-2.993700	3.666200	-10.975000	25.122438	0.000468	20.868536
950.260252	-2.970000	3.666400	-10.888000	25.121219	0.000468	20.838864
951.259436	-2.987400	3.665300	-10.949000	25.148863	0.000467	20.853338
952.261080	-2.984300	3.665400	-10.937000	25.163280	0.000466	20.853113
953.260133	-2.996500	3.664000	-10.979000	25.146475	0.000466	20.853311
954.262066	-3.009900	3.664100	-11.028000	25.202084	0.000466	20.853188
955.263091	-3.019800	3.663200	-11.061000	25.241231	0.000465	20.852187
956.259866	-2.981000	3.665400	-10.926000	25.227483	0.000467	20.832695
957.259551	-2.995000	3.664400	-10.974000	25.235316	0.000464	20.859051
958.261241	-2.990500	3.663400	-10.954000	25.208219	0.000465	20.858399
959.261437	-2.995900	3.664100	-10.977000	25.190499	0.000465	20.843455
960.264678	-2.983700	3.663100	-10.929000	25.205833	0.000465	20.847469
961.262208	-2.996600	3.664000	-10.978000	25.225793	0.000465	20.843801
962.263117	-2.991900	3.661900	-10.955000	25.203918	0.000463	20.859771
963.266853	-2.994500	3.662200	-10.965000	25.216498	0.000463	20.843477
964.263998	-3.007500	3.662000	-11.011000	25.218112	0.000465	20.860270
965.268800	-3.015100	3.660400	-11.036000	25.163226	0.000462	20.870601
966.265649	-2.988300	3.663100	-10.945000	25.144631	0.000461	20.871848
967.266074	-3.004900	3.659900	-10.997000	25.208367	0.000462	20.864237
968.266234	-2.986400	3.660400	-10.931000	25.229694	0.000461	20.837286
969.266287	-3.028600	3.659600	-11.082000	25.215623	0.000460	20.877685
970.265803	-3.005400	3.660900	-11.001000	25.217585	0.000461	20.839354
971.267874	-2.992900	3.660500	-10.954000	25.265807	0.000460	20.868800
972.268248	-2.998900	3.659000	-10.973000	25.221289	0.000461	20.862985
973.266867	-3.013500	3.659700	-11.027000	25.185767	0.000460	20.863833
974.269095	-3.014600	3.658700	-11.029000	25.203664	0.000460	20.871843
975.265994	-3.013600	3.658000	-11.023000	25.166328	0.000461	20.861387
976.269011	-3.007800	3.658600	-11.004000	25.151239	0.000459	20.869947
977.271260	-2.981500	3.659300	-10.910000	25.116957	0.000457	20.862085
978.266586	-2.988800	3.658300	-10.933000	25.108505	0.000458	20.866402
979.266779	-2.996100	3.657400	-10.957000	25.113925	0.000455	20.870895
980.267722	-3.002000	3.658500	-10.981000	25.121156	0.000458	20.867722
981.269569	-3.013800	3.655900	-11.017000	25.142240	0.000461	20.867077
982.270137	-2.992800	3.658100	-10.947000	25.170801	0.000457	20.863982
983.270234	-2.986800	3.658000	-10.925000	25.145521	0.000457	20.878905
984.270151	-3.015300	3.655000	-11.020000	25.155862	0.000458	20.859890
985.268794	-2.993900	3.656500	-10.946000	25.177141	0.000457	20.876035
986.269401	-3.022100	3.656000	-11.047000	25.228568	0.000459	20.900163
987.270635	-2.993200	3.656500	-10.943000	25.281464	0.000458	20.888312
988.270293	-2.995400	3.654800	-10.947000	25.238363	0.000456	20.882023
989.271050	-3.003400	3.655200	-10.977000	25.227204	0.000455	20.888362
990.275275	-2.998000	3.654500	-10.955000	25.244378	0.000456	20.850132
991.272040	-2.975200	3.655000	-10.874000	25.279151	0.000456	20.888360
992.279801	-2.976500	3.654500	-10.875000	25.303733	0.000454	20.895497
993.273348	-3.016300	3.653800	-11.020000	25.290810	0.000456	20.890108
994.273515	-3.006900	3.653600	-10.985000	25.280372	0.000455	20.906654
995.275170	-3.012600	3.653500	-11.005000	25.269183	0.000455	20.884043
996.273823	-2.983300	3.654500	-10.901000	25.259890	0.000453	20.867601
997.274323	-3.015900	3.652300	-11.013000	25.262699	0.000453	20.872317
998.276882	-3.016800	3.652900	-11.019000	25.244230	0.000451	20.870371
999.275666	-2.986200	3.652800	-10.907000	25.213310	0.000452	20.886267
1000.274650	-2.988100	3.652100	-10.911000	25.218332	0.000451	20.886568
1001.274962	-2.955100	3.653800	-10.796000	25.213212	0.000453	20.898022
1002.278434	-2.986300	3.652800	-10.907000	25.226361	0.000452	20.879931
1003.276024	-2.986200	3.652300	-10.906000	25.229467	0.000452	20.869774
1004.275371	-2.988400	3.652400	-10.913000	25.245152	0.000450	20.874615
1005.275484	-3.007900	3.650000	-10.978000	25.190790	0.000452	20.895426
1006.275454	-2.991400	3.650400	-10.918000	25.168344	0.000452	20.882851
1007.276699	-3.008900	3.650500	-10.983000	25.207570	0.000450	20.912271
1008.276117	-3.015400	3.649900	-11.005000	25.238191	0.000450	20.903659
1009.281717	-2.984800	3.650500	-10.895000	25.267324	0.000449	20.869375
1010.277546	-2.997200	3.650400	-10.941000	25.273836	0.000450	20.888239
1011.277155	-3.002300	3.649200	-10.955000	25.233620	0.000449	20.902390
1012.277810	-2.991300	3.649900	-10.917000	25.188351	0.000449	20.901038
1013.278939	-2.992200	3.648100	-10.915000	25.201328	0.000449	20.895574
1014.277513	-3.002700	3.647700	-10.952000	25.178360	0.000447	20.902387
1015.278022	-3.008600	3.648000	-10.975000	25.151489	0.000447	20.910971
1016.277904	-3.002200	3.648800	-10.954000	25.145076	0.000448	20.905009
1017.276941	-2.986300	3.649100	-10.896000	25.169834	0.000445	20.904733
1018.281090	-2.999700	3.646000	-10.936000	25.194543	0.000447	20.908202
1019.277261	-2.994800	3.647400	-10.923000	25.235607	0.000448	20.917185
1020.277431	-3.002600	3.646900	-10.950000	25.274982	0.000446	20.911673
1021.277137	-3.022400	3.646000	-11.018000	25.289098	0.000447	20.902613
1022.276975	-2.986800	3.647100	-10.892000	25.317087	0.000444	20.909378
1023.279888	-2.983800	3.646300	-10.879000	25.277618	0.000445	20.910527
1024.279722	-2.999100	3.645500	-10.931000	25.287088	0.000444	20.918138
1025.277881	-3.000200	3.645600	-10.937000	25.253085	0.000445	20.915293
1026.277833	-2.986300	3.644600	-10.883000	25.266359	0.000445	20.900646
1027.280772	-2.999500	3.644900	-10.931000	25.207946	0.000444	20.916916
1028.277765	-2.984000	3.645200	-10.877000	25.198675	0.000440	20.912824
1029.281591	-3.000500	3.645100	-10.936000	25.188285	0.000443	20.911402
1030.281460	-3.017000	3.643700	-10.992000	25.185179	0.000440	20.933411
1031.279385	-3.007000	3.643200	-10.953000	25.225821	0.000444	20.925851
1032.279721	-3.008900	3.641800	-10.956000	25.299991	0.000442	20.914497
1033.281263	-3.009700	3.642200	-10.960000	25.313761	0.000440	20.925477
1034.280056	-3.019100	3.642700	-10.997000	25.309336	0.000441	20.912975
1035.281980	-3.019400	3.642700	-10.998000	25.275854	0.000443	20.889791
1036.282355	-3.003200	3.642000	-10.937000	25.290544	0.000441	20.914969
1037.280202	-2.993400	3.642700	-10.903000	25.286716	0.000443	20.930564
1038.283456	-3.003900	3.641000	-10.935000	25.310181	0.000442	20.926149
1039.283687	-2.978100	3.641900	-10.845000	25.314456	0.000440	20.913848
1040.288375	-2.998200	3.642900	-10.922000	25.305756	0.000441	20.934508
1041.283568	-2.992300	3.640300	-10.891000	25.315101	0.000442	20.932985
1042.284880	-2.992800	3.641900	-10.898000	25.313934	0.000438	20.929443
1043.284333	-2.994200	3.640400	-10.899000	25.286046	0.000441	20.921832
1044.284428	-3.010200	3.640300	-10.957000	25.246603	0.000438	20.923483
1045.289469	-2.993800	3.639100	-10.892000	25.236261	0.000439	20.923056
1046.287176	-3.009200	3.640300	-10.953000	25.264647	0.000441	20.922632
1047.285347	-2.991500	3.639200	-10.886000	25.263627	0.000438	20.942469
1048.285452	-3.006400	3.639800	-10.942000	25.294399	0.000437	20.944441
1049.284765	-2.994500	3.638600	-10.895000	25.310878	0.000438	20.916893
1050.286936	-2.989900	3.638700	-10.879000	25.310800	0.000436	20.934831
1051.287011	-2.998800	3.637100	-10.906000	25.320247	0.000436	20.919662
1052.284568	-3.001500	3.637400	-10.916000	25.332178	0.000435	20.934485
1053.285260	-2.997600	3.637300	-10.902000	25.376343	0.000437	20.936156
1054.286735	-3.007900	3.636900	-10.938000	25.393717	0.000436	20.930368
1055.285261	-3.010300	3.637100	-10.948000	25.415835	0.000438	20.929819
1056.287263	-3.001000	3.636300	-10.912000	25.408155	0.000432	20.912626
1057.286389	-3.004300	3.635400	-10.921000	25.411536	0.000434	20.923132
1058.286128	-3.031200	3.635300	-11.019000	25.378506	0.000435	20.940224
1059.287797	-3.003200	3.635800	-10.919000	25.393317	0.000434	20.957939
1060.286445	-3.024800	3.634600	-10.993000	25.374206	0.000433	20.933063
1061.289651	-3.000900	3.635100	-10.908000	25.371970	0.000432	20.964004
1062.288068	-3.005700	3.635100	-10.925000	25.385467	0.000432	20.945790
1063.288491	-3.015200	3.634000	-10.956000	25.363792	0.000431	20.955320
1064.288917	-2.982000	3.634900	-10.838000	25.339984	0.000433	20.945640
1065.290046	-3.002500	3.635000	-10.912000	25.324722	0.000433	20.945489
1066.289497	-2.977400	3.633200	-10.816000	25.306405	0.000432	20.919988
1067.297938	-2.997800	3.633900	-10.893000	25.294699	0.000432	20.951853
1068.289549	-2.998700	3.632700	-10.892000	25.300738	0.000429	20.935160
1069.290690	-3.013900	3.632400	-10.947000	25.367522	0.000432	20.953376
1070.291854	-2.978600	3.633600	-10.822000	25.382954	0.000429	20.962705
1071.291086	-3.015900	3.631800	-10.951000	25.377339	0.000430	20.968920
1072.294908	-2.991000	3.633600	-10.867000	25.393667	0.000429	20.959238
1073.292851	-3.032700	3.631200	-11.011000	25.379475	0.000430	20.949731
1074.292212	-3.028200	3.630400	-10.993000	25.396200	0.000430	20.975056
1075.294314	-2.997800	3.631900	-10.886000	25.406539	0.000429	20.955094
1076.295005	-2.981900	3.630900	-10.825000	25.341325	0.000429	20.966424
1077.299489	-3.004100	3.632000	-10.910000	25.347163	0.000427	20.965173
1078.299498	-2.979700	3.630900	-10.817000	25.369432	0.000428	20.948655
1079.294775	-2.997600	3.630300	-10.880000	25.382854	0.000427	20.964027
1080.296327	-2.996500	3.630200	-10.877000	25.426693	0.000428	20.968692
1081.298547	-3.023200	3.628800	-10.969000	25.444015	0.000425	20.978498
1082.298310	-2.996200	3.629100	-10.872000	25.448092	0.000427	20.956991
1083.299153	-2.948200	3.630500	-10.703000	25.457585	0.000425	20.960359
1084.295596	-2.990300	3.629000	-10.851000	25.447445	0.000425	20.967245
1085.296843	-3.008000	3.628000	-10.912000	25.471353	0.000425	20.967072
1086.297908	-2.972300	3.628700	-10.785000	25.406389	0.000423	20.974381
1087.296485	-2.994600	3.628600	-10.865000	25.381932	0.000422	20.951723
1088.299527	-2.987300	3.627900	-10.836000	25.370004	0.000423	20.953022
1089.297873	-2.999000	3.628000	-10.879000	25.347460	0.000423	20.969739
1090.298570	-2.993200	3.626400	-10.854000	25.376640	0.000424	20.966322
1091.300415	-2.993600	3.627500	-10.858000	25.387301	0.000423	20.958536
1092.297811	-3.007000	3.625800	-10.901000	25.356732	0.000421	20.976677
1093.298151	-3.002100	3.625900	-10.884000	25.348257	0.000424	20.952997
1094.302668	-3.013500	3.624700	-10.922000	25.354718	0.000423	20.948580
1095.299510	-2.978400	3.627100	-10.802000	25.380420	0.000422	20.959687
1096.298865	-3.007100	3.625000	-10.900000	25.375026	0.000422	20.970864
1097.300330	-2.985700	3.625300	-10.823000	25.376815	0.000422	20.963179
1098.302523	-3.022300	3.623500	-10.950000	25.381934	0.000421	20.948881
1099.303113	-2.999200	3.624500	-10.869000	25.406216	0.000420	20.953348
1100.300717	-2.995800	3.624300	-10.857000	25.338392	0.000419	20.962531
1101.300996	-2.979600	3.624400	-10.798000	25.325690	0.000419	20.940771
1102.300141	-3.010000	3.623200	-10.904000	25.338690	0.000419	20.948607
1103.301342	-2.999500	3.623200	-10.867000	25.346445	0.000420	20.966823
1104.301149	-3.004800	3.622300	-10.883000	25.373064	0.000417	20.949932
1105.302231	-2.976200	3.622600	-10.780000	25.398166	0.000417	20.938155
1106.300051	-3.006100	3.621800	-10.887000	25.452591	0.000418	20.949182
1107.300148	-3.013900	3.622900	-10.919000	25.465365	0.000418	20.933088
1108.299314	-3.011000	3.621800	-10.904000	25.431320	0.000418	20.944892
1109.301992	-2.991400	3.620200	-10.828000	25.396947	0.000418	20.943094
1110.303283	-2.999500	3.620700	-10.859000	25.407685	0.000416	20.931592
1111.301704	-2.973300	3.621600	-10.767000	25.371575	0.000418	20.946066
1112.302538	-2.979100	3.620500	-10.785000	25.384495	0.000414	20.941496
1113.303006	-2.987100	3.619700	-10.811000	25.345550	0.000412	20.953599
1114.304185	-2.996500	3.619800	-10.846000	25.300341	0.000417	20.936183
1115.308681	-3.020400	3.618500	-10.929000	25.326414	0.000413	20.932490
1116.303646	-2.999800	3.618300	-10.854000	25.344359	0.000413	20.943869
1117.302754	-2.999900	3.616900	-10.849000	25.362453	0.000414	20.928848
1118.304032	-2.986700	3.619000	-10.808000	25.363767	0.000414	20.931590
1119.302409	-3.000000	3.617500	-10.852000	25.403086	0.000414	20.923182
1120.302811	-3.016900	3.617100	-10.912000	25.337375	0.000414	20.940176
1121.306094	-2.988600	3.618300	-10.813000	25.386436	0.000413	20.922584
1122.305253	-2.997900	3.618100	-10.846000	25.361981	0.000413	20.937382
1123.305982	-2.985600	3.618200	-10.802000	25.292537	0.000413	20.931668
1124.308845	-3.003000	3.615900	-10.858000	25.319800	0.000410	20.917317
1125.304504	-2.982000	3.617500	-10.786000	25.323878	0.000412	20.919514
1126.308142	-2.978900	3.616800	-10.773000	25.350720	0.000410	20.916594
1127.305181	-2.989600	3.616000	-10.809000	25.379278	0.000412	20.903071
1128.306126	-2.993000	3.615200	-10.820000	25.372665	0.000409	20.916344
1129.305684	-2.983500	3.614900	-10.784000	25.371423	0.000413	20.914623
1130.306259	-2.999300	3.615900	-10.843000	25.381909	0.000409	20.926099
1131.309110	-3.008300	3.613900	-10.870000	25.378309	0.000409	20.922484
1132.305154	-2.979600	3.614300	-10.768000	25.419490	0.000409	20.944867
1133.305350	-2.996500	3.615200	-10.832000	25.439270	0.000409	20.918739
1134.304844	-2.996000	3.613000	-10.823000	25.441804	0.000406	20.918438
1135.305029	-2.989100	3.613000	-10.798000	25.470831	0.000407	20.914397
1136.306225	-2.991800	3.612600	-10.807000	25.435542	0.000406	20.924953
1137.308218	-3.011200	3.613600	-10.880000	25.478114	0.000407	20.925976
1138.307275	-2.988200	3.612400	-10.794000	25.457311	0.000407	20.930216
1139.306104	-3.013400	3.611800	-10.883000	25.446898	0.000404	20.922131
1140.307566	-3.006000	3.612100	-10.857000	25.480472	0.000405	20.913173
1141.306085	-2.990800	3.611800	-10.801000	25.505050	0.000406	20.936429
1142.310001	-3.002800	3.611000	-10.842000	25.498587	0.000406	20.909079
1143.306615	-3.011100	3.611600	-10.874000	25.540064	0.000404	20.934608
1144.306974	-3.003300	3.610200	-10.842000	25.526619	0.000405	20.907358
1145.310209	-2.997600	3.609500	-10.819000	25.479675	0.000403	20.914744
1146.307765	-3.017600	3.608900	-10.889000	25.469437	0.000403	20.907782
1147.310123	-3.006900	3.609600	-10.853000	25.485017	0.000403	20.911099
1148.308426	-3.006300	3.609200	-10.849000	25.468593	0.000402	20.896030
1149.307238	-2.980000	3.609800	-10.757000	25.482334	0.000402	20.915042
1150.309922	-2.997900	3.608900	-10.818000	25.431711	0.000402	20.906408
1151.308067	-3.018400	3.608500	-10.890000	25.404571	0.000402	20.897648
1152.309762	-2.999900	3.607200	-10.820000	25.408573	0.000399	20.892185
1153.308323	-3.006400	3.608100	-10.847000	25.459544	0.000400	20.889789
1154.308378	-3.005600	3.606800	-10.839000	25.482531	0.000401	20.914292
1155.308863	-2.993100	3.606400	-10.793000	25.492871	0.000400	20.913296
1156.309395	-3.023600	3.606600	-10.903000	25.513596	0.000401	20.914668
1157.309361	-2.994100	3.607000	-10.799000	25.470380	0.000402	20.890238
1158.311979	-2.990300	3.607200	-10.786000	25.447940	0.000401	20.910376
1159.310802	-3.006600	3.606800	-10.843000	25.424852	0.000397	20.898574
1160.310198	-3.010700	3.605200	-10.853000	25.459547	0.000397	20.907808
1161.313818	-2.985000	3.606100	-10.763000	25.469313	0.000399	20.889167
1162.313217	-2.995900	3.605600	-10.801000	25.459122	0.000399	20.915915
1163.316919	-3.002700	3.605300	-10.824000	25.461758	0.000398	20.914769
1164.314541	-3.006800	3.605100	-10.839000	25.464986	0.000396	20.901416
1165.315503	-3.014500	3.603100	-10.861000	25.418514	0.000397	20.905485
1166.316212	-3.012200	3.603200	-10.853000	25.425747	0.000395	20.918436
1167.319316	-3.009600	3.603900	-10.846000	25.417520	0.000397	20.892160
1168.320336	-2.993300	3.603700	-10.786000	25.422067	0.000394	20.902889
1169.320520	-3.015600	3.603300	-10.866000	25.443043	0.000395	20.900245
1170.317208	-2.975300	3.603000	-10.719000	25.473510	0.000396	20.904286
1171.317294	-3.030000	3.602100	-10.913000	25.518143	0.000396	20.899321
1172.318819	-2.979400	3.602600	-10.732000	25.526789	0.000390	20.897573
1173.317970	-3.005100	3.602600	-10.825000	25.548111	0.000395	20.915190
1174.320438	-2.991400	3.601200	-10.771000	25.541053	0.000393	20.884872
1175.317239	-3.009800	3.600500	-10.836000	25.493191	0.000391	20.885645
1176.315602	-3.005400	3.599900	-10.817000	25.501740	0.000394	20.893755
1177.319261	-2.994300	3.602200	-10.785000	25.457356	0.000390	20.898970
1178.317880	-2.980600	3.600300	-10.730000	25.409243	0.000391	20.901865
1179.318086	-3.014000	3.600200	-10.850000	25.415306	0.000390	20.885670
1180.315855	-2.992100	3.601300	-10.774000	25.431363	0.000389	20.882828
1181.317552	-3.009000	3.599400	-10.829000	25.447093	0.000390	20.911897
1182.317523	-3.016100	3.599900	-10.857000	25.445005	0.000388	20.900792
1183.316833	-3.005500	3.599000	-10.816000	25.428006	0.000389	20.873293
1184.317950	-2.997600	3.599200	-10.787000	25.397735	0.000388	20.904534
1185.318662	-3.006000	3.598500	-10.816000	25.431061	0.000387	20.879680
1186.317564	-2.999300	3.597000	-10.787000	25.436628	0.000390	20.886217
1187.317385	-2.998000	3.596700	-10.781000	25.427606	0.000388	20.886167
1188.318107	-3.008400	3.597700	-10.823000	25.448085	0.000386	20.898196
1189.317916	-2.988500	3.597000	-10.748000	25.415254	0.000387	20.874713
1190.320357	-2.988500	3.597200	-10.749000	25.441000	0.000387	20.863108
1191.318833	-3.011500	3.596400	-10.830000	25.445672	0.000386	20.880601
1192.320325	-3.017500	3.595700	-10.849000	25.449052	0.000386	20.890633
1193.321461	-3.011100	3.595300	-10.824000	25.457227	0.000385	20.886988
1194.320030	-3.003400	3.595700	-10.798000	25.455263	0.000386	20.880749
1195.321887	-3.026300	3.595100	-10.878000	25.496864	0.000384	20.897393
1196.322323	-3.010000	3.593700	-10.816000	25.518259	0.000385	20.855819
1197.319965	-3.002300	3.595900	-10.794000	25.500217	0.000384	20.874209
1198.319806	-3.015300	3.594100	-10.837000	25.492338	0.000383	20.873884
1199.320518	-3.012800	3.593800	-10.826000	25.509511	0.000383	20.880697
1200.318826	-3.004200	3.592700	-10.792000	25.492188	0.000384	20.893172
1201.321051	-2.994900	3.594400	-10.764000	25.492585	0.000383	20.888356
1202.319818	-3.021000	3.591900	-10.850000	25.481823	0.000384	20.861429
1203.319355	-2.993700	3.593000	-10.755000	25.466215	0.000384	20.886530
1204.322631	-3.003800	3.592300	-10.789000	25.546034	0.000382	20.892719
1205.319736	-3.017600	3.591000	-10.834000	25.548395	0.000382	20.884185
1206.322927	-2.986900	3.593000	-10.731000	25.567328	0.000383	20.879017
1207.319976	-2.995000	3.591200	-10.755000	25.537434	0.000383	20.868436
1208.319921	-3.010600	3.590700	-10.810000	25.530826	0.000383	20.877447
1209.321023	-3.031600	3.590800	-10.885000	25.508010	0.000381	20.858329
1210.321033	-3.015900	3.589500	-10.825000	25.500308	0.000378	20.875249
1211.323647	-3.014000	3.590800	-10.822000	25.535245	0.000382	20.862446
1212.321347	-3.019700	3.589700	-10.839000	25.506467	0.000379	20.868632
1213.323773	-2.992400	3.589200	-10.740000	25.510594	0.000379	20.879888
1214.326650	-3.002600	3.588600	-10.774000	25.516185	0.000380	20.878390
1215.321362	-3.005600	3.589600	-10.788000	25.511711	0.000378	20.859674
1216.324933	-2.994500	3.588900	-10.746000	25.509000	0.000377	20.875443
1217.323492	-2.989800	3.588000	-10.726000	25.520507	0.000379	20.872300
1218.323118	-2.999900	3.588100	-10.763000	25.516480	0.000377	20.878213
1219.324193	-2.993800	3.587600	-10.739000	25.492697	0.000379	20.858124
1220.331090	-2.994000	3.587700	-10.741000	25.488298	0.000378	20.846595
1221.325365	-3.013800	3.586400	-10.807000	25.477885	0.000376	20.867431
1222.324508	-3.005800	3.587400	-10.782000	25.513098	0.000377	20.852059
1223.324314	-3.008400	3.587100	-10.791000	25.465012	0.000376	20.863987
1224.325866	-3.002600	3.585700	-10.766000	25.492545	0.000376	20.859394
1225.325705	-3.027600	3.584800	-10.852000	25.488845	0.000376	20.859471
1226.324751	-3.005000	3.584600	-10.770000	25.518341	0.000377	20.870125
1227.326115	-2.987900	3.585500	-10.712000	25.509321	0.000374	20.850162
1228.325012	-2.981700	3.584700	-10.687000	25.527113	0.000376	20.851434
1229.324498	-2.991500	3.584500	-10.723000	25.535314	0.000375	20.870575
1230.326928	-2.999200	3.585000	-10.751000	25.520130	0.000375	20.878559
1231.324611	-2.993100	3.584600	-10.728000	25.562249	0.000373	20.876761
1232.328807	-2.994700	3.585300	-10.736000	25.573207	0.000372	20.858370
1233.327157	-3.015600	3.583500	-10.805000	25.580189	0.000373	20.865382
1234.324987	-3.004400	3.584400	-10.768000	25.600838	0.000373	20.872843
1235.325294	-3.002400	3.583100	-10.757000	25.593211	0.000373	20.864710
1236.325666	-2.997800	3.582600	-10.739000	25.609586	0.000372	20.857447
1237.326634	-3.008200	3.581200	-10.773000	25.545077	0.000373	20.864258
1238.329238	-2.996900	3.582700	-10.736000	25.520128	0.000371	20.860541
1239.325970	-3.012300	3.582100	-10.789000	25.550370	0.000372	20.845868
1240.326441	-2.995800	3.580900	-10.727000	25.541027	0.000372	20.852606
1241.328973	-2.998500	3.581300	-10.738000	25.519209	0.000372	20.851557
1242.325202	-2.994600	3.581300	-10.724000	25.479323	0.000369	20.848961
1243.330910	-3.008000	3.580400	-10.769000	25.475323	0.000367	20.862487
1244.327160	-3.008000	3.579100	-10.765000	25.501489	0.000366	20.863634
1245.326655	-2.992100	3.580000	-10.711000	25.520502	0.000368	20.869451
1246.325742	-2.983500	3.579000	-10.678000	25.528354	0.000369	20.846517
1247.325800	-2.997200	3.579000	-10.726000	25.527932	0.000366	20.858421
1248.327149	-2.997800	3.577900	-10.725000	25.560360	0.000366	20.845943
1249.331151	-3.013100	3.577500	-10.779000	25.616270	0.000367	20.840454
1250.327149	-2.986500	3.578800	-10.686000	25.587793	0.000366	20.865432
1251.328045	-2.973200	3.578300	-10.638000	25.552286	0.000367	20.844472
1252.328228	-3.022000	3.576300	-10.807000	25.571044	0.000366	20.853828
1253.328126	-2.968000	3.577900	-10.618000	25.562124	0.000364	20.851033
1254.330843	-3.001200	3.578000	-10.738000	25.528629	0.000365	20.824508
1255.328405	-2.982200	3.576800	-10.665000	25.559068	0.000364	20.856025
1256.332372	-3.006100	3.576300	-10.750000	25.572338	0.000364	20.842325
1257.329176	-3.016300	3.576100	-10.785000	25.520525	0.000366	20.860939
1258.329949	-3.021900	3.575600	-10.804000	25.477883	0.000364	20.843723
1259.332361	-3.001100	3.575000	-10.727000	25.476042	0.000365	20.852779
1260.330251	-3.004500	3.575000	-10.740000	25.464933	0.000363	20.857270
1261.329570	-2.990300	3.574800	-10.689000	25.461655	0.000364	20.855400
1262.330983	-2.981400	3.575500	-10.659000	25.510860	0.000362	20.834639
1263.331650	-2.993600	3.574600	-10.700000	25.528799	0.000360	20.845068
1264.333248	-2.983500	3.574700	-10.664000	25.546766	0.000360	20.831817
1265.337233	-3.002600	3.573300	-10.728000	25.525569	0.000361	20.858418
1266.332489	-3.017800	3.572600	-10.780000	25.482578	0.000361	20.835635
1267.334409	-2.963400	3.574300	-10.592000	25.448059	0.000362	20.847912
1268.336003	-2.990400	3.573700	-10.685000	25.454917	0.000359	20.841997
1269.334436	-3.000100	3.573400	-10.719000	25.448082	0.000359	20.837504
1270.337651	-2.979300	3.572400	-10.643000	25.481881	0.000361	20.842047
1271.332912	-2.994900	3.572000	-10.697000	25.516446	0.000360	20.835033
1272.334097	-3.009200	3.572500	-10.750000	25.525467	0.000358	20.827023
1273.337962	-3.023400	3.569900	-10.792000	25.509289	0.000361	20.827372
1274.335274	-2.985200	3.572000	-10.661000	25.521168	0.000359	20.834559
1275.338078	-2.983600	3.570400	-10.652000	25.557298	0.000358	20.836704
1276.335419	-2.986000	3.571600	-10.664000	25.526212	0.000358	20.826823
1277.335456	-3.037500	3.568300	-10.838000	25.562419	0.000354	20.826674
1278.334496	-2.989300	3.570300	-10.672000	25.554413	0.000355	20.831436
1279.335987	-3.006700	3.569800	-10.733000	25.579983	0.000356	20.840046
1280.334988	-3.036900	3.567300	-10.832000	25.602445	0.000357	20.850751
1281.338356	-3.006900	3.569100	-10.731000	25.603140	0.000353	20.811146
1282.334998	-2.992200	3.568900	-10.678000	25.633977	0.000354	20.822202
1283.336499	-2.994900	3.567900	-10.685000	25.645430	0.000355	20.811894
1284.343586	-2.986000	3.567500	-10.652000	25.671220	0.000355	20.836374
1285.338973	-3.001200	3.568400	-10.709000	25.681604	0.000353	20.816458
1286.342177	-2.983200	3.567300	-10.641000	25.652879	0.000353	20.824117
1287.342805	-3.019100	3.567200	-10.769000	25.613075	0.000354	20.809271
1288.340891	-2.995800	3.567100	-10.686000	25.604725	0.000354	20.824592
1289.342227	-2.981500	3.566400	-10.632000	25.571974	0.000352	20.813511
1290.342005	-2.978800	3.567000	-10.625000	25.553438	0.000354	20.821448
1291.344866	-2.990000	3.565100	-10.659000	25.501002	0.000351	20.814783
1292.343059	-2.999000	3.564600	-10.690000	25.505077	0.000350	20.807021
1293.342872	-3.005300	3.564300	-10.710000	25.547595	0.000352	20.829331
1294.343390	-2.995000	3.565500	-10.678000	25.532460	0.000351	20.812235
1295.344176	-3.001600	3.563200	-10.694000	25.556639	0.000350	20.814231
1296.344939	-3.000400	3.563000	-10.690000	25.591973	0.000350	20.817001
1297.344433	-2.985800	3.562200	-10.636000	25.583251	0.000349	20.820094
1298.343679	-2.995600	3.563200	-10.673000	25.577733	0.000351	20.818820
1299.343697	-2.997100	3.563500	-10.679000	25.541254	0.000349	20.809212
1300.344674	-2.979100	3.562400	-10.611000	25.516005	0.000347	20.821788
1301.343372	-3.010400	3.561800	-10.721000	25.495153	0.000349	20.820289
1302.344963	-2.996500	3.561800	-10.672000	25.503679	0.000346	20.808462
1303.344395	-3.001300	3.562000	-10.690000	25.500197	0.000348	20.814449
1304.344059	-3.021900	3.561200	-10.761000	25.504272	0.000349	20.808583
1305.348162	-2.980400	3.561500	-10.614000	25.523853	0.000347	20.793634
1306.346070	-2.975600	3.560800	-10.594000	25.542514	0.000346	20.775865
1307.349028	-2.995900	3.560200	-10.664000	25.537643	0.000348	20.819810
1308.346035	-3.014200	3.559300	-10.728000	25.554342	0.000346	20.816193
1309.346083	-3.014600	3.559500	-10.730000	25.600983	0.000346	20.780531
1310.347678	-3.012300	3.559500	-10.722000	25.555931	0.000347	20.806409
1311.347071	-3.002200	3.559400	-10.685000	25.592185	0.000346	20.817688
1312.350857	-3.009400	3.557500	-10.705000	25.581275	0.000344	20.795825
1313.350224	-2.988600	3.559600	-10.637000	25.599340	0.000343	20.790261
1314.347733	-2.975600	3.558000	-10.586000	25.610398	0.000347	20.798048
1315.347443	-2.994600	3.558200	-10.653000	25.588257	0.000345	20.804734
1316.352692	-3.021200	3.556100	-10.743000	25.585023	0.000343	20.814762
1317.347760	-2.990300	3.558800	-10.641000	25.602046	0.000342	20.803884
1318.351120	-2.977500	3.557300	-10.591000	25.610569	0.000343	20.803435
1319.348281	-2.997400	3.557200	-10.661000	25.570886	0.000343	20.776857
1320.349693	-2.989200	3.557200	-10.632000	25.577993	0.000341	20.818133
1321.349176	-2.982700	3.556600	-10.607000	25.561816	0.000339	20.784817
1322.350125	-3.024900	3.553800	-10.749000	25.512438	0.000341	20.789283
1323.348858	-2.987800	3.555400	-10.622000	25.524217	0.000344	20.796370
1324.348929	-3.028900	3.554600	-10.765000	25.497054	0.000341	20.796120
1325.348742	-3.004800	3.555300	-10.682000	25.502695	0.000342	20.806052
1326.349994	-2.992900	3.554600	-10.638000	25.495640	0.000339	20.797544
1327.350381	-3.015300	3.553000	-10.713000	25.547874	0.000339	20.793101
1328.353692	-3.025500	3.552000	-10.745000	25.609500	0.000341	20.800464
1329.353998	-3.002000	3.552600	-10.663000	25.663367	0.000340	20.794823
1330.352435	-2.995000	3.551400	-10.635000	25.672984	0.000337	20.800688
1331.354778	-2.984200	3.553300	-10.603000	25.658746	0.000336	20.789233
1332.353541	-2.991700	3.551500	-10.623000	25.606368	0.000339	20.777404
1333.352616	-2.994800	3.552700	-10.639000	25.628282	0.000337	20.797991
1334.355070	-3.031700	3.551800	-10.766000	25.619487	0.000336	20.782994
1335.352846	-2.996000	3.551500	-10.640000	25.630493	0.000337	20.788832
1336.353141	-3.019800	3.551500	-10.724000	25.624580	0.000336	20.791428
1337.355043	-3.010000	3.550700	-10.687000	25.578461	0.000338	20.783516
1338.354201	-2.971000	3.550800	-10.548000	25.585370	0.000337	20.794248
1339.356884	-2.993000	3.551000	-10.628000	25.601520	0.000338	20.791027
1340.354685	-2.981400	3.548600	-10.578000	25.595035	0.000338	20.781195
1341.353828	-2.987300	3.549500	-10.603000	25.602786	0.000336	20.780920
1342.353646	-3.016800	3.549300	-10.706000	25.649252	0.000337	20.770214
1343.354296	-2.976400	3.549900	-10.565000	25.652680	0.000335	20.759906
1344.354751	-2.990700	3.547900	-10.610000	25.670199	0.000335	20.776554
1345.356627	-3.011200	3.549300	-10.687000	25.669502	0.000332	20.790079
1346.355929	-2.999800	3.547200	-10.640000	25.670149	0.000333	20.793573
1347.356910	-2.997600	3.546700	-10.630000	25.630666	0.000333	20.788531
1348.359515	-2.989300	3.546700	-10.602000	25.591753	0.000335	20.759407
1349.358195	-2.987600	3.548000	-10.598000	25.625647	0.000332	20.778749
1350.360114	-2.989000	3.546700	-10.600000	25.633625	0.000331	20.786762
1351.359001	-3.003500	3.546600	-10.651000	25.655242	0.000331	20.767221
1352.358744	-3.019800	3.546000	-10.707000	25.662695	0.000331	20.778975
1353.359204	-3.018400	3.545500	-10.701000	25.629771	0.000330	20.780995
1354.359409	-2.992800	3.544900	-10.608000	25.634965	0.000330	20.779572
1355.359272	-2.984700	3.545200	-10.580000	25.618418	0.000330	20.803257
1356.363163	-3.013200	3.544800	-10.680000	25.639438	0.000331	20.785014
1357.358264	-2.998300	3.544900	-10.627000	25.640632	0.000330	20.801860
1358.358885	-2.971300	3.545300	-10.534000	25.631387	0.000328	20.781669
1359.359837	-2.990700	3.544500	-10.599000	25.651315	0.000330	20.753320
1360.362412	-2.999000	3.545000	-10.630000	25.581818	0.000327	20.784516
1361.361072	-2.995300	3.543400	-10.612000	25.588675	0.000328	20.773859
1362.358857	-2.993800	3.543200	-10.606000	25.636456	0.000326	20.780596
1363.359846	-3.012300	3.540900	-10.666000	25.597967	0.000327	20.780821
1364.361537	-3.015700	3.542800	-10.683000	25.611012	0.000327	20.779698
1365.359968	-2.999600	3.542400	-10.625000	25.611781	0.000327	20.788057
1366.360952	-2.991000	3.541900	-10.593000	25.596302	0.000326	20.773932
1367.360754	-3.003800	3.541200	-10.637000	25.621696	0.000326	20.777151
1368.361649	-2.994000	3.540400	-10.599000	25.665376	0.000324	20.787357
1369.363912	-3.011000	3.540200	-10.658000	25.648381	0.000326	20.777874
1370.361483	-2.990900	3.540000	-10.587000	25.646965	0.000324	20.770762
1371.367040	-2.988500	3.540100	-10.578000	25.628800	0.000322	20.782864
1372.361770	-3.005400	3.540200	-10.639000	25.629670	0.000324	20.780892
1373.361177	-2.979400	3.540000	-10.547000	25.589293	0.000324	20.801033
1374.362382	-3.004400	3.539200	-10.633000	25.589588	0.000322	20.794217
1375.362239	-2.984600	3.538200	-10.559000	25.583400	0.000323	20.791322
1376.362941	-3.003300	3.537700	-10.624000	25.622484	0.000322	20.784107
1377.367882	-3.005500	3.536300	-10.627000	25.655431	0.000323	20.792542
1378.362248	-2.998500	3.537200	-10.606000	25.660125	0.000322	20.782083
1379.363016	-2.973900	3.537200	-10.517000	25.711981	0.000321	20.820416
1380.367230	-2.989000	3.536100	-10.569000	25.739309	0.000323	20.796657
1381.364582	-2.976200	3.536900	-10.526000	25.751058	0.000321	20.776690
1382.366271	-2.999700	3.536000	-10.606000	25.679529	0.000321	20.785925
1383.364762	-3.010900	3.536100	-10.645000	25.594128	0.000321	20.787871
1384.366325	-3.012000	3.535100	-10.646000	25.600214	0.000319	20.772646
1385.364289	-2.989300	3.535000	-10.566000	25.587565	0.000322	20.794556
1386.364373	-2.999600	3.535600	-10.605000	25.588307	0.000320	20.792931
1387.369450	-3.016300	3.534400	-10.660000	25.578070	0.000320	20.777908
1388.366325	-3.021000	3.532300	-10.670000	25.520247	0.000320	20.784797
1389.366603	-2.990300	3.533400	-10.564000	25.583089	0.000321	20.785793
1390.365654	-3.004400	3.534100	-10.617000	25.546832	0.000320	20.768347
1391.366342	-2.987900	3.533200	-10.556000	25.569495	0.000319	20.776408
1392.367589	-2.992500	3.533400	-10.573000	25.631987	0.000319	20.777530
1393.368888	-3.015100	3.533200	-10.653000	25.647839	0.000319	20.791080
1394.368016	-3.000900	3.531500	-10.596000	25.610765	0.000318	20.777079
1395.368448	-2.998400	3.532200	-10.590000	25.602292	0.000317	20.795596
1396.368080	-2.977600	3.533100	-10.519000	25.601373	0.000318	20.784241
1397.367966	-2.990600	3.531600	-10.560000	25.639740	0.000319	20.783894
1398.370948	-3.014400	3.531300	-10.644000	25.652235	0.000318	20.795022
1399.367905	-3.005400	3.531400	-10.613000	25.621771	0.000316	20.807099
1400.370202	-3.007000	3.529700	-10.613000	25.552394	0.000318	20.807124
1401.370578	-2.987400	3.528100	-10.538000	25.602340	0.000315	20.795644
1402.370156	-2.993700	3.529400	-10.566000	25.616179	0.000314	20.775878
1403.372816	-3.009300	3.528500	-10.617000	25.655738	0.000316	20.780995
1404.374084	-3.006600	3.528000	-10.606000	25.683341	0.000317	20.797814
1405.371037	-3.008900	3.528400	-10.616000	25.693577	0.000315	20.786284
1406.370775	-2.998800	3.527900	-10.578000	25.672855	0.000315	20.790602
1407.375373	-3.000700	3.528000	-10.585000	25.637126	0.000312	20.775105
1408.372890	-3.006700	3.527200	-10.604000	25.613298	0.000313	20.793848
1409.375858	-2.994600	3.527300	-10.562000	25.647934	0.000312	20.790228
1410.372467	-2.998800	3.526400	-10.573000	25.581267	0.000312	20.806249
1411.373002	-2.999400	3.526800	-10.578000	25.571328	0.000312	20.794844
1412.373456	-2.991000	3.525800	-10.545000	25.540144	0.000314	20.800511
1413.374444	-2.993600	3.525600	-10.553000	25.538005	0.000310	20.790303
1414.376259	-3.012700	3.524600	-10.617000	25.495362	0.000311	20.796317
1415.377042	-2.994300	3.525000	-10.554000	25.507043	0.000311	20.806151
1416.376658	-2.964600	3.526900	-10.455000	25.536963	0.000310	20.792576
1417.377165	-2.986800	3.524400	-10.526000	25.564919	0.000308	20.801685
1418.375992	-2.990100	3.524900	-10.539000	25.624109	0.000311	20.807550
1419.375797	-2.993900	3.522800	-10.546000	25.660833	0.000310	20.801760
1420.379717	-2.993700	3.523900	-10.548000	25.706053	0.000309	20.784590
1421.378911	-2.995700	3.523000	-10.553000	25.749459	0.000308	20.790731
1422.378604	-3.002100	3.523900	-10.579000	25.731371	0.000311	20.819978
1423.381274	-2.999100	3.521700	-10.560000	25.742304	0.000310	20.802984
1424.377770	-2.994400	3.522600	-10.547000	25.699793	0.000310	20.813390
1425.381968	-2.996500	3.522900	-10.555000	25.696416	0.000309	20.804308
1426.377548	-3.022200	3.520400	-10.639000	25.672961	0.000309	20.800665
1427.377308	-3.007300	3.520500	-10.586000	25.672339	0.000307	20.827541
1428.378190	-3.018300	3.519600	-10.622000	25.689012	0.000309	20.818209
1429.377977	-3.018100	3.520200	-10.623000	25.685460	0.000306	20.813219
1430.380514	-3.002300	3.518900	-10.564000	25.724045	0.000308	20.807404
1431.379575	-2.990500	3.520900	-10.529000	25.739473	0.000307	20.802986
1432.379304	-3.003000	3.518400	-10.565000	25.732442	0.000306	20.800665
1433.377276	-3.000700	3.519300	-10.560000	25.711301	0.000307	20.805983
1434.379506	-3.015100	3.517900	-10.606000	25.645981	0.000306	20.823353
1435.379689	-2.997500	3.518800	-10.547000	25.686828	0.000306	20.809378
1436.383795	-2.984000	3.518200	-10.498000	25.681363	0.000308	20.823328
1437.380858	-3.020100	3.517000	-10.621000	25.700766	0.000306	20.798246
1438.382713	-2.986800	3.518000	-10.507000	25.710407	0.000305	20.816939
1439.388032	-2.999300	3.517500	-10.549000	25.721366	0.000305	20.811825
1440.384230	-3.005800	3.517000	-10.571000	25.697164	0.000303	20.813121
1441.390563	-2.999900	3.517000	-10.550000	25.673959	0.000302	20.818737
1442.383331	-3.009300	3.516300	-10.581000	25.708271	0.000304	20.824751
1443.385786	-2.992600	3.516800	-10.524000	25.701762	0.000302	20.823428
1444.386845	-3.000500	3.514600	-10.545000	25.692595	0.000303	20.807583
1445.386693	-3.001700	3.516400	-10.554000	25.718334	0.000302	20.832487
1446.386906	-3.006900	3.515200	-10.570000	25.734037	0.000303	20.823604
1447.391864	-2.977100	3.514400	-10.461000	25.710708	0.000304	20.824354
1448.386819	-3.010600	3.514400	-10.579000	25.771604	0.000303	20.815819
1449.388321	-2.990100	3.514100	-10.507000	25.766634	0.000302	20.827896
1450.391816	-2.997000	3.513900	-10.530000	25.687901	0.000303	20.821361
1451.387928	-2.995600	3.513300	-10.523000	25.658730	0.000301	20.840898
1452.391126	-2.998600	3.513400	-10.535000	25.663700	0.000301	20.820761
1453.387736	-3.003800	3.511400	-10.547000	25.677391	0.000300	20.820287
1454.387430	-3.015000	3.511400	-10.587000	25.670434	0.000302	20.860714
1455.389726	-2.989600	3.511900	-10.499000	25.618899	0.000299	20.829818
1456.389993	-3.014400	3.510200	-10.580000	25.652393	0.000298	20.838801
1457.389128	-2.982300	3.510800	-10.469000	25.652641	0.000299	20.803963
1458.388373	-3.006600	3.509700	-10.551000	25.645586	0.000299	20.831965
1459.389370	-3.011700	3.509100	-10.568000	25.644268	0.000299	20.819261
1460.389249	-2.977600	3.509000	-10.448000	25.707552	0.000298	20.840623
1461.389140	-2.998200	3.508500	-10.518000	25.739178	0.000297	20.828767
1462.389632	-2.987800	3.508500	-10.482000	25.739798	0.000297	20.844562
1463.389306	-3.003400	3.509400	-10.539000	25.782107	0.000296	20.820680
1464.389552	-2.993500	3.508500	-10.502000	25.773785	0.000295	20.843614
1465.391252	-2.996100	3.509300	-10.514000	25.797882	0.000295	20.829887
1466.389396	-3.008800	3.507600	-10.553000	25.800712	0.000294	20.835100
1467.391797	-3.005400	3.508600	-10.544000	25.789383	0.000294	20.843635
1468.390706	-3.031900	3.506600	-10.631000	25.809306	0.000296	20.839466
1469.391794	-2.975100	3.508100	-10.437000	25.821729	0.000294	20.840565
1470.390957	-2.987000	3.507000	-10.474000	25.818424	0.000293	20.824918
1471.395273	-2.985200	3.507400	-10.469000	25.778647	0.000293	20.824317
1472.393432	-3.002600	3.505900	-10.526000	25.797404	0.000293	20.833674
1473.394504	-3.019000	3.506500	-10.586000	25.766846	0.000293	20.842334
1474.391615	-2.989000	3.506200	-10.479000	25.764112	0.000291	20.840536
1475.391785	-2.977100	3.505300	-10.435000	25.782124	0.000294	20.852464
1476.394562	-3.014500	3.505100	-10.565000	25.808980	0.000291	20.832026
1477.390391	-3.009600	3.503800	-10.544000	25.838667	0.000290	20.829131
1478.395326	-2.975500	3.503800	-10.424000	25.821400	0.000291	20.814631
1479.390808	-3.005600	3.503300	-10.529000	25.818791	0.000292	20.849941
1480.393134	-2.991500	3.503500	-10.479000	25.814667	0.000291	20.827782
1481.393799	-2.964600	3.503600	-10.386000	25.772582	0.000290	20.849991
1482.391493	-2.977400	3.502800	-10.428000	25.728232	0.000288	20.857600
1483.393141	-2.989500	3.503600	-10.473000	25.684753	0.000289	20.844276
1484.390587	-2.995100	3.502200	-10.489000	25.685820	0.000287	20.851038
1485.391420	-2.986200	3.500800	-10.452000	25.708505	0.000287	20.840158
1486.395045	-2.991200	3.502700	-10.476000	25.705150	0.000288	20.851013
1487.398111	-2.985900	3.502000	-10.455000	25.687881	0.000286	20.825608
1488.391891	-2.999500	3.499800	-10.497000	25.708800	0.000285	20.852782
1489.394795	-2.996500	3.500400	-10.488000	25.716728	0.000287	20.831348
1490.394427	-3.005400	3.499100	-10.515000	25.702564	0.000287	20.838458
1491.393487	-3.001600	3.500700	-10.507000	25.694811	0.000284	20.856274
1492.396556	-3.023600	3.498900	-10.579000	25.729270	0.000285	20.852953
1493.394857	-3.013100	3.498300	-10.540000	25.764748	0.000286	20.847339
1494.398777	-3.000700	3.498000	-10.496000	25.785889	0.000286	20.865254
1495.397105	-2.981300	3.497400	-10.426000	25.774038	0.000285	20.865203
1496.396557	-2.978400	3.498100	-10.418000	25.734756	0.000284	20.865575
1497.397541	-3.010300	3.497000	-10.526000	25.751525	0.000285	20.853497
1498.397382	-2.992100	3.498400	-10.467000	25.769463	0.000285	20.854445
1499.400393	-2.997800	3.496600	-10.482000	25.763275	0.000282	20.859134
1500.398965	-3.001400	3.496800	-10.494000	25.789484	0.000282	20.864124
1501.396208	-3.014400	3.496100	-10.537000	25.790578	0.000285	20.848628
1502.396475	-3.020000	3.496100	-10.557000	25.835769	0.000282	20.861780
1503.399588	-2.991200	3.496900	-10.460000	25.799620	0.000284	20.850124
1504.397587	-2.992400	3.495700	-10.459000	25.773608	0.000281	20.842962
1505.399834	-2.980000	3.495200	-10.415000	25.748338	0.000284	20.860252
1506.397545	-3.010700	3.494000	-10.518000	25.742923	0.000282	20.846753
1507.396419	-2.992900	3.493400	-10.455000	25.725679	0.000282	20.860726
1508.400063	-3.008600	3.494600	-10.512000	25.723964	0.000282	20.845253
1509.398858	-2.991500	3.494000	-10.451000	25.730645	0.000283	20.869507
1510.407298	-3.011400	3.493100	-10.518000	25.770273	0.000282	20.854310
1511.401944	-3.010700	3.493100	-10.516000	25.745005	0.000282	20.885352
1512.399082	-2.990700	3.492600	-10.444000	25.740856	0.000282	20.845625
1513.399909	-2.983700	3.493300	-10.422000	25.780383	0.000278	20.869206
1514.401486	-3.022700	3.491200	-10.552000	25.803488	0.000281	20.877716
1515.400432	-3.005500	3.490200	-10.488000	25.780855	0.000281	20.856405
1516.405601	-2.987600	3.490600	-10.428000	25.778618	0.000279	20.857477
1517.403227	-2.978100	3.491900	-10.398000	25.809720	0.000280	20.856476
1518.402040	-2.988900	3.490200	-10.431000	25.804727	0.000279	20.877064
1519.405221	-2.993900	3.491800	-10.452000	25.788007	0.000279	20.850313
1520.401400	-2.981600	3.489300	-10.403000	25.757002	0.000278	20.854256
1521.402330	-2.977200	3.490500	-10.391000	25.770591	0.000277	20.875966
1522.402318	-3.011900	3.488300	-10.506000	25.747336	0.000278	20.870625
1523.403328	-2.998100	3.488300	-10.457000	25.737697	0.000278	20.865685
1524.404388	-3.009200	3.488400	-10.496000	25.754991	0.000276	20.871201
1525.403150	-3.000700	3.488200	-10.467000	25.735113	0.000278	20.869253
1526.405483	-2.993000	3.488400	-10.440000	25.711982	0.000279	20.876365
1527.404451	-2.978300	3.487800	-10.387000	25.765051	0.000277	20.869453
1528.405281	-3.010500	3.487900	-10.499000	25.755958	0.000278	20.850363
1529.404793	-3.004100	3.486700	-10.474000	25.738045	0.000277	20.875516
1530.405954	-3.019900	3.485500	-10.525000	25.743736	0.000276	20.876018
1531.407200	-3.005700	3.486500	-10.478000	25.705847	0.000275	20.880159
1532.408837	-2.982800	3.487000	-10.400000	25.711214	0.000276	20.878438
1533.406017	-3.006400	3.485700	-10.479000	25.695039	0.000274	20.886847
1534.405602	-3.003100	3.484500	-10.463000	25.736331	0.000277	20.895131
1535.408886	-2.980800	3.486100	-10.391000	25.700926	0.000275	20.896079
1536.406169	-2.995300	3.485700	-10.439000	25.692554	0.000274	20.876765
1537.410611	-3.016200	3.483200	-10.505000	25.701001	0.000272	20.879086
1538.406769	-2.995000	3.483000	-10.431000	25.721797	0.000274	20.872947
1539.407255	-3.008300	3.484300	-10.481000	25.741200	0.000275	20.894805
1540.407380	-2.999400	3.483200	-10.446000	25.765251	0.000274	20.881032
1541.407660	-3.003800	3.483900	-10.464000	25.759809	0.000272	20.884575
1542.407565	-3.003700	3.482100	-10.459000	25.756628	0.000275	20.886595
1543.410739	-3.000900	3.483000	-10.451000	25.696327	0.000273	20.889089
1544.408636	-2.995100	3.481800	-10.427000	25.664647	0.000272	20.865332
1545.408317	-2.983900	3.483000	-10.392000	25.633312	0.000269	20.869422
1546.413270	-3.009600	3.482100	-10.479000	25.643873	0.000271	20.889037
1547.410874	-3.013200	3.481000	-10.488000	25.708996	0.000273	20.903709
1548.413528	-3.000900	3.481600	-10.447000	25.723058	0.000272	20.897920
1549.409986	-3.009100	3.480000	-10.471000	25.746933	0.000272	20.886814
1550.413896	-2.990500	3.480700	-10.408000	25.767032	0.000271	20.886614
1551.412487	-2.978600	3.481000	-10.367000	25.700472	0.000269	20.896570
1552.412620	-3.020100	3.479000	-10.506000	25.676248	0.000270	20.893577
1553.416609	-2.994600	3.480000	-10.421000	25.679752	0.000270	20.889511
1554.412760	-3.003100	3.479500	-10.449000	25.719329	0.000271	20.895123
1555.412843	-3.032100	3.477200	-10.542000	25.759132	0.000271	20.918505
1556.414289	-3.004100	3.477700	-10.447000	25.753964	0.000269	20.905255
1557.414574	-2.991400	3.478500	-10.404000	25.745170	0.000269	20.896896
1558.415036	-2.992400	3.478800	-10.409000	25.754883	0.000268	20.887688
1559.418070	-3.008000	3.477900	-10.461000	25.790309	0.000267	20.904779
1560.415653	-3.000500	3.478100	-10.435000	25.775776	0.000268	20.910094
1561.416910	-3.017800	3.477000	-10.492000	25.797292	0.000269	20.912266
1562.416551	-3.004100	3.475800	-10.439000	25.787479	0.000267	20.890083
1563.419637	-2.982600	3.477200	-10.369000	25.782112	0.000266	20.903183
1564.420996	-2.997700	3.475500	-10.418000	25.834509	0.000267	20.877108
1565.419646	-2.993700	3.475900	-10.405000	25.831082	0.000267	20.876985
1566.419273	-2.999700	3.475300	-10.423000	25.824669	0.000265	20.909896
1567.419561	-3.017900	3.475200	-10.487000	25.769964	0.000265	20.906627
1568.419664	-3.021500	3.472800	-10.492000	25.775381	0.000265	20.918705
1569.419565	-3.005900	3.472800	-10.438000	25.794164	0.000264	20.915288
1570.422838	-3.009600	3.474600	-10.456000	25.818286	0.000265	20.926715
1571.419729	-3.003200	3.474200	-10.432000	25.797837	0.000263	20.926088
1572.418500	-2.984100	3.474400	-10.367000	25.777987	0.000263	20.904729
1573.421613	-2.991400	3.472200	-10.385000	25.796072	0.000263	20.915782
1574.419487	-2.988300	3.473500	-10.378000	25.790162	0.000262	20.897045
1575.424471	-3.006400	3.471500	-10.435000	25.735853	0.000263	20.916934
1576.420011	-2.982100	3.472500	-10.354000	25.661089	0.000263	20.918179
1577.421854	-3.022600	3.470100	-10.488000	25.695081	0.000262	20.922448
1578.421664	-3.028200	3.470300	-10.508000	25.685937	0.000263	20.907101
1579.423623	-2.990400	3.470100	-10.376000	25.689315	0.000261	20.906226
1580.424764	-2.998500	3.470900	-10.406000	25.709268	0.000262	20.903509
1581.422444	-2.985800	3.469500	-10.359000	25.762858	0.000263	20.915136
1582.423881	-3.003600	3.469300	-10.419000	25.828622	0.000260	20.932830
1583.424414	-3.011300	3.469200	-10.446000	25.771382	0.000262	20.919430
1584.424359	-2.991000	3.468400	-10.373000	25.765170	0.000260	20.919355
1585.423890	-3.010700	3.469300	-10.444000	25.801817	0.000261	20.930560
1586.426465	-2.994400	3.468200	-10.384000	25.773272	0.000257	20.919432
1587.428897	-2.996200	3.468600	-10.392000	25.762887	0.000257	20.917535
1588.425473	-2.996600	3.467600	-10.389000	25.739284	0.000257	20.938870
1589.430971	-2.992500	3.466700	-10.372000	25.766414	0.000257	20.929611
1590.426081	-2.994500	3.467600	-10.382000	25.741223	0.000258	20.919956
1591.426787	-2.979600	3.468300	-10.332000	25.782615	0.000256	20.951098
1592.427048	-3.017000	3.466000	-10.456000	25.785844	0.000255	20.940593
1593.427619	-3.003700	3.466800	-10.413000	25.763161	0.000254	20.920181
1594.429058	-2.974100	3.467600	-10.311000	25.714117	0.000256	20.937773
1595.428121	-3.003200	3.466900	-10.410000	25.730713	0.000254	20.921253
1596.431257	-3.013400	3.465300	-10.441000	25.756578	0.000252	20.938222
1597.428394	-2.992000	3.464100	-10.364000	25.830886	0.000255	20.939371
1598.434165	-3.007300	3.464900	-10.419000	25.881116	0.000254	20.919183
1599.429534	-2.981100	3.464400	-10.327000	25.882607	0.000256	20.949126
1600.431075	-2.995600	3.463100	-10.373000	25.865393	0.000256	20.938947
1601.432047	-2.986300	3.464400	-10.344000	25.910355	0.000253	20.922477
1602.432187	-2.991500	3.464300	-10.362000	25.920811	0.000253	20.949099
1603.431459	-3.000400	3.464000	-10.392000	25.878534	0.000253	20.948828
1604.434637	-3.002700	3.462000	-10.395000	25.899574	0.000252	20.948153
1605.434222	-3.020400	3.461200	-10.454000	25.820277	0.000254	20.963324
1606.431100	-3.009700	3.460200	-10.413000	25.791509	0.000254	20.939644
1607.433771	-3.006400	3.460000	-10.401000	25.809096	0.000252	20.942612
1608.430786	-3.001900	3.461300	-10.390000	25.792528	0.000252	20.941616
1609.431682	-2.981500	3.460900	-10.317000	25.801471	0.000253	20.932583
1610.429536	-2.987200	3.461800	-10.340000	25.829668	0.000252	20.967067
1611.431306	-3.014300	3.460000	-10.429000	25.844897	0.000253	20.930687
1612.431520	-3.005700	3.460300	-10.400000	25.859009	0.000251	20.960980
1613.435554	-3.005000	3.459800	-10.396000	25.883576	0.000251	20.952470
1614.430984	-2.999500	3.459700	-10.376000	25.830464	0.000251	20.939895
1615.430961	-2.996300	3.458600	-10.363000	25.845616	0.000250	20.943736
1616.433016	-3.004800	3.458600	-10.391000	25.878234	0.000250	20.927193
1617.431330	-2.997900	3.460900	-10.375000	25.907300	0.000251	20.927942
1618.433168	-3.025300	3.457300	-10.458000	25.913113	0.000251	20.940419
1619.430302	-3.007600	3.456900	-10.397000	25.912392	0.000251	20.961977
1620.431234	-3.013100	3.457800	-10.418000	25.843258	0.000248	20.961753
1621.431201	-3.013600	3.456400	-10.416000	25.803384	0.000248	20.955365
1622.431870	-2.963700	3.458100	-10.246000	25.759038	0.000248	20.933107
1623.433462	-2.974700	3.457700	-10.284000	25.818414	0.000248	20.963349
1624.431372	-3.003300	3.456400	-10.379000	25.797967	0.000249	20.918160
1625.432245	-3.013300	3.455900	-10.412000	25.755112	0.000248	20.921104
1626.431737	-2.974000	3.454000	-10.271000	25.741697	0.000246	20.932758
1627.433005	-3.004200	3.456000	-10.382000	25.788527	0.000246	20.956087
1628.439093	-3.002500	3.454500	-10.371000	25.837049	0.000249	20.928494
1629.434687	-3.004100	3.454500	-10.377000	25.824353	0.000248	20.933757
1630.435874	-2.982000	3.455900	-10.304000	25.820404	0.000245	20.911301
1631.435959	-2.999600	3.454500	-10.361000	25.844427	0.000249	20.933533
1632.437314	-3.007100	3.452900	-10.383000	25.779435	0.000247	20.927992
1633.435519	-3.007300	3.452000	-10.381000	25.759809	0.000247	20.928667
1634.440016	-2.997000	3.453000	-10.347000	25.759586	0.000245	20.913746
1635.435008	-2.977000	3.452500	-10.277000	25.764579	0.000243	20.928243
1636.435215	-3.006600	3.452100	-10.379000	25.800828	0.000243	20.919137
1637.434677	-2.991000	3.451500	-10.323000	25.825051	0.000243	20.932562
1638.434845	-3.002900	3.451900	-10.365000	25.787884	0.000245	20.917040
1639.438382	-2.982800	3.451300	-10.294000	25.801400	0.000243	20.905962
1640.435863	-2.998800	3.452000	-10.351000	25.810541	0.000242	20.909928
1641.435165	-2.997500	3.451500	-10.345000	25.773970	0.000243	20.931512
1642.441129	-2.994300	3.450100	-10.330000	25.801598	0.000241	20.914694
1643.435992	-3.020700	3.450500	-10.422000	25.771015	0.000244	20.912898
1644.439253	-2.997100	3.451300	-10.343000	25.789325	0.000241	20.909953
1645.437794	-3.014000	3.449900	-10.397000	25.747835	0.000241	20.908581
1646.436873	-2.988100	3.449400	-10.306000	25.746643	0.000241	20.932986
1647.437227	-2.974900	3.449000	-10.259000	25.787038	0.000240	20.918561
1648.436851	-2.999100	3.448500	-10.341000	25.801250	0.000241	20.925250
1649.437729	-2.994800	3.447300	-10.323000	25.844003	0.000242	20.913195
1650.437160	-2.987100	3.449400	-10.303000	25.873716	0.000240	20.900371
1651.438058	-3.001000	3.446400	-10.342000	25.862612	0.000239	20.913397
1652.436810	-2.991800	3.448700	-10.317000	25.888845	0.000239	20.916042
1653.437528	-2.997500	3.447800	-10.334000	25.917238	0.000241	20.899523
1654.439243	-3.009600	3.446200	-10.371000	25.888398	0.000237	20.911800
1655.443283	-3.028100	3.445000	-10.431000	25.831458	0.000238	20.920033
1656.439195	-3.006000	3.446800	-10.359000	25.881191	0.000240	20.905509
1657.440421	-2.980700	3.446500	-10.273000	25.831533	0.000240	20.891187
1658.441286	-3.007300	3.446600	-10.364000	25.903799	0.000237	20.884126
1659.441101	-3.010000	3.445400	-10.370000	25.921410	0.000237	20.898972
1660.441675	-2.992200	3.444800	-10.307000	25.940139	0.000239	20.900718
1661.441164	-2.995600	3.444200	-10.316000	25.947418	0.000239	20.882428
1662.441092	-2.988500	3.443800	-10.291000	25.924192	0.000234	20.898448
1663.441597	-2.990800	3.445500	-10.304000	25.898183	0.000236	20.891760
1664.443303	-3.029200	3.443400	-10.430000	25.902231	0.000235	20.910524
1665.445839	-3.001300	3.444500	-10.336000	25.897012	0.000234	20.883947
1666.446519	-3.015600	3.443800	-10.385000	25.899572	0.000233	20.882251
1667.443400	-2.995200	3.441700	-10.308000	25.901832	0.000236	20.895426
1668.446450	-3.011700	3.442400	-10.367000	25.881137	0.000234	20.891232
1669.445793	-2.997100	3.442000	-10.315000	25.883697	0.000235	20.924620
1670.443848	-2.989200	3.442600	-10.290000	25.850482	0.000234	20.889360
1671.445967	-3.020400	3.440500	-10.391000	25.928013	0.000232	20.882374
1672.444081	-3.015700	3.440100	-10.373000	25.925182	0.000234	20.878581
1673.444518	-3.016400	3.441100	-10.379000	25.949674	0.000231	20.904607
1674.445677	-2.984600	3.441300	-10.271000	25.913430	0.000234	20.872940
1675.443470	-3.012200	3.439400	-10.360000	25.869161	0.000233	20.881098
1676.447574	-3.023500	3.440700	-10.402000	25.882404	0.000233	20.900090
1677.449993	-2.999500	3.439000	-10.315000	25.924782	0.000234	20.915635
1678.444930	-2.983000	3.439200	-10.258000	25.950816	0.000231	20.863557
1679.444146	-2.994400	3.438500	-10.295000	25.910748	0.000231	20.875935
1680.444821	-3.004900	3.437700	-10.329000	25.890328	0.000233	20.899989
1681.446123	-2.998600	3.438700	-10.311000	25.848942	0.000234	20.894925
1682.448605	-2.974300	3.439500	-10.229000	25.888342	0.000230	20.872866
1683.447026	-3.012000	3.436500	-10.350000	25.907269	0.000232	20.880501
1684.446732	-2.990900	3.438000	-10.281000	25.951660	0.000231	20.878629
1685.451414	-2.982000	3.437900	-10.251000	25.936657	0.000228	20.883471
1686.448626	-2.985900	3.437200	-10.262000	25.923863	0.000229	20.905230
1687.450221	-3.012100	3.436600	-10.350000	25.843425	0.000229	20.871841
1688.451901	-2.969500	3.436600	-10.204000	25.834484	0.000229	20.859067
1689.449944	-3.014200	3.435700	-10.354000	25.815751	0.000227	20.908523
1690.450669	-3.010200	3.435800	-10.341000	25.822060	0.000229	20.868871
1691.451043	-2.995200	3.434800	-10.287000	25.785787	0.000228	20.880323
1692.452390	-3.004900	3.434000	-10.319000	25.854454	0.000227	20.853050
1693.452210	-3.002600	3.435900	-10.316000	25.887047	0.000230	20.876307
1694.454517	-2.967800	3.435000	-10.193000	25.909675	0.000226	20.867271
1695.454140	-2.967000	3.435300	-10.191000	25.899441	0.000226	20.852250
1696.453275	-3.001800	3.432900	-10.304000	25.952425	0.000228	20.879872
1697.452574	-2.999900	3.432300	-10.296000	25.956026	0.000228	20.882542
1698.454924	-3.001600	3.434100	-10.307000	25.967551	0.000226	20.870887
1699.452950	-2.998200	3.433000	-10.292000	25.924080	0.000227	20.885061
1700.454813	-3.012800	3.431800	-10.338000	25.863292	0.000224	20.882788
1701.454041	-3.009300	3.432300	-10.328000	25.817854	0.000226	20.868914
1702.454274	-2.992000	3.432600	-10.270000	25.785829	0.000224	20.857608
1703.460358	-2.992100	3.432100	-10.269000	25.814746	0.000225	20.873377
1704.455664	-2.991600	3.431900	-10.266000	25.821626	0.000223	20.875548
1705.454532	-3.002100	3.430200	-10.297000	25.832730	0.000225	20.875796
1706.454969	-3.000400	3.430100	-10.291000	25.839809	0.000222	20.868208
1707.455546	-3.019500	3.428000	-10.349000	25.830889	0.000223	20.846921
1708.457879	-2.994300	3.429500	-10.268000	25.807809	0.000223	20.871152
1709.458875	-2.994200	3.429700	-10.268000	25.850688	0.000223	20.870128
1710.455029	-2.993000	3.428800	-10.262000	25.929608	0.000223	20.840356
1711.456945	-2.990300	3.429300	-10.254000	25.908469	0.000223	20.868904
1712.460006	-2.989700	3.429000	-10.251000	25.902556	0.000224	20.878610
1713.455808	-2.998400	3.428400	-10.279000	25.916168	0.000222	20.842027
1714.459674	-3.012000	3.427600	-10.323000	25.929157	0.000222	20.851283
1715.457256	-3.014000	3.427200	-10.327000	25.947762	0.000222	20.848636
1716.457166	-3.008000	3.425700	-10.303000	25.973123	0.000221	20.860839
1717.458944	-2.983200	3.425800	-10.219000	25.962890	0.000220	20.868575
1718.458137	-2.999900	3.426300	-10.278000	25.962788	0.000221	20.857094
1719.458798	-3.001600	3.424500	-10.279000	25.980797	0.000219	20.871867
1720.460362	-3.001800	3.426300	-10.284000	25.992793	0.000219	20.864479
1721.459502	-3.004000	3.424600	-10.286000	25.943635	0.000219	20.852551
1722.458930	-2.997000	3.424200	-10.262000	25.918993	0.000219	20.867623
1723.459810	-3.012400	3.424100	-10.314000	25.906422	0.000218	20.862581
1724.461307	-2.991400	3.426100	-10.248000	25.956102	0.000216	20.858437
1725.462665	-2.998200	3.423600	-10.263000	25.943879	0.000218	20.854693
1726.459834	-3.024700	3.423600	-10.354000	25.938885	0.000217	20.846357
1727.461661	-2.995800	3.424300	-10.257000	25.969116	0.000215	20.835951
1728.463058	-2.996700	3.423400	-10.258000	25.969041	0.000214	20.849626
1729.463368	-2.999400	3.423700	-10.268000	25.957712	0.000216	20.849624
1730.469570	-3.006100	3.422000	-10.286000	25.984441	0.000213	20.862252
1731.463639	-2.992400	3.422400	-10.240000	25.990102	0.000213	20.849449
1732.463132	-3.023400	3.421100	-10.341000	25.970008	0.000214	20.853916
1733.464046	-3.008900	3.421800	-10.296000	26.002173	0.000215	20.853515
1734.465035	-3.003800	3.422800	-10.280000	25.969060	0.000214	20.843482
1735.464599	-3.005800	3.421400	-10.283000	25.958777	0.000214	20.848323
1736.467815	-3.013300	3.419800	-10.304000	25.973655	0.000212	20.859951
1737.465555	-3.021700	3.419900	-10.333000	25.968959	0.000214	20.854759
1738.465370	-3.004600	3.419500	-10.273000	25.880874	0.000212	20.841658
1739.469081	-3.005900	3.419500	-10.278000	25.913315	0.000213	20.838687
1740.464887	-2.993600	3.418700	-10.234000	25.936292	0.000211	20.853708
1741.469565	-2.974900	3.420100	-10.173000	25.902582	0.000212	20.850189
1742.465691	-3.013500	3.419400	-10.303000	25.934377	0.000210	20.835190
1743.466671	-3.009400	3.417900	-10.285000	25.878610	0.000211	20.844126
1744.466433	-3.001800	3.418000	-10.259000	25.925260	0.000210	20.819868
1745.467212	-3.005100	3.417500	-10.269000	25.922950	0.000210	20.838883
1746.469333	-2.977700	3.417900	-10.175000	25.956084	0.000211	20.846566
1747.470011	-3.010600	3.416900	-10.286000	26.021660	0.000212	20.845593
1748.470198	-2.996700	3.416700	-10.238000	25.995032	0.000212	20.847763
1749.470487	-2.992900	3.417500	-10.227000	26.041775	0.000211	20.833561
1750.469934	-2.997000	3.416100	-10.237000	26.076994	0.000210	20.853299
1751.470634	-3.000700	3.416500	-10.251000	26.033130	0.000208	20.822505
1752.471044	-3.008400	3.415900	-10.275000	26.008538	0.000209	20.848531
1753.471672	-2.997800	3.416000	-10.239000	26.028009	0.000209	20.842963
1754.471128	-3.021600	3.414700	-10.317000	25.989906	0.000209	20.848778
1755.473437	-3.000000	3.414800	-10.244000	25.903410	0.000208	20.835849
1756.473017	-3.008300	3.412200	-10.264000	25.896505	0.000209	20.829386
1757.478817	-2.986200	3.414300	-10.195000	25.880456	0.000207	20.844083
1758.473277	-2.960400	3.414700	-10.108000	25.873871	0.000206	20.833201
1759.472496	-3.013200	3.413900	-10.285000	25.887258	0.000206	20.826261
1760.473005	-2.977400	3.413900	-10.163000	25.949087	0.000206	20.830054
1761.473989	-2.988300	3.412500	-10.196000	25.984332	0.000207	20.832273
1762.475573	-3.000900	3.413200	-10.242000	26.003508	0.000209	20.822140
1763.475413	-2.975600	3.412800	-10.154000	26.033660	0.000207	20.827778
1764.474376	-3.006200	3.412500	-10.258000	26.035572	0.000205	20.816424
1765.474084	-3.004800	3.411400	-10.249000	25.993444	0.000207	20.818668
1766.475257	-2.982300	3.412600	-10.177000	26.012767	0.000207	20.828598
1767.475040	-3.005100	3.411000	-10.249000	25.942966	0.000206	20.814896
1768.476133	-2.979700	3.412000	-10.165000	25.979207	0.000202	20.839925
1769.475776	-3.026300	3.410600	-10.320000	25.991029	0.000203	20.818612
1770.474937	-3.010700	3.409200	-10.264000	25.937226	0.000205	20.829992
1771.476829	-2.986400	3.410800	-10.186000	25.931536	0.000204	20.837077
1772.475523	-3.006500	3.408500	-10.247000	25.906744	0.000205	20.814542
1773.481043	-3.022100	3.408900	-10.301000	25.889900	0.000202	20.813742
1774.479439	-2.979000	3.410500	-10.159000	25.899985	0.000204	20.820080
1775.477271	-2.988400	3.408600	-10.186000	25.910641	0.000203	20.829362
1776.478679	-2.991400	3.408000	-10.193000	25.941991	0.000201	20.816287
1777.478657	-2.973100	3.408600	-10.133000	25.993879	0.000202	20.827639
1778.479302	-2.975000	3.409200	-10.141000	26.002349	0.000203	20.814338
1779.482890	-3.009500	3.407500	-10.253000	26.008235	0.000202	20.814088
1780.479034	-2.996600	3.406000	-10.206000	26.034937	0.000200	20.824795
1781.481104	-3.015000	3.406500	-10.270000	26.006422	0.000201	20.806103
1782.484616	-2.998300	3.406300	-10.212000	26.029447	0.000201	20.809321
1783.481223	-3.004000	3.406500	-10.232000	26.042091	0.000201	20.812068
1784.483781	-2.996500	3.405700	-10.205000	26.038316	0.000202	20.805904
1785.481341	-3.010000	3.404500	-10.247000	26.004933	0.000198	20.825469
1786.481438	-3.020400	3.404700	-10.283000	26.044251	0.000200	20.788160
1787.480797	-2.982000	3.403800	-10.149000	26.017626	0.000200	20.825419
1788.483747	-3.004600	3.404000	-10.227000	26.014048	0.000197	20.810919
1789.483901	-3.002900	3.404200	-10.222000	26.023362	0.000198	20.796569
1790.484623	-3.008700	3.404100	-10.241000	26.032428	0.000199	20.807101
1791.485601	-2.998800	3.403700	-10.207000	26.028106	0.000197	20.825992
1792.486429	-2.979300	3.404100	-10.140000	25.967300	0.000196	20.824644
1793.489748	-3.004700	3.403300	-10.225000	25.959350	0.000198	20.793898
1794.488222	-3.007600	3.403300	-10.234000	25.929593	0.000197	20.805254
1795.489036	-3.004500	3.402400	-10.222000	25.906341	0.000194	20.832156
1796.488783	-3.017400	3.400800	-10.260000	25.875737	0.000197	20.815162
1797.489472	-2.992300	3.400500	-10.174000	25.938461	0.000195	20.791404
1798.492452	-2.995300	3.402000	-10.189000	25.956395	0.000196	20.814637
1799.491690	-2.998600	3.399900	-10.194000	25.944719	0.000196	20.820451
1800.496221	-3.000600	3.400300	-10.201000	25.949168	0.000194	20.791729
1801.494043	-2.995600	3.400300	-10.184000	25.971176	0.000194	20.807675
1802.492524	-2.978100	3.400300	-10.125000	25.988786	0.000194	20.817307
1803.494021	-3.013400	3.399200	-10.242000	26.026664	0.000195	20.799887
1804.493978	-2.987100	3.399300	-10.154000	26.074876	0.000194	20.809921
1805.495621	-2.961300	3.399800	-10.067000	26.077880	0.000195	20.786861
1806.498138	-3.016300	3.398800	-10.251000	26.023859	0.000192	20.803233
1807.494165	-2.973700	3.400100	-10.110000	26.021597	0.000195	20.796219
1808.493918	-2.989500	3.398400	-10.159000	26.038562	0.000193	20.799513
1809.496040	-2.992300	3.398300	-10.168000	26.013425	0.000196	20.791327
1810.494090	-3.003000	3.396700	-10.200000	26.029892	0.000193	20.800286
1811.497826	-2.988200	3.398000	-10.153000	26.041119	0.000191	20.793073
1812.494687	-2.982500	3.397300	-10.131000	26.051925	0.000191	20.791603
1813.495542	-2.999800	3.396900	-10.189000	26.035358	0.000190	20.789656
1814.494225	-3.003200	3.397700	-10.202000	26.042262	0.000194	20.800860
1815.494810	-3.004100	3.395100	-10.198000	26.092012	0.000191	20.783991
1816.497692	-3.000800	3.397400	-10.194000	26.053239	0.000191	20.789604
1817.496468	-3.006500	3.395300	-10.208000	26.039009	0.000192	20.814661
1818.496059	-3.005600	3.394000	-10.201000	26.023907	0.000188	20.780522
1819.498672	-3.000500	3.394500	-10.184000	26.013848	0.000189	20.813090
1820.496781	-3.005000	3.395500	-10.202000	25.956768	0.000190	20.828287
1821.500731	-2.991200	3.394500	-10.152000	25.968070	0.000189	20.809296
1822.497008	-2.987400	3.394100	-10.138000	26.046312	0.000189	20.799239
1823.498178	-3.010800	3.392200	-10.212000	26.060792	0.000189	20.813313
1824.496166	-3.018200	3.393600	-10.241000	26.099935	0.000190	20.795271
1825.497893	-2.993800	3.393200	-10.158000	26.088907	0.000188	20.789405
1826.499700	-3.007200	3.392600	-10.201000	26.089229	0.000186	20.793997
1827.499574	-2.981600	3.392900	-10.115000	26.084213	0.000187	20.803655
1828.497575	-3.008800	3.391500	-10.203000	26.052894	0.000188	20.794473
1829.498333	-2.968500	3.393300	-10.072000	26.057909	0.000187	20.797615
1830.501967	-2.988300	3.391800	-10.135000	26.156063	0.000185	20.795718
1831.497636	-3.017200	3.390800	-10.230000	26.163215	0.000185	20.798638
1832.500465	-2.998000	3.391100	-10.166000	26.157877	0.000185	20.814136
1833.496878	-2.976900	3.390400	-10.092000	26.108053	0.000185	20.798212
1834.497087	-3.014900	3.389400	-10.217000	26.099039	0.000186	20.798638
1835.498849	-3.002300	3.389400	-10.175000	26.042533	0.000185	20.804926
1836.499740	-3.004800	3.389100	-10.182000	26.014118	0.000185	20.796291
1837.500899	-2.989100	3.388900	-10.129000	26.002519	0.000184	20.816405
1838.498365	-3.003900	3.388900	-10.179000	26.048444	0.000183	20.792372
1839.497194	-3.000800	3.388900	-10.168000	26.097992	0.000184	20.785732
1840.500200	-3.007500	3.388000	-10.189000	26.112721	0.000184	20.775875
1841.499764	-3.028700	3.387500	-10.258000	26.104973	0.000182	20.786108
1842.501574	-3.008000	3.386300	-10.185000	26.030557	0.000182	20.792893
1843.497873	-3.007500	3.387800	-10.188000	26.084703	0.000182	20.800829
1844.497236	-3.012900	3.386300	-10.201000	26.103057	0.000181	20.780864
1845.499535	-3.008900	3.386900	-10.191000	26.124816	0.000180	20.799882
1846.499473	-3.004200	3.387000	-10.173000	26.091657	0.000182	20.782685
1847.505240	-3.001400	3.386100	-10.161000	26.086168	0.000180	20.792344
1848.506467	-3.015500	3.384700	-10.206000	26.038927	0.000180	20.806044
1849.500139	-2.986000	3.386300	-10.111000	26.035921	0.000179	20.778368
1850.500212	-2.995100	3.384000	-10.135000	26.093941	0.000178	20.789723
1851.505780	-2.990800	3.383200	-10.118000	26.091680	0.000178	20.774648
1852.501398	-2.998800	3.384700	-10.150000	26.032618	0.000178	20.789274
1853.501406	-3.010400	3.383700	-10.185000	25.960708	0.000179	20.785779
1854.502248	-3.018100	3.382300	-10.207000	25.963736	0.000178	20.788821
1855.502250	-3.011600	3.383000	-10.187000	26.026803	0.000178	20.787225
1856.505305	-3.024000	3.381100	-10.223000	26.032566	0.000179	20.789696
1857.502714	-3.006600	3.381700	-10.166000	26.046350	0.000177	20.795959
1858.506373	-3.000600	3.383300	-10.151000	26.020544	0.000178	20.778091
1859.504103	-2.994200	3.381600	-10.124000	26.033161	0.000178	20.791242
1860.503481	-3.001600	3.382900	-10.153000	26.066842	0.000178	20.795211
1861.502729	-2.979500	3.382300	-10.077000	26.079583	0.000177	20.796633
1862.503394	-3.013100	3.379900	-10.182000	26.066740	0.000176	20.786100
1863.506028	-2.996200	3.381600	-10.131000	26.064557	0.000177	20.794337
1864.504256	-2.993500	3.381100	-10.121000	26.044909	0.000174	20.794985
1865.506635	-3.017800	3.379700	-10.199000	26.039793	0.000177	20.786525
1866.505424	-2.994300	3.380700	-10.122000	26.042899	0.000177	20.786801
1867.504445	-3.012300	3.379300	-10.179000	26.078763	0.000175	20.771152
1868.504014	-2.988800	3.381400	-10.106000	26.103351	0.000176	20.784479
1869.508832	-3.021400	3.378800	-10.208000	26.085893	0.000175	20.801550
1870.505746	-3.012400	3.377500	-10.174000	26.090313	0.000177	20.790344
1871.504933	-3.011300	3.377900	-10.171000	26.064879	0.000175	20.809834
1872.506666	-3.018000	3.379000	-10.197000	26.026802	0.000173	20.793862
1873.504578	-2.998800	3.377400	-10.127000	26.046425	0.000173	20.786551
1874.506119	-3.017300	3.376100	-10.186000	26.099279	0.000174	20.786551
1875.505787	-2.980400	3.378200	-10.068000	26.168446	0.000176	20.781609
1876.505652	-2.986200	3.378500	-10.088000	26.214366	0.000175	20.798828
1877.506120	-2.984300	3.376900	-10.076000	26.240687	0.000173	20.798253
1878.507798	-2.997700	3.376800	-10.122000	26.272948	0.000173	20.804119
1879.510486	-3.031800	3.374400	-10.229000	26.258371	0.000174	20.778091
1880.508443	-2.996600	3.376700	-10.118000	26.237609	0.000173	20.785202
1881.511462	-3.015000	3.374600	-10.173000	26.161416	0.000172	20.793985
1882.510712	-2.980900	3.375200	-10.060000	26.106927	0.000172	20.783330
1883.510616	-3.005400	3.375500	-10.144000	26.102607	0.000168	20.808387
1884.511214	-2.980000	3.375300	-10.057000	26.073000	0.000171	20.814674
1885.513206	-2.998200	3.374700	-10.117000	26.082240	0.000170	20.780811
1886.511876	-2.991200	3.374300	-10.092000	26.053304	0.000168	20.799152
1887.511998	-3.015800	3.372300	-10.168000	26.029185	0.000171	20.787721
1888.513134	-3.000900	3.372700	-10.121000	26.034824	0.000172	20.788646
1889.513577	-2.986300	3.373300	-10.073000	26.036513	0.000172	20.813576
1890.514701	-3.009600	3.372200	-10.147000	26.037978	0.000169	20.817419
1891.514197	-2.992600	3.371400	-10.088000	26.066568	0.000170	20.805841
1892.514982	-2.989900	3.370700	-10.077000	26.120637	0.000169	20.801847
1893.512790	-3.008000	3.372200	-10.143000	26.105088	0.000169	20.774844
1894.512982	-2.972600	3.371900	-10.021000	26.070689	0.000167	20.802869
1895.513968	-3.009300	3.370700	-10.142000	26.072850	0.000168	20.797929
1896.515545	-2.994900	3.370700	-10.093000	26.099797	0.000169	20.831167
1897.513440	-2.969500	3.371100	-10.010000	26.162234	0.000168	20.805712
1898.512962	-3.021300	3.368600	-10.176000	26.201795	0.000170	20.813223
1899.517761	-2.989700	3.369700	-10.074000	26.192410	0.000167	20.794309
1900.514270	-3.021500	3.369000	-10.178000	26.222284	0.000166	20.813424
1901.519623	-2.988000	3.370000	-10.068000	26.188459	0.000165	20.801719
1902.513043	-2.991700	3.370100	-10.082000	26.174775	0.000166	20.805038
1903.513076	-3.013700	3.368600	-10.151000	26.182748	0.000165	20.821110
1904.513627	-3.007300	3.367800	-10.127000	26.169285	0.000164	20.802841
1905.514108	-2.991600	3.368900	-10.077000	26.173010	0.000164	20.814170
1906.513512	-3.008100	3.367600	-10.129000	26.185601	0.000164	20.789838
1907.514128	-2.981300	3.367800	-10.038000	26.136327	0.000164	20.803388
1908.513509	-3.005600	3.367700	-10.121000	26.132725	0.000161	20.793605
1909.514125	-2.987000	3.366800	-10.056000	26.173208	0.000164	20.824326
1910.513537	-2.985900	3.365700	-10.049000	26.175988	0.000163	20.829490
1911.514708	-2.991100	3.366400	-10.069000	26.216815	0.000163	20.802238
1912.518742	-2.987200	3.364400	-10.049000	26.222253	0.000162	20.817185
1913.513690	-2.988900	3.366100	-10.060000	26.207948	0.000161	20.820828
1914.514297	-3.007900	3.364800	-10.119000	26.249495	0.000163	20.814215
1915.516846	-2.989100	3.364400	-10.056000	26.182094	0.000161	20.826142
1916.515672	-3.007100	3.365100	-10.118000	26.173974	0.000163	20.815613
1917.520328	-2.990500	3.365100	-10.062000	26.216265	0.000162	20.805479
1918.514531	-2.994500	3.365000	-10.076000	26.214999	0.000161	20.817008
1919.515283	-3.017600	3.363200	-10.148000	26.240601	0.000164	20.831356
1920.515680	-3.006900	3.362400	-10.108000	26.218475	0.000162	20.806277
1921.515580	-2.991700	3.362800	-10.059000	26.216712	0.000160	20.813514
1922.515073	-2.995500	3.363600	-10.075000	26.245072	0.000159	20.815935
1923.518234	-2.980200	3.363400	-10.023000	26.254059	0.000160	20.832078
1924.515983	-3.014100	3.361400	-10.130000	26.283636	0.000158	20.827188
1925.516161	-2.976300	3.361400	-10.004000	26.258852	0.000157	20.816032
1926.519044	-2.953400	3.361600	-9.927300	26.219987	0.000158	20.821546
1927.518934	-3.002300	3.360300	-10.087000	26.195997	0.000158	20.833001
1928.520078	-2.984600	3.361100	-10.030000	26.198205	0.000158	20.812935
1929.517005	-2.985700	3.359900	-10.031000	26.261856	0.000155	20.815731
1930.519395	-2.996700	3.361300	-10.072000	26.270694	0.000156	20.824139
1931.517690	-3.003900	3.358700	-10.088000	26.236224	0.000156	20.840233
1932.516910	-2.998800	3.359000	-10.072000	26.247870	0.000155	20.816850
1933.519345	-3.001000	3.359400	-10.080000	26.235403	0.000154	20.837986
1934.517115	-2.996500	3.358100	-10.062000	26.181686	0.000155	20.832370
1935.517238	-3.002600	3.359000	-10.083000	26.210542	0.000155	20.847142
1936.517141	-3.012600	3.358100	-10.116000	26.207339	0.000155	20.817371
1937.517313	-3.015800	3.357000	-10.123000	26.201974	0.000151	20.831895
1938.517837	-3.016000	3.357100	-10.125000	26.252808	0.000154	20.834140
1939.519272	-3.009100	3.357400	-10.102000	26.177336	0.000154	20.821836
1940.516897	-3.021200	3.356700	-10.140000	26.219082	0.000154	20.824905
1941.516442	-3.002000	3.355900	-10.073000	26.249677	0.000153	20.831467
1942.517437	-2.981200	3.356500	-10.005000	26.178478	0.000151	20.841948
1943.518570	-2.993900	3.355500	-10.045000	26.135486	0.000153	20.822931
1944.523553	-3.027300	3.354600	-10.155000	26.142390	0.000151	20.832239
1945.518797	-2.980300	3.355300	-9.999500	26.142762	0.000151	20.822656
1946.519772	-2.987400	3.355100	-10.022000	26.170577	0.000152	20.822631
1947.519354	-2.996600	3.354900	-10.052000	26.216298	0.000152	20.844391
1948.520491	-3.006300	3.354800	-10.085000	26.311158	0.000150	20.835880
1949.521068	-3.007800	3.354200	-10.088000	26.307134	0.000150	20.841794
1950.522392	-3.028400	3.353200	-10.154000	26.282997	0.000151	20.833658
1951.521629	-2.979600	3.352400	-9.988200	26.325932	0.000150	20.833658
1952.521332	-2.994800	3.352800	-10.040000	26.373604	0.000150	20.828939
1953.527624	-2.999100	3.353500	-10.057000	26.361388	0.000147	20.817135
1954.520490	-2.989500	3.352900	-10.023000	26.324836	0.000148	20.833031
1955.524324	-2.979000	3.352600	-9.986100	26.266230	0.000147	20.851420
1956.521307	-3.013700	3.351500	-10.099000	26.256245	0.000145	20.839016
1957.521695	-2.973800	3.350900	-9.963400	26.285324	0.000146	20.830781
1958.520994	-3.000900	3.351700	-10.057000	26.331511	0.000148	20.820299
1959.521668	-2.993500	3.351200	-10.031000	26.358127	0.000146	20.843730
1960.523226	-3.035400	3.350200	-10.169000	26.387825	0.000146	20.832325
1961.524749	-3.017600	3.349100	-10.105000	26.387871	0.000145	20.841381
1962.525582	-3.008300	3.349000	-10.074000	26.428890	0.000145	20.854157
1963.523221	-3.009800	3.349500	-10.080000	26.434401	0.000146	20.850214
1964.522679	-3.018100	3.349000	-10.106000	26.467397	0.000146	20.839283
1965.524155	-2.994500	3.349300	-10.029000	26.492621	0.000145	20.813429
1966.524704	-2.984400	3.349500	-9.994800	26.492173	0.000145	20.841427
1967.523690	-2.992300	3.348700	-10.020000	26.478965	0.000145	20.832892
1968.524326	-2.987900	3.349000	-10.005000	26.435787	0.000144	20.852081
1969.525555	-3.007300	3.346700	-10.063000	26.385332	0.000146	20.835984
1970.525309	-3.008400	3.347800	-10.071000	26.377610	0.000146	20.851455
1971.527080	-3.001800	3.347600	-10.048000	26.359209	0.000143	20.843868
1972.526094	-2.983100	3.347400	-9.984100	26.362511	0.000145	20.861885
1973.528100	-3.019300	3.345100	-10.099000	26.316299	0.000142	20.831564
1974.525630	-2.999300	3.346200	-10.035000	26.320494	0.000142	20.849055
1975.526733	-2.988900	3.347500	-10.004000	26.345971	0.000140	20.846685
1976.529284	-2.990400	3.345200	-10.002000	26.400350	0.000142	20.827844
1977.529438	-2.986000	3.345400	-9.988700	26.408270	0.000141	20.856667
1978.527670	-3.007600	3.345300	-10.060000	26.413657	0.000139	20.853546
1979.531854	-2.998800	3.344700	-10.029000	26.435828	0.000140	20.839795
1980.530199	-2.989900	3.343800	-9.996900	26.454771	0.000141	20.843188
1981.527864	-2.987300	3.344300	-9.989700	26.429272	0.000140	20.838895
1982.531361	-3.023100	3.342900	-10.104000	26.466490	0.000138	20.838371
1983.527524	-2.969400	3.344500	-9.929800	26.399327	0.000139	20.843886
1984.528542	-2.993800	3.342500	-10.006000	26.402083	0.000140	20.847604
1985.530664	-3.003200	3.342000	-10.035000	26.404616	0.000138	20.846831
1986.528665	-3.011500	3.342400	-10.065000	26.393467	0.000138	20.846530
1987.531121	-2.984500	3.342100	-9.973400	26.416979	0.000138	20.834600
1988.528269	-2.998300	3.340800	-10.016000	26.409630	0.000138	20.863723
1989.529653	-3.011700	3.340800	-10.060000	26.390263	0.000138	20.844258
1990.528277	-2.994800	3.340500	-10.004000	26.362451	0.000137	20.840489
1991.527701	-2.998500	3.339000	-10.010000	26.362154	0.000138	20.859629
1992.528577	-2.998500	3.340000	-10.014000	26.391253	0.000138	20.850469
1993.531837	-2.989900	3.340100	-9.985300	26.416183	0.000136	20.858456
1994.528880	-2.990900	3.340100	-9.989000	26.422068	0.000139	20.846828
1995.529218	-3.004500	3.339900	-10.034000	26.430236	0.000137	20.855037
1996.530869	-3.001100	3.339400	-10.021000	26.450621	0.000137	20.858930
1997.530477	-3.011300	3.337700	-10.050000	26.486000	0.000137	20.856558
1998.531634	-3.022800	3.339000	-10.093000	26.496625	0.000135	20.852539
1999.530684	-3.011000	3.337900	-10.049000	26.422290	0.000135	20.866964
2000.530233	-3.003900	3.336800	-10.022000	26.454568	0.000133	20.869060
2001.531016	-3.008400	3.336900	-10.038000	26.494889	0.000135	20.859329
2002.531364	-2.992200	3.337100	-9.983900	26.515718	0.000136	20.870782
2003.533016	-3.013300	3.336800	-10.054000	26.504645	0.000133	20.885728
2004.532830	-2.973200	3.336900	-9.920800	26.467577	0.000134	20.862222
2005.531514	-2.968100	3.338400	-9.906900	26.474132	0.000133	20.882559
2006.535705	-2.977900	3.335600	-9.932000	26.472095	0.000134	20.855384
2007.532010	-2.995800	3.335900	-9.992300	26.464943	0.000133	20.866687
2008.531651	-3.003900	3.335300	-10.018000	26.442971	0.000133	20.879214
2009.536336	-3.015200	3.334600	-10.054000	26.455558	0.000133	20.883331
2010.532845	-2.997500	3.335000	-9.995800	26.475743	0.000131	20.889395
2011.532272	-2.992900	3.334300	-9.978400	26.464644	0.000133	20.866861
2012.534305	-2.978300	3.335900	-9.934700	26.435793	0.000133	20.866785
2013.534150	-3.007100	3.334600	-10.027000	26.439792	0.000132	20.860373
2014.535009	-3.000200	3.334400	-10.003000	26.437234	0.000134	20.876767
2015.534227	-3.014000	3.333900	-10.048000	26.459653	0.000132	20.862792
2016.534412	-3.018300	3.332700	-10.059000	26.433657	0.000129	20.876966
2017.533004	-3.012400	3.331300	-10.034000	26.420025	0.000130	20.897876
2018.534195	-2.988300	3.332500	-9.957800	26.461414	0.000132	20.873096
2019.535365	-3.014000	3.332200	-10.042000	26.450067	0.000131	20.881131
2020.545607	-3.010500	3.329900	-10.024000	26.475119	0.000130	20.883078
2021.536787	-2.999400	3.331900	-9.992800	26.548978	0.000129	20.877661
2022.535942	-3.000000	3.330400	-9.990600	26.542399	0.000129	20.896651
2023.536471	-2.983500	3.331100	-9.936700	26.523953	0.000129	20.873369
2024.541634	-2.994400	3.331100	-9.973700	26.547563	0.000128	20.880032
2025.537679	-2.990300	3.329900	-9.956300	26.543220	0.000129	20.898423
2026.537134	-2.988300	3.329700	-9.948900	26.555507	0.000128	20.888017
2027.536370	-2.996400	3.328800	-9.972700	26.548257	0.000128	20.898746
2028.536388	-3.010900	3.329200	-10.022000	26.552727	0.000126	20.886644
2029.536582	-2.994200	3.328600	-9.965600	26.490211	0.000129	20.902987
2030.538288	-2.972600	3.330400	-9.899100	26.523752	0.000127	20.868426
2031.538229	-3.000100	3.327900	-9.983500	26.545774	0.000126	20.893406
2032.537010	-3.017200	3.327400	-10.039000	26.569285	0.000127	20.872943
2033.536897	-2.998000	3.327400	-9.974400	26.570774	0.000126	20.896724
2034.540830	-3.006500	3.326300	-9.999500	26.570947	0.000127	20.900691
2035.539397	-2.968100	3.327100	-9.874200	26.633904	0.000126	20.897598
2036.540360	-2.969900	3.326000	-9.876900	26.609054	0.000125	20.903436
2037.538731	-2.996900	3.326600	-9.968800	26.631199	0.000124	20.902938
2038.539381	-2.995800	3.325400	-9.961200	26.629337	0.000125	20.889688
2039.542543	-3.019800	3.325200	-10.041000	26.608559	0.000123	20.911946
2040.539786	-3.014400	3.325000	-10.022000	26.638870	0.000124	20.885047
2041.546204	-3.008700	3.325100	-10.003000	26.631546	0.000124	20.906606
2042.540601	-3.011800	3.323900	-10.009000	26.615162	0.000126	20.881129
2043.541670	-2.998600	3.324100	-9.966900	26.648328	0.000125	20.895502
2044.540869	-3.010600	3.323500	-10.004000	26.610620	0.000124	20.895053
2045.539720	-2.989200	3.323300	-9.933500	26.578570	0.000123	20.899819
2046.542236	-2.998400	3.323200	-9.963300	26.618787	0.000123	20.896626
2047.547063	-3.007000	3.322700	-9.990600	26.657588	0.000123	20.914767
2048.544435	-3.009500	3.323200	-10.000000	26.677000	0.000122	20.900619
2049.544529	-2.980200	3.322400	-9.900100	26.664862	0.000122	20.900744
2050.547458	-2.987100	3.322000	-9.922700	26.606227	0.000122	20.920032
2051.545572	-3.003200	3.320500	-9.970300	26.629215	0.000121	20.900470
2052.547557	-3.007700	3.319900	-9.984200	26.641082	0.000119	20.923302
2053.545809	-2.989400	3.320400	-9.925000	26.600394	0.000120	20.924599
2054.546369	-3.006800	3.320800	-9.984500	26.597638	0.000121	20.914244
2055.548132	-3.001800	3.319500	-9.963700	26.593890	0.000118	20.924700
2056.549226	-3.015000	3.319400	-10.007000	26.605830	0.000119	20.901617
2057.548960	-3.013300	3.318700	-9.999600	26.549352	0.000118	20.909802
2058.549163	-3.012300	3.317600	-9.992900	26.509803	0.000120	20.919833
2059.548291	-3.002000	3.319100	-9.963000	26.516282	0.000118	20.902166
2060.547610	-3.010700	3.318100	-9.987800	26.517995	0.000117	20.921429
2061.548255	-3.022800	3.316700	-10.025000	26.536614	0.000117	20.942040
2062.548306	-2.994200	3.318800	-9.936200	26.599399	0.000118	20.929763
2063.551834	-3.004900	3.317200	-9.967300	26.691125	0.000116	20.913395
2064.551533	-3.021200	3.316300	-10.018000	26.715673	0.000118	20.917685
2065.550341	-3.003900	3.317100	-9.963600	26.709444	0.000115	20.926595
2066.552239	-3.013500	3.316300	-9.992400	26.695243	0.000117	20.913268
2067.551926	-3.010100	3.317400	-9.984900	26.674566	0.000117	20.921403
2068.553261	-3.023000	3.314800	-10.020000	26.698271	0.000115	20.914415
2069.557658	-3.018500	3.314900	-10.005000	26.699512	0.000118	20.920403
2070.549876	-3.023400	3.314600	-10.020000	26.676104	0.000115	20.921527
2071.551433	-3.017100	3.315400	-10.002000	26.701124	0.000115	20.945255
2072.552823	-3.002000	3.315900	-9.953100	26.680075	0.000113	20.942586
2073.554770	-3.000100	3.314200	-9.942200	26.667489	0.000113	20.915711
2074.555314	-2.980300	3.315000	-9.878300	26.695364	0.000114	20.942309
2075.553578	-3.006400	3.313800	-9.961000	26.727632	0.000115	20.909795
2076.553189	-3.007300	3.313700	-9.964600	26.750567	0.000115	20.936170
2077.555053	-3.015100	3.313600	-9.990100	26.770798	0.000113	20.927587
2078.553321	-3.016800	3.312600	-9.992400	26.738008	0.000113	20.943930
2079.556483	-3.009800	3.312900	-9.970500	26.772235	0.000115	20.926187
2080.551452	-3.024800	3.311700	-10.017000	26.766477	0.000111	20.920873
2081.552639	-2.979900	3.312500	-9.869900	26.736567	0.000111	20.942482
2082.554843	-2.997400	3.310300	-9.921200	26.744385	0.000113	20.939437
2083.553476	-2.992400	3.311900	-9.910000	26.763895	0.000111	20.931552
2084.557500	-2.999100	3.310600	-9.928200	26.791346	0.000108	20.942081
2085.556131	-2.988200	3.310700	-9.892300	26.760616	0.000112	20.926834
2086.553704	-3.011100	3.309600	-9.964900	26.777494	0.000110	20.937164
2087.556030	-2.991900	3.310800	-9.904200	26.760517	0.000108	20.926260
2088.554293	-3.021600	3.308400	-9.994600	26.744258	0.000109	20.948317
2089.565250	-3.008300	3.308700	-9.953200	26.724301	0.000108	20.967130
2090.555772	-3.002900	3.308800	-9.935000	26.713428	0.000108	20.940082
2091.554885	-3.004900	3.308800	-9.941200	26.717647	0.000108	20.940530
2092.555328	-2.997100	3.308800	-9.916200	26.769450	0.000110	20.932395
2093.554666	-3.006200	3.307700	-9.942100	26.778286	0.000107	20.942700
2094.557017	-3.003400	3.308200	-9.935200	26.786004	0.000107	20.925806
2095.559373	-2.998300	3.306700	-9.912500	26.795883	0.000108	20.955175
2096.556678	-2.970400	3.307700	-9.824600	26.775853	0.000107	20.953529
2097.556186	-2.965500	3.308700	-9.810900	26.759420	0.000108	20.940328
2098.558543	-3.000500	3.306500	-9.920000	26.757310	0.000108	20.946266
2099.556371	-3.002600	3.306300	-9.926800	26.791438	0.000108	20.936958
2100.560047	-2.966900	3.305800	-9.806000	26.809853	0.000107	20.945042
2101.556682	-3.006400	3.305400	-9.936500	26.816854	0.000106	20.951131
2102.556907	-2.990800	3.304400	-9.882000	26.842121	0.000106	20.928650
2103.556944	-2.997000	3.303900	-9.901000	26.820451	0.000107	20.933887
2104.557796	-3.008400	3.303500	-9.936600	26.796624	0.000105	20.923208
2105.561347	-2.999100	3.303100	-9.905500	26.784710	0.000105	20.936358
2106.558455	-2.998600	3.304500	-9.907500	26.778406	0.000105	20.940925
2107.557286	-3.006700	3.304000	-9.933100	26.763315	0.000103	20.919590
2108.558004	-3.014500	3.300400	-9.947800	26.769072	0.000105	20.934860
2109.558718	-3.005100	3.301300	-9.920000	26.797866	0.000106	20.925879
2110.558270	-2.984700	3.302200	-9.855600	26.822659	0.000101	20.929944
2111.559932	-3.013500	3.301200	-9.946600	26.867162	0.000104	20.928698
2112.561173	-2.996300	3.301800	-9.892300	26.850854	0.000102	20.915147
2113.560190	-3.009700	3.300400	-9.932500	26.802803	0.000103	20.937006
2114.562303	-3.004700	3.299900	-9.914500	26.787441	0.000102	20.920140
2115.561282	-3.006600	3.299100	-9.918300	26.757431	0.000103	20.925054
2116.562542	-3.007100	3.299800	-9.921400	26.775997	0.000102	20.928073
2117.559830	-3.009400	3.298500	-9.925400	26.784188	0.000103	20.932515
2118.559752	-3.016400	3.299100	-9.950300	26.782998	0.000101	20.941748
2119.561922	-3.012700	3.298100	-9.935500	26.875179	0.000101	20.935336
2120.561768	-2.999700	3.297800	-9.891400	26.884013	9.889175E-5	20.935683
2121.563142	-3.014900	3.297800	-9.941400	26.918336	9.889175E-5	20.933687
2122.566673	-3.011800	3.297900	-9.931500	26.958688	0.000100	20.925901
2123.562576	-3.006700	3.296600	-9.911200	27.006833	0.000101	20.933064
2124.563678	-2.996200	3.297100	-9.876500	27.030903	9.720863E-5	20.914598
2125.568769	-2.995000	3.296700	-9.873100	27.070631	9.951880E-5	20.910456
2126.562767	-2.985300	3.295500	-9.837000	27.068324	9.816570E-5	20.909558
2127.565008	-2.987700	3.295900	-9.846100	27.092963	9.899076E-5	20.904940
2128.563003	-2.991300	3.295300	-9.856500	27.075842	9.968381E-5	20.903369
2129.564489	-2.998300	3.294500	-9.876500	27.049662	9.585553E-5	20.912601
2130.564638	-3.002800	3.294900	-9.893300	27.016634	9.569052E-5	20.895034
2131.564914	-2.979900	3.295300	-9.818700	26.968069	9.595454E-5	20.909732
2132.564679	-2.995100	3.295500	-9.869800	26.897291	9.730764E-5	20.930543
2133.563866	-3.002200	3.293800	-9.888100	26.845119	9.889175E-5	20.901796
2134.565299	-3.017100	3.292400	-9.932900	26.843954	9.575652E-5	20.899201
2135.566053	-2.996400	3.292900	-9.866500	26.854328	9.470045E-5	20.887822
2136.565931	-2.993300	3.291000	-9.850100	26.894782	9.476645E-5	20.899101
2137.567498	-2.959800	3.292700	-9.745000	26.945185	9.701061E-5	20.907584
2138.569897	-3.001900	3.292600	-9.883200	26.995290	9.651558E-5	20.902494
2139.567694	-2.995800	3.291700	-9.860300	26.980325	9.635057E-5	20.914470
2140.568277	-2.986000	3.291900	-9.828800	26.927540	9.552551E-5	20.925399
2141.568205	-3.009300	3.289800	-9.898800	26.915504	9.450243E-5	20.897178
2142.568419	-3.013300	3.290800	-9.915100	26.966701	9.466744E-5	20.905038
2143.571570	-3.003100	3.289300	-9.877700	27.036259	9.318233E-5	20.901968
2144.568183	-3.018000	3.289000	-9.925300	27.034051	9.281931E-5	20.910178
2145.568307	-2.995000	3.288700	-9.849200	27.035738	9.192824E-5	20.884376
2146.569024	-2.997000	3.288800	-9.855000	27.028368	9.314933E-5	20.885973
2147.569833	-2.986900	3.287900	-9.819800	27.026282	9.103718E-5	20.896202
2148.571138	-2.996100	3.288200	-9.850700	27.075465	9.169723E-5	20.889241
2149.573976	-2.990100	3.289000	-9.833700	27.123404	9.196124E-5	20.907581
2150.571497	-3.003800	3.287900	-9.875300	27.041964	8.948606E-5	20.892059
2151.572632	-2.983800	3.288200	-9.810400	27.007843	8.872701E-5	20.899470
2152.574538	-3.002400	3.288000	-9.871300	27.000721	9.120219E-5	20.889463
2153.574886	-3.007300	3.286300	-9.882100	26.989353	9.123519E-5	20.896998
2154.574871	-3.003000	3.286300	-9.868200	27.061639	9.054214E-5	20.894302
2155.574682	-2.997600	3.286400	-9.850200	27.062310	9.001410E-5	20.880753
2156.574032	-2.976800	3.286200	-9.780500	27.113996	9.034413E-5	20.896223
2157.577345	-3.008300	3.285400	-9.882800	27.125185	8.862800E-5	20.892778
2158.574601	-3.013800	3.285000	-9.899200	27.075681	8.958507E-5	20.899415
2159.577074	-3.004900	3.285100	-9.870500	27.043918	8.839698E-5	20.891654
2160.575886	-2.987900	3.284900	-9.814100	26.982847	8.661485E-5	20.908471
2161.576551	-2.976100	3.283800	-9.772500	26.949122	8.839698E-5	20.893525
2162.577248	-2.976900	3.284200	-9.775100	26.933907	8.648284E-5	20.892925
2163.577508	-3.024500	3.281600	-9.923600	26.917528	8.905703E-5	20.890679
2164.578508	-3.001300	3.283400	-9.853200	26.962941	8.710989E-5	20.872810
2165.578395	-2.996500	3.280200	-9.827900	26.980387	8.694488E-5	20.900783
2166.579874	-3.006700	3.280400	-9.862400	27.061829	8.833098E-5	20.874106
2167.578465	-2.997800	3.281600	-9.836700	27.094063	8.611982E-5	20.887082
2168.579681	-2.988400	3.280900	-9.803500	27.018875	8.503074E-5	20.874056
2169.584402	-2.994100	3.281000	-9.822900	27.058155	8.635083E-5	20.897910
2170.581600	-2.993000	3.281600	-9.821600	27.081082	8.509674E-5	20.889200
2171.578207	-3.000600	3.280000	-9.841400	27.055424	8.536076E-5	20.878570
2172.579645	-3.008400	3.278700	-9.863200	27.033760	8.503074E-5	20.884757
2173.587582	-2.995300	3.279200	-9.821400	26.988744	8.516275E-5	20.894488
2174.581075	-2.988300	3.279400	-9.798500	26.973307	8.463471E-5	20.884656
2175.585923	-3.024800	3.277300	-9.912000	26.966953	8.196151E-5	20.858354
2176.581513	-2.981100	3.278200	-9.770800	26.980305	8.592180E-5	20.894063
2177.580666	-2.968500	3.278400	-9.730700	27.045568	8.463471E-5	20.891890
2178.580885	-2.977500	3.278000	-9.759400	27.029539	8.351263E-5	20.885254
2179.582168	-2.978300	3.277600	-9.760600	27.083161	8.308360E-5	20.880386
2180.582042	-3.002300	3.275100	-9.832000	27.117925	8.215953E-5	20.871727
2181.583165	-3.013100	3.275600	-9.869200	27.130877	8.440369E-5	20.846823
2182.582637	-3.020700	3.276400	-9.895700	27.128296	8.199452E-5	20.867934
2183.582169	-3.008700	3.275300	-9.853800	27.143135	8.034440E-5	20.885227
2184.582186	-3.005200	3.275000	-9.841800	27.132116	7.905730E-5	20.878887
2185.583142	-3.004600	3.275300	-9.839600	27.145317	8.192851E-5	20.864664
2186.585238	-3.008400	3.273000	-9.846000	27.183552	8.166449E-5	20.848119
2187.583522	-2.984300	3.273500	-9.768300	27.178813	8.011338E-5	20.865637
2188.584231	-2.992300	3.272300	-9.791000	27.199778	8.130147E-5	20.871550
2189.589345	-2.989700	3.274200	-9.788200	27.175141	8.169749E-5	20.873323
2190.587469	-3.008000	3.272200	-9.842000	27.159335	8.149948E-5	20.869280
2191.590102	-2.978500	3.271600	-9.744100	27.141942	8.004737E-5	20.850839
2192.589264	-2.989800	3.271300	-9.779500	27.158044	7.965135E-5	20.868455
2193.587687	-2.976100	3.272400	-9.737700	27.162040	8.173050E-5	20.878637
2194.589201	-3.000000	3.270900	-9.812800	27.177324	7.829825E-5	20.867458
2195.588760	-2.992800	3.270600	-9.787300	27.178117	7.892529E-5	20.868729
2196.592265	-2.997400	3.270100	-9.799700	27.201986	7.819924E-5	20.853383
2197.590622	-3.006300	3.269200	-9.827700	27.200598	7.965135E-5	20.873323
2198.589112	-3.018000	3.270500	-9.870200	27.158243	7.872728E-5	20.872449
2199.589438	-2.992900	3.270200	-9.786500	27.134251	8.054241E-5	20.871552
2200.590705	-2.988300	3.269200	-9.768100	27.186877	7.760520E-5	20.882755
2201.590451	-2.992600	3.267900	-9.778800	27.224490	7.654912E-5	20.862742
2202.592144	-2.984500	3.268100	-9.753000	27.216030	7.803423E-5	20.869405
2203.591160	-2.988500	3.269300	-9.768700	27.207768	7.753919E-5	20.874845
2204.590384	-2.989700	3.268900	-9.772200	27.146459	7.770420E-5	20.841631
2205.593361	-3.005800	3.268300	-9.823300	27.104277	7.668113E-5	20.864640
2206.591469	-2.998100	3.266000	-9.790800	27.134053	7.618609E-5	20.848120
2207.591514	-2.978700	3.266100	-9.727700	27.136211	7.473399E-5	20.870678
2208.591568	-3.008900	3.265900	-9.826100	27.135866	7.621909E-5	20.850417
2209.590363	-3.006300	3.265600	-9.816700	27.167948	7.499800E-5	20.866563
2210.591907	-2.997500	3.264300	-9.784100	27.230870	7.605408E-5	20.847349
2211.591905	-3.022100	3.262900	-9.859600	27.236700	7.569106E-5	20.844205
2212.595030	-2.996100	3.264000	-9.778100	27.224519	7.446997E-5	20.872728
2213.592430	-3.025400	3.262500	-9.869800	27.256549	7.549304E-5	20.865116
2214.592347	-3.007100	3.264000	-9.814000	27.254540	7.473399E-5	20.861200
2215.591942	-3.007500	3.263600	-9.813800	27.190305	7.443696E-5	20.843058
2216.593137	-3.015100	3.262100	-9.834600	27.118275	7.318287E-5	20.867338
2217.594767	-2.990300	3.262700	-9.756400	27.084901	7.242382E-5	20.881662
2218.594717	-3.007900	3.260500	-9.806900	27.110435	7.440396E-5	20.867988
2219.590619	-2.982100	3.261100	-9.723900	27.136688	7.598808E-5	20.861201
2220.592055	-2.990800	3.261200	-9.753100	27.232485	7.503101E-5	20.859404
2221.593022	-3.002600	3.259000	-9.784500	27.273644	7.390893E-5	20.851019
2222.593000	-2.985100	3.260300	-9.731500	27.327381	7.248982E-5	20.847701
2223.594808	-3.004600	3.258700	-9.790000	27.352536	7.209379E-5	20.839341
2224.593843	-2.995200	3.258500	-9.759200	27.371960	7.126873E-5	20.867415
2225.593003	-2.994600	3.258000	-9.755900	27.398306	7.295185E-5	20.857883
2226.595120	-3.017100	3.258600	-9.830600	27.454168	7.116972E-5	20.860503
2227.593181	-2.995200	3.257800	-9.756600	27.463891	7.196178E-5	20.873129
2228.597148	-2.968800	3.257400	-9.668400	27.405673	7.169776E-5	20.877621
2229.599067	-3.012400	3.257800	-9.813400	27.391781	7.008064E-5	20.876448
2230.592801	-2.983400	3.256100	-9.713200	27.399694	7.093871E-5	20.855012
2231.594223	-2.996900	3.256700	-9.758700	27.405872	6.876055E-5	20.851270
2232.592605	-3.002500	3.255600	-9.773800	27.394336	6.981663E-5	20.851994
2233.593853	-2.977700	3.255800	-9.692900	27.337155	7.235781E-5	20.832878
2234.597526	-2.984000	3.254800	-9.711900	27.297166	6.770447E-5	20.840541
2235.594763	-3.001800	3.254000	-9.766600	27.284263	6.984963E-5	20.836097
2236.594774	-3.005600	3.253300	-9.776600	27.328895	6.932159E-5	20.851120
2237.596998	-2.979300	3.253700	-9.693300	27.329788	6.968462E-5	20.860079
2238.595825	-3.021600	3.253200	-9.829100	27.355166	7.031166E-5	20.853366
2239.597174	-2.998500	3.252400	-9.751000	27.355836	6.777048E-5	20.849299
2240.595458	-2.987900	3.253500	-9.720100	27.320138	6.628537E-5	20.840415
2241.594771	-2.966600	3.253700	-9.651500	27.273423	6.608735E-5	20.842736
2242.595064	-3.016900	3.251000	-9.806500	27.231766	6.895856E-5	20.840664
2243.596723	-3.001200	3.250300	-9.754000	27.260496	6.711043E-5	20.842536
2244.598413	-2.994500	3.251800	-9.736800	27.255187	6.681341E-5	20.843833
2245.597448	-3.000900	3.250200	-9.752700	27.221568	6.711043E-5	20.848424
2246.597083	-2.988600	3.251100	-9.715200	27.221942	6.687941E-5	20.840265
2247.597056	-2.998000	3.250300	-9.743200	27.232387	6.486626E-5	20.838918
2248.598508	-2.983200	3.250300	-9.695300	27.212115	6.443723E-5	20.838443
2249.596710	-2.995500	3.249600	-9.733400	27.260719	6.876055E-5	20.831381
2250.598739	-3.015600	3.248500	-9.795200	27.313462	6.595534E-5	20.824217
2251.599380	-3.015300	3.246800	-9.789500	27.379724	6.555931E-5	20.847251
2252.597574	-2.990600	3.247200	-9.710300	27.415917	6.684641E-5	20.842884
2253.598912	-3.015700	3.246800	-9.789100	27.369256	6.374418E-5	20.845256
2254.596829	-2.986100	3.247700	-9.696800	27.338196	6.189605E-5	20.832977
2255.601225	-3.002000	3.246500	-9.745000	27.294733	6.407421E-5	20.847102
2256.597797	-3.015500	3.244900	-9.784400	27.336087	6.225907E-5	20.840338
2257.598838	-3.010900	3.244500	-9.768700	27.357398	6.605435E-5	20.838068
2258.598097	-2.997900	3.244500	-9.725300	27.338643	6.321614E-5	20.832478
2259.598067	-2.989500	3.245200	-9.700100	27.385851	6.480026E-5	20.825915
2260.601719	-3.001500	3.243500	-9.735000	27.400139	6.638437E-5	20.845977
2261.605171	-2.993100	3.244900	-9.711500	27.364565	6.298513E-5	20.826787
2262.599631	-3.022600	3.243400	-9.802300	27.370619	6.272111E-5	20.830506
2263.600225	-3.021000	3.243100	-9.796800	27.385032	6.324914E-5	20.844056
2264.603964	-3.007800	3.243200	-9.754000	27.352186	6.212706E-5	20.828084
2265.601284	-2.988000	3.242700	-9.688600	27.271510	6.397520E-5	20.846502
2266.605693	-2.981400	3.242700	-9.665500	27.286891	6.328215E-5	20.842059
2267.600051	-2.986800	3.241600	-9.680600	27.292051	5.938786E-5	20.836819
2268.600916	-2.981800	3.242400	-9.667200	27.321425	6.222607E-5	20.818477
2269.622333	-2.998400	3.239600	-9.713100	27.362756	6.153302E-5	20.830656
2270.601552	-2.990400	3.240000	-9.687900	27.428493	6.222607E-5	20.824242
2271.602004	-2.985100	3.240800	-9.673400	27.501470	6.074096E-5	20.822746
2272.601025	-2.991700	3.239900	-9.691300	27.527910	6.232508E-5	20.819476
2273.600994	-2.993700	3.238900	-9.694700	27.567372	6.186304E-5	20.828361
2274.600537	-3.007800	3.238700	-9.741100	27.599714	6.140101E-5	20.823444
2275.600262	-2.989900	3.240400	-9.687300	27.591281	6.202806E-5	20.826813
2276.601122	-2.964400	3.239000	-9.600500	27.574219	6.097198E-5	20.834775
2277.602210	-3.010200	3.237600	-9.745500	27.590984	6.116999E-5	20.816083
2278.600934	-2.996200	3.237200	-9.698500	27.552739	6.024592E-5	20.834499
2279.602821	-3.006600	3.237200	-9.732500	27.533964	5.816677E-5	20.793799
2280.603803	-2.999200	3.235500	-9.703100	27.561272	5.951987E-5	20.813214
2281.601896	-3.001500	3.234700	-9.708200	27.604280	6.116999E-5	20.833727
2282.605216	-3.000000	3.235300	-9.705100	27.614275	5.948687E-5	20.822922
2283.602147	-2.994300	3.234500	-9.683800	27.576402	5.938786E-5	20.826540
2284.603755	-2.992400	3.234200	-9.676600	27.529128	5.945387E-5	20.805529
2285.602719	-3.016300	3.232700	-9.749300	27.434947	5.833178E-5	20.823149
2286.603303	-3.003900	3.233200	-9.711400	27.410662	5.882682E-5	20.827167
2287.603134	-3.010400	3.232600	-9.730400	27.457198	5.998191E-5	20.809024
2288.606174	-2.987400	3.232400	-9.655500	27.507378	6.001491E-5	20.805456
2289.607600	-3.001300	3.233400	-9.703100	27.534240	5.793576E-5	20.821103
2290.602324	-2.981500	3.231900	-9.635500	27.523624	5.928885E-5	20.814689
2291.609705	-2.987100	3.231400	-9.652100	27.596594	5.757273E-5	20.816512
2292.604805	-3.002000	3.230400	-9.696700	27.641610	5.773774E-5	20.812495
2293.607678	-2.970000	3.231100	-9.595900	27.690515	5.654965E-5	20.797696
2294.606232	-3.008900	3.228900	-9.714100	27.704354	5.826578E-5	20.818734
2295.606242	-3.000300	3.229600	-9.689100	27.727120	5.902484E-5	20.796125
2296.606503	-2.998800	3.228300	-9.680200	27.695997	5.730871E-5	20.800841
2297.607444	-2.998300	3.229000	-9.680900	27.711894	5.658266E-5	20.816364
2298.609291	-3.004500	3.226900	-9.693700	27.652450	5.773774E-5	20.806334
2299.606817	-2.991800	3.226000	-9.650900	27.611627	5.519655E-5	20.826896
2300.607979	-2.994700	3.227700	-9.664800	27.569612	5.443750E-5	20.796949
2301.607727	-2.963400	3.228200	-9.565000	27.563263	5.605462E-5	20.807157
2302.609647	-2.999800	3.226900	-9.679300	27.565397	5.539457E-5	20.814993
2303.609457	-2.996100	3.225800	-9.664600	27.613983	5.361244E-5	20.800818
2304.610690	-2.989700	3.226700	-9.646500	27.584321	5.321641E-5	20.814594
2305.611904	-3.011000	3.223900	-9.705900	27.540493	5.262237E-5	20.826447
2306.612491	-2.972800	3.224400	-9.584100	27.564826	5.499854E-5	20.803514
2307.612592	-2.975000	3.225100	-9.593900	27.568770	5.417348E-5	20.794206
2308.612577	-2.983300	3.223900	-9.617400	27.613662	5.202832E-5	20.803340
2309.614625	-2.982900	3.224600	-9.617500	27.612521	5.559258E-5	20.811674
2310.612913	-2.980000	3.223400	-9.605000	27.592208	5.324941E-5	20.808779
2311.614379	-2.993200	3.221900	-9.642700	27.556172	5.107125E-5	20.807134
2312.613362	-3.007800	3.221400	-9.688300	27.604015	5.107125E-5	20.794107
2313.615114	-3.019700	3.223800	-9.734300	27.653395	5.282038E-5	20.822931
2314.618394	-3.002700	3.220500	-9.669600	27.648434	5.159929E-5	20.821259
2315.619620	-3.001000	3.219600	-9.660900	27.646252	5.351343E-5	20.778286
2316.617567	-2.976800	3.220300	-9.585800	27.671375	5.275438E-5	20.807359
2317.616846	-2.976300	3.219900	-9.582800	27.709369	5.183031E-5	20.807660
2318.618493	-3.012800	3.219400	-9.698700	27.739253	5.014718E-5	20.794109
2319.619406	-2.992400	3.221300	-9.638900	27.747808	5.324941E-5	20.819789
2320.618587	-3.002500	3.217700	-9.659900	27.740940	4.886009E-5	20.790592
2321.617001	-2.983500	3.218500	-9.601400	27.669468	5.219333E-5	20.792164
2322.619009	-2.996600	3.217500	-9.640500	27.597942	5.176430E-5	20.797954
2323.618063	-2.984100	3.216900	-9.598300	27.601664	5.470152E-5	20.799802
2324.617855	-2.991500	3.216700	-9.621900	27.656203	5.295239E-5	20.804420
2325.621380	-3.021400	3.215100	-9.713600	27.646778	5.037820E-5	20.803945
2326.617873	-2.987700	3.214400	-9.602400	27.684871	5.216033E-5	20.811931
2327.619505	-3.011900	3.216000	-9.684300	27.692485	5.433849E-5	20.815325
2328.623187	-2.994200	3.213300	-9.620000	27.711755	5.252336E-5	20.796310
2329.627289	-3.018600	3.214400	-9.702000	27.756791	5.024619E-5	20.808439
2330.624030	-2.989200	3.214300	-9.607500	27.731173	5.008118E-5	20.792143
2331.620176	-2.999600	3.215100	-9.642900	27.719271	5.186331E-5	20.797235
2332.620214	-3.001800	3.213800	-9.646200	27.697422	4.886009E-5	20.801327
2333.620392	-3.013600	3.210900	-9.676000	27.699929	5.074123E-5	20.798634
2334.621612	-3.008100	3.211600	-9.659500	27.749872	5.070823E-5	20.792468
2335.624345	-2.983400	3.210800	-9.577800	27.757809	5.014718E-5	20.781963
2336.623195	-3.022400	3.209900	-9.700800	27.670242	4.813404E-5	20.789149
2337.623003	-3.018500	3.210100	-9.688800	27.703897	4.869508E-5	20.804524
2338.625062	-2.966900	3.210200	-9.523200	27.686363	4.767200E-5	20.792570
2339.623619	-2.981700	3.209700	-9.570300	27.668607	4.757300E-5	20.787504
2340.627629	-3.004100	3.209300	-9.640700	27.623867	4.793602E-5	20.799857
2341.627553	-2.984400	3.209100	-9.577000	27.575900	4.806803E-5	20.803751
2342.625785	-2.999000	3.206500	-9.615300	27.681604	5.080723E-5	20.793945
2343.625483	-3.018700	3.206300	-9.677700	27.699510	4.496580E-5	20.812911
2344.626427	-2.995000	3.208300	-9.608000	27.765350	4.671493E-5	20.796665
2345.626164	-2.992900	3.206200	-9.594300	27.783999	4.833205E-5	20.815906
2346.626886	-2.999600	3.205200	-9.613700	27.757317	4.839806E-5	20.821297
2347.625411	-2.997400	3.207000	-9.612000	27.698171	4.810103E-5	20.790227
2348.624566	-3.005100	3.204000	-9.627000	27.680416	4.678094E-5	20.787533
2349.628110	-2.991800	3.203900	-9.584100	27.700926	4.516382E-5	20.770240
2350.627859	-2.999200	3.203500	-9.606900	27.747498	4.727597E-5	20.788657
2351.627707	-2.998600	3.204600	-9.607400	27.753300	4.724297E-5	20.801608
2352.627635	-2.998700	3.202200	-9.601500	27.669504	4.301866E-5	20.762802
2353.630597	-2.990500	3.202600	-9.576100	27.630642	4.724297E-5	20.786760
2354.627392	-2.982800	3.202000	-9.549300	27.575904	4.687994E-5	20.795694
2355.627957	-2.999900	3.199800	-9.597700	27.634833	4.628590E-5	20.793822
2356.628818	-2.997000	3.200600	-9.590900	27.691180	4.420675E-5	20.808796
2357.634808	-3.003200	3.200300	-9.610000	27.679226	4.417375E-5	20.803880
2358.628557	-3.003900	3.199400	-9.609900	27.730710	4.579087E-5	20.802108
2359.630862	-3.008600	3.198300	-9.621200	27.762924	4.367871E-5	20.793274
2360.629612	-2.989600	3.198700	-9.562100	27.795013	4.463578E-5	20.787162
2361.630470	-3.016600	3.196800	-9.641500	27.841681	4.354670E-5	20.782445
2362.633870	-3.028600	3.195900	-9.678100	27.864990	4.404174E-5	20.792154
2363.634027	-3.007700	3.196500	-9.613000	27.939075	4.420675E-5	20.785639
2364.632089	-3.007500	3.196900	-9.614300	27.975746	4.654992E-5	20.809273
2365.631775	-2.991700	3.197500	-9.564400	27.900397	4.440476E-5	20.801238
2366.635062	-2.994200	3.194600	-9.564500	27.878652	4.387672E-5	20.788835
2367.633648	-3.008300	3.193200	-9.604800	27.853930	4.239162E-5	20.798567
2368.637431	-2.978800	3.195300	-9.517500	27.812346	4.532883E-5	20.793700
2369.634953	-3.005900	3.192400	-9.594600	27.739763	4.169856E-5	20.790830
2370.634992	-2.985700	3.193700	-9.534700	27.682377	4.536183E-5	20.815585
2371.638671	-2.986000	3.192400	-9.531900	27.632926	4.136854E-5	20.808973
2372.636835	-2.976500	3.192800	-9.502600	27.612761	4.067549E-5	20.802908
2373.639635	-2.983500	3.191000	-9.519900	27.671192	4.334869E-5	20.803382
2374.635762	-3.010900	3.191700	-9.608900	27.709037	4.374472E-5	20.796420
2375.637784	-2.982200	3.191600	-9.517000	27.813138	4.344769E-5	20.792600
2376.637507	-2.997300	3.188400	-9.555600	27.823949	4.183057E-5	20.798739
2377.637798	-3.010300	3.188800	-9.598400	27.858268	4.024646E-5	20.800088
2378.637483	-3.009700	3.187700	-9.593000	27.820303	4.146755E-5	20.795070
2379.640116	-3.006600	3.188900	-9.586900	27.785936	4.093951E-5	20.789406
2380.637928	-2.994200	3.187500	-9.543400	27.871780	4.219360E-5	20.807523
2381.639468	-3.004300	3.187400	-9.575100	27.861243	4.120353E-5	20.796443
2382.647528	-3.028400	3.184300	-9.642600	27.863549	4.189658E-5	20.795919
2383.639493	-2.965400	3.188100	-9.453300	27.841753	4.140154E-5	20.790104
2384.641872	-3.051700	3.184200	-9.716800	27.845969	4.225961E-5	20.809047
2385.639602	-2.989400	3.184200	-9.517700	27.818171	3.820031E-5	20.832278
2386.639060	-3.004100	3.184300	-9.565300	27.823504	4.051048E-5	20.803033
2387.639643	-2.999500	3.183200	-9.547000	27.811328	3.981743E-5	20.805951
2388.639689	-2.968900	3.183600	-9.450800	27.814775	3.928939E-5	20.782868
2389.640965	-3.023400	3.181800	-9.619100	27.844259	3.905837E-5	20.805429
2390.641480	-3.022100	3.181100	-9.612500	27.872179	4.123653E-5	20.818356
2391.641192	-2.982200	3.182700	-9.491500	27.918423	3.862934E-5	20.803734
2392.641041	-3.011900	3.181100	-9.579300	27.963599	3.895936E-5	20.802262
2393.641749	-3.002300	3.179500	-9.545100	27.975375	4.041147E-5	20.812218
2394.649568	-3.011200	3.180000	-9.574800	27.942698	3.833232E-5	20.817260
2395.644673	-2.973500	3.179800	-9.454400	27.889316	3.787028E-5	20.814740
2396.643151	-3.012600	3.178200	-9.574000	27.798760	3.849733E-5	20.790459
2397.643984	-2.997600	3.176900	-9.522100	27.810415	3.575813E-5	20.791756
2398.645125	-3.013400	3.176800	-9.572200	27.852792	3.816731E-5	20.806430
2399.642892	-3.025700	3.176600	-9.610700	27.915401	3.833232E-5	20.816338
2400.647053	-3.019300	3.175700	-9.587800	27.924575	3.598915E-5	20.789537
2401.642549	-3.005300	3.174300	-9.538900	27.931144	3.612116E-5	20.810847
2402.642059	-3.024600	3.172400	-9.594800	27.881259	3.678120E-5	20.813269
2403.643917	-2.997400	3.174000	-9.512900	27.885250	3.447103E-5	20.806381
2404.643493	-3.009200	3.173600	-9.549200	27.896286	3.282091E-5	20.808479
2405.643125	-2.974700	3.172800	-9.437100	27.791471	3.470205E-5	20.826270
2406.645465	-3.016200	3.171100	-9.563400	27.746067	3.509808E-5	20.799070
2407.642296	-3.012700	3.170500	-9.549600	27.746934	3.453704E-5	20.829814
2408.642857	-3.004500	3.171400	-9.526800	27.742644	3.466905E-5	20.813643
2409.647588	-3.007600	3.170300	-9.534300	27.799953	3.631917E-5	20.805883
2410.644296	-2.999600	3.168800	-9.504100	27.827649	3.420702E-5	20.810997
2411.646021	-2.996500	3.169000	-9.495500	27.826262	3.427302E-5	20.821929
2412.644711	-3.000800	3.167800	-9.505200	27.810987	3.450404E-5	20.834057
2413.644777	-3.005100	3.167600	-9.517700	27.885028	3.400900E-5	20.825123
2414.645891	-3.014300	3.166000	-9.542400	27.965410	3.460304E-5	20.824948
2415.645252	-2.997600	3.166100	-9.489900	27.939947	3.404200E-5	20.813543
2416.646193	-2.992800	3.166700	-9.476500	27.918650	3.232588E-5	20.806806
2417.651909	-3.006700	3.164200	-9.513200	27.944485	3.486706E-5	20.827594
2418.647614	-3.034700	3.163000	-9.596700	28.008327	3.390999E-5	20.826894
2419.648172	-3.012300	3.161800	-9.523100	28.023251	3.410801E-5	20.835279
2420.646849	-3.008600	3.162300	-9.512800	28.019532	3.565912E-5	20.806406
2421.646195	-2.992500	3.161700	-9.460200	27.996575	3.562612E-5	20.831187
2422.647882	-2.992300	3.160600	-9.456400	27.953882	3.384399E-5	20.822353
2423.648682	-3.009700	3.160400	-9.510700	27.854356	3.331595E-5	20.824125
2424.646020	-3.018300	3.158500	-9.532200	27.902236	2.965268E-5	20.812571
2425.649884	-2.989400	3.159500	-9.443700	27.939229	3.414101E-5	20.820881
2426.649532	-2.995500	3.158500	-9.460400	28.038696	3.093978E-5	20.824273
2427.654672	-3.006000	3.157800	-9.491300	28.069984	3.225987E-5	20.822578
2428.653522	-3.018200	3.155700	-9.524100	28.020700	3.120379E-5	20.825124
2429.648902	-2.988800	3.156700	-9.432800	27.984997	3.037873E-5	20.842766
2430.649363	-3.015100	3.155600	-9.513700	28.029799	3.179784E-5	20.818162
2431.649393	-3.022500	3.154200	-9.532800	27.996973	3.084077E-5	20.823527
2432.651669	-2.983000	3.156100	-9.412900	27.930775	3.034573E-5	20.823278
2433.656219	-2.970900	3.153600	-9.368200	27.928000	3.008171E-5	20.837553
2434.652825	-3.010000	3.151500	-9.485700	27.969677	3.018072E-5	20.839200
2435.651861	-2.994500	3.152000	-9.438000	27.937619	3.074176E-5	20.835856
2436.657811	-3.020200	3.150900	-9.515400	27.923860	2.899263E-5	20.837179
2437.652208	-3.004000	3.151300	-9.466200	27.959884	3.011471E-5	20.839774
2438.655367	-2.996700	3.148600	-9.433100	28.051269	3.011471E-5	20.831239
2439.653162	-3.016400	3.147400	-9.493300	28.105834	2.859660E-5	20.832114
2440.654178	-2.999600	3.147300	-9.439400	28.139994	3.103878E-5	20.854173
2441.655751	-2.989100	3.146300	-9.403900	28.160692	2.859660E-5	20.845140
2442.654266	-2.984200	3.146700	-9.388800	28.098892	2.922365E-5	20.845039
2443.655802	-3.008900	3.145700	-9.463900	28.039120	2.843159E-5	20.825174
2444.653824	-3.018800	3.144500	-9.492300	27.978552	2.701249E-5	20.824899
2445.654763	-3.015300	3.142100	-9.473500	27.952545	2.803556E-5	20.811050
2446.653972	-2.999700	3.143700	-9.429100	27.981478	2.750752E-5	20.847284
2447.654277	-2.989100	3.142400	-9.391900	27.995509	2.872861E-5	20.840070
2448.654709	-2.988300	3.142700	-9.391000	27.967319	2.684747E-5	20.848205
2449.653626	-2.999800	3.139300	-9.416300	27.961590	2.783755E-5	20.840543
2450.654312	-3.011900	3.140500	-9.457200	27.980931	2.671546E-5	20.854319
2451.655798	-2.978500	3.139600	-9.349900	28.022877	2.572539E-5	20.861928
2452.657901	-3.018300	3.138600	-9.473100	28.036190	2.757353E-5	20.839768
2453.656554	-3.010000	3.136400	-9.439100	28.078335	2.582440E-5	20.860854
2454.659042	-2.992400	3.136600	-9.384900	28.160140	2.948767E-5	20.844109
2455.655304	-3.002600	3.136400	-9.416500	28.188051	2.602241E-5	20.852293
2456.655692	-2.991700	3.134900	-9.376900	28.210731	2.968568E-5	20.840040
2457.656001	-2.985200	3.134700	-9.355800	28.165020	2.367924E-5	20.832901
2458.655258	-2.988800	3.132700	-9.361900	28.199599	2.344822E-5	20.844479
2459.658105	-2.987400	3.131900	-9.355700	28.234301	2.635244E-5	20.836743
2460.658595	-2.989800	3.132000	-9.363400	28.238166	2.714450E-5	20.848695
2461.658063	-3.013100	3.130500	-9.431900	28.212660	2.740852E-5	20.844353
2462.657017	-3.003700	3.128200	-9.394300	28.233951	2.645145E-5	20.842555
2463.658993	-3.002100	3.128700	-9.392100	28.172626	2.546137E-5	20.851938
2464.657818	-2.998100	3.128100	-9.377500	28.140276	2.407527E-5	20.847819
2465.662893	-2.997000	3.127400	-9.371200	28.176617	2.605542E-5	20.845524
2466.658206	-2.998800	3.126700	-9.375700	28.201874	2.648445E-5	20.859571
2467.658813	-3.010600	3.124300	-9.405700	28.292493	2.721050E-5	20.855503
2468.657640	-2.981000	3.125700	-9.316800	28.293138	2.513135E-5	20.866109
2469.659309	-2.978900	3.124800	-9.307800	28.269492	2.536237E-5	20.856526
2470.659272	-2.987600	3.123100	-9.329200	28.298665	2.826658E-5	20.832795
2471.661691	-2.992000	3.121800	-9.339700	28.238359	2.483433E-5	20.854578
2472.660084	-2.977600	3.121900	-9.294700	28.219398	2.381125E-5	20.869627
2473.661376	-3.002600	3.118900	-9.363800	28.244134	2.552738E-5	20.864660
2474.661798	-3.026600	3.117500	-9.434300	28.236525	2.463631E-5	20.861740
2475.662422	-3.022200	3.117700	-9.421500	28.153981	2.344822E-5	20.862564
2476.663815	-3.020100	3.116700	-9.411700	28.173638	2.523036E-5	20.857697
2477.662483	-2.975000	3.117100	-9.272000	28.185288	2.407527E-5	20.853305
2478.662002	-3.047100	3.114500	-9.488800	28.193369	2.513135E-5	20.840578
2479.665576	-3.000100	3.113900	-9.340400	28.223312	2.235914E-5	20.877834
2480.671573	-3.002300	3.112300	-9.343100	28.283865	2.189711E-5	20.837807
2481.665594	-2.996000	3.113000	-9.325800	28.291101	2.127006E-5	20.846516
2482.663834	-3.003700	3.111300	-9.344100	28.301364	2.014798E-5	20.866330
2483.663266	-3.007000	3.110100	-9.351300	28.342903	2.252416E-5	20.837982
2484.664511	-2.968000	3.111200	-9.233100	28.304956	2.490033E-5	20.863309
2485.664354	-3.007100	3.109400	-9.350200	28.227450	2.394326E-5	20.865880
2486.666009	-3.007600	3.107200	-9.343900	28.284804	2.292019E-5	20.852977
2487.665885	-3.009600	3.106800	-9.349600	28.330657	2.414128E-5	20.864057
2488.665930	-2.996600	3.104700	-9.302800	28.376557	2.169910E-5	20.864755
2489.665701	-2.985700	3.104300	-9.267800	28.418713	2.381125E-5	20.852203
2490.667922	-2.995700	3.103000	-9.294300	28.419480	2.384425E-5	20.857717
2491.669727	-2.983800	3.103000	-9.258000	28.322402	2.338222E-5	20.878977
2492.666299	-2.984600	3.102200	-9.257600	28.322278	2.268917E-5	20.866525
2493.666224	-2.991700	3.100200	-9.273400	28.306043	2.193011E-5	20.882420
2494.665567	-2.994900	3.100100	-9.283900	28.278059	2.450430E-5	20.867522
2495.668754	-2.993500	3.099300	-9.277300	28.324359	2.443830E-5	20.871939
2496.667121	-2.981400	3.097600	-9.234200	28.268888	2.348123E-5	20.864452
2497.675414	-2.986700	3.097400	-9.250300	28.251090	2.054401E-5	20.870715
2498.668231	-3.007100	3.094900	-9.306100	28.308497	2.183111E-5	20.884891
2499.666981	-2.962900	3.096600	-9.174100	28.381783	2.275517E-5	20.876654
2500.669428	-3.001900	3.094500	-9.288200	28.401932	2.123706E-5	20.871340
2501.669420	-3.022400	3.092700	-9.346900	28.427384	2.288718E-5	20.864253
2502.679783	-2.996500	3.092900	-9.266300	28.473379	2.305220E-5	20.883068
2503.673005	-3.013700	3.089500	-9.309800	28.402651	1.935592E-5	20.891976
2504.670636	-3.008000	3.089100	-9.291100	28.352711	1.998297E-5	20.874883
2505.670921	-3.017800	3.087800	-9.317300	28.326168	2.044500E-5	20.870442
2506.674824	-2.973700	3.087000	-9.179400	28.376231	2.127006E-5	20.891926
2507.671502	-2.978400	3.087800	-9.194800	28.423518	2.166609E-5	20.878851
2508.674532	-2.995000	3.084100	-9.236200	28.486413	2.146808E-5	20.882443
2509.683611	-3.000900	3.083900	-9.252800	28.537462	2.216113E-5	20.878851
2510.671043	-2.987600	3.082400	-9.207400	28.435388	2.133607E-5	20.869467
2511.671838	-2.996600	3.080500	-9.229900	28.422750	2.074203E-5	20.879974
2512.672917	-2.998100	3.081300	-9.237200	28.450283	2.140207E-5	20.873561
2513.671960	-3.009900	3.079100	-9.267100	28.460766	2.070902E-5	20.881746
2514.671947	-2.996800	3.078700	-9.225500	28.458882	2.037900E-5	20.873212
2515.672092	-3.002100	3.077200	-9.237700	28.369712	2.090704E-5	20.882044
2516.671725	-2.991200	3.078100	-9.205800	28.387731	1.938893E-5	20.866050
2517.673005	-2.993800	3.075600	-9.206700	28.350681	2.064302E-5	20.905553
2518.674448	-2.968700	3.075500	-9.129400	28.297964	1.955394E-5	20.887562
2519.673621	-2.981800	3.073300	-9.162900	28.336503	2.308520E-5	20.870417
2520.673985	-3.003600	3.070800	-9.222700	28.391525	1.925692E-5	20.878877
2521.673594	-3.007400	3.071300	-9.235800	28.372142	1.961994E-5	20.883068
2522.673347	-3.006800	3.069000	-9.227200	28.335934	2.110505E-5	20.893550
2523.674042	-2.999500	3.067800	-9.200400	28.346815	1.882789E-5	20.895497
2524.674093	-2.981600	3.068300	-9.147400	28.385378	2.067602E-5	20.898291
2525.676014	-3.000800	3.065300	-9.198000	28.415763	2.117106E-5	20.900438
2526.675107	-3.010300	3.063700	-9.221700	28.452068	1.915791E-5	20.891004
2527.676394	-2.992700	3.065400	-9.172500	28.473727	1.942193E-5	20.904754
2528.674975	-3.023000	3.063000	-9.258300	28.475388	1.823384E-5	20.911167
2529.685570	-3.006500	3.061100	-9.201300	28.417721	2.080803E-5	20.893875
2530.675685	-2.992400	3.060900	-9.159000	28.408204	1.889389E-5	20.915584
2531.680622	-3.013100	3.058900	-9.215000	28.410756	1.889389E-5	20.903930
2532.676211	-3.022200	3.058400	-9.241800	28.414970	2.034600E-5	20.892528
2533.678057	-3.030700	3.056600	-9.262700	28.389963	1.849786E-5	20.895321
2534.677350	-3.007700	3.055800	-9.190800	28.380696	1.902590E-5	20.888835
2535.681689	-3.000200	3.055200	-9.165300	28.414796	1.915791E-5	20.889034
2536.676573	-2.988700	3.054000	-9.126300	28.413508	1.922391E-5	20.903857
2537.675826	-2.977000	3.052300	-9.085600	28.467979	1.829985E-5	20.885216
2538.679639	-2.972200	3.052100	-9.070300	28.461264	1.810183E-5	20.903583
2539.677114	-2.979100	3.050000	-9.085500	28.469194	1.975195E-5	20.906352
2540.681619	-2.997500	3.048500	-9.137400	28.476504	1.915791E-5	20.922247
2541.676446	-2.989000	3.047200	-9.106800	28.445479	1.740878E-5	20.900963
2542.676889	-3.008700	3.045100	-9.161400	28.389767	1.849786E-5	20.902235
2543.679667	-3.016300	3.044100	-9.180700	28.397301	1.922391E-5	20.906028
2544.677025	-2.994700	3.044300	-9.115800	28.461612	2.014798E-5	20.915786
2545.677847	-3.000200	3.042500	-9.126900	28.570473	1.869588E-5	20.898344
2546.678475	-3.005300	3.041500	-9.139000	28.530480	1.773881E-5	20.916860
2547.678458	-3.007400	3.038300	-9.135900	28.448554	1.905890E-5	20.923024
2548.678745	-3.004600	3.039000	-9.130300	28.403127	1.612169E-5	20.913316
2549.677362	-2.985400	3.038800	-9.070800	28.382607	1.985096E-5	20.907827
2550.678533	-2.997300	3.037200	-9.102000	28.332915	1.909190E-5	20.933180
2551.680107	-3.047400	3.033100	-9.242100	28.386795	1.618769E-5	20.922949
2552.678977	-3.010000	3.032700	-9.127400	28.423475	1.796982E-5	20.911995
2553.679490	-2.990400	3.031400	-9.064000	28.471255	1.701275E-5	20.911272
2554.681694	-2.998200	3.031100	-9.087200	28.492790	1.961994E-5	20.923000
2555.682315	-3.022700	3.028400	-9.153600	28.530953	1.905890E-5	20.928241
2556.679532	-2.982600	3.029100	-9.033600	28.536628	1.813483E-5	20.910725
2557.680557	-2.992600	3.027900	-9.060600	28.552659	1.717776E-5	20.920704
2558.679965	-2.998400	3.027000	-9.075800	28.628732	1.744178E-5	20.925248
2559.679179	-2.995200	3.024100	-9.056200	28.588839	1.612169E-5	20.932485
2560.680287	-2.987500	3.023600	-9.032500	28.590525	1.678173E-5	20.895305
2561.684189	-3.010800	3.023000	-9.100700	28.561879	1.810183E-5	20.914818
2562.682416	-2.987500	3.021000	-9.024400	28.616517	1.777181E-5	20.935230
2563.681766	-2.999800	3.018500	-9.054100	28.640898	1.846486E-5	20.932286
2564.681002	-3.014900	3.018400	-9.099500	28.708761	1.853086E-5	20.925722
2565.686240	-2.995800	3.016200	-9.034900	28.709233	1.714476E-5	20.932835
2566.683457	-3.014800	3.014000	-9.085800	28.744934	1.965295E-5	20.933708
2567.686930	-3.004900	3.012200	-9.051100	28.759898	1.668273E-5	20.945460
2568.681946	-2.991300	3.013200	-9.012500	28.821461	1.724377E-5	20.933982
2569.681216	-3.003700	3.010300	-9.041300	28.813114	1.777181E-5	20.925575
2570.684130	-2.995400	3.011400	-9.019300	28.751625	1.641871E-5	20.928594
2571.682614	-3.011900	3.008400	-9.060500	28.751996	1.605568E-5	20.922805
2572.688153	-2.982400	3.007000	-8.966600	28.776425	1.829985E-5	20.945039
2573.683048	-3.018800	3.005300	-9.071500	28.734604	1.773881E-5	20.943690
2574.683781	-2.975900	3.004500	-8.940700	28.729923	1.655072E-5	20.934709
2575.682607	-3.008300	3.001100	-9.026600	28.697788	1.635270E-5	20.946910
2576.683629	-2.977500	3.003000	-8.940500	28.690083	1.641871E-5	20.936779
2577.683457	-2.981200	3.000200	-8.943300	28.752048	1.803583E-5	20.941822
2578.688494	-3.012200	2.998900	-9.032500	28.777244	1.641871E-5	20.943493
2579.683910	-2.996800	2.997800	-8.982300	28.730421	1.598968E-5	20.937581
2580.688135	-3.007800	2.996700	-9.012800	28.754229	1.608868E-5	20.950656
2581.685609	-3.004000	2.994400	-8.994300	28.710501	1.631970E-5	20.926527
2582.693070	-3.024500	2.993600	-9.053300	28.741298	1.869588E-5	20.943320
2583.686545	-3.020500	2.992100	-9.036800	28.708545	1.694675E-5	20.955373
2584.687339	-3.034600	2.988900	-9.068900	28.667515	1.727677E-5	20.947712
2585.690667	-3.000700	2.988700	-8.967700	28.669498	1.579166E-5	20.950183
2586.687932	-3.023800	2.987200	-9.031900	28.673538	1.565965E-5	20.953778
2587.689428	-2.981000	2.988200	-8.907200	28.638330	1.539563E-5	20.949137
2588.689979	-3.001600	2.985200	-8.959400	28.603989	1.552764E-5	20.952482
2589.687700	-3.009900	2.984200	-8.981800	28.657139	1.605568E-5	20.978982
2590.688622	-2.997900	2.980800	-8.935400	28.695617	1.635270E-5	20.950412
2591.689017	-3.014700	2.979700	-8.981600	28.724012	1.612169E-5	20.936341
2592.691449	-2.993600	2.980000	-8.920500	28.625227	1.526362E-5	20.931201
2593.692813	-3.033800	2.976700	-9.030200	28.648543	1.404253E-5	20.941881
2594.689587	-2.994700	2.976600	-8.913400	28.657463	1.796982E-5	20.939012
2595.690214	-2.974300	2.976400	-8.851100	28.690913	1.651772E-5	20.944253
2596.692476	-2.972600	2.974700	-8.842000	28.772524	1.793682E-5	20.942532
2597.689943	-2.986900	2.972800	-8.878700	28.746213	1.483459E-5	20.930729
2598.695308	-3.000900	2.970300	-8.912800	28.767496	1.519762E-5	20.938891
2599.691520	-2.986900	2.968600	-8.866600	28.732416	1.658372E-5	20.933427
2600.696189	-3.005800	2.968600	-8.922100	28.765515	1.523062E-5	20.928836
2601.694121	-3.021700	2.964600	-8.957500	28.734399	1.552764E-5	20.946803
2602.691425	-2.982400	2.964700	-8.841000	28.724069	1.688074E-5	20.911272
2603.693317	-3.023900	2.962000	-8.956200	28.808179	1.810183E-5	20.939568
2604.694117	-3.011500	2.961300	-8.917000	28.839987	1.572566E-5	20.952168
2605.692216	-3.028200	2.959900	-8.962100	28.867685	1.542864E-5	20.931710
2606.692406	-2.994700	2.958900	-8.859600	28.846133	1.671573E-5	20.942714
2607.695498	-2.994000	2.957900	-8.855200	28.860898	1.625370E-5	20.948578
2608.693440	-3.011800	2.957000	-8.904400	28.888966	1.457057E-5	20.923751
2609.696344	-3.008600	2.953300	-8.884200	28.937766	1.529663E-5	20.937351
2610.692732	-3.016400	2.951600	-8.902500	28.967144	1.519762E-5	20.934233
2611.692440	-3.000400	2.951400	-8.854400	29.011357	1.526362E-5	20.935630
2612.696173	-3.029200	2.948000	-8.928900	28.984434	1.394353E-5	20.922257
2613.694371	-3.015100	2.947900	-8.887200	28.960581	1.460357E-5	20.917666
2614.698003	-2.997500	2.946200	-8.830400	28.882654	1.519762E-5	20.938728
2615.695369	-2.985900	2.945000	-8.792500	28.832094	1.569265E-5	20.929047
2616.696131	-3.026700	2.942600	-8.906100	28.827784	1.424055E-5	20.922809
2617.698053	-3.013600	2.940500	-8.861000	28.810988	1.358050E-5	20.922485
2618.697526	-3.019100	2.940300	-8.875500	28.791467	1.394353E-5	20.922735
2619.696475	-2.986100	2.937700	-8.772000	28.809179	1.565965E-5	20.917345
2620.699032	-2.987500	2.937400	-8.774900	28.860262	1.470258E-5	20.912854
2621.700070	-3.019200	2.935900	-8.863200	28.888033	1.569265E-5	20.906692
2622.698423	-2.995500	2.933500	-8.786500	28.963310	1.678173E-5	20.917096
2623.699091	-2.981500	2.933200	-8.744500	28.997295	1.539563E-5	20.916249
2624.699998	-3.004900	2.930400	-8.804600	28.980378	1.740878E-5	20.908689
2625.703018	-2.984900	2.928900	-8.740500	28.910079	1.315147E-5	20.917047
2626.698889	-3.007100	2.928300	-8.804500	28.837548	1.559365E-5	20.896612
2627.698700	-2.982500	2.926100	-8.726600	28.741277	1.635270E-5	20.915328
2628.699606	-2.988300	2.923500	-8.734900	28.766770	1.724377E-5	20.915403
2629.700126	-2.992700	2.922600	-8.745400	28.743011	1.381152E-5	20.898584
2630.702014	-3.004400	2.919100	-8.768900	28.803807	1.532963E-5	20.929950
2631.701900	-2.999400	2.919600	-8.756400	28.884764	1.374551E-5	20.898185
2632.700796	-2.984900	2.916600	-8.704900	28.943548	1.562665E-5	20.914256
2633.699704	-2.989800	2.916300	-8.718500	28.876838	1.684774E-5	20.890200
2634.700390	-3.008500	2.913700	-8.764500	28.901338	1.598968E-5	20.892123
2635.701166	-3.005100	2.911700	-8.748400	28.900124	1.556064E-5	20.910812
2636.702677	-2.988100	2.910200	-8.694900	28.875997	1.529663E-5	20.908792
2637.701681	-3.004800	2.907300	-8.734400	28.902280	1.602268E-5	20.895916
2638.701556	-2.996600	2.907200	-8.711000	28.877533	1.638571E-5	20.910813
2639.703292	-2.992000	2.906300	-8.694700	28.844091	1.493360E-5	20.906047
2640.702009	-3.000000	2.903600	-8.710000	28.904981	1.542864E-5	20.901955
2641.709959	-3.008700	2.900700	-8.726200	28.934285	1.509861E-5	20.903503
2642.703949	-3.014100	2.899600	-8.738800	28.972506	1.796982E-5	20.905025
2643.702116	-2.989100	2.898000	-8.661000	28.939116	1.516462E-5	20.883715
2644.702365	-3.014900	2.896100	-8.730900	28.983925	1.608868E-5	20.901357
2645.702416	-2.978300	2.895200	-8.621900	29.000768	1.569265E-5	20.908369
2646.703031	-3.024900	2.891600	-8.745200	28.990338	1.612169E-5	20.886957
2647.708109	-2.993400	2.890500	-8.651500	29.004979	1.641871E-5	20.898388
2648.704509	-3.010400	2.887100	-8.690900	28.958213	1.305246E-5	20.872610
2649.703873	-3.006500	2.886500	-8.677700	28.941343	1.760680E-5	20.901131
2650.704458	-3.024800	2.884200	-8.723500	28.908622	1.691374E-5	20.878124
2651.705614	-2.988400	2.884300	-8.619100	28.953853	1.628670E-5	20.876752
2652.705947	-3.010000	2.880400	-8.668700	28.912066	1.516462E-5	20.897239
2653.706001	-3.020300	2.880100	-8.697600	28.901908	1.331648E-5	20.912135
2654.704381	-2.984800	2.877900	-8.589700	28.928959	1.598968E-5	20.899086
2655.707996	-3.007600	2.875600	-8.647600	28.944663	1.780481E-5	20.897837
2656.705778	-3.012200	2.873100	-8.653600	28.924250	1.579166E-5	20.898609
2657.706875	-2.989100	2.873500	-8.588300	28.936538	1.618769E-5	20.891548
2658.705966	-2.978400	2.871000	-8.549400	28.963190	1.163336E-5	20.898959
2659.705813	-2.995300	2.868600	-8.591400	28.960018	1.420755E-5	20.898609
2660.709098	-2.998700	2.866000	-8.593200	28.920337	1.176537E-5	20.887555
2661.706970	-2.965600	2.865900	-8.498200	28.951002	1.668273E-5	20.889525
2662.708568	-3.005700	2.862600	-8.603800	28.981468	1.549464E-5	20.871858
2663.707469	-2.979900	2.861200	-8.525100	28.998387	1.711176E-5	20.901704
2664.708270	-2.992400	2.859900	-8.557400	28.990113	1.476859E-5	20.882464
2665.707833	-2.965400	2.857300	-8.472700	29.045497	1.661672E-5	20.894642
2666.707299	-3.028700	2.853800	-8.642700	29.129506	1.684774E-5	20.905321
2667.707018	-3.005500	2.851400	-8.569400	29.185847	1.641871E-5	20.888602
2668.711370	-2.981600	2.850400	-8.496800	29.227102	1.641871E-5	20.883709
2669.706830	-2.977500	2.849100	-8.482500	29.243398	1.539563E-5	20.867890
2670.707723	-3.009700	2.846900	-8.567800	29.249564	1.453757E-5	20.875526
2671.712076	-2.990100	2.845300	-8.506700	29.253773	1.810183E-5	20.903948
2672.706720	-3.012800	2.842700	-8.562800	29.225124	1.727677E-5	20.879345
2673.709757	-3.003500	2.840100	-8.529400	29.272073	1.717776E-5	20.899630
2674.707042	-3.027100	2.838000	-8.589900	29.286980	1.674873E-5	20.877671
2675.708131	-3.010700	2.836600	-8.539300	29.282447	1.325048E-5	20.877371
2676.708516	-3.006900	2.833400	-8.518600	29.193051	1.529663E-5	20.885431
2677.708715	-3.033400	2.831600	-8.587900	29.178218	1.615469E-5	20.867639
2678.710243	-2.986300	2.828000	-8.444400	29.184903	1.450457E-5	20.882910
2679.709879	-3.014200	2.824800	-8.513700	29.253227	1.658372E-5	20.877321
2680.709651	-3.009800	2.822700	-8.494400	29.244385	1.763980E-5	20.866989
2681.710108	-3.013600	2.823400	-8.507700	29.201421	1.579166E-5	20.858306
2682.709708	-3.003500	2.820500	-8.470900	29.188692	1.539563E-5	20.863022
2683.709671	-2.988700	2.818000	-8.421300	29.221703	1.440556E-5	20.876846
2684.711517	-3.021300	2.814300	-8.501700	29.279377	1.559365E-5	20.879492
2685.712224	-3.015600	2.812000	-8.479300	29.272443	1.618769E-5	20.876297
2686.711205	-2.951300	2.810900	-8.294800	29.318725	1.562665E-5	20.850871
2687.714008	-3.021700	2.806700	-8.479300	29.326624	1.602268E-5	20.873055
2688.713573	-2.996300	2.805000	-8.404200	29.343213	1.480159E-5	20.868912
2689.717237	-3.024200	2.802000	-8.473300	29.372431	1.427355E-5	20.863272
2690.713905	-3.001600	2.799500	-8.402200	29.358219	1.559365E-5	20.861277
2691.714462	-3.003200	2.797500	-8.400100	29.285074	1.777181E-5	20.862950
2692.715141	-2.994800	2.793300	-8.364700	29.263730	1.618769E-5	20.874629
2693.713657	-3.016500	2.792500	-8.422800	29.259915	1.747479E-5	20.867940
2694.718550	-2.991300	2.788700	-8.341300	29.187581	1.615469E-5	20.863799
2695.716342	-2.981400	2.786000	-8.305300	29.165862	1.424055E-5	20.877474
2696.715243	-2.997800	2.783400	-8.343700	29.218190	1.483459E-5	20.847704
2697.715000	-2.976200	2.781000	-8.275800	29.165047	1.790382E-5	20.866221
2698.719713	-2.979500	2.779400	-8.279800	29.136022	1.516462E-5	20.872061
2699.717024	-2.966500	2.776300	-8.235000	29.144716	1.724377E-5	20.867545
2700.720278	-3.034000	2.771600	-8.407000	29.227628	1.608868E-5	20.849628
2701.716240	-2.993400	2.769100	-8.288400	29.303552	1.750779E-5	20.859286
2702.716922	-2.986600	2.767000	-8.262900	29.302513	1.681474E-5	20.842119
2703.719801	-2.989000	2.763100	-8.257700	29.317071	1.777181E-5	20.855842
2704.717690	-2.993600	2.760700	-8.263700	29.308480	1.648471E-5	20.866623
2705.718593	-3.004000	2.758100	-8.284500	29.349337	1.711176E-5	20.862282
2706.720441	-2.964500	2.754200	-8.164400	29.371102	1.902590E-5	20.867623
2707.717196	-3.000400	2.750500	-8.252100	29.487792	1.734278E-5	20.861010
2708.717360	-2.987800	2.748600	-8.211400	29.505345	1.793682E-5	20.829868
2709.717045	-2.977000	2.746100	-8.174500	29.493140	1.869588E-5	20.853599
2710.717029	-2.983800	2.741600	-8.179400	29.477419	1.763980E-5	20.881374
2711.720881	-3.021800	2.738100	-8.273200	29.508739	1.628670E-5	20.845142
2712.717791	-3.007200	2.735700	-8.226100	29.509555	1.595667E-5	20.855921
2713.717482	-2.998800	2.731000	-8.188600	29.493983	1.641871E-5	20.854923
2714.719805	-3.026500	2.727600	-8.254300	29.489799	1.648471E-5	20.861137
2715.718855	-3.007900	2.723500	-8.191200	29.534907	1.777181E-5	20.860140
2716.723427	-2.998000	2.722200	-8.160300	29.551049	1.724377E-5	20.852230
2717.716979	-3.024400	2.716200	-8.214000	29.594198	1.876188E-5	20.864432
2718.718304	-2.985500	2.714500	-8.103400	29.505671	1.565965E-5	20.850110
2719.719553	-2.996300	2.709900	-8.118900	29.527135	1.641871E-5	20.846616
2720.720210	-2.977900	2.706800	-8.059700	29.584620	1.655072E-5	20.839131
2721.720802	-2.991800	2.702700	-8.084800	29.582811	1.803583E-5	20.850584
2722.718972	-2.979200	2.699600	-8.042100	29.487673	1.648471E-5	20.851882
2723.718665	-3.010300	2.693400	-8.107000	29.394456	1.602268E-5	20.830471
2724.718200	-3.001500	2.691300	-8.077600	29.407653	1.539563E-5	20.842824
2725.719861	-2.989000	2.687000	-8.030700	29.482302	1.648471E-5	20.854054
2726.720257	-3.029500	2.681900	-8.123500	29.519338	1.351449E-5	20.849662
2727.719647	-2.986200	2.678700	-7.998500	29.555063	1.823384E-5	20.839208
2728.719854	-3.031400	2.674500	-8.106400	29.506242	1.598968E-5	20.854953
2729.723385	-3.009000	2.669200	-8.031100	29.519860	1.724377E-5	20.862041
2730.722684	-2.987800	2.665100	-7.962100	29.590711	1.628670E-5	20.836263
2731.725672	-2.973600	2.662000	-7.914800	29.634058	1.737578E-5	20.832072
2732.721903	-2.987400	2.657300	-7.937500	29.697155	1.773881E-5	20.844475
2733.723673	-3.035700	2.650700	-8.045400	29.693219	1.763980E-5	20.849041
2734.722693	-3.000300	2.645800	-7.937700	29.722354	1.694675E-5	20.846172
2735.722199	-3.001500	2.642300	-7.929500	29.754482	1.711176E-5	20.850116
2736.723180	-3.032200	2.636400	-7.993700	29.809182	1.592367E-5	20.860223
2737.727586	-2.950100	2.635500	-7.773800	29.852418	1.697975E-5	20.858299
2738.723162	-3.006500	2.628900	-7.903100	29.829106	1.595667E-5	20.842381
2739.723337	-2.979700	2.623600	-7.815600	29.779656	1.638571E-5	20.849893
2740.728312	-2.977900	2.619100	-7.798700	29.847198	1.770580E-5	20.848770
2741.724170	-2.992200	2.613300	-7.818400	29.816038	1.572566E-5	20.839636
2742.724448	-2.976100	2.609200	-7.764700	29.739559	1.678173E-5	20.841708
2743.723426	-2.996000	2.602100	-7.794900	29.753076	1.598968E-5	20.845853
2744.727227	-3.011200	2.596600	-7.818200	29.723794	1.509861E-5	20.857107
2745.725029	-3.011400	2.591800	-7.803700	29.734561	1.658372E-5	20.843307
2746.725551	-2.995400	2.585400	-7.743500	29.680724	1.856387E-5	20.841185
2747.725858	-3.001400	2.580100	-7.742700	29.700650	1.556064E-5	20.830929
2748.724906	-3.033400	2.575300	-7.810400	29.688401	1.777181E-5	20.830907
2749.724473	-2.995300	2.570300	-7.696700	29.639165	1.612169E-5	20.829159
2750.725174	-3.010100	2.564200	-7.717500	29.692385	1.526362E-5	20.835873
2751.724164	-3.013300	2.556100	-7.701700	29.755627	1.711176E-5	20.836572
2752.724606	-2.977200	2.552600	-7.598700	29.660900	1.499960E-5	20.830209
2753.725721	-2.988500	2.544900	-7.604400	29.624612	1.681474E-5	20.822550
2754.726288	-2.957300	2.539500	-7.509100	29.671892	1.714476E-5	20.842238
2755.725420	-3.007700	2.532900	-7.617500	29.658996	1.546164E-5	20.828289
2756.729850	-3.028700	2.527100	-7.652300	29.761027	1.565965E-5	20.823999
2757.726949	-2.985000	2.521700	-7.526400	29.870719	1.565965E-5	20.827917
2758.728450	-3.029700	2.512900	-7.612800	29.845078	1.585767E-5	20.829089
2759.726976	-3.014700	2.509700	-7.565400	29.761101	1.542864E-5	20.839246
2760.726826	-3.012500	2.502000	-7.536200	29.698901	1.483459E-5	20.840071
2761.727533	-3.038400	2.495000	-7.580400	29.658330	1.430655E-5	20.829040
