LabVIEW Measurement	
Writer_Version	2
Reader_Version	2
Separator	Tab
Decimal_Separator	.
Multi_Headings	No
X_Columns	One
Time_Pref	Absolute
Operator	admin
Description	Clolumns are: time, Current, Voltage, Power, Battery Temp, and Chamber Temp
Date	2024/08/16
Time	13:07:17.8513970375061035156
***End_of_Header***	
	
Channels	6						
Samples	1	1	1	1	1	1	
Date	2024/09/19	2024/09/19	2024/09/19	2024/09/19	2024/09/19	2024/09/19	
Time	12:38:54.1336703300476074219	12:38:54.1418833732604980469	12:38:54.1489186286926269531	12:38:54.1163167953491210937	12:38:54.1163167953491210937	12:38:54.1163167953491210937	
X_Dimension	Time	Time	Time	Time	Time	Time	
X0	0.0000000000000000E+0	0.0000000000000000E+0	0.0000000000000000E+0	0.0000000000000000E+0	0.0000000000000000E+0	0.0000000000000000E+0	
Delta_X	1.000000	1.000000	1.000000	1.000000	1.000000	1.000000	
***End_of_Header***							
X_Value	Untitled	Untitled 1	Untitled 2	Untitled 3	Untitled 4	Untitled 5	Comment
0.000000	0.028447	4.083800	0.116160	20.849751	0.000475	20.858760
1.001858	-3.004500	3.911500	-11.752000	20.836850	0.000474	20.840169
2.006003	-2.986300	3.906400	-11.665000	20.850848	0.000474	20.840417
3.002909	-3.007100	3.901300	-11.730000	20.844406	0.000473	20.851044
4.003366	-3.025000	3.898600	-11.792000	20.835599	0.000473	20.855986
5.001635	-3.005000	3.896300	-11.708000	20.849696	0.000470	20.864868
6.001176	-3.002500	3.893500	-11.688000	20.857229	0.000470	20.858652
7.004847	-2.989900	3.890600	-11.631000	20.860796	0.000470	20.837090
8.002697	-3.005400	3.889500	-11.688000	20.863591	0.000470	20.842255
9.000750	-3.002900	3.887200	-11.672000	20.894707	0.000469	20.825010
10.003572	-2.996000	3.886200	-11.643000	20.877013	0.000469	20.846669
11.007766	-2.999500	3.884400	-11.650000	20.891564	0.000467	20.850790
12.007631	-3.001400	3.883200	-11.654000	20.901896	0.000468	20.846423
13.003918	-2.984200	3.881900	-11.584000	20.911375	0.000467	20.837412
14.009861	-3.028800	3.878700	-11.747000	20.921031	0.000467	20.844698
15.005507	-2.991700	3.879800	-11.606000	20.913572	0.000468	20.834394
16.009527	-2.986900	3.877200	-11.580000	20.939998	0.000467	20.836640
17.008768	-3.012700	3.876900	-11.679000	20.926670	0.000466	20.821889
18.005569	-3.004700	3.875100	-11.642000	20.941965	0.000464	20.838608
19.005268	-2.997500	3.875100	-11.615000	20.964824	0.000465	20.845348
20.010391	-3.009000	3.874900	-11.658000	20.965224	0.000465	20.830576
21.007963	-2.989700	3.875100	-11.584000	20.964027	0.000463	20.832224
22.007994	-2.983900	3.875100	-11.563000	20.978073	0.000463	20.846746
23.006018	-3.008000	3.872800	-11.647000	20.983418	0.000462	20.844031
24.005907	-3.023400	3.872200	-11.706000	20.990049	0.000462	20.818896
25.006757	-3.005800	3.871900	-11.637000	21.000655	0.000464	20.831874
26.004818	-3.009000	3.871000	-11.647000	21.018422	0.000460	20.832100
27.006876	-3.019500	3.870300	-11.685000	21.034816	0.000460	20.838540
28.009888	-3.008800	3.870500	-11.644000	21.039305	0.000460	20.802254
29.010571	-3.007800	3.869700	-11.638000	21.022942	0.000462	20.856061
30.013579	-2.986200	3.869700	-11.554000	21.046218	0.000459	20.822444
31.009345	-3.001500	3.869000	-11.612000	21.061837	0.000458	20.826212
32.009838	-2.992300	3.868400	-11.575000	21.061440	0.000460	20.818703
33.011468	-2.998500	3.866600	-11.593000	21.081870	0.000459	20.819698
34.011036	-3.017800	3.866300	-11.667000	21.083395	0.000459	20.830231
35.009298	-3.022300	3.865200	-11.680000	21.076408	0.000459	20.812338
36.012244	-3.007800	3.866200	-11.628000	21.094970	0.000458	20.819999
37.012393	-3.006000	3.865200	-11.618000	21.144466	0.000460	20.801231
38.009890	-2.998400	3.867100	-11.594000	21.121441	0.000460	20.823717
39.014991	-3.002500	3.864700	-11.603000	21.126878	0.000458	20.810665
40.011929	-3.001800	3.864700	-11.600000	21.139977	0.000459	20.823293
41.008998	-2.996100	3.864800	-11.578000	21.151453	0.000459	20.822918
42.017533	-2.978800	3.866000	-11.515000	21.140649	0.000459	20.811638
43.014446	-3.010500	3.865600	-11.637000	21.175627	0.000460	20.807745
44.012859	-2.995300	3.863900	-11.573000	21.178393	0.000458	20.821892
45.024043	-3.018400	3.862600	-11.657000	21.174224	0.000459	20.840006
46.014452	-3.039200	3.861000	-11.733000	21.181460	0.000457	20.811210
47.016685	-3.023700	3.863800	-11.682000	21.202366	0.000458	20.814105
48.013678	-3.012600	3.861700	-11.633000	21.220774	0.000459	20.805493
49.018009	-2.990200	3.862300	-11.548000	21.227010	0.000459	20.830697
50.012947	-3.005300	3.862600	-11.607000	21.229879	0.000458	20.804644
51.014983	-2.993600	3.862600	-11.562000	21.239677	0.000458	20.819662
52.015280	-3.010900	3.860400	-11.623000	21.257264	0.000457	20.822082
53.016651	-3.006500	3.859500	-11.603000	21.276195	0.000460	20.806881
54.017006	-3.011900	3.860800	-11.627000	21.262899	0.000456	20.813495
55.014908	-3.010000	3.859200	-11.614000	21.272527	0.000458	20.818385
56.015837	-2.989300	3.861800	-11.543000	21.301934	0.000459	20.809398
57.015545	-2.997300	3.860700	-11.570000	21.305800	0.000456	20.805205
58.018250	-2.992600	3.859400	-11.549000	21.306546	0.000458	20.833452
59.022535	-3.005400	3.857800	-11.593000	21.347928	0.000458	20.824118
60.020741	-3.006600	3.858100	-11.599000	21.338074	0.000457	20.810942
61.019956	-3.015400	3.859100	-11.635000	21.346955	0.000458	20.816033
62.026712	-2.988800	3.858600	-11.531000	21.332409	0.000457	20.807170
63.023504	-3.007300	3.856600	-11.597000	21.349669	0.000458	20.805472
64.021082	-3.005700	3.858000	-11.594000	21.336371	0.000457	20.810660
65.024924	-2.988800	3.857800	-11.529000	21.375035	0.000457	20.806194
66.016573	-3.012300	3.857700	-11.619000	21.375032	0.000457	20.798605
67.021232	-3.003800	3.857100	-11.584000	21.405186	0.000457	20.820713
68.024185	-3.006000	3.856100	-11.590000	21.399298	0.000457	20.812452
69.024848	-3.000100	3.858000	-11.574000	21.405905	0.000457	20.811002
70.022699	-2.989200	3.858500	-11.533000	21.433239	0.000457	20.809902
71.027602	-2.999700	3.856400	-11.567000	21.425508	0.000456	20.803115
72.018115	-2.995300	3.857300	-11.552000	21.439072	0.000457	20.814789
73.023162	-2.993100	3.856900	-11.543000	21.443011	0.000458	20.778428
74.026118	-3.019800	3.856400	-11.645000	21.433085	0.000457	20.827764
75.024437	-2.993000	3.856200	-11.541000	21.445855	0.000458	20.811619
76.025463	-3.002000	3.856500	-11.576000	21.495835	0.000460	20.804256
77.024259	-3.022300	3.855200	-11.650000	21.482542	0.000459	20.818929
78.022582	-3.017600	3.855600	-11.634000	21.499598	0.000459	20.811814
79.027579	-2.986500	3.855700	-11.514000	21.512343	0.000458	20.808446
80.026447	-3.012800	3.854900	-11.613000	21.504786	0.000458	20.810841
81.024490	-2.986100	3.855400	-11.512000	21.514861	0.000457	20.800534
82.025577	-2.988400	3.854700	-11.518000	21.521817	0.000459	20.787106
83.030082	-2.976900	3.855300	-11.476000	21.535782	0.000458	20.810088
84.027672	-2.988100	3.855800	-11.519000	21.555535	0.000458	20.791448
85.026511	-2.982500	3.854500	-11.495000	21.565486	0.000459	20.810888
86.027362	-2.998800	3.854700	-11.559000	21.581519	0.000459	20.831199
87.026206	-2.972900	3.855400	-11.460000	21.566607	0.000459	20.810113
88.024659	-2.971900	3.854700	-11.455000	21.565433	0.000459	20.804672
89.027353	-2.991600	3.853700	-11.528000	21.592844	0.000457	20.816454
90.023259	-3.005200	3.852300	-11.575000	21.580249	0.000460	20.800531
91.028697	-3.003700	3.852500	-11.571000	21.615684	0.000460	20.797584
92.027823	-3.007700	3.854300	-11.591000	21.620574	0.000460	20.794891
93.029264	-3.001900	3.853800	-11.568000	21.589949	0.000457	20.815453
94.031064	-2.999400	3.852500	-11.555000	21.635163	0.000459	20.805223
95.032281	-2.999100	3.853200	-11.555000	21.645509	0.000458	20.789024
96.029950	-2.996600	3.851600	-11.541000	21.630849	0.000458	20.802803
97.029219	-2.977500	3.853000	-11.472000	21.657184	0.000457	20.795018
98.029967	-3.003000	3.852300	-11.568000	21.649628	0.000459	20.781292
99.025243	-3.009900	3.852100	-11.594000	21.666811	0.000456	20.804178
100.034071	-2.997900	3.851600	-11.545000	21.665987	0.000457	20.794819
101.027859	-2.987900	3.851600	-11.507000	21.682722	0.000458	20.784540
102.030938	-2.980300	3.852500	-11.480000	21.677910	0.000458	20.783043
103.035353	-3.012400	3.851300	-11.601000	21.706612	0.000460	20.798966
104.028368	-2.992700	3.852000	-11.528000	21.708857	0.000458	20.791255
105.030845	-2.996100	3.850600	-11.535000	21.702199	0.000458	20.795498
106.031301	-2.999500	3.852100	-11.554000	21.718983	0.000458	20.781948
107.031929	-3.010400	3.849900	-11.588000	21.746015	0.000459	20.779605
108.027301	-2.991200	3.851700	-11.520000	21.735044	0.000460	20.794704
109.025699	-2.986900	3.851300	-11.502000	21.772025	0.000458	20.781455
110.028496	-3.001800	3.849400	-11.554000	21.791474	0.000459	20.785747
111.031738	-2.986500	3.849500	-11.495000	21.772601	0.000460	20.800049
112.030895	-3.014400	3.850100	-11.605000	21.780828	0.000458	20.785050
113.036047	-2.994000	3.848700	-11.522000	21.780085	0.000459	20.765814
114.035750	-2.997100	3.849400	-11.536000	21.802428	0.000460	20.791021
115.039390	-2.995600	3.848700	-11.529000	21.807515	0.000460	20.770983
116.037606	-2.986600	3.848500	-11.493000	21.814278	0.000460	20.783441
117.031155	-3.007300	3.849500	-11.576000	21.830062	0.000460	20.787860
118.043531	-2.999800	3.847400	-11.539000	21.821238	0.000462	20.776182
119.042902	-3.004700	3.848900	-11.563000	21.852928	0.000460	20.781349
120.032917	-2.998400	3.848800	-11.538000	21.845428	0.000461	20.772420
121.032006	-2.997100	3.848700	-11.534000	21.847500	0.000462	20.786821
122.039846	-2.987400	3.848800	-11.497000	21.846530	0.000461	20.795808
123.033212	-2.993200	3.848800	-11.520000	21.871266	0.000461	20.776470
124.033615	-2.994000	3.849300	-11.523000	21.903979	0.000461	20.785507
125.037044	-3.019400	3.847500	-11.616000	21.875133	0.000461	20.779866
126.050900	-2.989500	3.848200	-11.503000	21.909168	0.000461	20.775053
127.031985	-2.988400	3.848400	-11.499000	21.893418	0.000465	20.770668
128.034791	-3.000100	3.846300	-11.538000	21.919849	0.000462	20.772942
129.034844	-3.011200	3.848200	-11.586000	21.921022	0.000462	20.743770
130.032459	-3.011300	3.846400	-11.582000	21.917087	0.000463	20.777290
131.035495	-3.004000	3.847800	-11.558000	21.939378	0.000467	20.773050
132.039285	-3.018000	3.844600	-11.602000	21.954564	0.000463	20.759802
133.039183	-3.021500	3.846100	-11.620000	21.967656	0.000464	20.776227
134.038426	-3.018500	3.846000	-11.608000	21.961876	0.000464	20.744835
135.037990	-2.990500	3.845500	-11.499000	21.968708	0.000464	20.771116
136.036496	-2.994500	3.845200	-11.514000	21.963752	0.000467	20.760938
137.037269	-2.976600	3.846500	-11.448000	21.964804	0.000465	20.739232
138.037611	-2.972700	3.845500	-11.430000	22.003245	0.000466	20.767282
139.035223	-2.985100	3.846000	-11.480000	22.005369	0.000468	20.767511
140.037302	-2.992500	3.845500	-11.507000	22.018287	0.000469	20.745830
141.036259	-2.991400	3.844300	-11.499000	22.007520	0.000466	20.741215
142.038351	-3.022900	3.844200	-11.620000	22.021882	0.000470	20.750850
143.040565	-3.011400	3.844300	-11.576000	22.054838	0.000470	20.741643
144.042243	-3.010900	3.844500	-11.574000	22.035695	0.000468	20.759937
145.038792	-3.006100	3.845100	-11.557000	22.030710	0.000469	20.744041
146.041133	-2.989600	3.843500	-11.489000	22.039214	0.000470	20.728846
147.035633	-2.987100	3.843600	-11.481000	22.044802	0.000469	20.745346
148.042551	-2.998300	3.842100	-11.519000	22.068707	0.000470	20.730395
149.040191	-2.987400	3.844400	-11.483000	22.078430	0.000471	20.754355
150.037601	-3.000500	3.842600	-11.529000	22.068960	0.000472	20.745823
151.042762	-2.999400	3.841700	-11.521000	22.091168	0.000471	20.745296
152.042670	-3.021300	3.841800	-11.606000	22.097678	0.000472	20.758452
153.042009	-2.995400	3.843000	-11.510000	22.115824	0.000472	20.750066
154.046771	-3.006500	3.842500	-11.552000	22.140526	0.000473	20.745399
155.042855	-2.992400	3.841800	-11.495000	22.137613	0.000470	20.750069
156.040506	-2.989400	3.842000	-11.484000	22.147633	0.000471	20.739237
157.041962	-3.019100	3.841700	-11.597000	22.151471	0.000472	20.749245
158.044272	-2.994200	3.841200	-11.500000	22.178639	0.000473	20.743728
159.042062	-3.015800	3.841100	-11.583000	22.155263	0.000474	20.735971
160.042720	-3.000900	3.842300	-11.529000	22.164258	0.000475	20.738339
161.039732	-3.013900	3.839900	-11.573000	22.179763	0.000474	20.745327
162.047112	-2.999300	3.842400	-11.523000	22.175175	0.000475	20.749744
163.045180	-3.020800	3.840300	-11.600000	22.170894	0.000475	20.740241
164.044597	-3.013900	3.840100	-11.573000	22.179691	0.000475	20.733876
165.044601	-2.999800	3.840400	-11.519000	22.211170	0.000475	20.737892
166.044368	-2.988200	3.840100	-11.473000	22.205484	0.000474	20.728406
167.044406	-3.017200	3.839800	-11.584000	22.195617	0.000476	20.742708
168.043507	-2.988300	3.839100	-11.472000	22.191602	0.000476	20.732999
169.045601	-2.991900	3.840300	-11.489000	22.198607	0.000477	20.751392
170.046166	-2.986900	3.839700	-11.467000	22.220320	0.000477	20.729509
171.045155	-2.978500	3.840400	-11.438000	22.218122	0.000478	20.735369
172.042442	-2.981400	3.838600	-11.444000	22.243326	0.000476	20.729785
173.048230	-2.997400	3.839500	-11.507000	22.247960	0.000478	20.751495
174.053784	-2.988100	3.839200	-11.471000	22.251473	0.000478	20.741261
175.048162	-3.006400	3.838600	-11.539000	22.264008	0.000479	20.720620
176.046510	-2.995600	3.839100	-11.499000	22.281953	0.000480	20.729106
177.052235	-3.007900	3.837800	-11.543000	22.273881	0.000480	20.744732
178.046319	-2.999100	3.838600	-11.511000	22.264856	0.000479	20.743756
179.046063	-2.993800	3.837600	-11.487000	22.280582	0.000481	20.741010
180.052373	-3.007900	3.837400	-11.542000	22.294089	0.000481	20.739835
181.049049	-3.016900	3.837900	-11.578000	22.291244	0.000480	20.724659
182.047217	-3.008300	3.836100	-11.540000	22.321278	0.000482	20.737189
183.044466	-2.981800	3.837100	-11.441000	22.342985	0.000483	20.744701
184.049166	-3.031300	3.835400	-11.625000	22.360304	0.000481	20.756828
185.047369	-2.984000	3.837200	-11.449000	22.359704	0.000483	20.723509
186.042708	-3.023800	3.837100	-11.602000	22.361647	0.000482	20.715971
187.046531	-2.999400	3.836700	-11.507000	22.368923	0.000483	20.732267
188.055474	-2.997600	3.835400	-11.495000	22.355937	0.000482	20.726850
189.053759	-2.991300	3.834800	-11.470000	22.359698	0.000485	20.730141
190.052624	-3.007800	3.835000	-11.534000	22.361542	0.000483	20.749533
191.054563	-2.985500	3.837000	-11.454000	22.394486	0.000484	20.724674
192.047208	-3.001000	3.834800	-11.507000	22.398568	0.000484	20.735401
193.051527	-3.017000	3.834400	-11.566000	22.419330	0.000484	20.741020
194.063367	-3.009900	3.834500	-11.540000	22.423564	0.000485	20.727241
195.051920	-3.004700	3.834300	-11.520000	22.439313	0.000485	20.743961
196.052942	-2.994700	3.834300	-11.482000	22.453387	0.000485	20.755211
197.052414	-3.028900	3.832200	-11.606000	22.443645	0.000485	20.748300
198.052182	-3.023300	3.832900	-11.587000	22.457948	0.000485	20.742235
199.051668	-3.016600	3.833100	-11.562000	22.463679	0.000485	20.748448
200.057782	-2.998900	3.832500	-11.493000	22.466044	0.000487	20.735643
201.062248	-2.992200	3.834100	-11.472000	22.472722	0.000488	20.733796
202.063283	-2.987100	3.833900	-11.450000	22.466913	0.000488	20.747420
203.055067	-2.999900	3.833700	-11.500000	22.479870	0.000486	20.734791
204.057532	-2.994400	3.832700	-11.476000	22.510941	0.000488	20.753581
205.057020	-2.980900	3.831900	-11.421000	22.496908	0.000488	20.738578
206.054109	-2.989700	3.832600	-11.457000	22.528459	0.000487	20.730346
207.060310	-2.987700	3.831600	-11.447000	22.512934	0.000487	20.744197
208.060410	-2.987500	3.832400	-11.448000	22.531392	0.000487	20.736130
209.053529	-2.953600	3.833700	-11.322000	22.539072	0.000490	20.756624
210.067598	-2.983500	3.831100	-11.429000	22.534285	0.000489	20.749933
211.058502	-3.004300	3.830700	-11.508000	22.519213	0.000490	20.750011
212.058501	-3.006600	3.831800	-11.520000	22.542012	0.000490	20.764784
213.062327	-3.005900	3.830300	-11.512000	22.555964	0.000489	20.757895
214.059111	-3.001600	3.831500	-11.500000	22.589029	0.000488	20.746915
215.060414	-3.009900	3.829600	-11.526000	22.590428	0.000487	20.766334
216.060772	-2.997200	3.829800	-11.478000	22.608891	0.000488	20.760644
217.061826	-3.011200	3.830500	-11.532000	22.611979	0.000492	20.751883
218.056120	-3.003100	3.829900	-11.501000	22.625636	0.000491	20.736638
219.064608	-3.000200	3.829100	-11.487000	22.613179	0.000489	20.763043
220.059327	-3.021200	3.828100	-11.564000	22.627081	0.000491	20.756104
221.059523	-2.994700	3.830100	-11.470000	22.638919	0.000491	20.747097
222.064419	-2.965100	3.830700	-11.358000	22.643281	0.000492	20.766641
223.070135	-3.003300	3.827900	-11.495000	22.654370	0.000491	20.753565
224.063743	-3.016700	3.826700	-11.544000	22.629206	0.000492	20.764397
225.064721	-3.006600	3.828200	-11.509000	22.641140	0.000493	20.755961
226.066590	-3.000600	3.828900	-11.488000	22.676251	0.000493	20.753670
227.062433	-3.000700	3.828100	-11.486000	22.670595	0.000495	20.751799
228.060454	-3.014300	3.828600	-11.539000	22.693097	0.000493	20.754423
229.063556	-2.989300	3.828100	-11.442000	22.724562	0.000493	20.771717
230.064745	-2.993700	3.827300	-11.457000	22.708443	0.000494	20.751303
231.069041	-3.012800	3.827800	-11.531000	22.711113	0.000495	20.758245
232.064266	-2.992200	3.826700	-11.450000	22.746695	0.000493	20.759273
233.068098	-2.977900	3.827200	-11.396000	22.744151	0.000495	20.765261
234.062259	-2.990700	3.825500	-11.440000	22.789270	0.000494	20.754981
235.067886	-3.014600	3.826600	-11.535000	22.750982	0.000497	20.747921
236.069680	-2.974900	3.826700	-11.383000	22.761897	0.000498	20.754113
237.068366	-2.995300	3.824800	-11.456000	22.762067	0.000499	20.766138
238.067921	-2.995500	3.825400	-11.458000	22.750859	0.000497	20.760126
239.067942	-3.009500	3.825500	-11.512000	22.758611	0.000497	20.767892
240.067022	-3.010200	3.825300	-11.514000	22.757266	0.000498	20.768441
241.070755	-2.994100	3.826400	-11.455000	22.774306	0.000497	20.776501
242.069682	-2.989500	3.825700	-11.437000	22.786213	0.000501	20.763299
243.067476	-3.017500	3.824300	-11.539000	22.810477	0.000498	20.765794
244.069954	-2.979300	3.824300	-11.393000	22.827890	0.000497	20.768066
245.070673	-3.004600	3.824800	-11.490000	22.816778	0.000500	20.746028
246.069991	-2.988600	3.824600	-11.430000	22.832097	0.000499	20.782238
247.069770	-2.986700	3.824800	-11.423000	22.841588	0.000501	20.740536
248.074166	-3.017800	3.822300	-11.535000	22.834142	0.000502	20.768165
249.075230	-2.992600	3.823300	-11.441000	22.854640	0.000500	20.762146
250.073558	-2.977600	3.823700	-11.385000	22.896116	0.000504	20.765766
251.078205	-2.996700	3.823500	-11.457000	22.856134	0.000503	20.768859
252.075886	-3.019400	3.822100	-11.539000	22.882713	0.000504	20.769408
253.070551	-3.002100	3.822800	-11.475000	22.880519	0.000504	20.763891
254.073422	-3.017200	3.822500	-11.532000	22.903463	0.000504	20.765540
255.078327	-3.007000	3.821600	-11.491000	22.902513	0.000505	20.774072
256.074956	-3.001700	3.820700	-11.467000	22.892772	0.000505	20.788021
257.078930	-3.010900	3.821300	-11.505000	22.937186	0.000505	20.771351
258.072852	-3.029700	3.820400	-11.573000	22.923582	0.000506	20.795180
259.073164	-2.988400	3.820400	-11.415000	22.903679	0.000507	20.787094
260.074167	-3.012400	3.820100	-11.507000	22.913767	0.000506	20.784398
261.073291	-2.994200	3.820900	-11.440000	22.924674	0.000510	20.783471
262.073509	-2.987000	3.819600	-11.409000	22.932620	0.000507	20.774837
263.073354	-2.978900	3.821200	-11.381000	22.926988	0.000508	20.788635
264.074667	-3.002100	3.820000	-11.468000	22.915277	0.000507	20.775953
265.075680	-3.011800	3.819300	-11.501000	22.956401	0.000511	20.799137
266.075254	-3.014400	3.819000	-11.511000	22.921327	0.000508	20.773954
267.077470	-3.027000	3.819600	-11.561000	22.950144	0.000508	20.772005
268.081491	-3.003500	3.818100	-11.466000	22.962374	0.000510	20.785207
269.076588	-2.974000	3.818800	-11.356000	22.952952	0.000512	20.791415
270.080127	-2.997900	3.817800	-11.444000	22.981648	0.000512	20.782232
271.085261	-2.991200	3.818400	-11.421000	22.957435	0.000509	20.773620
272.079860	-2.981900	3.818800	-11.386000	23.010685	0.000512	20.789515
273.079516	-3.001800	3.819200	-11.463000	22.991054	0.000512	20.790708
274.078562	-2.998800	3.818800	-11.451000	23.003185	0.000511	20.796699
275.082410	-3.006600	3.817200	-11.476000	23.037205	0.000513	20.781947
276.082212	-3.036300	3.816700	-11.588000	23.033020	0.000513	20.789608
277.084348	-2.985100	3.818500	-11.397000	23.050075	0.000517	20.777299
278.083365	-2.978900	3.816700	-11.368000	23.064844	0.000511	20.793520
279.084538	-3.000300	3.816200	-11.449000	23.088176	0.000512	20.787976
280.083482	-2.988400	3.816500	-11.404000	23.091387	0.000512	20.803046
281.084599	-2.995500	3.815500	-11.429000	23.073179	0.000512	20.807087
282.084488	-2.995700	3.817000	-11.433000	23.067699	0.000514	20.794484
283.085552	-3.006000	3.814800	-11.467000	23.068815	0.000513	20.794654
284.087586	-3.000300	3.815500	-11.447000	23.057409	0.000515	20.811200
285.082555	-2.978800	3.816300	-11.367000	23.079894	0.000516	20.809074
286.088477	-3.009700	3.814300	-11.479000	23.099670	0.000513	20.796647
287.087593	-3.020500	3.814800	-11.522000	23.133340	0.000515	20.803834
288.087892	-2.988300	3.815500	-11.402000	23.137899	0.000516	20.788487
289.087932	-2.995400	3.815100	-11.427000	23.129175	0.000517	20.801556
290.084963	-2.990900	3.813600	-11.405000	23.133607	0.000516	20.800308
291.088620	-2.990700	3.814200	-11.406000	23.144391	0.000517	20.801157
292.085172	-2.995300	3.813900	-11.424000	23.150291	0.000516	20.805173
293.087020	-2.983500	3.812800	-11.375000	23.160404	0.000516	20.817203
294.086275	-3.003200	3.812800	-11.450000	23.169614	0.000518	20.806992
295.089226	-2.997500	3.812600	-11.428000	23.143939	0.000516	20.820619
296.088223	-3.003700	3.811500	-11.448000	23.153174	0.000518	20.831295
297.091922	-3.023900	3.811000	-11.523000	23.148140	0.000519	20.797327
298.092719	-3.000100	3.812700	-11.437000	23.143237	0.000519	20.827028
299.091106	-2.987300	3.813800	-11.391000	23.177949	0.000518	20.826724
300.094815	-2.972300	3.814000	-11.336000	23.196300	0.000518	20.819036
301.093347	-2.987200	3.811900	-11.386000	23.177696	0.000518	20.842591
302.089539	-3.001700	3.811400	-11.438000	23.161358	0.000519	20.830961
303.096505	-2.980400	3.811600	-11.359000	23.170345	0.000519	20.830010
304.089273	-2.978400	3.812100	-11.352000	23.213999	0.000519	20.816383
305.098251	-3.015400	3.810300	-11.489000	23.198809	0.000518	20.803058
306.092215	-3.002400	3.811200	-11.441000	23.232625	0.000521	20.853066
307.093646	-2.989000	3.810600	-11.389000	23.214095	0.000518	20.829756
308.093540	-3.002400	3.809200	-11.436000	23.249705	0.000520	20.830828
309.092456	-3.009200	3.809400	-11.462000	23.281927	0.000520	20.832774
310.094605	-2.995700	3.809800	-11.411000	23.279187	0.000522	20.838089
311.094126	-2.997200	3.809700	-11.418000	23.273683	0.000520	20.834943
312.094533	-2.975800	3.809600	-11.336000	23.258515	0.000519	20.841554
313.097603	-3.016100	3.809300	-11.489000	23.294147	0.000521	20.827004
314.093691	-2.999100	3.808100	-11.420000	23.279057	0.000521	20.828950
315.095144	-3.000300	3.810100	-11.431000	23.269521	0.000521	20.824135
316.097126	-3.012200	3.808000	-11.470000	23.306999	0.000519	20.836564
317.098974	-2.972500	3.808400	-11.319000	23.309986	0.000523	20.821066
318.101597	-2.995600	3.808300	-11.406000	23.324052	0.000523	20.836112
319.109627	-3.022500	3.808200	-11.509000	23.337005	0.000522	20.831550
320.101890	-2.986100	3.807600	-11.369000	23.345496	0.000523	20.856654
321.100038	-2.988100	3.807400	-11.376000	23.341287	0.000522	20.837739
322.108931	-2.998200	3.807000	-11.413000	23.334912	0.000523	20.851262
323.103778	-3.011000	3.807200	-11.462000	23.345422	0.000522	20.830977
324.102883	-2.966000	3.807300	-11.292000	23.368380	0.000522	20.829331
325.105224	-2.995100	3.804700	-11.395000	23.399903	0.000521	20.833899
326.106011	-2.981500	3.805700	-11.346000	23.430300	0.000524	20.848244
327.105881	-2.959600	3.805800	-11.263000	23.442255	0.000525	20.826089
328.107696	-2.999900	3.805800	-11.416000	23.451837	0.000524	20.839012
329.113243	-2.995400	3.804800	-11.396000	23.426821	0.000525	20.839068
330.117295	-3.003500	3.804600	-11.426000	23.445468	0.000524	20.839266
331.107868	-3.008900	3.803900	-11.444000	23.424109	0.000524	20.840143
332.104598	-3.011800	3.804600	-11.457000	23.438721	0.000526	20.839142
333.104442	-2.983600	3.803600	-11.348000	23.453537	0.000525	20.856363
334.104482	-3.013300	3.802600	-11.457000	23.484507	0.000522	20.842362
335.104899	-2.993100	3.802900	-11.382000	23.443727	0.000524	20.841789
336.106211	-2.991800	3.803500	-11.379000	23.468474	0.000528	20.865170
337.105483	-2.993400	3.803000	-11.384000	23.468149	0.000528	20.855362
338.105572	-2.996000	3.802300	-11.391000	23.467849	0.000526	20.860751
339.105982	-2.983600	3.802800	-11.345000	23.490580	0.000526	20.843233
340.105275	-3.011100	3.801300	-11.445000	23.506140	0.000528	20.842235
341.105443	-3.003800	3.801100	-11.417000	23.528993	0.000528	20.845703
342.105259	-2.999900	3.801000	-11.402000	23.554935	0.000527	20.832352
343.105271	-3.005300	3.801200	-11.423000	23.550378	0.000529	20.854810
344.105259	-2.994800	3.803000	-11.388000	23.535461	0.000530	20.875418
345.109596	-2.982200	3.800800	-11.334000	23.530883	0.000527	20.863717
346.109254	-3.012000	3.801300	-11.448000	23.548607	0.000530	20.858725
347.112509	-2.979600	3.800300	-11.321000	23.558963	0.000527	20.864364
348.109776	-3.006500	3.800200	-11.425000	23.531677	0.000528	20.852660
349.108363	-2.996300	3.800400	-11.386000	23.532002	0.000529	20.862468
350.106149	-2.999900	3.799400	-11.397000	23.561028	0.000529	20.837038
351.110526	-3.011500	3.799500	-11.441000	23.550298	0.000527	20.862790
352.109334	-3.007800	3.799200	-11.427000	23.551296	0.000529	20.869007
353.111424	-2.997100	3.798600	-11.384000	23.564788	0.000529	20.855979
354.106585	-3.007200	3.799400	-11.425000	23.570241	0.000529	20.864764
355.112040	-3.011500	3.798600	-11.438000	23.595504	0.000528	20.865434
356.116046	-3.009100	3.797600	-11.427000	23.601631	0.000529	20.848343
357.115675	-2.989400	3.797800	-11.352000	23.625926	0.000528	20.865111
358.112257	-2.998400	3.798800	-11.389000	23.641760	0.000529	20.866760
359.117754	-2.998900	3.798400	-11.390000	23.645744	0.000529	20.850367
360.116522	-3.002300	3.797400	-11.400000	23.647191	0.000530	20.875997
361.116365	-2.996800	3.797700	-11.380000	23.677559	0.000531	20.850020
362.119054	-3.006400	3.796300	-11.412000	23.645899	0.000531	20.874228
363.115142	-2.991900	3.796300	-11.357000	23.646817	0.000531	20.862821
364.111495	-2.996900	3.796500	-11.377000	23.645348	0.000531	20.869883
365.119770	-2.978100	3.798000	-11.310000	23.669098	0.000530	20.864296
366.115174	-3.008700	3.795100	-11.418000	23.658072	0.000529	20.877897
367.116872	-2.980000	3.796600	-11.313000	23.698600	0.000531	20.880595
368.119842	-2.984700	3.796500	-11.330000	23.661762	0.000532	20.870217
369.121271	-3.003000	3.794400	-11.394000	23.681379	0.000532	20.883245
370.116589	-2.987700	3.796500	-11.342000	23.695094	0.000534	20.868073
371.115708	-2.995100	3.795000	-11.366000	23.699876	0.000532	20.881401
372.119802	-3.005600	3.794600	-11.404000	23.712343	0.000534	20.881571
373.118490	-2.990600	3.794600	-11.347000	23.684569	0.000532	20.860840
374.128881	-3.002700	3.792500	-11.387000	23.685119	0.000534	20.866607
375.117471	-3.003700	3.794800	-11.398000	23.704908	0.000534	20.903514
376.116285	-3.004700	3.793600	-11.398000	23.739658	0.000531	20.888568
377.124626	-3.006100	3.794000	-11.404000	23.715888	0.000534	20.888444
378.122137	-3.007900	3.794200	-11.412000	23.718805	0.000532	20.881413
379.117459	-3.007000	3.793300	-11.406000	23.719822	0.000534	20.870105
380.118786	-2.997800	3.792300	-11.368000	23.676914	0.000533	20.888252
381.122140	-2.987600	3.793100	-11.332000	23.709646	0.000535	20.887877
382.119479	-2.985800	3.792700	-11.323000	23.725105	0.000536	20.885831
383.119930	-2.976700	3.792100	-11.287000	23.719831	0.000535	20.892872
384.125568	-2.996500	3.791200	-11.359000	23.743601	0.000536	20.877350
385.119772	-3.014800	3.791200	-11.430000	23.767871	0.000535	20.897889
386.126002	-3.004300	3.790900	-11.388000	23.762076	0.000537	20.885441
387.121940	-2.970500	3.791000	-11.260000	23.779348	0.000537	20.889007
388.125728	-2.984500	3.791900	-11.316000	23.774473	0.000536	20.873216
389.120789	-3.000200	3.791400	-11.374000	23.775719	0.000536	20.889162
390.124496	-2.983900	3.790500	-11.310000	23.783885	0.000535	20.893082
391.120564	-3.015600	3.789000	-11.425000	23.799766	0.000538	20.877238
392.119819	-3.007000	3.790300	-11.397000	23.803326	0.000537	20.901194
393.124279	-3.007500	3.789800	-11.396000	23.822517	0.000538	20.880135
394.124166	-2.984000	3.788900	-11.305000	23.811668	0.000537	20.890593
395.123973	-3.017400	3.788000	-11.428000	23.803233	0.000536	20.904420
396.124860	-2.995800	3.788000	-11.347000	23.812694	0.000538	20.890674
397.122063	-3.019700	3.787600	-11.437000	23.826009	0.000538	20.887429
398.125427	-2.985400	3.788400	-11.309000	23.844108	0.000538	20.894197
399.122406	-2.999100	3.788400	-11.361000	23.847344	0.000538	20.881795
400.125497	-3.002200	3.787200	-11.369000	23.856255	0.000539	20.880299
401.127061	-3.004100	3.788600	-11.381000	23.851504	0.000537	20.899242
402.127474	-3.014800	3.786400	-11.414000	23.857006	0.000540	20.881052
403.126493	-3.011600	3.787000	-11.404000	23.818180	0.000539	20.891433
404.135900	-3.015500	3.785100	-11.413000	23.874681	0.000541	20.900670
405.127633	-3.004800	3.785700	-11.374000	23.876300	0.000540	20.885700
406.124950	-3.000800	3.786300	-11.361000	23.889639	0.000540	20.884851
407.123866	-2.994100	3.787100	-11.338000	23.873142	0.000539	20.887748
408.126112	-2.995600	3.786800	-11.343000	23.888619	0.000541	20.916068
409.129070	-2.995300	3.786000	-11.340000	23.920628	0.000539	20.898854
410.127674	-2.994000	3.786000	-11.334000	23.904999	0.000540	20.864693
411.127106	-3.011100	3.783700	-11.392000	23.912667	0.000540	20.885656
412.127802	-3.027300	3.784000	-11.454000	23.923419	0.000540	20.904971
413.126818	-2.994500	3.783600	-11.329000	23.944872	0.000542	20.880968
414.126977	-3.013400	3.783200	-11.399000	23.932134	0.000541	20.882418
415.123875	-2.984800	3.783500	-11.291000	23.911205	0.000543	20.903155
416.129541	-2.998800	3.784000	-11.346000	23.901899	0.000543	20.888135
417.127687	-2.975900	3.782900	-11.257000	23.927112	0.000542	20.886390
418.127362	-3.000600	3.783800	-11.352000	23.946822	0.000539	20.897620
419.126075	-2.982900	3.782500	-11.282000	23.930526	0.000544	20.877961
420.126819	-2.989800	3.783300	-11.310000	23.933540	0.000542	20.867233
421.126557	-2.975300	3.782900	-11.254000	23.937474	0.000539	20.895358
422.128652	-3.009800	3.781600	-11.380000	23.933045	0.000542	20.869582
423.127575	-2.976100	3.782100	-11.254000	23.946062	0.000540	20.885005
424.125519	-2.987300	3.782400	-11.298000	23.937403	0.000540	20.874900
425.127795	-3.010900	3.780200	-11.381000	23.944149	0.000543	20.883561
426.124328	-2.992000	3.781700	-11.314000	23.946068	0.000542	20.889278
427.130716	-2.989300	3.781200	-11.303000	23.968594	0.000542	20.896219
428.124851	-2.991800	3.780600	-11.310000	23.944628	0.000543	20.861757
429.127810	-2.989900	3.780300	-11.302000	23.943407	0.000542	20.867171
430.137627	-2.999400	3.779400	-11.335000	23.963421	0.000542	20.871119
431.130798	-3.014100	3.778700	-11.388000	23.991070	0.000543	20.876086
432.128724	-3.014900	3.779100	-11.393000	23.966013	0.000544	20.876090
433.131689	-3.000600	3.779100	-11.339000	23.925869	0.000541	20.864757
434.130447	-3.021600	3.777400	-11.413000	23.942369	0.000543	20.845268
435.133330	-2.997000	3.778600	-11.323000	23.969997	0.000543	20.875817
436.132499	-3.001400	3.777700	-11.337000	23.970720	0.000542	20.848094
437.133344	-3.002800	3.776400	-11.339000	23.990183	0.000544	20.851491
438.134376	-3.008600	3.776000	-11.359000	23.981725	0.000544	20.858655
439.133295	-2.988100	3.777200	-11.286000	24.008573	0.000542	20.846226
440.140644	-2.997600	3.777200	-11.322000	24.038190	0.000541	20.866443
441.133558	-2.993600	3.778400	-11.310000	24.033041	0.000544	20.842789
442.136630	-3.004400	3.775800	-11.344000	24.040955	0.000542	20.845036
443.137477	-3.006000	3.776900	-11.352000	24.051385	0.000544	20.833684
444.138190	-2.999300	3.776400	-11.326000	24.060093	0.000545	20.859960
445.147455	-3.022800	3.775600	-11.412000	24.086272	0.000544	20.846387
446.137493	-2.991000	3.776000	-11.292000	24.077888	0.000543	20.852204
447.143025	-3.024500	3.773400	-11.411000	24.113844	0.000544	20.868349
448.138053	-3.014600	3.774400	-11.377000	24.118074	0.000546	20.882548
449.137449	-3.010500	3.773300	-11.358000	24.127829	0.000543	20.833539
450.136938	-3.001000	3.774600	-11.326000	24.103350	0.000544	20.846920
451.138929	-2.989300	3.775100	-11.284000	24.089439	0.000543	20.838658
452.137314	-2.995700	3.774000	-11.305000	24.088669	0.000545	20.844525
453.139675	-3.004700	3.773100	-11.336000	24.105442	0.000544	20.847122
454.140434	-3.009000	3.773600	-11.353000	24.115596	0.000545	20.839287
455.141581	-2.990400	3.773300	-11.283000	24.117885	0.000545	20.839687
456.141013	-2.999900	3.773000	-11.318000	24.140704	0.000542	20.860202
457.141343	-2.986400	3.773100	-11.267000	24.151327	0.000545	20.824391
458.142713	-2.993000	3.771700	-11.288000	24.136996	0.000544	20.844630
459.138059	-2.992900	3.771800	-11.288000	24.101592	0.000543	20.854165
460.141899	-3.006800	3.771800	-11.340000	24.093756	0.000544	20.856738
461.143571	-3.002600	3.770300	-11.320000	24.071090	0.000544	20.857240
462.138956	-3.001400	3.771400	-11.319000	24.102640	0.000544	20.833880
463.140886	-3.004800	3.772400	-11.334000	24.116303	0.000545	20.833834
464.143887	-3.012400	3.770900	-11.358000	24.082641	0.000547	20.828048
465.146504	-2.987600	3.771700	-11.268000	24.119193	0.000547	20.844791
466.145347	-2.989700	3.770800	-11.273000	24.154952	0.000545	20.841302
467.147069	-2.991900	3.771400	-11.282000	24.157492	0.000545	20.830099
468.147400	-3.032300	3.769600	-11.430000	24.215888	0.000546	20.825609
469.147503	-2.996500	3.770000	-11.296000	24.203325	0.000546	20.824388
470.147738	-3.004000	3.769000	-11.321000	24.216939	0.000545	20.829982
471.149651	-3.000900	3.769600	-11.311000	24.192233	0.000545	20.840763
472.148810	-3.014400	3.768200	-11.358000	24.184197	0.000547	20.823694
473.144551	-3.001000	3.768700	-11.309000	24.183802	0.000545	20.830410
474.149888	-3.007600	3.767300	-11.329000	24.165195	0.000544	20.828817
475.147146	-3.017700	3.767200	-11.367000	24.176943	0.000545	20.836806
476.147451	-2.997400	3.767300	-11.291000	24.188461	0.000545	20.838402
477.151661	-2.996300	3.767300	-11.286000	24.203715	0.000547	20.843271
478.155855	-2.997100	3.767600	-11.291000	24.154254	0.000545	20.816421
479.149530	-2.979700	3.766800	-11.223000	24.133308	0.000546	20.809164
480.150029	-2.988700	3.768300	-11.261000	24.151745	0.000546	20.819595
481.148379	-3.007300	3.766100	-11.324000	24.191480	0.000549	20.816775
482.150540	-3.016200	3.764800	-11.354000	24.206512	0.000545	20.814308
483.147856	-3.020100	3.765900	-11.373000	24.228708	0.000549	20.838468
484.156839	-3.009300	3.766900	-11.335000	24.228504	0.000550	20.838263
485.151515	-2.985900	3.765600	-11.243000	24.255053	0.000548	20.816056
486.146513	-3.002000	3.765700	-11.304000	24.274133	0.000549	20.828083
487.152162	-2.991700	3.766500	-11.267000	24.261819	0.000548	20.803403
488.153235	-2.994200	3.764800	-11.272000	24.241990	0.000548	20.816229
489.157092	-3.022300	3.764100	-11.375000	24.215790	0.000549	20.812709
490.153079	-2.964400	3.764100	-11.158000	24.226937	0.000549	20.807295
491.154689	-2.984700	3.764500	-11.235000	24.238459	0.000549	20.825015
492.158814	-3.015900	3.764400	-11.352000	24.253285	0.000547	20.819499
493.159927	-3.007600	3.763400	-11.318000	24.288741	0.000548	20.812390
494.153187	-3.002800	3.764100	-11.302000	24.257790	0.000550	20.806474
495.154455	-2.982900	3.764300	-11.227000	24.259956	0.000547	20.835672
496.153604	-2.979300	3.764000	-11.213000	24.286455	0.000548	20.806778
497.156597	-2.995700	3.762500	-11.270000	24.306656	0.000548	20.817559
498.160992	-3.013100	3.762100	-11.334000	24.327401	0.000549	20.807549
499.153192	-2.985300	3.762000	-11.230000	24.331038	0.000547	20.814042
500.158280	-2.996300	3.761400	-11.269000	24.341782	0.000549	20.795897
501.159992	-3.001300	3.761000	-11.287000	24.366138	0.000547	20.817011
502.154477	-2.992900	3.761300	-11.255000	24.371863	0.000550	20.809003
503.157548	-2.994700	3.761000	-11.263000	24.359027	0.000549	20.803239
504.161981	-3.004200	3.761200	-11.298000	24.331813	0.000547	20.819087
505.158108	-3.002100	3.761000	-11.290000	24.335298	0.000548	20.821160
506.157186	-3.003200	3.759300	-11.289000	24.321415	0.000549	20.810078
507.161624	-3.019100	3.760600	-11.352000	24.320275	0.000548	20.815573
508.160587	-3.006000	3.759900	-11.302000	24.287067	0.000549	20.791745
509.158256	-3.020500	3.759900	-11.355000	24.276594	0.000549	20.806369
510.159231	-3.010900	3.759500	-11.318000	24.269679	0.000550	20.826934
511.154599	-3.015000	3.758900	-11.332000	24.297519	0.000551	20.799858
512.159836	-3.020000	3.758700	-11.350000	24.320454	0.000549	20.787304
513.154889	-3.009600	3.758600	-11.311000	24.334532	0.000550	20.783408
514.159056	-2.991900	3.758700	-11.245000	24.344239	0.000549	20.784137
515.157838	-2.990100	3.758100	-11.236000	24.348715	0.000553	20.793369
516.163321	-3.003600	3.758100	-11.287000	24.384538	0.000551	20.784735
517.164241	-3.028000	3.755300	-11.369000	24.384909	0.000549	20.779417
518.155219	-2.990300	3.758300	-11.238000	24.425905	0.000549	20.799207
519.160295	-2.998500	3.757700	-11.266000	24.410184	0.000549	20.808092
520.160628	-3.003800	3.755600	-11.280000	24.414759	0.000550	20.791345
521.164341	-3.002300	3.755200	-11.273000	24.458664	0.000551	20.803149
522.170467	-3.011200	3.757400	-11.313000	24.435728	0.000553	20.792941
523.161411	-2.979800	3.757200	-11.194000	24.417539	0.000552	20.799824
524.162159	-3.012800	3.755100	-11.313000	24.406774	0.000550	20.795188
525.160285	-2.984000	3.756700	-11.208000	24.421394	0.000549	20.789467
526.159811	-2.983900	3.755900	-11.206000	24.403064	0.000550	20.794311
527.165074	-2.992900	3.754900	-11.238000	24.430074	0.000548	20.805761
528.164708	-3.002800	3.753800	-11.271000	24.431020	0.000552	20.800546
529.161803	-2.997100	3.753000	-11.247000	24.458534	0.000549	20.781208
530.162572	-2.986800	3.754100	-11.212000	24.397438	0.000549	20.818064
531.157508	-3.000800	3.753700	-11.262000	24.406845	0.000548	20.782457
532.177751	-2.995400	3.753800	-11.242000	24.408386	0.000548	20.799650
533.164792	-3.020100	3.753300	-11.335000	24.403561	0.000550	20.783904
534.163803	-3.025200	3.751900	-11.349000	24.426773	0.000549	20.789173
535.163137	-3.002900	3.753500	-11.270000	24.449980	0.000548	20.784955
536.166654	-2.997700	3.752900	-11.249000	24.431273	0.000549	20.784205
537.162398	-2.986000	3.751300	-11.200000	24.460974	0.000547	20.788872
538.165575	-2.971600	3.752600	-11.150000	24.476672	0.000547	20.804147
539.163728	-3.005800	3.750700	-11.273000	24.457292	0.000547	20.799877
540.166555	-2.978700	3.750900	-11.172000	24.461453	0.000546	20.784137
541.166513	-3.003600	3.750800	-11.265000	24.462998	0.000547	20.788057
542.165690	-2.983100	3.752200	-11.193000	24.499089	0.000546	20.778748
543.164462	-3.005000	3.750800	-11.270000	24.475860	0.000550	20.776306
544.165930	-3.004800	3.750400	-11.269000	24.498520	0.000548	20.797144
545.166738	-3.028100	3.748900	-11.351000	24.488945	0.000546	20.796072
546.163961	-3.018500	3.750000	-11.318000	24.480015	0.000548	20.792328
547.167454	-3.015900	3.750500	-11.310000	24.458850	0.000547	20.772990
548.164851	-3.009000	3.750100	-11.283000	24.483129	0.000548	20.802090
549.167059	-3.001400	3.749800	-11.253000	24.466090	0.000549	20.779780
550.166390	-2.998600	3.749900	-11.244000	24.491463	0.000550	20.762561
551.168002	-2.995800	3.747800	-11.227000	24.414127	0.000548	20.812521
552.167211	-2.979500	3.748500	-11.168000	24.454797	0.000549	20.784571
553.171301	-3.010900	3.749000	-11.286000	24.422038	0.000548	20.799121
554.171691	-2.992400	3.748300	-11.214000	24.425170	0.000546	20.778556
555.172134	-3.018100	3.746600	-11.306000	24.406614	0.000547	20.787441
556.172700	-2.985000	3.747500	-11.186000	24.434725	0.000545	20.795254
557.169829	-3.004900	3.747300	-11.259000	24.470319	0.000548	20.771220
558.170577	-3.012600	3.746200	-11.285000	24.501437	0.000547	20.785371
559.174941	-2.988100	3.747300	-11.196000	24.534444	0.000547	20.768227
560.178827	-3.010700	3.745300	-11.275000	24.506811	0.000547	20.777013
561.173519	-3.003400	3.748100	-11.255000	24.525613	0.000548	20.793506
562.174678	-2.996600	3.746200	-11.225000	24.557748	0.000547	20.764108
563.175964	-2.996100	3.745200	-11.220000	24.596100	0.000547	20.768450
564.173084	-3.000200	3.745900	-11.237000	24.611200	0.000547	20.781705
565.172212	-2.995600	3.745000	-11.218000	24.604359	0.000548	20.762986
566.173103	-2.995400	3.745300	-11.217000	24.616472	0.000547	20.768977
567.173746	-2.993300	3.744900	-11.209000	24.609331	0.000547	20.757544
568.176353	-3.018200	3.743500	-11.298000	24.538672	0.000547	20.763934
569.174291	-3.011500	3.744200	-11.275000	24.510567	0.000546	20.764660
570.177142	-2.977400	3.742900	-11.144000	24.523080	0.000545	20.781008
571.175295	-2.990100	3.743500	-11.192000	24.535942	0.000544	20.791541
572.178714	-2.982900	3.744400	-11.168000	24.572778	0.000546	20.774447
573.173429	-2.968800	3.743800	-11.114000	24.564769	0.000547	20.757402
574.175114	-3.009900	3.742600	-11.264000	24.610900	0.000547	20.782352
575.177047	-3.003700	3.742000	-11.239000	24.629082	0.000546	20.781156
576.181768	-3.004800	3.742600	-11.245000	24.569417	0.000543	20.772023
577.177076	-2.991900	3.742300	-11.195000	24.553054	0.000546	20.779787
578.176816	-2.994400	3.742000	-11.204000	24.514700	0.000544	20.779238
579.181786	-3.018600	3.740600	-11.290000	24.523754	0.000547	20.766510
580.176340	-3.006200	3.742200	-11.249000	24.523482	0.000544	20.778566
581.182931	-3.015500	3.739500	-11.276000	24.560145	0.000545	20.775997
582.183932	-3.021900	3.740300	-11.302000	24.587307	0.000548	20.769110
583.178707	-3.019600	3.739800	-11.292000	24.575444	0.000546	20.764793
584.178905	-3.002300	3.740000	-11.227000	24.596910	0.000544	20.766417
585.184807	-2.990800	3.740500	-11.187000	24.602207	0.000544	20.766517
586.181068	-2.987000	3.739300	-11.167000	24.602132	0.000546	20.751269
587.181082	-2.992800	3.739200	-11.190000	24.641579	0.000545	20.752918
588.180242	-3.014900	3.738700	-11.270000	24.656802	0.000543	20.761081
589.182403	-2.973400	3.740800	-11.122000	24.649517	0.000544	20.767047
590.179591	-3.003300	3.739400	-11.230000	24.630143	0.000544	20.758986
591.183354	-2.998900	3.739200	-11.211000	24.652429	0.000545	20.748158
592.178027	-2.976500	3.738600	-11.127000	24.595329	0.000544	20.759141
593.178819	-2.996500	3.738100	-11.200000	24.612143	0.000545	20.756572
594.180237	-2.991100	3.738400	-11.181000	24.636666	0.000544	20.742772
595.179445	-2.981000	3.738000	-11.142000	24.663501	0.000545	20.775864
596.179733	-2.987900	3.737700	-11.167000	24.678128	0.000544	20.767308
597.183196	-3.037900	3.734600	-11.343000	24.665197	0.000545	20.769031
598.185568	-2.986100	3.737100	-11.159000	24.651469	0.000547	20.751936
599.184404	-2.994600	3.737200	-11.190000	24.659379	0.000542	20.761296
600.186958	-3.007100	3.735400	-11.232000	24.693305	0.000543	20.740811
601.188318	-2.993800	3.735300	-11.181000	24.662193	0.000543	20.744204
602.185659	-2.999600	3.736100	-11.206000	24.666822	0.000544	20.759282
603.182869	-3.011800	3.735600	-11.251000	24.662196	0.000545	20.752743
604.187787	-2.997900	3.734200	-11.194000	24.604599	0.000545	20.754218
605.184863	-2.970200	3.735200	-11.092000	24.637106	0.000544	20.745584
606.183621	-2.999600	3.734000	-11.200000	24.641260	0.000545	20.754494
607.188951	-2.967700	3.734600	-11.081000	24.671152	0.000546	20.741815
608.187217	-3.001100	3.732300	-11.200000	24.701795	0.000546	20.750279
609.184037	-2.999800	3.733100	-11.198000	24.710550	0.000544	20.736779
610.188033	-2.996100	3.732400	-11.182000	24.705279	0.000545	20.761836
611.193067	-3.006100	3.732100	-11.218000	24.687944	0.000545	20.735431
612.183886	-2.997500	3.732300	-11.187000	24.695387	0.000543	20.746694
613.186360	-3.006700	3.731700	-11.219000	24.720801	0.000544	20.756075
614.190231	-2.998500	3.732500	-11.191000	24.683374	0.000544	20.725155
615.193854	-2.999700	3.733000	-11.197000	24.675567	0.000545	20.747193
616.187638	-3.013900	3.730600	-11.242000	24.688874	0.000543	20.737313
617.187917	-3.004500	3.732000	-11.212000	24.688032	0.000544	20.747847
618.187101	-3.029000	3.732800	-11.306000	24.697009	0.000543	20.751641
619.188722	-3.033900	3.731200	-11.318000	24.640680	0.000542	20.739213
620.188811	-3.028300	3.731100	-11.298000	24.648019	0.000542	20.733300
621.189077	-2.996800	3.730400	-11.179000	24.648248	0.000544	20.738746
622.186861	-3.010800	3.730600	-11.231000	24.725715	0.000543	20.738247
623.191804	-3.006600	3.730100	-11.214000	24.749565	0.000542	20.727093
624.192295	-3.005600	3.730100	-11.211000	24.757203	0.000541	20.730490
625.195581	-3.001700	3.729800	-11.195000	24.758074	0.000543	20.752702
626.187979	-2.991700	3.729700	-11.157000	24.733903	0.000543	20.727022
627.190203	-2.996100	3.729500	-11.173000	24.684839	0.000544	20.741799
628.186254	-2.987100	3.729300	-11.139000	24.691134	0.000542	20.731045
629.189223	-3.020800	3.728900	-11.264000	24.699293	0.000543	20.728327
630.190534	-3.007400	3.727700	-11.210000	24.729858	0.000544	20.717272
631.187546	-3.016900	3.728100	-11.246000	24.767364	0.000541	20.731678
632.192293	-3.018100	3.728400	-11.251000	24.774324	0.000543	20.734870
633.191494	-3.021000	3.726600	-11.257000	24.769405	0.000545	20.724243
634.187953	-3.013000	3.726600	-11.227000	24.805740	0.000544	20.738423
635.195495	-2.991800	3.727600	-11.151000	24.763094	0.000543	20.724547
636.191952	-2.991100	3.727700	-11.149000	24.761877	0.000542	20.728543
637.192836	-3.000400	3.727600	-11.183000	24.757554	0.000541	20.731791
638.191830	-3.010100	3.726200	-11.214000	24.765290	0.000541	20.730071
639.190402	-3.009400	3.725400	-11.211000	24.728785	0.000542	20.746543
640.195239	-2.996200	3.727300	-11.166000	24.737741	0.000542	20.713804
641.194632	-3.013100	3.724200	-11.220000	24.723891	0.000542	20.724561
642.192571	-3.009900	3.725900	-11.213000	24.726130	0.000541	20.730127
643.192568	-3.018100	3.724800	-11.241000	24.705593	0.000541	20.747452
644.195405	-2.990700	3.726100	-11.143000	24.712385	0.000540	20.717756
645.193696	-3.011700	3.725300	-11.219000	24.719077	0.000542	20.724472
646.197582	-3.000800	3.724400	-11.175000	24.738873	0.000542	20.727742
647.193577	-3.021900	3.723600	-11.251000	24.677154	0.000539	20.727922
648.195926	-3.006400	3.724100	-11.196000	24.666237	0.000543	20.718863
649.195821	-2.988400	3.724000	-11.129000	24.674097	0.000541	20.717741
650.195693	-3.015600	3.724100	-11.230000	24.668328	0.000541	20.718591
651.195677	-3.016600	3.721400	-11.225000	24.705737	0.000539	20.717724
652.199115	-3.012300	3.722700	-11.213000	24.713692	0.000537	20.716223
653.199566	-2.989900	3.722700	-11.129000	24.710610	0.000538	20.728778
654.199317	-2.983300	3.723900	-11.109000	24.729539	0.000540	20.721694
655.200389	-2.984300	3.722300	-11.108000	24.766068	0.000540	20.715678
656.198901	-2.990900	3.722800	-11.133000	24.755226	0.000540	20.731825
657.198082	-2.988800	3.723100	-11.127000	24.818562	0.000541	20.731376
658.198259	-3.000200	3.721600	-11.164000	24.826371	0.000541	20.715031
659.197007	-2.988700	3.722200	-11.124000	24.837213	0.000540	20.715954
660.195457	-3.031600	3.720900	-11.279000	24.829604	0.000539	20.724440
661.200425	-3.001800	3.718900	-11.163000	24.804391	0.000541	20.730905
662.199901	-2.989100	3.720400	-11.120000	24.808792	0.000540	20.739589
663.201083	-2.992200	3.720000	-11.130000	24.835224	0.000540	20.722020
664.198769	-2.996500	3.721900	-11.151000	24.851958	0.000540	20.724114
665.202132	-3.015900	3.720100	-11.218000	24.852134	0.000539	20.712437
666.195920	-3.015200	3.720000	-11.215000	24.861258	0.000538	20.719224
667.197909	-3.002300	3.719200	-11.165000	24.883484	0.000540	20.716400
668.197896	-3.009900	3.718900	-11.193000	24.865507	0.000542	20.711634
669.196147	-2.989600	3.720200	-11.121000	24.878812	0.000541	20.718824
670.200114	-3.001900	3.719400	-11.164000	24.909866	0.000539	20.725810
671.203333	-3.013100	3.717900	-11.201000	24.908247	0.000537	20.741256
672.203935	-3.011300	3.718800	-11.197000	24.866148	0.000538	20.743574
673.200904	-3.004100	3.718100	-11.169000	24.833797	0.000535	20.716319
674.204432	-3.013800	3.717100	-11.201000	24.833328	0.000537	20.733393
675.201553	-2.983100	3.717100	-11.088000	24.810971	0.000536	20.733715
676.200006	-3.017300	3.716600	-11.213000	24.868733	0.000535	20.713449
677.198978	-3.013400	3.717600	-11.202000	24.845460	0.000537	20.717593
678.206511	-2.993600	3.716900	-11.126000	24.823279	0.000537	20.733266
679.201558	-3.024600	3.716000	-11.238000	24.811119	0.000537	20.739554
680.201209	-2.989800	3.717500	-11.113000	24.838250	0.000538	20.726004
681.202030	-3.017300	3.715200	-11.209000	24.795453	0.000534	20.748489
682.203571	-2.995500	3.715600	-11.129000	24.839914	0.000535	20.716768
683.205688	-3.008000	3.714900	-11.174000	24.864008	0.000537	20.752332
684.211560	-2.994000	3.715600	-11.123000	24.916398	0.000535	20.719090
685.204063	-2.993400	3.716000	-11.122000	24.905681	0.000537	20.735835
686.204309	-2.991000	3.714900	-11.111000	24.918535	0.000535	20.738779
687.206997	-3.001600	3.714100	-11.147000	24.885469	0.000536	20.731670
688.204801	-2.993100	3.714300	-11.116000	24.904912	0.000533	20.730796
689.207002	-2.990000	3.715300	-11.108000	24.894445	0.000536	20.743050
690.207972	-2.984300	3.715500	-11.087000	24.862172	0.000534	20.728202
691.204498	-2.975100	3.714500	-11.051000	24.866448	0.000534	20.746245
692.204179	-2.989800	3.713200	-11.101000	24.879031	0.000534	20.737537
693.205454	-2.998000	3.713100	-11.131000	24.897036	0.000534	20.744228
694.204982	-2.974600	3.713500	-11.045000	24.932316	0.000534	20.745973
695.218719	-2.987600	3.712500	-11.090000	24.957452	0.000533	20.740382
696.208035	-3.003300	3.712200	-11.148000	24.953299	0.000536	20.720565
697.205662	-3.008100	3.711200	-11.163000	24.954219	0.000533	20.747569
698.210731	-3.008800	3.712500	-11.169000	24.961657	0.000535	20.745552
699.207827	-3.006900	3.710800	-11.158000	24.958724	0.000534	20.757307
700.211813	-3.011400	3.712000	-11.178000	24.919067	0.000531	20.738839
701.214363	-2.997900	3.711300	-11.125000	24.910659	0.000532	20.739409
702.212012	-3.001300	3.711700	-11.138000	24.881175	0.000531	20.743481
703.210321	-3.009700	3.711400	-11.169000	24.852828	0.000532	20.732101
704.211494	-2.986700	3.710700	-11.081000	24.861801	0.000532	20.752487
705.214614	-3.005000	3.710300	-11.148000	24.842212	0.000533	20.753216
706.211093	-3.005400	3.709700	-11.148000	24.920957	0.000534	20.762073
707.212306	-2.985300	3.710300	-11.075000	24.884707	0.000533	20.765994
708.209547	-2.987000	3.709500	-11.079000	24.915337	0.000532	20.744578
709.211297	-3.010300	3.708000	-11.161000	24.917678	0.000532	20.745506
710.211362	-3.001400	3.709500	-11.133000	24.914868	0.000531	20.747901
711.211203	-2.989400	3.710200	-11.090000	24.941122	0.000535	20.736319
712.213612	-3.005600	3.710100	-11.150000	24.941200	0.000531	20.761528
713.215245	-2.998400	3.708800	-11.120000	24.909097	0.000532	20.764395
714.209593	-3.012400	3.707500	-11.167000	24.898831	0.000532	20.758358
715.210219	-3.016100	3.708500	-11.184000	24.907183	0.000531	20.765792
716.221279	-3.000100	3.707700	-11.123000	24.916504	0.000532	20.756182
717.214858	-2.981900	3.708400	-11.057000	24.945324	0.000532	20.758082
718.212029	-2.977100	3.708100	-11.039000	24.951462	0.000532	20.771355
719.212347	-3.000200	3.707300	-11.121000	24.960438	0.000533	20.761397
720.219267	-2.993200	3.708100	-11.098000	24.972991	0.000529	20.763567
721.216222	-2.990400	3.707100	-11.085000	24.939800	0.000530	20.766762
722.214020	-3.004000	3.705800	-11.132000	24.977761	0.000531	20.771199
723.215871	-3.005300	3.706200	-11.137000	24.946583	0.000531	20.768354
724.212042	-2.991400	3.706300	-11.086000	24.959489	0.000529	20.765187
725.214855	-3.010000	3.706500	-11.155000	24.944549	0.000528	20.750191
726.213886	-2.984900	3.704900	-11.058000	24.951057	0.000530	20.768577
727.212796	-3.012400	3.704400	-11.158000	24.937833	0.000529	20.765262
728.214730	-3.005100	3.705200	-11.133000	24.941764	0.000530	20.770630
729.211870	-3.000500	3.703900	-11.112000	24.941612	0.000530	20.772374
730.214622	-3.002500	3.704600	-11.122000	24.944768	0.000527	20.756575
731.209528	-2.985200	3.706300	-11.062000	24.970302	0.000530	20.759918
732.216036	-3.006700	3.704700	-11.138000	24.991707	0.000528	20.774292
733.217411	-3.002800	3.702700	-11.117000	24.983032	0.000529	20.766058
734.216174	-2.996900	3.702400	-11.095000	25.005156	0.000526	20.762187
735.212178	-2.999700	3.703300	-11.108000	24.997647	0.000526	20.756546
736.216216	-2.980800	3.703300	-11.037000	24.988052	0.000526	20.778209
737.215425	-3.017800	3.702900	-11.173000	25.019704	0.000526	20.768729
738.217335	-2.987200	3.702100	-11.058000	25.070793	0.000526	20.764536
739.217084	-3.007900	3.702900	-11.137000	25.061343	0.000525	20.772119
740.216897	-3.024000	3.701600	-11.192000	25.065551	0.000525	20.775870
741.218341	-3.020400	3.700400	-11.175000	25.041207	0.000524	20.782728
742.222339	-2.990800	3.702300	-11.072000	25.002350	0.000525	20.772647
743.218744	-3.011200	3.701300	-11.145000	24.982834	0.000525	20.756376
744.218275	-2.985900	3.701700	-11.051000	25.010285	0.000524	20.789147
745.219735	-2.990400	3.700700	-11.065000	25.046407	0.000523	20.795059
746.214020	-2.999100	3.701900	-11.101000	25.058445	0.000525	20.763046
747.216347	-3.006900	3.700400	-11.126000	25.051109	0.000527	20.782710
748.219992	-2.992500	3.701500	-11.076000	25.087628	0.000525	20.756780
749.216237	-3.023400	3.700000	-11.186000	25.019214	0.000524	20.775824
750.216370	-3.012000	3.699000	-11.141000	24.998183	0.000523	20.796439
751.216635	-3.004800	3.700100	-11.117000	25.020335	0.000522	20.770785
752.218642	-2.985700	3.700200	-11.046000	25.026652	0.000521	20.768591
753.218806	-2.994100	3.700200	-11.078000	25.012978	0.000522	20.773358
754.223228	-3.007300	3.698100	-11.120000	25.037393	0.000521	20.764200
755.226953	-2.998800	3.698000	-11.089000	25.033914	0.000522	20.795321
756.220227	-3.017100	3.697700	-11.155000	25.023243	0.000523	20.785558
757.220518	-2.983500	3.697800	-11.031000	24.990632	0.000523	20.773687
758.223131	-2.984200	3.699300	-11.039000	24.961915	0.000524	20.789907
759.222476	-2.998900	3.697900	-11.088000	24.983948	0.000523	20.768874
760.224579	-3.001200	3.698600	-11.099000	25.012460	0.000523	20.784217
761.227558	-3.009700	3.697300	-11.127000	24.982675	0.000524	20.786563
762.227113	-3.003000	3.696100	-11.099000	24.978399	0.000522	20.787961
763.221837	-3.013000	3.696500	-11.136000	25.019968	0.000522	20.780849
764.224680	-3.008200	3.695200	-11.115000	25.012234	0.000523	20.781620
765.230255	-3.011000	3.695500	-11.126000	24.999082	0.000522	20.785013
766.223026	-3.017400	3.694800	-11.148000	25.037841	0.000523	20.784564
767.224135	-2.978600	3.696100	-11.009000	25.072273	0.000519	20.801110
768.221817	-2.987200	3.695500	-11.038000	25.085495	0.000520	20.798262
769.223342	-2.985600	3.694600	-11.029000	25.100113	0.000519	20.791599
770.225977	-2.999900	3.693500	-11.079000	25.116645	0.000521	20.806297
771.225280	-3.002900	3.695300	-11.096000	25.117812	0.000519	20.786606
772.220845	-3.004600	3.693900	-11.098000	25.114304	0.000518	20.803948
773.228590	-2.991600	3.694000	-11.049000	25.070528	0.000520	20.799358
774.228889	-3.009400	3.693500	-11.114000	25.052551	0.000519	20.818770
775.228758	-3.006900	3.692300	-11.101000	25.019584	0.000520	20.807016
776.227932	-3.008700	3.692600	-11.108000	25.055057	0.000520	20.789992
777.226663	-3.002000	3.692300	-11.084000	25.049414	0.000519	20.792862
778.226771	-2.987800	3.693400	-11.034000	25.041334	0.000519	20.808460
779.231238	-3.007600	3.691700	-11.103000	25.067934	0.000518	20.799125
780.226984	-2.995700	3.693600	-11.063000	25.114791	0.000519	20.811075
781.228693	-3.005000	3.693200	-11.097000	25.119440	0.000517	20.807681
782.226762	-2.991100	3.692400	-11.043000	25.119835	0.000517	20.807129
783.226907	-2.998500	3.691600	-11.068000	25.103526	0.000519	20.808301
784.232590	-3.037000	3.690000	-11.205000	25.106508	0.000519	20.799440
785.228378	-3.011900	3.691100	-11.117000	25.117047	0.000516	20.802908
786.227178	-3.003000	3.689600	-11.079000	25.089282	0.000518	20.799692
787.232038	-3.021100	3.692100	-11.154000	25.077864	0.000517	20.808145
788.227507	-3.009200	3.689400	-11.101000	25.069436	0.000518	20.827185
789.227842	-3.006200	3.691400	-11.096000	25.114654	0.000518	20.805247
790.230627	-3.003100	3.689500	-11.078000	25.102098	0.000519	20.833420
791.228309	-3.027800	3.688300	-11.166000	25.074082	0.000517	20.816676
792.231146	-2.971200	3.691200	-10.966000	25.058738	0.000514	20.809334
793.232461	-2.988700	3.689100	-11.025000	25.067960	0.000515	20.819065
794.244011	-3.013400	3.688600	-11.114000	25.098140	0.000516	20.798627
795.230763	-2.981700	3.689400	-11.000000	25.139205	0.000513	20.807608
796.230626	-2.999800	3.688400	-11.063000	25.132169	0.000514	20.828045
797.232420	-3.001900	3.688000	-11.069000	25.141517	0.000513	20.810403
798.237884	-3.009500	3.688500	-11.098000	25.185191	0.000514	20.829118
799.230347	-2.991900	3.688000	-11.033000	25.162394	0.000512	20.830413
800.232987	-3.008500	3.687200	-11.092000	25.140816	0.000512	20.840518
801.233188	-2.986500	3.688900	-11.016000	25.159810	0.000511	20.818336
802.238369	-3.000200	3.686900	-11.060000	25.166842	0.000512	20.847680
803.236215	-2.990000	3.687900	-11.026000	25.127640	0.000512	20.808800
804.232975	-2.990000	3.687500	-11.025000	25.136367	0.000512	20.821354
805.236969	-3.015900	3.686100	-11.116000	25.153173	0.000512	20.821630
806.234034	-3.012400	3.686900	-11.105000	25.142659	0.000510	20.832412
807.235406	-2.995000	3.685000	-11.035000	25.185790	0.000511	20.839202
808.233023	-3.003000	3.685300	-11.066000	25.184024	0.000511	20.815144
809.235700	-2.993500	3.685800	-11.032000	25.189050	0.000509	20.842000
810.237994	-3.041200	3.683100	-11.200000	25.208238	0.000510	20.834712
811.238301	-2.984400	3.684700	-10.995000	25.238468	0.000507	20.814327
812.239260	-2.980000	3.685000	-10.981000	25.239532	0.000509	20.825353
813.237793	-2.990000	3.684300	-11.015000	25.197925	0.000510	20.852332
814.237095	-3.004200	3.685400	-11.070000	25.204439	0.000509	20.831371
815.241094	-3.003700	3.683400	-11.063000	25.187979	0.000508	20.819589
816.240965	-3.016500	3.683900	-11.112000	25.166605	0.000508	20.822787
817.236944	-3.001800	3.684300	-11.059000	25.124375	0.000508	20.835868
818.242404	-2.997100	3.683200	-11.038000	25.112465	0.000507	20.852360
819.240530	-2.981000	3.684200	-10.981000	25.120227	0.000507	20.834074
820.241686	-2.977600	3.683900	-10.968000	25.118433	0.000509	20.815204
821.244903	-2.987800	3.681700	-10.999000	25.130117	0.000507	20.853486
822.239929	-2.998300	3.683000	-11.042000	25.131961	0.000509	20.833526
823.242946	-3.005800	3.682900	-11.068000	25.143515	0.000507	20.853185
824.239756	-2.996600	3.683300	-11.036000	25.094516	0.000509	20.867533
825.243181	-3.011700	3.680900	-11.084000	25.132204	0.000507	20.850365
826.244681	-2.998100	3.681600	-11.037000	25.118355	0.000506	20.830773
827.241758	-2.981300	3.682100	-10.976000	25.119797	0.000506	20.817048
828.242580	-3.004800	3.680200	-11.057000	25.142493	0.000507	20.844573
829.242851	-2.997500	3.680200	-11.030000	25.092726	0.000507	20.831123
830.239493	-3.023200	3.679200	-11.123000	25.104855	0.000505	20.840928
831.245785	-2.994300	3.680300	-11.018000	25.152133	0.000507	20.846190
832.241971	-3.012700	3.680100	-11.086000	25.140403	0.000505	20.834414
833.240734	-3.009000	3.679400	-11.071000	25.140350	0.000505	20.837680
834.242773	-3.030200	3.678500	-11.146000	25.188874	0.000506	20.856522
835.241017	-3.014100	3.679300	-11.089000	25.238588	0.000503	20.844792
836.252220	-2.987900	3.679300	-10.992000	25.221561	0.000504	20.855198
837.254817	-2.996400	3.679700	-11.025000	25.199286	0.000507	20.864603
838.244119	-2.994800	3.677100	-11.011000	25.249873	0.000504	20.845691
839.249589	-2.997000	3.678700	-11.025000	25.257450	0.000505	20.846186
840.250783	-2.974700	3.678600	-10.942000	25.239233	0.000502	20.846862
841.246764	-2.996700	3.677200	-11.019000	25.251635	0.000503	20.857417
842.249426	-2.981600	3.678200	-10.966000	25.222851	0.000501	20.844166
843.253282	-2.986600	3.678700	-10.986000	25.276464	0.000502	20.851526
844.247201	-3.008300	3.677300	-11.061000	25.274554	0.000501	20.858616
845.248383	-2.992300	3.676600	-11.000000	25.302537	0.000500	20.869642
846.247747	-2.993600	3.676600	-11.005000	25.269112	0.000501	20.847464
847.246832	-3.000500	3.675800	-11.028000	25.267322	0.000500	20.862261
848.244447	-3.005700	3.675900	-11.048000	25.251811	0.000500	20.875136
849.249482	-3.007000	3.676000	-11.053000	25.269584	0.000499	20.861688
850.244994	-3.001200	3.676500	-11.034000	25.238168	0.000498	20.870922
851.248624	-2.992100	3.674700	-10.994000	25.253210	0.000499	20.858524
852.249111	-3.011100	3.675100	-11.066000	25.296062	0.000497	20.852237
853.250194	-3.004300	3.674000	-11.037000	25.294124	0.000496	20.856454
854.247338	-3.006400	3.674700	-11.046000	25.282642	0.000498	20.862943
855.251930	-3.009100	3.674100	-11.055000	25.267484	0.000497	20.876647
856.247202	-2.998800	3.674500	-11.018000	25.272657	0.000496	20.842488
857.247568	-2.998200	3.672800	-11.011000	25.210990	0.000495	20.842216
858.250681	-2.997000	3.674400	-11.011000	25.217081	0.000497	20.862080
859.251635	-3.001700	3.674100	-11.028000	25.193272	0.000496	20.874686
860.252915	-3.018700	3.672100	-11.084000	25.184274	0.000495	20.871817
861.248638	-2.997200	3.672900	-11.006000	25.216961	0.000494	20.874287
862.252136	-2.986100	3.673500	-10.969000	25.250397	0.000495	20.865183
863.252298	-3.010300	3.671600	-11.051000	25.247616	0.000496	20.874244
864.251114	-3.006100	3.671100	-11.035000	25.267205	0.000494	20.879686
865.248286	-3.021700	3.672000	-11.094000	25.305831	0.000494	20.863941
866.250196	-3.007700	3.671600	-11.042000	25.318486	0.000493	20.867638
867.252895	-2.989500	3.672100	-10.977000	25.317464	0.000492	20.869457
868.252412	-2.992200	3.671700	-10.985000	25.326641	0.000493	20.895264
869.255678	-2.983300	3.672600	-10.954000	25.325397	0.000493	20.892593
870.251088	-3.000100	3.670900	-11.012000	25.325400	0.000492	20.881218
871.253829	-3.032700	3.669000	-11.126000	25.291378	0.000490	20.896368
872.254031	-2.991400	3.670000	-10.977000	25.279050	0.000490	20.869294
873.253320	-3.000600	3.670400	-11.013000	25.279053	0.000491	20.872616
874.256192	-3.016500	3.668900	-11.066000	25.272195	0.000491	20.884221
875.253683	-2.998700	3.668500	-11.000000	25.266105	0.000491	20.881426
876.256499	-2.994100	3.669000	-10.985000	25.229296	0.000491	20.887618
877.255286	-3.000600	3.669000	-11.008000	25.223033	0.000490	20.868055
878.250713	-2.985300	3.669300	-10.953000	25.226910	0.000488	20.897075
879.252605	-3.018600	3.667000	-11.068000	25.240831	0.000489	20.881182
880.250447	-3.000100	3.667200	-11.000000	25.258284	0.000489	20.886850
881.252559	-3.022300	3.667800	-11.084000	25.266263	0.000490	20.881585
882.252924	-2.999100	3.666700	-10.996000	25.254760	0.000489	20.887579
883.252573	-3.000400	3.667100	-11.002000	25.270619	0.000488	20.869364
884.252503	-3.022700	3.665900	-11.080000	25.304199	0.000488	20.879844
885.253251	-3.005400	3.666100	-11.017000	25.296720	0.000490	20.878500
886.255552	-2.984800	3.667700	-10.946000	25.303233	0.000487	20.872237
887.253965	-3.009200	3.666400	-11.032000	25.320805	0.000486	20.857638
888.256825	-2.999200	3.665800	-10.994000	25.274179	0.000489	20.878627
889.257882	-3.028300	3.665400	-11.099000	25.244007	0.000487	20.889585
890.255968	-3.004600	3.665600	-11.013000	25.270531	0.000489	20.869750
891.259055	-2.982100	3.666400	-10.931000	25.278436	0.000486	20.876738
892.257701	-2.983400	3.666500	-10.937000	25.269960	0.000487	20.880081
893.258850	-2.988000	3.665600	-10.952000	25.314331	0.000486	20.869155
894.264579	-2.997700	3.664100	-10.983000	25.338517	0.000486	20.850767
895.259542	-3.025400	3.663400	-11.082000	25.315353	0.000485	20.866863
896.258999	-2.996900	3.664100	-10.979000	25.289256	0.000484	20.864842
897.260437	-2.991900	3.665500	-10.966000	25.293809	0.000485	20.871310
898.261867	-2.993800	3.663900	-10.968000	25.329453	0.000483	20.878648
899.261065	-3.018700	3.662600	-11.055000	25.342654	0.000484	20.859662
900.259629	-2.995500	3.663300	-10.973000	25.304086	0.000483	20.841327
901.266703	-2.987000	3.662000	-10.937000	25.306743	0.000485	20.850632
902.261896	-2.993900	3.663100	-10.967000	25.310225	0.000483	20.851284
903.262990	-2.992600	3.661900	-10.958000	25.341318	0.000482	20.857373
904.264637	-3.022700	3.661400	-11.067000	25.373634	0.000487	20.866112
905.262289	-2.997300	3.661800	-10.974000	25.392621	0.000484	20.862419
906.262954	-3.022300	3.660500	-11.062000	25.402065	0.000482	20.851514
907.267223	-2.984900	3.662500	-10.931000	25.376820	0.000482	20.830432
908.259301	-3.009500	3.661100	-11.017000	25.346376	0.000484	20.848701
909.262535	-3.005200	3.660100	-10.998000	25.302757	0.000479	20.854691
910.259840	-2.985000	3.660600	-10.925000	25.328434	0.000480	20.843489
911.266400	-3.026400	3.658700	-11.072000	25.350235	0.000484	20.845463
912.263935	-2.986600	3.659800	-10.929000	25.339599	0.000479	20.856121
913.265191	-2.979300	3.659700	-10.903000	25.364162	0.000482	20.840956
914.264462	-3.003400	3.660200	-10.992000	25.382127	0.000480	20.843347
915.264389	-2.996500	3.658200	-10.961000	25.398288	0.000480	20.845824
916.266631	-2.983400	3.658500	-10.913000	25.393643	0.000483	20.831678
917.263739	-3.015900	3.658600	-11.032000	25.414868	0.000479	20.850145
918.267156	-2.975900	3.659400	-10.889000	25.406125	0.000481	20.833306
919.263952	-2.989600	3.659100	-10.938000	25.443901	0.000480	20.850849
920.267373	-3.020200	3.657800	-11.046000	25.426810	0.000477	20.843645
921.264922	-3.008200	3.657200	-11.001000	25.440134	0.000480	20.837110
922.268243	-2.989100	3.657300	-10.932000	25.402436	0.000475	20.810162
923.265048	-2.978200	3.657300	-10.890000	25.411855	0.000480	20.844749
924.267289	-2.987200	3.657400	-10.925000	25.410742	0.000480	20.820398
925.264966	-2.969600	3.657700	-10.861000	25.417779	0.000476	20.843111
926.267019	-3.024200	3.656400	-11.056000	25.422255	0.000478	20.837174
927.271442	-3.001000	3.657000	-10.973000	25.376377	0.000478	20.823349
928.264779	-3.000200	3.656300	-10.968000	25.409808	0.000476	20.820409
929.269617	-3.018800	3.654900	-11.032000	25.390001	0.000476	20.826598
930.269252	-3.001300	3.655300	-10.969000	25.378625	0.000477	20.817547
931.269665	-2.998800	3.655400	-10.961000	25.408921	0.000477	20.807664
932.265652	-3.012800	3.655200	-11.011000	25.416631	0.000473	20.823941
933.270099	-3.003400	3.655100	-10.977000	25.446058	0.000473	20.819352
934.268611	-3.020100	3.654500	-11.036000	25.427421	0.000475	20.825767
935.272177	-2.995300	3.653100	-10.942000	25.446711	0.000475	20.822377
936.274813	-2.997200	3.653700	-10.950000	25.438909	0.000472	20.799845
937.269531	-2.989300	3.653300	-10.920000	25.418013	0.000471	20.830544
938.271033	-2.986600	3.653300	-10.910000	25.438120	0.000473	20.819441
939.269767	-2.968300	3.654400	-10.846000	25.386950	0.000473	20.836337
940.268894	-2.980700	3.653900	-10.890000	25.424557	0.000473	20.804399
941.270455	-2.995100	3.652200	-10.938000	25.431147	0.000472	20.796792
942.271642	-2.983800	3.652100	-10.896000	25.370856	0.000471	20.805479
943.272662	-2.981500	3.652000	-10.888000	25.361511	0.000471	20.816957
944.274396	-3.006600	3.650800	-10.976000	25.345015	0.000471	20.807507
945.273395	-3.013000	3.649800	-10.995000	25.339521	0.000475	20.801042
946.270182	-2.996200	3.650100	-10.936000	25.334954	0.000470	20.820164
947.273343	-2.993600	3.650800	-10.927000	25.355506	0.000470	20.812351
948.271262	-2.996400	3.649600	-10.934000	25.341167	0.000468	20.791315
949.270272	-3.009400	3.649200	-10.981000	25.343038	0.000471	20.815005
950.273054	-2.988300	3.649000	-10.904000	25.355144	0.000472	20.798711
951.274796	-2.990900	3.650300	-10.917000	25.382286	0.000468	20.801308
952.274753	-3.024100	3.647500	-11.029000	25.390687	0.000470	20.798838
953.275650	-3.006100	3.649200	-10.969000	25.424911	0.000471	20.804755
954.274983	-3.018100	3.647900	-11.009000	25.466372	0.000467	20.791861
955.275512	-2.987900	3.649000	-10.902000	25.490847	0.000469	20.809326
956.274147	-3.007200	3.647700	-10.968000	25.485058	0.000468	20.815367
957.273595	-2.996800	3.647700	-10.931000	25.486876	0.000468	20.783054
958.274266	-2.999700	3.647100	-10.939000	25.502264	0.000467	20.789023
959.273714	-3.006400	3.646600	-10.962000	25.434592	0.000465	20.812579
960.280900	-3.033900	3.646800	-11.063000	25.438820	0.000466	20.791221
961.275862	-2.992600	3.647700	-10.916000	25.391629	0.000467	20.806422
962.276530	-2.990600	3.647500	-10.907000	25.421061	0.000468	20.792828
963.275386	-3.008100	3.646700	-10.969000	25.379186	0.000467	20.797248
964.278918	-2.988000	3.646000	-10.894000	25.385297	0.000466	20.800064
965.277842	-2.983600	3.645400	-10.876000	25.351625	0.000467	20.790910
966.275251	-3.001600	3.645200	-10.940000	25.382171	0.000466	20.796926
967.277598	-2.996800	3.645800	-10.925000	25.367089	0.000467	20.791739
968.275958	-2.984700	3.644800	-10.878000	25.384938	0.000467	20.785954
969.285874	-3.008200	3.643600	-10.959000	25.330707	0.000464	20.792666
970.281933	-3.018900	3.643600	-10.999000	25.330411	0.000465	20.796636
971.282085	-3.010400	3.643000	-10.967000	25.369014	0.000464	20.778498
972.280546	-2.997000	3.644800	-10.922000	25.391684	0.000464	20.780399
973.277928	-2.988100	3.644300	-10.889000	25.384925	0.000463	20.805855
974.280023	-2.999400	3.644200	-10.930000	25.414181	0.000463	20.777858
975.277682	-2.983700	3.642800	-10.869000	25.409984	0.000461	20.798775
976.282483	-2.985100	3.642400	-10.871000	25.392886	0.000464	20.770700
977.279710	-2.994000	3.642500	-10.905000	25.383470	0.000463	20.774996
978.279479	-3.007200	3.640900	-10.947000	25.380387	0.000463	20.787547
979.280871	-2.992500	3.642300	-10.898000	25.402880	0.000461	20.788797
980.288882	-2.991000	3.641800	-10.891000	25.433979	0.000459	20.780669
981.281617	-3.003300	3.642100	-10.936000	25.418918	0.000460	20.766968
982.282843	-3.015500	3.640100	-10.976000	25.414516	0.000461	20.767764
983.281463	-2.983100	3.641500	-10.863000	25.441509	0.000462	20.795817
984.281829	-2.992800	3.640400	-10.895000	25.481373	0.000458	20.771837
985.282422	-2.997700	3.640600	-10.913000	25.522500	0.000457	20.772361
986.282454	-3.006000	3.639600	-10.940000	25.513237	0.000459	20.799569
987.289071	-2.994600	3.638900	-10.896000	25.523280	0.000457	20.760815
988.281463	-2.998400	3.639600	-10.911000	25.458868	0.000458	20.771997
989.283134	-3.000100	3.639700	-10.918000	25.436799	0.000456	20.766431
990.286017	-2.992200	3.639300	-10.888000	25.401162	0.000457	20.768579
991.283480	-3.003300	3.638500	-10.926000	25.429744	0.000460	20.773572
992.285102	-2.999800	3.637900	-10.912000	25.451345	0.000454	20.750218
993.285076	-2.988300	3.636300	-10.865000	25.455102	0.000456	20.775802
994.285822	-3.011200	3.636800	-10.950000	25.458428	0.000456	20.765391
995.286020	-3.001300	3.637400	-10.916000	25.466114	0.000455	20.769790
996.285196	-2.991600	3.637600	-10.882000	25.482340	0.000457	20.768067
997.281356	-3.010000	3.636600	-10.945000	25.521981	0.000454	20.784642
998.285283	-2.998900	3.634400	-10.897000	25.484381	0.000455	20.781022
999.285176	-3.007400	3.635100	-10.932000	25.451135	0.000457	20.768499
1000.282590	-2.982500	3.636300	-10.844000	25.436649	0.000453	20.760591
1001.285292	-3.020400	3.634600	-10.977000	25.431332	0.000454	20.771373
1002.286685	-2.995200	3.636100	-10.890000	25.457478	0.000454	20.754480
1003.285608	-2.979300	3.635500	-10.829000	25.488170	0.000453	20.765860
1004.293679	-3.012300	3.633500	-10.945000	25.487623	0.000453	20.761993
1005.289204	-3.001100	3.634600	-10.907000	25.543666	0.000452	20.754735
1006.289187	-3.001500	3.633800	-10.906000	25.541880	0.000451	20.767641
1007.289660	-3.000100	3.632700	-10.898000	25.551446	0.000452	20.751169
1008.284967	-2.992300	3.633900	-10.872000	25.584248	0.000454	20.757560
1009.287942	-3.011300	3.631400	-10.934000	25.603014	0.000451	20.765026
1010.290844	-2.985000	3.631700	-10.840000	25.525260	0.000452	20.753795
1011.290282	-3.011500	3.631900	-10.936000	25.490919	0.000452	20.774786
1012.290772	-3.025700	3.631000	-10.986000	25.456208	0.000450	20.770749
1013.284482	-2.989800	3.632700	-10.860000	25.458290	0.000449	20.769046
1014.291290	-2.994200	3.631800	-10.873000	25.490874	0.000449	20.762412
1015.292159	-3.006700	3.630700	-10.916000	25.514535	0.000451	20.762939
1016.289152	-3.012500	3.630200	-10.935000	25.548333	0.000448	20.764164
1017.286658	-2.995500	3.629400	-10.871000	25.536730	0.000448	20.763892
1018.286412	-2.993000	3.629900	-10.864000	25.555119	0.000449	20.743003
1019.295730	-3.015900	3.630100	-10.946000	25.572341	0.000448	20.784008
1020.291460	-3.015600	3.628700	-10.942000	25.602261	0.000447	20.758107
1021.292219	-2.996600	3.630100	-10.877000	25.593119	0.000447	20.765046
1022.293356	-3.002500	3.628900	-10.895000	25.579579	0.000448	20.760457
1023.289834	-2.976100	3.630100	-10.803000	25.542083	0.000445	20.739869
1024.292269	-2.997800	3.627900	-10.874000	25.552248	0.000445	20.750552
1025.291421	-2.996600	3.628100	-10.871000	25.563559	0.000447	20.767128
1026.292871	-3.002900	3.628700	-10.896000	25.554863	0.000446	20.747489
1027.288475	-2.971600	3.628900	-10.782000	25.531679	0.000445	20.755026
1028.287045	-2.968600	3.629500	-10.773000	25.500271	0.000443	20.744347
1029.296682	-3.014000	3.626700	-10.930000	25.492371	0.000444	20.745423
1030.290878	-3.018000	3.625200	-10.941000	25.498435	0.000443	20.729700
1031.290739	-3.000200	3.626800	-10.881000	25.492396	0.000444	20.743076
1032.298046	-3.000200	3.626800	-10.880000	25.465658	0.000442	20.757005
1033.294185	-2.990000	3.626300	-10.842000	25.469189	0.000439	20.719771
1034.296506	-2.968500	3.626200	-10.763000	25.457015	0.000441	20.750222
1035.296309	-2.982600	3.624700	-10.811000	25.466758	0.000440	20.735349
1036.292471	-3.011500	3.624300	-10.914000	25.486117	0.000441	20.772334
1037.291120	-3.014900	3.624100	-10.925000	25.492288	0.000439	20.753400
1038.293708	-3.000100	3.625500	-10.876000	25.494226	0.000440	20.758191
1039.295483	-2.994400	3.623600	-10.849000	25.482894	0.000439	20.746811
1040.293999	-3.013000	3.624000	-10.918000	25.471365	0.000438	20.735233
1041.304282	-3.012800	3.623800	-10.916000	25.429246	0.000439	20.749363
1042.298017	-2.979100	3.623000	-10.792000	25.517197	0.000438	20.748543
1043.295341	-2.963200	3.624200	-10.738000	25.530639	0.000437	20.743075
1044.295817	-2.981100	3.623700	-10.802000	25.511831	0.000437	20.731773
1045.298990	-2.970100	3.623600	-10.761000	25.499731	0.000437	20.741908
1046.292606	-2.988400	3.622200	-10.824000	25.506444	0.000435	20.748176
1047.298416	-3.003700	3.621500	-10.877000	25.538029	0.000437	20.736746
1048.297774	-3.017100	3.621600	-10.926000	25.562658	0.000436	20.748204
1049.298398	-2.996600	3.620600	-10.848000	25.513280	0.000436	20.748402
1050.298351	-2.979700	3.621800	-10.790000	25.520666	0.000435	20.763881
1051.300178	-2.992400	3.620800	-10.834000	25.506206	0.000433	20.729917
1052.299783	-2.985500	3.620100	-10.806000	25.510451	0.000435	20.752674
1053.295506	-2.984100	3.620600	-10.804000	25.497432	0.000433	20.740547
1054.303354	-2.993800	3.621100	-10.840000	25.502855	0.000435	20.728449
1055.300317	-2.983900	3.620200	-10.801000	25.511830	0.000434	20.722289
1056.299167	-3.020900	3.619800	-10.934000	25.476570	0.000434	20.720070
1057.299430	-3.009200	3.618900	-10.889000	25.481493	0.000435	20.734972
1058.301533	-3.012000	3.618700	-10.898000	25.481246	0.000434	20.728086
1059.300086	-3.011000	3.617200	-10.889000	25.493526	0.000433	20.729987
1060.300799	-2.975100	3.617900	-10.763000	25.539399	0.000433	20.719629
1061.296820	-2.976700	3.618200	-10.770000	25.581592	0.000433	20.722173
1062.301139	-2.985800	3.617600	-10.800000	25.589921	0.000431	20.725323
1063.303193	-3.008200	3.615800	-10.876000	25.623150	0.000432	20.735462
1064.302067	-2.984300	3.617100	-10.794000	25.612267	0.000432	20.742076
1065.300928	-2.993200	3.616900	-10.825000	25.566376	0.000431	20.721117
1066.301875	-2.986400	3.617400	-10.801000	25.525768	0.000430	20.729648
1067.304879	-2.994500	3.615800	-10.827000	25.526893	0.000432	20.730304
1068.311709	-2.997400	3.615000	-10.835000	25.535913	0.000430	20.723241
1069.303890	-3.016200	3.615300	-10.904000	25.548768	0.000430	20.717657
1070.301875	-3.001700	3.615400	-10.851000	25.561712	0.000429	20.738245
1071.304429	-2.988700	3.615000	-10.803000	25.550911	0.000430	20.705110
1072.305118	-3.012800	3.613300	-10.885000	25.536098	0.000428	20.720581
1073.307207	-3.008900	3.614400	-10.874000	25.537867	0.000429	20.716193
1074.307515	-2.994500	3.613800	-10.820000	25.547191	0.000429	20.734567
1075.304739	-3.004200	3.612700	-10.852000	25.560012	0.000426	20.720890
1076.310466	-2.999600	3.612500	-10.834000	25.583471	0.000428	20.720267
1077.303944	-3.009900	3.611800	-10.870000	25.556116	0.000426	20.731676
1078.306493	-3.015100	3.611900	-10.889000	25.596477	0.000426	20.735226
1079.310829	-2.999800	3.612200	-10.834000	25.571930	0.000424	20.722902
1080.304945	-2.985500	3.611800	-10.782000	25.630226	0.000424	20.695151
1081.306369	-3.005900	3.611000	-10.853000	25.623995	0.000427	20.730146
1082.307293	-2.988000	3.612700	-10.794000	25.603197	0.000426	20.713525
1083.305568	-3.017500	3.610200	-10.893000	25.536134	0.000427	20.705443
1084.304754	-2.997800	3.610800	-10.823000	25.469042	0.000426	20.702079
1085.304610	-2.986200	3.610600	-10.780000	25.499286	0.000421	20.696887
1086.309981	-2.960100	3.612200	-10.692000	25.550980	0.000424	20.716560
1087.317439	-2.988500	3.611600	-10.793000	25.589350	0.000425	20.716214
1088.310000	-2.995500	3.609600	-10.812000	25.563559	0.000424	20.691259
1089.307817	-3.005900	3.609800	-10.850000	25.563337	0.000423	20.711426
1090.306791	-3.027300	3.609400	-10.926000	25.540703	0.000421	20.701023
1091.310103	-3.018900	3.608300	-10.893000	25.531983	0.000423	20.695584
1092.310374	-3.023600	3.608200	-10.909000	25.489218	0.000421	20.696260
1093.303794	-3.002300	3.608900	-10.834000	25.522199	0.000420	20.708045
1094.306696	-3.000700	3.607600	-10.824000	25.542034	0.000422	20.710894
1095.307660	-3.000200	3.606700	-10.820000	25.540621	0.000421	20.716115
1096.307417	-3.011200	3.607600	-10.862000	25.548401	0.000420	20.705909
1097.307619	-2.991000	3.606400	-10.786000	25.520746	0.000420	20.691885
1098.307893	-2.985600	3.607000	-10.768000	25.484094	0.000420	20.696331
1099.310918	-2.984400	3.606800	-10.763000	25.435862	0.000421	20.700054
1100.308686	-2.998900	3.605300	-10.811000	25.449708	0.000419	20.697836
1101.308006	-2.989000	3.604900	-10.775000	25.477944	0.000418	20.719553
1102.309944	-2.988600	3.605700	-10.775000	25.502997	0.000418	20.689708
1103.308583	-2.997600	3.605100	-10.805000	25.494523	0.000418	20.712020
1104.310101	-2.979800	3.604500	-10.740000	25.497360	0.000415	20.696376
1105.311983	-3.015500	3.603800	-10.866000	25.492146	0.000417	20.683078
1106.309519	-2.995100	3.604700	-10.795000	25.486656	0.000417	20.703646
1107.312357	-2.988800	3.603900	-10.771000	25.495205	0.000415	20.696108
1108.315094	-2.996600	3.604300	-10.799000	25.493624	0.000415	20.723920
1109.312945	-2.990100	3.602500	-10.771000	25.540219	0.000419	20.687259
1110.312798	-2.978400	3.603000	-10.730000	25.512120	0.000417	20.683222
1111.313287	-3.006100	3.602500	-10.829000	25.541517	0.000414	20.677182
1112.317914	-2.986100	3.602600	-10.756000	25.589256	0.000415	20.694781
1113.315321	-3.008000	3.600400	-10.828000	25.551017	0.000414	20.702372
1114.316459	-2.996600	3.600500	-10.789000	25.571270	0.000415	20.704219
1115.319259	-2.992000	3.602400	-10.778000	25.583648	0.000414	20.692942
1116.315214	-2.994300	3.601200	-10.782000	25.580372	0.000415	20.702929
1117.315150	-2.997200	3.600200	-10.789000	25.609421	0.000413	20.696542
1118.316488	-3.001300	3.599700	-10.803000	25.610148	0.000412	20.711023
1119.313938	-2.996500	3.600200	-10.787000	25.606597	0.000412	20.703663
1120.311734	-2.990900	3.600700	-10.768000	25.618798	0.000413	20.711176
1121.313776	-3.000600	3.599700	-10.801000	25.637888	0.000411	20.700950
1122.320427	-2.990300	3.598500	-10.760000	25.649542	0.000413	20.689421
1123.315620	-2.979900	3.600200	-10.727000	25.684678	0.000412	20.706220
1124.311826	-3.003600	3.598700	-10.808000	25.676554	0.000412	20.715604
1125.316950	-3.022000	3.597300	-10.870000	25.687014	0.000410	20.688176
1126.316683	-3.000400	3.598200	-10.795000	25.707941	0.000411	20.689281
1127.316630	-2.993200	3.598400	-10.770000	25.708787	0.000410	20.705304
1128.320331	-2.998900	3.597600	-10.788000	25.728593	0.000411	20.707655
1129.314852	-3.012300	3.596500	-10.832000	25.678952	0.000411	20.693355
1130.318404	-2.997800	3.597000	-10.782000	25.644617	0.000409	20.686844
1131.323362	-2.970500	3.598000	-10.687000	25.547085	0.000409	20.718813
1132.322177	-2.992100	3.596500	-10.760000	25.532527	0.000410	20.691862
1133.315775	-2.979100	3.596200	-10.712000	25.504945	0.000407	20.683603
1134.329518	-3.005700	3.594800	-10.805000	25.505992	0.000409	20.691768
1135.319930	-2.980600	3.595000	-10.715000	25.533426	0.000407	20.715053
1136.317812	-2.974300	3.596100	-10.695000	25.586010	0.000407	20.687253
1137.321892	-2.994500	3.594400	-10.763000	25.628578	0.000406	20.703928
1138.318954	-2.981200	3.593100	-10.710000	25.639539	0.000406	20.696444
1139.320961	-3.015700	3.593300	-10.836000	25.650500	0.000406	20.704608
1140.324858	-2.984600	3.594500	-10.727000	25.596479	0.000404	20.695871
1141.327050	-2.986200	3.593200	-10.729000	25.594521	0.000405	20.705759
1142.328424	-2.996900	3.593200	-10.767000	25.621858	0.000403	20.688169
1143.329607	-2.982300	3.593600	-10.716000	25.639921	0.000406	20.709157
1144.327749	-2.985300	3.591900	-10.722000	25.641264	0.000404	20.694857
1145.321414	-2.977500	3.592400	-10.695000	25.579372	0.000404	20.692441
1146.326068	-2.979900	3.592100	-10.703000	25.608171	0.000401	20.703821
1147.327239	-2.978100	3.592500	-10.698000	25.616723	0.000402	20.729481
1148.325848	-3.001200	3.591400	-10.777000	25.637372	0.000404	20.690948
1149.326525	-2.992300	3.591900	-10.746000	25.675517	0.000402	20.717408
1150.327212	-2.991300	3.591500	-10.742000	25.701781	0.000401	20.721503
1151.325258	-2.999100	3.590300	-10.766000	25.734210	0.000401	20.716143
1152.323194	-3.006200	3.589200	-10.788000	25.714314	0.000404	20.704692
1153.326108	-3.001100	3.588600	-10.769000	25.713017	0.000401	20.701966
1154.327705	-3.001000	3.588200	-10.768000	25.689467	0.000401	20.707710
1155.324020	-2.999700	3.588800	-10.763000	25.640226	0.000400	20.719895
1156.325123	-2.956700	3.589600	-10.613000	25.634113	0.000400	20.719920
1157.329099	-2.999100	3.588300	-10.761000	25.618760	0.000400	20.726785
1158.327824	-3.003800	3.588200	-10.777000	25.621597	0.000399	20.734851
1159.328733	-3.007500	3.588400	-10.792000	25.595783	0.000396	20.715088
1160.328535	-2.994000	3.588600	-10.744000	25.622024	0.000398	20.711097
1161.329341	-3.028400	3.586800	-10.861000	25.606153	0.000399	20.691362
1162.329604	-3.012300	3.586600	-10.803000	25.568556	0.000397	20.697226
1163.330073	-3.014700	3.585500	-10.808000	25.536327	0.000397	20.712750
1164.328176	-3.013900	3.586200	-10.808000	25.533002	0.000397	20.708462
1165.325750	-3.024400	3.585700	-10.844000	25.554327	0.000396	20.722766
1166.325114	-3.002000	3.585000	-10.761000	25.578208	0.000397	20.712136
1167.326117	-3.015100	3.583300	-10.803000	25.579900	0.000397	20.704826
1168.325564	-3.011100	3.585200	-10.795000	25.590484	0.000396	20.706920
1169.331866	-2.992100	3.585000	-10.725000	25.604307	0.000396	20.728865
1170.326819	-2.984400	3.585200	-10.699000	25.658028	0.000396	20.711221
1171.325955	-3.003400	3.583900	-10.763000	25.685984	0.000395	20.712747
1172.332893	-2.991500	3.585500	-10.725000	25.605432	0.000396	20.737582
1173.329920	-3.020600	3.583900	-10.824000	25.593358	0.000394	20.711230
1174.326735	-2.981700	3.583500	-10.684000	25.574719	0.000391	20.722858
1175.333175	-2.998000	3.582400	-10.739000	25.551988	0.000394	20.718520
1176.328621	-3.000700	3.583000	-10.751000	25.589113	0.000392	20.707441
1177.329746	-3.011500	3.582100	-10.787000	25.611032	0.000392	20.739413
1178.330310	-3.005800	3.580800	-10.763000	25.600851	0.000392	20.728240
1179.332259	-2.963800	3.582500	-10.616000	25.588055	0.000391	20.731035
1180.328785	-2.989200	3.580700	-10.702000	25.590317	0.000391	20.741368
1181.332654	-3.017200	3.581000	-10.803000	25.643920	0.000392	20.747315
1182.330502	-2.995900	3.581100	-10.728000	25.652566	0.000391	20.750308
1183.330743	-2.991300	3.580600	-10.710000	25.701519	0.000388	20.731671
1184.340776	-2.994900	3.580100	-10.721000	25.717126	0.000389	20.720320
1185.332933	-2.991700	3.579500	-10.708000	25.719486	0.000387	20.716526
1186.334746	-2.978000	3.579800	-10.660000	25.695136	0.000389	20.753236
1187.334391	-2.991400	3.579800	-10.707000	25.696955	0.000387	20.734673
1188.339356	-3.004400	3.579900	-10.754000	25.708588	0.000386	20.722176
1189.335322	-3.009200	3.578900	-10.768000	25.697579	0.000387	20.733404
1190.338130	-3.002300	3.579500	-10.745000	25.693482	0.000385	20.729289
1191.337521	-3.026800	3.577500	-10.828000	25.697091	0.000385	20.754725
1192.336271	-3.006800	3.578000	-10.758000	25.634053	0.000385	20.729342
1193.337005	-2.982100	3.577100	-10.666000	25.593337	0.000384	20.741082
1194.336515	-2.984100	3.575900	-10.670000	25.577777	0.000384	20.740154
1195.345497	-2.984900	3.577600	-10.678000	25.578057	0.000383	20.747548
1196.334782	-3.008500	3.575800	-10.757000	25.600394	0.000385	20.733945
1197.344985	-2.999100	3.575900	-10.724000	25.627653	0.000385	20.732873
1198.351945	-3.010200	3.576100	-10.763000	25.651981	0.000384	20.744505
1199.340695	-3.002500	3.576300	-10.736000	25.628356	0.000385	20.731682
1200.336494	-3.026500	3.573400	-10.814000	25.675914	0.000380	20.733455
1201.341373	-3.025800	3.573500	-10.811000	25.715125	0.000384	20.730165
1202.340816	-3.013900	3.573400	-10.769000	25.700270	0.000383	20.747012
1203.337461	-3.003800	3.574100	-10.735000	25.716123	0.000381	20.743495
1204.338077	-3.032000	3.572700	-10.831000	25.741840	0.000381	20.729971
1205.341165	-2.998100	3.573800	-10.714000	25.757020	0.000381	20.745693
1206.337910	-2.994200	3.572900	-10.696000	25.751433	0.000383	20.723485
1207.338490	-2.994600	3.573400	-10.700000	25.746717	0.000380	20.738664
1208.343198	-3.005000	3.572400	-10.734000	25.695759	0.000381	20.741533
1209.339542	-2.986500	3.571300	-10.665000	25.665915	0.000378	20.742378
1210.339822	-2.972400	3.572200	-10.617000	25.662217	0.000379	20.747199
1211.342370	-3.009000	3.570400	-10.742000	25.649844	0.000380	20.748997
1212.340230	-2.983400	3.571800	-10.655000	25.719667	0.000380	20.743736
1213.340562	-2.981400	3.571900	-10.648000	25.710451	0.000377	20.752024
1214.342134	-2.996100	3.570400	-10.697000	25.698305	0.000376	20.750255
1215.341739	-2.994000	3.571300	-10.692000	25.719298	0.000376	20.753323
1216.345479	-3.005500	3.569400	-10.727000	25.682259	0.000377	20.749311
1217.342970	-3.011800	3.569900	-10.751000	25.680149	0.000375	20.751460
1218.342759	-2.999000	3.569500	-10.704000	25.677990	0.000378	20.757826
1219.345211	-3.003300	3.569100	-10.718000	25.692448	0.000377	20.746743
1220.346070	-3.003900	3.568900	-10.720000	25.696499	0.000378	20.749864
1221.344462	-3.003900	3.568700	-10.719000	25.762789	0.000376	20.760024
1222.346336	-2.981000	3.568200	-10.636000	25.747093	0.000375	20.772707
1223.352654	-2.999600	3.567100	-10.698000	25.746395	0.000374	20.765842
1224.350113	-2.997300	3.567800	-10.693000	25.755590	0.000374	20.778871
1225.347844	-2.988300	3.566800	-10.658000	25.778995	0.000373	20.773932
1226.348317	-2.996300	3.565800	-10.683000	25.742726	0.000375	20.772114
1227.348722	-3.003900	3.568200	-10.718000	25.770183	0.000375	20.761761
1228.352443	-3.003200	3.566600	-10.710000	25.786282	0.000373	20.766552
1229.351114	-3.009100	3.565800	-10.729000	25.761937	0.000375	20.735933
1230.346682	-2.989000	3.565500	-10.656000	25.716546	0.000374	20.764309
1231.349354	-3.014900	3.565900	-10.750000	25.741097	0.000373	20.775694
1232.349522	-3.022200	3.564300	-10.771000	25.733220	0.000374	20.755927
1233.349660	-3.011300	3.565500	-10.736000	25.714042	0.000371	20.741879
1234.351024	-3.020900	3.564600	-10.766000	25.752156	0.000374	20.768309
1235.348199	-2.974300	3.563600	-10.598000	25.735039	0.000370	20.776246
1236.350707	-2.997000	3.563700	-10.679000	25.686342	0.000369	20.767637
1237.352300	-2.988700	3.563900	-10.651000	25.718846	0.000373	20.760929
1238.354310	-3.009000	3.561800	-10.716000	25.707541	0.000369	20.747203
1239.350198	-3.003900	3.562400	-10.700000	25.691716	0.000368	20.780148
1240.350273	-2.984900	3.563500	-10.636000	25.673649	0.000370	20.781442
1241.357104	-3.011100	3.561300	-10.723000	25.747071	0.000370	20.778375
1242.350362	-3.013800	3.561900	-10.733000	25.747276	0.000370	20.756296
1243.348279	-2.999400	3.561400	-10.681000	25.763966	0.000367	20.772112
1244.349102	-2.986600	3.561700	-10.636000	25.747227	0.000369	20.790860
1245.354768	-3.017600	3.561200	-10.746000	25.782955	0.000366	20.772219
1246.352998	-2.986400	3.560900	-10.632000	25.792568	0.000368	20.757219
1247.355491	-3.004200	3.560300	-10.695000	25.753787	0.000367	20.762835
1248.356857	-3.000000	3.560000	-10.679000	25.745487	0.000367	20.774413
1249.354013	-2.986400	3.560100	-10.630000	25.769463	0.000367	20.776211
1250.353309	-3.026300	3.559500	-10.771000	25.750482	0.000364	20.788440
1251.356483	-3.002400	3.559200	-10.685000	25.784892	0.000366	20.765631
1252.353667	-2.998800	3.557800	-10.668000	25.798610	0.000364	20.802644
1253.354771	-3.028700	3.558200	-10.776000	25.781912	0.000366	20.795829
1254.353173	-2.980400	3.558900	-10.606000	25.753192	0.000363	20.784049
1255.353004	-2.964600	3.559400	-10.552000	25.766483	0.000364	20.779856
1256.357163	-2.996000	3.558400	-10.659000	25.794461	0.000362	20.790889
1257.356914	-3.020500	3.556000	-10.739000	25.761964	0.000364	20.778161
1258.356087	-3.002300	3.555200	-10.673000	25.714212	0.000361	20.776664
1259.363297	-3.020900	3.555700	-10.740000	25.706585	0.000363	20.792238
1260.364936	-3.007600	3.556200	-10.695000	25.719483	0.000364	20.781485
1261.362284	-3.015800	3.555300	-10.721000	25.715382	0.000363	20.789220
1262.357832	-3.000400	3.554500	-10.663000	25.739064	0.000363	20.776970
1263.360863	-3.001900	3.555200	-10.671000	25.693598	0.000363	20.795788
1264.356465	-3.003100	3.554200	-10.672000	25.732775	0.000361	20.787723
1265.356994	-3.006400	3.553700	-10.683000	25.757400	0.000361	20.797285
1266.367201	-2.987400	3.554700	-10.619000	25.714861	0.000361	20.783480
1267.360013	-3.004900	3.553700	-10.678000	25.725772	0.000360	20.805819
1268.362419	-2.979900	3.554300	-10.591000	25.757424	0.000361	20.800629
1269.357511	-3.005400	3.553200	-10.678000	25.812702	0.000361	20.795936
1270.360779	-2.999800	3.553200	-10.658000	25.772132	0.000360	20.781262
1271.361027	-2.996900	3.552400	-10.645000	25.785698	0.000359	20.820019
1272.361710	-2.996500	3.552500	-10.644000	25.748057	0.000358	20.797384
1273.358602	-3.024100	3.552500	-10.741000	25.733301	0.000359	20.806269
1274.362963	-3.002000	3.551900	-10.662000	25.745274	0.000357	20.805968
1275.359498	-3.002600	3.550400	-10.659000	25.739388	0.000358	20.804323
1276.358155	-2.995800	3.550300	-10.635000	25.722345	0.000356	20.805696
1277.361555	-2.999100	3.550700	-10.647000	25.724331	0.000355	20.815278
1278.360254	-3.002300	3.551100	-10.661000	25.750993	0.000358	20.810763
1279.363984	-3.002200	3.550300	-10.657000	25.723264	0.000357	20.826534
1280.362734	-3.007400	3.549800	-10.675000	25.719989	0.000355	20.793372
1281.366707	-2.998100	3.550100	-10.643000	25.716508	0.000356	20.807894
1282.363560	-2.999800	3.549700	-10.648000	25.751145	0.000354	20.818502
1283.363433	-2.999600	3.548000	-10.642000	25.739216	0.000355	20.799408
1284.369750	-2.957800	3.551000	-10.502000	25.724808	0.000354	20.827136
1285.369804	-3.018700	3.548200	-10.710000	25.718593	0.000352	20.814255
1286.363842	-3.017600	3.547000	-10.703000	25.707366	0.000356	20.803927
1287.369196	-3.019300	3.547700	-10.711000	25.735887	0.000356	20.811237
1288.369051	-3.013700	3.546500	-10.687000	25.752561	0.000353	20.821347
1289.360714	-2.999600	3.547100	-10.640000	25.769731	0.000353	20.834327
1290.367803	-3.021200	3.546600	-10.714000	25.775170	0.000352	20.835522
1291.361483	-2.983200	3.546900	-10.580000	25.763742	0.000351	20.822147
1292.364828	-3.005300	3.546900	-10.659000	25.803422	0.000352	20.808900
1293.363506	-3.012400	3.545400	-10.678000	25.772411	0.000352	20.818527
1294.364974	-2.998800	3.546500	-10.634000	25.767297	0.000351	20.818132
1295.364731	-3.008500	3.543800	-10.661000	25.740636	0.000351	20.821698
1296.367770	-3.020600	3.544600	-10.706000	25.747520	0.000350	20.811543
1297.365078	-2.994600	3.546000	-10.618000	25.731446	0.000349	20.819105
1298.368990	-3.013000	3.543600	-10.676000	25.701583	0.000348	20.830360
1299.366869	-2.998500	3.544600	-10.628000	25.703373	0.000346	20.812244
1300.362698	-2.992400	3.543400	-10.602000	25.762926	0.000349	20.824646
1301.367481	-3.005800	3.543600	-10.651000	25.836887	0.000349	20.849627
1302.363925	-2.994400	3.544700	-10.613000	25.842728	0.000349	20.827994
1303.366130	-3.015200	3.541500	-10.678000	25.817932	0.000348	20.831536
1304.366786	-2.999900	3.541000	-10.622000	25.811156	0.000347	20.816669
1305.365823	-3.016100	3.542100	-10.682000	25.815395	0.000347	20.841789
1306.367766	-3.002600	3.542300	-10.635000	25.847595	0.000347	20.841418
1307.369314	-2.985100	3.542400	-10.574000	25.869155	0.000346	20.828464
1308.369967	-2.990400	3.541100	-10.588000	25.896712	0.000345	20.838129
1309.364814	-3.010900	3.539400	-10.656000	25.923512	0.000347	20.824749
1310.368837	-2.988700	3.540600	-10.580000	25.923812	0.000344	20.832637
1311.369371	-2.970200	3.540600	-10.514000	25.893207	0.000345	20.827495
1312.369115	-3.008600	3.538800	-10.646000	25.907120	0.000342	20.852378
1313.368771	-2.989900	3.539000	-10.580000	25.882877	0.000343	20.836558
1314.370878	-2.999300	3.538500	-10.612000	25.921629	0.000343	20.842771
1315.366138	-2.995900	3.538700	-10.600000	25.927686	0.000343	20.832262
1316.372746	-3.007100	3.538200	-10.639000	25.893314	0.000343	20.836612
1317.368742	-2.994700	3.537000	-10.592000	25.844054	0.000343	20.845922
1318.370335	-3.002500	3.537200	-10.620000	25.831359	0.000344	20.827006
1319.373329	-2.997400	3.537000	-10.601000	25.841793	0.000341	20.819943
1320.368503	-2.987400	3.537900	-10.568000	25.799635	0.000341	20.844450
1321.369166	-3.008000	3.536400	-10.636000	25.765845	0.000341	20.846544
1322.373534	-3.010300	3.536500	-10.645000	25.738594	0.000340	20.846198
1323.372324	-3.027000	3.535800	-10.702000	25.770846	0.000341	20.838765
1324.369652	-2.998100	3.537000	-10.603000	25.806125	0.000344	20.857132
1325.372213	-3.010100	3.534700	-10.639000	25.797452	0.000342	20.844153
1326.367327	-3.000500	3.535700	-10.608000	25.803765	0.000342	20.857132
1327.369519	-3.022500	3.532000	-10.675000	25.853401	0.000341	20.863844
1328.371330	-2.978900	3.533800	-10.526000	25.821058	0.000342	20.845106
1329.369649	-3.003200	3.533800	-10.612000	25.798602	0.000341	20.845783
1330.373885	-2.991300	3.534300	-10.571000	25.854128	0.000341	20.836601
1331.369008	-3.015900	3.533600	-10.655000	25.854197	0.000339	20.853265
1332.372392	-2.983600	3.534000	-10.543000	25.847470	0.000339	20.865474
1333.369494	-2.997700	3.531900	-10.587000	25.837008	0.000341	20.860654
1334.367535	-2.999800	3.530500	-10.590000	25.812148	0.000339	20.855122
1335.370986	-3.018300	3.531100	-10.656000	25.816100	0.000339	20.861937
1336.369929	-3.012700	3.531100	-10.636000	25.791698	0.000340	20.855443
1337.370413	-3.016900	3.531100	-10.652000	25.763474	0.000338	20.865024
1338.372472	-2.992100	3.530500	-10.563000	25.743706	0.000337	20.879781
1339.370770	-2.990000	3.530000	-10.555000	25.737767	0.000336	20.852005
1340.370001	-2.995600	3.529200	-10.572000	25.721417	0.000336	20.866402
1341.372143	-3.006800	3.529100	-10.611000	25.762515	0.000337	20.882551
1342.373146	-3.004000	3.529000	-10.600000	25.790606	0.000335	20.863829
1343.373614	-2.981000	3.530600	-10.524000	25.823485	0.000335	20.870777
1344.372423	-3.003700	3.529000	-10.600000	25.807358	0.000334	20.860741
1345.376379	-3.013500	3.528000	-10.631000	25.829046	0.000334	20.863087
1346.374256	-2.989500	3.527700	-10.545000	25.797671	0.000333	20.846270
1347.379299	-2.998200	3.528300	-10.576000	25.742771	0.000332	20.859877
1348.378514	-2.997100	3.527700	-10.572000	25.749877	0.000332	20.865117
1349.375930	-3.007700	3.526400	-10.606000	25.777354	0.000334	20.877069
1350.377688	-2.998000	3.527500	-10.573000	25.784365	0.000330	20.854715
1351.380458	-3.008700	3.525500	-10.606000	25.731865	0.000331	20.856508
1352.377562	-2.993500	3.526000	-10.555000	25.806428	0.000332	20.859333
1353.380165	-2.988300	3.525600	-10.535000	25.871963	0.000332	20.851198
1354.382897	-2.987300	3.525100	-10.530000	25.810833	0.000330	20.862335
1355.377354	-2.982700	3.527000	-10.519000	25.827452	0.000330	20.853900
1356.379126	-2.985700	3.525500	-10.525000	25.866156	0.000331	20.838253
1357.378918	-2.990900	3.524200	-10.539000	25.886354	0.000330	20.886989
1358.378447	-3.004000	3.524500	-10.587000	25.933852	0.000332	20.857895
1359.376086	-3.016000	3.523700	-10.627000	25.904422	0.000331	20.847296
1360.378198	-3.008700	3.523400	-10.599000	25.888246	0.000330	20.841004
1361.377105	-2.989200	3.522500	-10.529000	25.874116	0.000330	20.835343
1362.379679	-3.012000	3.522500	-10.609000	25.884224	0.000330	20.836964
1363.385325	-2.992000	3.522800	-10.539000	25.882759	0.000331	20.840233
1364.378401	-2.989200	3.522400	-10.528000	25.871092	0.000329	20.850797
1365.392151	-3.001100	3.520400	-10.564000	25.851100	0.000330	20.839249
1366.382845	-2.989400	3.522800	-10.531000	25.823571	0.000328	20.831036
1367.376737	-3.003900	3.520000	-10.572000	25.890895	0.000327	20.815690
1368.378654	-3.008500	3.520400	-10.590000	25.856444	0.000328	20.819014
1369.376538	-2.986000	3.520400	-10.511000	25.826535	0.000327	20.831169
1370.377070	-3.000400	3.520400	-10.562000	25.845047	0.000328	20.869203
1371.376648	-3.030400	3.518800	-10.663000	25.813245	0.000326	20.851008
1372.380386	-2.992200	3.520400	-10.533000	25.829121	0.000327	20.823335
1373.380267	-2.998000	3.519800	-10.551000	25.815413	0.000326	20.823315
1374.381139	-2.994800	3.519600	-10.540000	25.768686	0.000325	20.829958
1375.382672	-2.995200	3.518700	-10.538000	25.787474	0.000326	20.830338
1376.385134	-3.017800	3.517900	-10.615000	25.855543	0.000326	20.840394
1377.381961	-3.013600	3.518700	-10.603000	25.863272	0.000324	20.848157
1378.380869	-3.005500	3.516900	-10.569000	25.903195	0.000324	20.841322
1379.378303	-3.026100	3.517000	-10.641000	25.918598	0.000324	20.823606
1380.379384	-2.996100	3.517700	-10.538000	25.930279	0.000324	20.824435
1381.381354	-2.991300	3.516700	-10.518000	25.995188	0.000323	20.809514
1382.381265	-2.991100	3.517200	-10.520000	25.986697	0.000324	20.823743
1383.381262	-2.991300	3.516300	-10.518000	25.953862	0.000322	20.813514
1384.382056	-3.005100	3.514300	-10.559000	25.918592	0.000323	20.825970
1385.386220	-2.995300	3.516700	-10.533000	25.903262	0.000323	20.813890
1386.387146	-3.017900	3.514400	-10.605000	25.947008	0.000321	20.828914
1387.381613	-2.996800	3.514000	-10.529000	25.954466	0.000320	20.805587
1388.383814	-3.002000	3.513600	-10.547000	25.944186	0.000320	20.809483
1389.383574	-3.018200	3.513000	-10.602000	25.915671	0.000319	20.808812
1390.379904	-3.015100	3.513300	-10.592000	25.894982	0.000316	20.812684
1391.380943	-2.995300	3.512700	-10.520000	25.906014	0.000318	20.813810
1392.387022	-2.979500	3.513100	-10.466000	25.899161	0.000315	20.799812
1393.383353	-2.985000	3.512500	-10.484000	25.917071	0.000317	20.812115
1394.383142	-3.004500	3.511900	-10.551000	25.943802	0.000317	20.824744
1395.383556	-3.000400	3.512000	-10.537000	25.918098	0.000315	20.803190
1396.381347	-2.992600	3.512100	-10.509000	25.908462	0.000317	20.806311
1397.383905	-3.006200	3.510300	-10.552000	25.837417	0.000317	20.799426
1398.389674	-3.032500	3.510800	-10.646000	25.863721	0.000317	20.810678
1399.384875	-3.008000	3.510500	-10.559000	25.883201	0.000315	20.805116
1400.382558	-2.980900	3.510200	-10.462000	25.898039	0.000317	20.820496
1401.380977	-2.985800	3.509500	-10.478000	25.940463	0.000316	20.797208
1402.386404	-2.983900	3.510000	-10.473000	25.970279	0.000315	20.789705
1403.387825	-2.975900	3.510500	-10.446000	25.932424	0.000314	20.783443
1404.382235	-2.980100	3.511100	-10.462000	25.909223	0.000314	20.807076
1405.383892	-3.001200	3.509200	-10.530000	25.921721	0.000313	20.803510
1406.388092	-2.985600	3.508800	-10.475000	25.901775	0.000312	20.791533
1407.385420	-2.993400	3.508200	-10.501000	25.895122	0.000312	20.804290
1408.387175	-2.982700	3.508100	-10.463000	25.878726	0.000315	20.788767
1409.387624	-2.996500	3.506700	-10.507000	25.853813	0.000312	20.805940
1410.383714	-2.993800	3.507800	-10.501000	25.831977	0.000311	20.825256
1411.394725	-2.982100	3.506300	-10.455000	25.861911	0.000312	20.796057
1412.383076	-3.000900	3.505900	-10.520000	25.872624	0.000312	20.792594
1413.387399	-3.018400	3.505700	-10.580000	25.881965	0.000311	20.782064
1414.384269	-2.997100	3.504900	-10.504000	25.881518	0.000310	20.781140
1415.387070	-3.001600	3.505100	-10.520000	25.844756	0.000311	20.796367
1416.387160	-3.013500	3.503700	-10.558000	25.891911	0.000309	20.812918
1417.391946	-2.991400	3.504400	-10.482000	25.915564	0.000311	20.799222
1418.384782	-3.006900	3.503800	-10.534000	25.909777	0.000311	20.787244
1419.384323	-2.999800	3.502800	-10.507000	25.956129	0.000310	20.796352
1420.391798	-3.014600	3.502800	-10.559000	25.907221	0.000309	20.797952
1421.383269	-3.005000	3.501600	-10.522000	25.926380	0.000312	20.794440
1422.385792	-2.991300	3.503600	-10.479000	25.923553	0.000310	20.810092
1423.384325	-2.994700	3.503400	-10.490000	25.930578	0.000309	20.809564
1424.384322	-2.995500	3.501300	-10.488000	25.909644	0.000309	20.772885
1425.388253	-2.999900	3.500700	-10.501000	25.903558	0.000307	20.793798
1426.383543	-3.015800	3.501700	-10.559000	25.885902	0.000308	20.782699
1427.390727	-3.017400	3.500500	-10.561000	25.889201	0.000305	20.776056
1428.388835	-3.004700	3.499100	-10.513000	25.898695	0.000307	20.787964
1429.386614	-2.975700	3.499700	-10.413000	25.897328	0.000305	20.797971
1430.387815	-3.003500	3.499800	-10.511000	25.860670	0.000307	20.780111
1431.388126	-2.987700	3.498900	-10.452000	25.844769	0.000306	20.783578
1432.386939	-2.999000	3.499600	-10.494000	25.888945	0.000306	20.796188
1433.386896	-2.989000	3.500700	-10.463000	25.882637	0.000306	20.782264
1434.386434	-2.986100	3.499900	-10.450000	25.858889	0.000303	20.792547
1435.384778	-2.990200	3.499500	-10.463000	25.839812	0.000305	20.784763
1436.393319	-3.018500	3.497800	-10.557000	25.899751	0.000305	20.763421
1437.385689	-3.026100	3.496600	-10.580000	25.933070	0.000304	20.795945
1438.388099	-3.004400	3.498100	-10.509000	25.943753	0.000304	20.783919
1439.388003	-3.001500	3.498300	-10.500000	25.961668	0.000303	20.790063
1440.385669	-3.012200	3.496800	-10.532000	25.953920	0.000302	20.778959
1441.388138	-2.998500	3.497200	-10.485000	25.930744	0.000302	20.781755
1442.387743	-2.999800	3.497100	-10.490000	25.924038	0.000301	20.778811
1443.386141	-3.012500	3.496900	-10.534000	25.901182	0.000302	20.780505
1444.390043	-3.014900	3.493700	-10.531000	25.885267	0.000300	20.767362
1445.391681	-2.998800	3.495400	-10.481000	25.923920	0.000301	20.788650
1446.389627	-2.986800	3.495100	-10.439000	25.946226	0.000301	20.766962
1447.387441	-3.004000	3.494600	-10.497000	25.981804	0.000297	20.785637
1448.391610	-3.014100	3.494700	-10.531000	25.981209	0.000298	20.769392
1449.392130	-3.012300	3.492800	-10.520000	26.000613	0.000299	20.766127
1450.390686	-2.985300	3.494500	-10.431000	25.902071	0.000299	20.775235
1451.393071	-3.021500	3.493300	-10.554000	25.956225	0.000299	20.770844
1452.387335	-2.967800	3.492900	-10.366000	25.983874	0.000301	20.760689
1453.393212	-3.004600	3.492700	-10.493000	25.954814	0.000298	20.760891
1454.387941	-2.999600	3.491600	-10.473000	25.942843	0.000298	20.779685
1455.388098	-2.979100	3.492300	-10.403000	25.920911	0.000297	20.772350
1456.390244	-2.999300	3.492000	-10.471000	25.958717	0.000298	20.753907
1457.392120	-3.017700	3.491100	-10.534000	25.952936	0.000298	20.769910
1458.390058	-2.996200	3.491000	-10.459000	25.950797	0.000297	20.766339
1459.398123	-2.972400	3.490600	-10.374000	25.923202	0.000297	20.761849
1460.391388	-3.023100	3.489500	-10.548000	25.962827	0.000297	20.775580
1461.391395	-3.027400	3.489800	-10.564000	25.935030	0.000298	20.774207
1462.395588	-2.976000	3.490800	-10.387000	25.999462	0.000297	20.769712
1463.394955	-3.005600	3.488500	-10.484000	26.014712	0.000298	20.764645
1464.393979	-2.980900	3.488700	-10.399000	26.038982	0.000296	20.780494
1465.395160	-2.992900	3.489200	-10.442000	25.994546	0.000296	20.763825
1466.392817	-2.971700	3.487700	-10.364000	25.900846	0.000294	20.765469
1467.422911	-3.019000	3.488000	-10.530000	25.908305	0.000296	20.766324
1468.395091	-3.006200	3.487100	-10.481000	25.928796	0.000293	20.776005
1469.401338	-3.010400	3.486700	-10.495000	25.945438	0.000293	20.757162
1470.395962	-2.991600	3.486500	-10.429000	25.902882	0.000296	20.786481
1471.395059	-3.015600	3.486000	-10.512000	25.937813	0.000293	20.783641
1472.396675	-2.997600	3.486200	-10.449000	25.913472	0.000294	20.783843
1473.397211	-3.003900	3.484900	-10.467000	25.929942	0.000293	20.763879
1474.395467	-2.993900	3.486500	-10.438000	25.947675	0.000295	20.756564
1475.395427	-3.001400	3.486200	-10.463000	25.942360	0.000294	20.746957
1476.394968	-2.990800	3.484400	-10.421000	25.942778	0.000294	20.758283
1477.394134	-2.991500	3.484300	-10.422000	25.986080	0.000291	20.771915
1478.400619	-2.997000	3.484100	-10.441000	25.965664	0.000292	20.773214
1479.406312	-3.006300	3.485000	-10.475000	25.938536	0.000292	20.746433
1480.399189	-2.999900	3.483400	-10.448000	25.959503	0.000291	20.774138
1481.395649	-2.994000	3.483600	-10.429000	25.966185	0.000289	20.746236
1482.395904	-3.002000	3.481900	-10.452000	25.976317	0.000293	20.749303
1483.396638	-2.994500	3.483600	-10.431000	25.945541	0.000291	20.749204
1484.398869	-3.015300	3.482600	-10.500000	25.932184	0.000290	20.744793
1485.400117	-2.974900	3.481700	-10.357000	25.931604	0.000289	20.766497
1486.401977	-3.001200	3.481400	-10.448000	25.938064	0.000288	20.754494
1487.396720	-3.035700	3.479600	-10.562000	25.927262	0.000289	20.744591
1488.397607	-3.002300	3.480900	-10.449000	25.949145	0.000289	20.756144
1489.401808	-2.990300	3.481200	-10.409000	25.967006	0.000288	20.766502
1490.402393	-2.997700	3.480000	-10.430000	26.021156	0.000287	20.738323
1491.404192	-3.008200	3.479800	-10.467000	26.010297	0.000288	20.763054
1492.402656	-2.989300	3.479600	-10.401000	25.987098	0.000287	20.745737
1493.403936	-2.986300	3.479200	-10.389000	25.992619	0.000287	20.760466
1494.407001	-3.021000	3.476600	-10.502000	26.008738	0.000286	20.769776
1495.404074	-2.994400	3.479200	-10.417000	26.010031	0.000287	20.767529
1496.400657	-2.992800	3.479200	-10.410000	26.013782	0.000286	20.753279
1497.403675	-3.011000	3.478500	-10.473000	26.030280	0.000286	20.767958
1498.405592	-2.989700	3.477900	-10.397000	25.987879	0.000285	20.761868
1499.402266	-3.002400	3.477700	-10.440000	25.979188	0.000286	20.759300
1500.405523	-2.999400	3.476700	-10.426000	25.939868	0.000286	20.747772
1501.407533	-2.966800	3.476100	-10.312000	25.921736	0.000285	20.748522
1502.406090	-2.968100	3.477900	-10.321000	25.925541	0.000283	20.714885
1503.405481	-2.979600	3.476500	-10.357000	25.950354	0.000284	20.746453
1504.405005	-2.997500	3.475800	-10.418000	25.926785	0.000282	20.749327
1505.406643	-2.988600	3.475700	-10.386000	25.971499	0.000282	20.735453
1506.403362	-3.000300	3.473300	-10.420000	25.960324	0.000282	20.740822
1507.407053	-3.020700	3.473900	-10.492000	25.952301	0.000282	20.736554
1508.408118	-2.989500	3.475200	-10.388000	25.891022	0.000282	20.735211
1509.411325	-3.000200	3.473900	-10.421000	25.881061	0.000281	20.745593
1510.407505	-2.999600	3.474000	-10.419000	25.879645	0.000281	20.768827
1511.409002	-3.001900	3.473500	-10.426000	25.880939	0.000280	20.736460
1512.408797	-2.998900	3.473000	-10.414000	25.895900	0.000280	20.733946
1513.413211	-3.011100	3.470800	-10.450000	25.909263	0.000280	20.746897
1514.409507	-3.015000	3.471800	-10.467000	25.958549	0.000280	20.730503
1515.410301	-2.997500	3.471500	-10.405000	26.003704	0.000278	20.742205
1516.411432	-2.991400	3.473200	-10.388000	26.029070	0.000279	20.748724
1517.411403	-2.978500	3.471800	-10.340000	26.015537	0.000280	20.745558
1518.408371	-2.995200	3.470000	-10.391000	26.032919	0.000277	20.743108
1519.406263	-2.982600	3.470600	-10.351000	25.985706	0.000276	20.723647
1520.415410	-3.007900	3.469600	-10.435000	25.946140	0.000277	20.734632
1521.407594	-2.990100	3.470400	-10.376000	25.951302	0.000277	20.740293
1522.408524	-2.999700	3.469100	-10.405000	25.900757	0.000279	20.733136
1523.409732	-3.009000	3.469600	-10.440000	25.950417	0.000277	20.747939
1524.410995	-3.009500	3.469000	-10.438000	25.992171	0.000276	20.727772
1525.410875	-3.034400	3.466700	-10.518000	25.959385	0.000274	20.743671
1526.410036	-3.009600	3.468000	-10.435000	25.932360	0.000276	20.748290
1527.415215	-3.012800	3.467700	-10.446000	25.920487	0.000276	20.743948
1528.410234	-2.995100	3.468700	-10.389000	25.925383	0.000276	20.751238
1529.411916	-2.998100	3.468000	-10.396000	25.922925	0.000277	20.723637
1530.410627	-3.003200	3.467500	-10.413000	25.885963	0.000274	20.712583
1531.412881	-2.983300	3.466400	-10.341000	25.879006	0.000272	20.739261
1532.418335	-3.001800	3.466300	-10.404000	25.873219	0.000274	20.752414
1533.413116	-2.980300	3.465400	-10.327000	25.881346	0.000273	20.715057
1534.415303	-2.996300	3.464200	-10.379000	25.917689	0.000273	20.739715
1535.411574	-2.995400	3.464500	-10.377000	25.941509	0.000273	20.733299
1536.413836	-2.997900	3.464400	-10.385000	25.962900	0.000271	20.729184
1537.415554	-3.018700	3.464000	-10.455000	25.940054	0.000273	20.727095
1538.416680	-2.989400	3.465100	-10.358000	25.930388	0.000272	20.725445
1539.414394	-2.980500	3.464900	-10.326000	25.904631	0.000270	20.715215
1540.412666	-2.990600	3.463600	-10.357000	25.913726	0.000271	20.713921
1541.419666	-2.990500	3.463600	-10.356000	25.951833	0.000270	20.716169
1542.420979	-2.998700	3.462300	-10.382000	25.938938	0.000268	20.731664
1543.415952	-2.983500	3.463500	-10.333000	25.974610	0.000269	20.707283
1544.415466	-2.973400	3.462600	-10.295000	25.966936	0.000268	20.724704
1545.418153	-2.996300	3.461300	-10.369000	25.946818	0.000269	20.730098
1546.414947	-2.978600	3.462000	-10.310000	25.946224	0.000270	20.722387
1547.417127	-3.011800	3.461400	-10.425000	25.980873	0.000269	20.724008
1548.412544	-3.001600	3.461200	-10.388000	25.935422	0.000270	20.717700
1549.434301	-2.993000	3.460300	-10.356000	25.952030	0.000267	20.712573
1550.413987	-3.000200	3.460900	-10.383000	25.964355	0.000268	20.715946
1551.418280	-3.012700	3.461200	-10.427000	26.025388	0.000269	20.705193
1552.419068	-3.012500	3.459900	-10.422000	26.036493	0.000266	20.727258
1553.418388	-3.012500	3.460300	-10.423000	26.013368	0.000268	20.703074
1554.420555	-3.004400	3.460000	-10.394000	25.963219	0.000266	20.707218
1555.418393	-2.995500	3.457700	-10.357000	25.958799	0.000266	20.716529
1556.417235	-2.993300	3.457200	-10.348000	25.910934	0.000264	20.727712
1557.417862	-3.013400	3.459100	-10.422000	25.915585	0.000266	20.713892
1558.416119	-3.001400	3.457800	-10.377000	25.870495	0.000263	20.713166
1559.419860	-2.991600	3.458000	-10.344000	25.903239	0.000266	20.715714
1560.414721	-3.001900	3.457900	-10.379000	25.955776	0.000266	20.722975
1561.415026	-2.985300	3.457000	-10.319000	25.997455	0.000264	20.713166
1562.419136	-2.990600	3.457100	-10.338000	25.996816	0.000264	20.722007
1563.416923	-2.976600	3.456800	-10.289000	25.993807	0.000265	20.704759
1564.417974	-2.970000	3.457400	-10.267000	26.024513	0.000266	20.703840
1565.419098	-3.003600	3.456100	-10.380000	26.029306	0.000263	20.688740
1566.418379	-3.005700	3.455900	-10.386000	26.017562	0.000264	20.709184
1567.416792	-2.975000	3.455800	-10.280000	26.013737	0.000262	20.704867
1568.419989	-2.983000	3.453800	-10.301000	26.032909	0.000263	20.699473
1569.418133	-3.004500	3.454900	-10.380000	26.036390	0.000264	20.697754
1570.417686	-2.993800	3.453300	-10.338000	25.997593	0.000262	20.705717
1571.419981	-2.999700	3.453600	-10.359000	26.003580	0.000260	20.704620
1572.427161	-3.002900	3.453600	-10.370000	26.013068	0.000260	20.704195
1573.420639	-3.000100	3.452700	-10.357000	26.020074	0.000261	20.711708
1574.422474	-2.989800	3.452500	-10.321000	26.032939	0.000260	20.692864
1575.425377	-2.991000	3.452800	-10.326000	25.999982	0.000260	20.710963
1576.420626	-2.995700	3.452000	-10.340000	25.973730	0.000260	20.713985
1577.421071	-2.981800	3.451500	-10.290000	25.990022	0.000258	20.702378
1578.425539	-2.995300	3.452300	-10.340000	26.010370	0.000260	20.705277
1579.423643	-2.996100	3.450100	-10.336000	25.999367	0.000261	20.699913
1580.428781	-2.996100	3.450600	-10.338000	26.015266	0.000258	20.694549
1581.418998	-2.992000	3.451600	-10.325000	26.024331	0.000260	20.688957
1582.422439	-3.014000	3.449800	-10.397000	26.060222	0.000257	20.706527
1583.422558	-3.018000	3.448000	-10.405000	26.069689	0.000258	20.700866
1584.423370	-3.014800	3.448000	-10.394000	26.103519	0.000257	20.683647
1585.423595	-2.999800	3.448900	-10.345000	26.101135	0.000260	20.704013
1586.421459	-3.014500	3.447400	-10.391000	26.093137	0.000258	20.700244
1587.421561	-3.010300	3.447100	-10.376000	26.104070	0.000256	20.709333
1588.426233	-3.054000	3.445800	-10.522000	26.096347	0.000255	20.693037
1589.421670	-2.990600	3.447100	-10.308000	26.050700	0.000257	20.713082
1590.422972	-3.007800	3.447300	-10.368000	26.056958	0.000256	20.701825
1591.422453	-2.998900	3.447400	-10.338000	26.059273	0.000258	20.705574
1592.419425	-3.003100	3.446800	-10.349000	26.066897	0.000254	20.692370
1593.424912	-3.007100	3.447500	-10.366000	26.075097	0.000256	20.708197
1594.424706	-3.018400	3.445200	-10.399000	26.096460	0.000255	20.709748
1595.419574	-2.992000	3.446000	-10.310000	26.102344	0.000254	20.681992
1596.425335	-3.019100	3.445100	-10.400000	26.084564	0.000254	20.689733
1597.430011	-2.993000	3.445600	-10.312000	26.055429	0.000254	20.725895
1598.423337	-3.007900	3.444100	-10.358000	26.074605	0.000251	20.701538
1599.423685	-3.001000	3.444400	-10.335000	26.054534	0.000254	20.710770
1600.423042	-2.991300	3.445200	-10.305000	26.022399	0.000253	20.707881
1601.424222	-2.977500	3.443100	-10.252000	26.009480	0.000254	20.701064
1602.428577	-3.007500	3.444300	-10.357000	25.973642	0.000251	20.695878
1603.438781	-3.033100	3.443300	-10.442000	25.970928	0.000251	20.713541
1604.431342	-2.970000	3.443300	-10.226000	26.002774	0.000252	20.705707
1605.431122	-3.005600	3.441100	-10.342000	26.034812	0.000253	20.708498
1606.432319	-2.995800	3.441800	-10.310000	26.036405	0.000251	20.709150
1607.432907	-2.990200	3.441900	-10.291000	26.014101	0.000251	20.712820
1608.432790	-3.013400	3.441600	-10.370000	26.026715	0.000250	20.722175
1609.432055	-2.976500	3.442400	-10.245000	25.987436	0.000250	20.692193
1610.432097	-3.000800	3.440100	-10.322000	25.979782	0.000250	20.711531
1611.427293	-2.980000	3.440600	-10.252000	26.002514	0.000252	20.723939
1612.429491	-2.995700	3.439600	-10.303000	26.032467	0.000249	20.702822
1613.434755	-3.000800	3.439000	-10.318000	26.067536	0.000248	20.703919
1614.433766	-3.013200	3.437300	-10.357000	26.006009	0.000246	20.706112
1615.433574	-3.006200	3.439600	-10.339000	25.967511	0.000248	20.702047
1616.434978	-3.003400	3.438500	-10.326000	25.972226	0.000248	20.713897
1617.433907	-3.027300	3.437800	-10.406000	26.023992	0.000247	20.724655
1618.436323	-3.011800	3.437300	-10.351000	26.080519	0.000248	20.714593
1619.433090	-3.014300	3.436900	-10.359000	26.111467	0.000245	20.711076
1620.437419	-2.996600	3.437600	-10.300000	26.138311	0.000247	20.721454
1621.435878	-2.963900	3.439000	-10.192000	26.169012	0.000246	20.713897
1622.435319	-3.004400	3.435500	-10.320000	26.191681	0.000246	20.707752
1623.434157	-3.005900	3.436000	-10.327000	26.199005	0.000243	20.721276
1624.438290	-3.009400	3.434600	-10.335000	26.144372	0.000244	20.709525
1625.443550	-3.021200	3.435500	-10.379000	26.110843	0.000242	20.718036
1626.438673	-2.985400	3.435900	-10.257000	26.049102	0.000242	20.717641
1627.437845	-3.030500	3.433300	-10.404000	26.076645	0.000241	20.719236
1628.437070	-2.988300	3.435400	-10.266000	26.102084	0.000242	20.695008
1629.435302	-2.998600	3.435600	-10.301000	26.085936	0.000240	20.711027
1630.438587	-2.996300	3.435500	-10.293000	26.055566	0.000243	20.723662
1631.436586	-2.989100	3.434100	-10.263000	26.049156	0.000241	20.712479
1632.436607	-3.007800	3.432200	-10.322000	26.058845	0.000239	20.716999
1633.435491	-2.998200	3.433300	-10.293000	26.065182	0.000240	20.710563
1634.438931	-2.996900	3.434200	-10.291000	26.054156	0.000240	20.708967
1635.438956	-3.008300	3.432700	-10.326000	26.053138	0.000239	20.706996
1636.439995	-3.034300	3.431900	-10.412000	26.020733	0.000240	20.710474
1637.440125	-3.003800	3.431100	-10.306000	26.012734	0.000239	20.719508
1638.443528	-3.000200	3.431300	-10.293000	26.037083	0.000239	20.705090
1639.440966	-2.979600	3.432900	-10.227000	26.044113	0.000239	20.717369
1640.441533	-2.985300	3.432600	-10.246000	26.083011	0.000239	20.720891
1641.438872	-2.989700	3.430600	-10.255000	26.062208	0.000238	20.712316
1642.438021	-2.987200	3.430900	-10.247000	26.060763	0.000239	20.720348
1643.442430	-2.979400	3.430200	-10.219000	26.076808	0.000239	20.727935
1644.438953	-2.980000	3.429700	-10.220000	26.061938	0.000237	20.738599
1645.444053	-3.000400	3.429100	-10.288000	26.111964	0.000237	20.724379
1646.441413	-2.998800	3.429300	-10.283000	26.070265	0.000236	20.717093
1647.440249	-2.990700	3.428800	-10.254000	26.094607	0.000236	20.717370
1648.443921	-2.994800	3.428300	-10.266000	26.057007	0.000235	20.717997
1649.442299	-3.003400	3.428000	-10.295000	26.053483	0.000236	20.713981
1650.441404	-3.014900	3.427000	-10.332000	26.082771	0.000233	20.720175
1651.440642	-3.006100	3.427100	-10.302000	26.063973	0.000233	20.730212
1652.438512	-2.996700	3.428700	-10.274000	26.098447	0.000234	20.727866
1653.441117	-2.999500	3.428000	-10.281000	26.153063	0.000234	20.727743
1654.439698	-2.991500	3.426200	-10.249000	26.116231	0.000234	20.740521
1655.445683	-2.992100	3.425800	-10.250000	26.057720	0.000233	20.729145
1656.444685	-2.977700	3.425600	-10.199000	26.044108	0.000233	20.727323
1657.446353	-3.003800	3.424700	-10.286000	26.059038	0.000233	20.720511
1658.443988	-2.992400	3.425600	-10.249000	26.029258	0.000234	20.748913
1659.446927	-3.002100	3.425600	-10.283000	26.057755	0.000233	20.727283
1660.445854	-3.000100	3.424100	-10.271000	26.089968	0.000231	20.716975
1661.444597	-3.002500	3.423400	-10.278000	26.073702	0.000231	20.717227
1662.444363	-3.022500	3.423000	-10.345000	26.091737	0.000230	20.730134
1663.440676	-3.032100	3.423000	-10.378000	26.061958	0.000231	20.729136
1664.440852	-3.012900	3.421300	-10.308000	26.105826	0.000229	20.729590
1665.446831	-2.990700	3.422100	-10.233000	26.111238	0.000230	20.719381
1666.446035	-3.003100	3.421800	-10.275000	26.109876	0.000231	20.703787
1667.446562	-3.012800	3.421000	-10.306000	26.156170	0.000230	20.719484
1668.444926	-2.973400	3.422900	-10.177000	26.156470	0.000231	20.733063
1669.452093	-3.004400	3.421700	-10.280000	26.092170	0.000228	20.745742
1670.445183	-2.986800	3.421200	-10.217000	26.120852	0.000229	20.728094
1671.445973	-2.987000	3.420300	-10.216000	26.137919	0.000228	20.735760
1672.443195	-3.003100	3.420500	-10.272000	26.095007	0.000229	20.746221
1673.448301	-2.989800	3.420900	-10.228000	26.045407	0.000228	20.735266
1674.450791	-2.999100	3.419800	-10.256000	26.081199	0.000227	20.728553
1675.447668	-2.988700	3.418900	-10.217000	26.073555	0.000229	20.735572
1676.443915	-2.997000	3.418500	-10.244000	26.095759	0.000225	20.732278
1677.447464	-2.988200	3.420900	-10.222000	26.095808	0.000227	20.754139
1678.449962	-3.007200	3.419700	-10.282000	26.081897	0.000226	20.737316
1679.447645	-2.979000	3.418200	-10.182000	26.059594	0.000225	20.733873
1680.449067	-3.020400	3.417000	-10.320000	26.070257	0.000226	20.748380
1681.445234	-2.995600	3.416100	-10.232000	26.109419	0.000224	20.742685
1682.449186	-2.997900	3.417800	-10.246000	26.084964	0.000225	20.742769
1683.448015	-2.971800	3.419000	-10.160000	26.099760	0.000224	20.745782
1684.450833	-2.987200	3.416500	-10.205000	26.069588	0.000226	20.732535
1685.459504	-3.000900	3.416300	-10.251000	26.067872	0.000223	20.747407
1686.448498	-2.972400	3.416800	-10.155000	26.083598	0.000224	20.751354
1687.453078	-2.983000	3.415800	-10.188000	26.155527	0.000222	20.727848
1688.450469	-2.965000	3.416600	-10.130000	26.184856	0.000223	20.742147
1689.448943	-2.977000	3.416100	-10.168000	26.190523	0.000222	20.744997
1690.450603	-2.979400	3.415000	-10.173000	26.138293	0.000222	20.741826
1691.460722	-3.011500	3.414200	-10.281000	26.082959	0.000221	20.745970
1692.450645	-3.003200	3.413100	-10.249000	26.029883	0.000222	20.755231
1693.452964	-3.003300	3.413300	-10.251000	26.039848	0.000219	20.757183
1694.450718	-2.975800	3.413100	-10.155000	26.089497	0.000218	20.741634
1695.452544	-2.995500	3.413100	-10.223000	26.095263	0.000221	20.752643
1696.453011	-2.995500	3.413800	-10.225000	26.100680	0.000221	20.737223
1697.453302	-3.027700	3.411200	-10.327000	26.117319	0.000218	20.748252
1698.453970	-2.981600	3.413300	-10.176000	26.127534	0.000219	20.742869
1699.452084	-3.008100	3.411800	-10.262000	26.123459	0.000220	20.745887
1700.452907	-3.007000	3.412200	-10.259000	26.148665	0.000216	20.748929
1701.455443	-2.983500	3.411700	-10.178000	26.191561	0.000220	20.752204
1702.453018	-3.008500	3.410700	-10.260000	26.227937	0.000218	20.735178
1703.458344	-3.001100	3.410100	-10.234000	26.194324	0.000218	20.745023
1704.453630	-3.008000	3.410800	-10.258000	26.152677	0.000217	20.754857
1705.453382	-3.019200	3.410500	-10.296000	26.195144	0.000219	20.749167
1706.453115	-3.000000	3.409800	-10.229000	26.174358	0.000216	20.746771
1707.455024	-3.007100	3.410900	-10.256000	26.183771	0.000216	20.751488
1708.453018	-2.993800	3.409700	-10.206000	26.231973	0.000219	20.764839
1709.457869	-3.020100	3.408200	-10.292000	26.190799	0.000217	20.752387
1710.454425	-2.988900	3.409100	-10.189000	26.191203	0.000217	20.755637
1711.454662	-3.018300	3.407600	-10.284000	26.172004	0.000214	20.760053
1712.459321	-3.003300	3.409100	-10.238000	26.160232	0.000215	20.749172
1713.453778	-2.975400	3.407200	-10.136000	26.165348	0.000215	20.780867
1714.463096	-3.015400	3.406300	-10.271000	26.188077	0.000213	20.765299
1715.453859	-3.024500	3.406000	-10.300000	26.212466	0.000213	20.767996
1716.459752	-2.998700	3.405500	-10.211000	26.237272	0.000216	20.783914
1717.457455	-3.035900	3.405800	-10.338000	26.253295	0.000215	20.761609
1718.457206	-3.009700	3.406800	-10.252000	26.268983	0.000214	20.755563
1719.458638	-3.023500	3.405400	-10.295000	26.241155	0.000212	20.760789
1720.460354	-3.003600	3.405600	-10.228000	26.245672	0.000214	20.763432
1721.465479	-2.997600	3.404600	-10.204000	26.252926	0.000212	20.773093
1722.461977	-2.991500	3.405400	-10.186000	26.286278	0.000211	20.762987
1723.459837	-3.014600	3.403700	-10.260000	26.246070	0.000210	20.770944
1724.464025	-3.039800	3.402700	-10.343000	26.169316	0.000210	20.772525
1725.464348	-3.024500	3.402700	-10.290000	26.124010	0.000211	20.766356
1726.463544	-3.000500	3.402800	-10.208000	26.091258	0.000210	20.776121
1727.471160	-3.005100	3.403700	-10.228000	26.109368	0.000208	20.781041
1728.462393	-3.018300	3.402000	-10.268000	26.192663	0.000209	20.782236
1729.468121	-2.963900	3.404200	-10.089000	26.206052	0.000209	20.776250
1730.465280	-3.003100	3.400900	-10.213000	26.198901	0.000208	20.772382
1731.465026	-3.001800	3.402100	-10.211000	26.193814	0.000208	20.768693
1732.463903	-3.018800	3.399700	-10.262000	26.157883	0.000209	20.760563
1733.470800	-2.988900	3.400900	-10.163000	26.171213	0.000207	20.780596
1734.465020	-2.992600	3.400200	-10.175000	26.130686	0.000206	20.792031
1735.466694	-3.036300	3.398600	-10.318000	26.120605	0.000208	20.785220
1736.468369	-2.984900	3.401100	-10.151000	26.151002	0.000208	20.787314
1737.464040	-3.006500	3.398700	-10.217000	26.219648	0.000206	20.789912
1738.467005	-2.985300	3.399600	-10.148000	26.240065	0.000207	20.778661
1739.470013	-2.998700	3.398100	-10.189000	26.229168	0.000208	20.759650
1740.470426	-2.994900	3.399000	-10.179000	26.240659	0.000206	20.745592
1741.470445	-2.984100	3.398400	-10.140000	26.293691	0.000206	20.772808
1742.472731	-2.993500	3.397400	-10.169000	26.300488	0.000209	20.782958
1743.466741	-3.013200	3.396800	-10.234000	26.246081	0.000207	20.776171
1744.469658	-3.014900	3.396300	-10.238000	26.243127	0.000205	20.794540
1745.473280	-3.007000	3.397100	-10.214000	26.243874	0.000204	20.778696
1746.479391	-2.992100	3.396300	-10.161000	26.257734	0.000206	20.788831
1747.464966	-3.021500	3.394000	-10.254000	26.220238	0.000204	20.780074
1748.465889	-2.991400	3.396300	-10.159000	26.233755	0.000205	20.771371
1749.467887	-3.013400	3.395900	-10.232000	26.220956	0.000202	20.796916
1750.465888	-3.011700	3.395200	-10.225000	26.233750	0.000201	20.794600
1751.465742	-3.005600	3.395100	-10.203000	26.228756	0.000203	20.809022
1752.470739	-2.989900	3.396900	-10.156000	26.242145	0.000202	20.795924
1753.467043	-3.016800	3.395300	-10.242000	26.197300	0.000203	20.784050
1754.467541	-3.010300	3.393800	-10.216000	26.158362	0.000199	20.781907
1755.467542	-3.007400	3.393700	-10.205000	26.200682	0.000201	20.774646
1756.467542	-3.003900	3.394000	-10.194000	26.258993	0.000200	20.777768
1757.467541	-3.025100	3.392700	-10.263000	26.282363	0.000201	20.783236
1758.470541	-3.011300	3.392900	-10.216000	26.278436	0.000200	20.792091
1759.474542	-2.986900	3.393300	-10.134000	26.276053	0.000202	20.799179
1760.470541	-2.984400	3.392500	-10.124000	26.308117	0.000199	20.792521
1761.469541	-3.000100	3.392200	-10.176000	26.291854	0.000200	20.794670
1762.469541	-2.987000	3.392200	-10.131000	26.248722	0.000199	20.812964
1763.471542	-2.978500	3.391200	-10.099000	26.248545	0.000199	20.798088
1764.471541	-2.978000	3.391000	-10.098000	26.290198	0.000198	20.802489
1765.470541	-2.988300	3.391100	-10.133000	26.286527	0.000198	20.777937
1766.470541	-2.994600	3.390700	-10.153000	26.260970	0.000200	20.797772
1767.470541	-2.999500	3.390100	-10.168000	26.218240	0.000196	20.798454
1768.471151	-2.992400	3.391400	-10.148000	26.263187	0.000198	20.785301
1769.471343	-3.002300	3.389100	-10.173000	26.244913	0.000195	20.803448
1770.471343	-2.978400	3.388700	-10.092000	26.244815	0.000194	20.792443
1771.472343	-2.992400	3.387800	-10.136000	26.223981	0.000194	20.794740
1772.472343	-2.968500	3.388500	-10.058000	26.246708	0.000193	20.798613
1773.473343	-2.991600	3.389100	-10.138000	26.224507	0.000196	20.796217
1774.472344	-2.998200	3.388400	-10.158000	26.282891	0.000196	20.797990
1775.474345	-2.970100	3.388100	-10.062000	26.259575	0.000193	20.810121
1776.473343	-3.003200	3.386200	-10.168000	26.266481	0.000194	20.797146
1777.473344	-3.011400	3.386700	-10.198000	26.290789	0.000190	20.801660
1778.473344	-3.000800	3.385100	-10.157000	26.336755	0.000194	20.817984
1779.473343	-3.016300	3.385900	-10.212000	26.371098	0.000194	20.796074
1780.473345	-2.999400	3.386100	-10.155000	26.367127	0.000195	20.809627
1781.477344	-3.004400	3.385200	-10.170000	26.401400	0.000194	20.814675
1782.473022	-3.017800	3.385000	-10.214000	26.413488	0.000192	20.801221
1783.473022	-3.018000	3.384600	-10.214000	26.383595	0.000191	20.817644
1784.474322	-3.007000	3.384400	-10.176000	26.418009	0.000190	20.824731
1785.473386	-3.033100	3.383400	-10.261000	26.437081	0.000192	20.817822
1786.473986	-2.982900	3.385400	-10.097000	26.383423	0.000191	20.804669
1787.482067	-3.026100	3.382500	-10.235000	26.366794	0.000192	20.822568
1788.476229	-2.990000	3.382500	-10.112000	26.368283	0.000190	20.828332
1789.481784	-3.013600	3.382800	-10.194000	26.381320	0.000189	20.825788
1790.484113	-3.013600	3.381000	-10.188000	26.336525	0.000188	20.823917
1791.474901	-3.010100	3.381100	-10.176000	26.287482	0.000189	20.813984
1792.476045	-3.005600	3.381500	-10.163000	26.255969	0.000191	20.831152
1793.479605	-2.978700	3.382900	-10.075000	26.247653	0.000191	20.819951
1794.476834	-2.979900	3.381800	-10.077000	26.281079	0.000187	20.824618
1795.476181	-3.000700	3.379900	-10.141000	26.344600	0.000189	20.819230
1796.482749	-2.970400	3.381300	-10.043000	26.342492	0.000187	20.826120
1797.485378	-2.992500	3.381100	-10.117000	26.368986	0.000188	20.826194
1798.481714	-2.983900	3.380000	-10.084000	26.357491	0.000188	20.827918
1799.483521	-3.003800	3.378300	-10.146000	26.351579	0.000187	20.832407
1800.482162	-3.011900	3.379500	-10.178000	26.348227	0.000188	20.824771
1801.482725	-2.979900	3.379600	-10.070000	26.351412	0.000187	20.830343
1802.482988	-2.991500	3.377800	-10.104000	26.360597	0.000187	20.824875
1803.480923	-2.988000	3.378500	-10.094000	26.344911	0.000185	20.841826
1804.480467	-3.027500	3.378800	-10.228000	26.390398	0.000188	20.848661
1805.481219	-2.991200	3.377800	-10.103000	26.402260	0.000185	20.832135
1806.481842	-2.984400	3.377200	-10.078000	26.399416	0.000186	20.817897
1807.483196	-3.031300	3.377300	-10.237000	26.394344	0.000186	20.815170
1808.486623	-3.002200	3.377000	-10.137000	26.379056	0.000185	20.842004
1809.489256	-2.974500	3.377300	-10.045000	26.392015	0.000183	20.843649
1810.484046	-2.979200	3.376900	-10.059000	26.442174	0.000183	20.834793
1811.484324	-3.014500	3.375300	-10.173000	26.434503	0.000185	20.818549
1812.488434	-3.003100	3.375100	-10.135000	26.407313	0.000182	20.862817
1813.484068	-3.012600	3.374900	-10.167000	26.399568	0.000183	20.831326
1814.481280	-3.009000	3.374600	-10.153000	26.394005	0.000183	20.847072
1815.481512	-3.004900	3.375400	-10.141000	26.376904	0.000182	20.831307
1816.484721	-2.997600	3.375700	-10.118000	26.410277	0.000181	20.831184
1817.483675	-3.002100	3.374000	-10.128000	26.423339	0.000180	20.841466
1818.482723	-3.010800	3.374300	-10.158000	26.399377	0.000182	20.839669
1819.486097	-3.021200	3.372200	-10.187000	26.353394	0.000179	20.830438
1820.482197	-3.003200	3.373600	-10.131000	26.376536	0.000181	20.849902
1821.482860	-3.022000	3.373200	-10.192000	26.399830	0.000179	20.848658
1822.486563	-3.008200	3.372200	-10.143000	26.416617	0.000179	20.840874
1823.487473	-2.998400	3.371900	-10.109000	26.398586	0.000180	20.855942
1824.485826	-3.020700	3.372600	-10.187000	26.408302	0.000178	20.856224
1825.482568	-2.991200	3.371200	-10.083000	26.413241	0.000179	20.860240
1826.485429	-2.984500	3.371700	-10.061000	26.402592	0.000179	20.854279
1827.485551	-3.010600	3.369800	-10.145000	26.368428	0.000177	20.870201
1828.488379	-2.994100	3.369500	-10.087000	26.402813	0.000178	20.844544
1829.489629	-2.995700	3.370800	-10.097000	26.411236	0.000177	20.860596
1830.491846	-2.984600	3.369600	-10.056000	26.409447	0.000176	20.846470
1831.487799	-2.988800	3.369700	-10.071000	26.396464	0.000176	20.857603
1832.496029	-3.002000	3.369700	-10.115000	26.398106	0.000176	20.839813
1833.489567	-2.981900	3.368700	-10.045000	26.418661	0.000175	20.855731
1834.495603	-2.995500	3.367500	-10.087000	26.453527	0.000174	20.854739
1835.485731	-2.996000	3.369000	-10.092000	26.456382	0.000173	20.873254
1836.491051	-3.005500	3.368400	-10.123000	26.462692	0.000176	20.854467
1837.487797	-3.003400	3.367700	-10.114000	26.445085	0.000174	20.853366
1838.489793	-2.990300	3.367100	-10.067000	26.395599	0.000173	20.842984
1839.491792	-2.996800	3.368100	-10.092000	26.383284	0.000174	20.859055
1840.492843	-3.005600	3.367200	-10.119000	26.322896	0.000173	20.838193
1841.492099	-3.009600	3.364300	-10.124000	26.368187	0.000172	20.850995
1842.491948	-3.011600	3.365500	-10.135000	26.443498	0.000173	20.825219
1843.490774	-3.004300	3.365400	-10.109000	26.488362	0.000175	20.825268
1844.493219	-3.002800	3.366000	-10.106000	26.478829	0.000174	20.834652
1845.490528	-2.981800	3.364800	-10.032000	26.532836	0.000171	20.841049
1846.490390	-3.004900	3.366000	-10.112000	26.564637	0.000170	20.833660
1847.490463	-2.996900	3.365000	-10.084000	26.568503	0.000172	20.842288
1848.493749	-2.984500	3.364400	-10.041000	26.580099	0.000171	20.827866
1849.497011	-2.992900	3.364000	-10.067000	26.569280	0.000169	20.825051
1850.493066	-2.999600	3.362700	-10.086000	26.532065	0.000170	20.829842
1851.492200	-3.012400	3.363100	-10.130000	26.532365	0.000169	20.835833
1852.492319	-2.990000	3.363700	-10.057000	26.552446	0.000169	20.815242
1853.492868	-3.008000	3.362800	-10.114000	26.582261	0.000171	20.824350
1854.496531	-3.001500	3.362100	-10.090000	26.525387	0.000169	20.826923
1855.494470	-2.983800	3.362400	-10.032000	26.474411	0.000167	20.824048
1856.491110	-3.018000	3.361100	-10.143000	26.473689	0.000168	20.809098
1857.496767	-2.982600	3.361500	-10.024000	26.471330	0.000167	20.831857
1858.496568	-2.993000	3.360600	-10.058000	26.496779	0.000166	20.815237
1859.492389	-2.994500	3.360400	-10.061000	26.444392	0.000165	20.816635
1860.494963	-2.995200	3.360100	-10.064000	26.481212	0.000164	20.812866
1861.494702	-3.008100	3.360700	-10.107000	26.502287	0.000167	20.827411
1862.495583	-3.002600	3.359400	-10.086000	26.535631	0.000168	20.820151
1863.495670	-3.001500	3.358800	-10.081000	26.600774	0.000165	20.837744
1864.494794	-3.009100	3.357900	-10.103000	26.555688	0.000166	20.809019
1865.497130	-2.975100	3.359500	-9.993800	26.549807	0.000164	20.809745
1866.494708	-2.982500	3.358600	-10.017000	26.526541	0.000163	20.811962
1867.501209	-3.003800	3.358700	-10.087000	26.486764	0.000166	20.804222
1868.493371	-2.993000	3.358100	-10.050000	26.526713	0.000163	20.833945
1869.497936	-2.988100	3.358200	-10.033000	26.570644	0.000164	20.810776
1870.500980	-3.000800	3.357700	-10.075000	26.570576	0.000164	20.812130
1871.499793	-2.984200	3.357100	-10.018000	26.558263	0.000166	20.800226
1872.498023	-3.005000	3.355400	-10.082000	26.552101	0.000164	20.813473
1873.499345	-3.009300	3.356600	-10.100000	26.534329	0.000162	20.815997
1874.496360	-3.030900	3.355600	-10.170000	26.557098	0.000162	20.815651
1875.503846	-3.022100	3.354200	-10.136000	26.605578	0.000162	20.788995
1876.497075	-3.005400	3.356600	-10.086000	26.646987	0.000161	20.803121
1877.498855	-2.984700	3.355600	-10.015000	26.648421	0.000160	20.805985
1878.500587	-3.026200	3.354300	-10.150000	26.599373	0.000159	20.803145
1879.500792	-3.005100	3.354600	-10.079000	26.577278	0.000159	20.815073
1880.504010	-3.003600	3.353700	-10.072000	26.533562	0.000159	20.799580
1881.508546	-3.007800	3.353900	-10.087000	26.514315	0.000160	20.799199
1882.500083	-3.002200	3.353300	-10.066000	26.524098	0.000163	20.832740
1883.502017	-2.974100	3.353100	-9.971800	26.571317	0.000159	20.786323
1884.501526	-2.992400	3.351500	-10.028000	26.602503	0.000159	20.794912
1885.501346	-2.995100	3.353600	-10.044000	26.615189	0.000160	20.797708
1886.501109	-2.981400	3.352200	-9.993800	26.580560	0.000158	20.809364
1887.498686	-3.001900	3.350200	-10.056000	26.553153	0.000158	20.826858
1888.499766	-2.979800	3.352500	-9.989200	26.582324	0.000158	20.795490
1889.501590	-2.994900	3.350900	-10.035000	26.636542	0.000157	20.791672
1890.499935	-2.984500	3.350200	-9.997000	26.627531	0.000157	20.765070
1891.500161	-3.020900	3.350100	-10.119000	26.616187	0.000156	20.786857
1892.501714	-3.000000	3.349500	-10.047000	26.590667	0.000158	20.810515
1893.502450	-2.995700	3.350100	-10.034000	26.607923	0.000156	20.815059
1894.505765	-2.989200	3.348400	-10.008000	26.545109	0.000154	20.792220
1895.504510	-3.015400	3.348700	-10.097000	26.580369	0.000154	20.807749
1896.505198	-3.006000	3.348500	-10.065000	26.638630	0.000154	20.800410
1897.505119	-3.022300	3.348600	-10.119000	26.599408	0.000154	20.795594
1898.502049	-2.990100	3.348000	-10.010000	26.596322	0.000152	20.776371
1899.506167	-3.015100	3.346900	-10.089000	26.611843	0.000152	20.788180
1900.509701	-2.996300	3.347600	-10.030000	26.563358	0.000150	20.805823
1901.510720	-2.988900	3.347100	-10.003000	26.585228	0.000154	20.796038
1902.507778	-3.006400	3.346300	-10.059000	26.633810	0.000153	20.778020
1903.507344	-2.966700	3.346300	-9.926900	26.564817	0.000150	20.805867
1904.507076	-2.995100	3.346100	-10.021000	26.594833	0.000152	20.779142
1905.509120	-3.002700	3.345700	-10.045000	26.634006	0.000149	20.784382
1906.505890	-3.012800	3.345300	-10.078000	26.702572	0.000149	20.790724
1907.504100	-2.996000	3.346100	-10.024000	26.641008	0.000150	20.799955
1908.504583	-3.019900	3.345200	-10.101000	26.648033	0.000150	20.786629
1909.504737	-3.005800	3.344900	-10.053000	26.615140	0.000149	20.782011
1910.505132	-3.032900	3.343700	-10.140000	26.608040	0.000149	20.783883
1911.507776	-3.001200	3.344700	-10.037000	26.589222	0.000148	20.792941
1912.507802	-3.006900	3.343200	-10.052000	26.634105	0.000148	20.785903
1913.504095	-3.012400	3.343400	-10.070000	26.681698	0.000149	20.794394
1914.507483	-3.014100	3.343300	-10.076000	26.628071	0.000149	20.790743
1915.507917	-3.028900	3.340800	-10.117000	26.610074	0.000148	20.795885
1916.509977	-3.003900	3.342900	-10.039000	26.612359	0.000147	20.794389
1917.504938	-3.006200	3.341300	-10.042000	26.616707	0.000147	20.797812
1918.508730	-3.011000	3.340700	-10.057000	26.671911	0.000148	20.772701
1919.514494	-3.008000	3.339800	-10.045000	26.709941	0.000146	20.773950
1920.514190	-2.982400	3.342100	-9.967000	26.709543	0.000146	20.783033
1921.513437	-2.980500	3.340700	-9.955600	26.716918	0.000147	20.782861
1922.514770	-2.957700	3.341100	-9.880500	26.687298	0.000145	20.773471
1923.514022	-2.997700	3.339800	-10.011000	26.705421	0.000144	20.792640
1924.514970	-3.004400	3.340200	-10.034000	26.714726	0.000145	20.772597
1925.516361	-3.009100	3.340300	-10.051000	26.680945	0.000142	20.776568
1926.516232	-3.010700	3.337900	-10.049000	26.643587	0.000145	20.769357
1927.515312	-3.014600	3.339400	-10.066000	26.640310	0.000144	20.795934
1928.515121	-3.027200	3.338400	-10.105000	26.655206	0.000143	20.765865
1929.515667	-3.019000	3.337100	-10.074000	26.697237	0.000141	20.787257
1930.517219	-3.005500	3.338400	-10.033000	26.718106	0.000142	20.775995
1931.516965	-3.007400	3.337600	-10.037000	26.690575	0.000142	20.772972
1932.516120	-2.974500	3.338400	-9.929300	26.713763	0.000143	20.757404
1933.520226	-3.003600	3.336700	-10.021000	26.726964	0.000144	20.772098
1934.517003	-3.021800	3.335400	-10.078000	26.715050	0.000140	20.770552
1935.517363	-2.981700	3.337400	-9.950600	26.660223	0.000140	20.769011
1936.517381	-3.003000	3.336900	-10.019000	26.611912	0.000139	20.750316
1937.517590	-2.989400	3.335500	-9.970400	26.586809	0.000140	20.767282
1938.515293	-2.979700	3.335700	-9.939100	26.572659	0.000139	20.757799
1939.521842	-2.991000	3.334400	-9.972700	26.610202	0.000140	20.775151
1940.514313	-2.989100	3.334200	-9.965500	26.647807	0.000139	20.777867
1941.518136	-2.992400	3.334200	-9.976500	26.710285	0.000139	20.777141
1942.521014	-2.979600	3.334000	-9.932800	26.730589	0.000140	20.783804
1943.522076	-2.998400	3.333600	-9.994900	26.744885	0.000138	20.760244
1944.519300	-3.000400	3.333100	-9.999200	26.741663	0.000138	20.769332
1945.520042	-2.986800	3.333400	-9.954900	26.760031	0.000137	20.745125
1946.522292	-3.014700	3.333100	-10.047000	26.792405	0.000137	20.782891
1947.522011	-3.006700	3.332300	-10.018000	26.806523	0.000136	20.758678
1948.520326	-3.020000	3.331600	-10.060000	26.843434	0.000137	20.766394
1949.520104	-3.002000	3.331300	-10.000000	26.790911	0.000136	20.765742
1950.526296	-2.984200	3.331700	-9.941500	26.752888	0.000136	20.768765
1951.528817	-3.026000	3.329200	-10.073000	26.731170	0.000136	20.760205
1952.527164	-2.968200	3.331900	-9.888600	26.673385	0.000135	20.761381
1953.523566	-2.991100	3.330900	-9.962300	26.652382	0.000134	20.758284
1954.524736	-3.005000	3.328600	-10.002000	26.694334	0.000133	20.756362
1955.525418	-3.003200	3.329500	-9.998200	26.655689	0.000131	20.773462
1956.530735	-2.992300	3.328500	-9.958400	26.662513	0.000132	20.759459
1957.524627	-2.955100	3.331200	-9.842400	26.712904	0.000131	20.756540
1958.527317	-2.999600	3.328600	-9.983400	26.727383	0.000134	20.753552
1959.526938	-2.988200	3.328300	-9.944200	26.745923	0.000130	20.766977
1960.523867	-2.997900	3.328500	-9.976600	26.710949	0.000131	20.747936
1961.528926	-3.014400	3.326600	-10.027000	26.739394	0.000132	20.759939
1962.527466	-3.043500	3.327300	-10.126000	26.735902	0.000131	20.756902
1963.525531	-2.993800	3.326400	-9.958000	26.738731	0.000132	20.741728
1964.524299	-3.011900	3.326600	-10.019000	26.746474	0.000131	20.770850
1965.529497	-3.029300	3.326300	-10.076000	26.784300	0.000129	20.741076
1966.528493	-3.005400	3.325400	-9.993300	26.804657	0.000128	20.769131
1967.528331	-2.997000	3.326200	-9.967400	26.751367	0.000127	20.753009
1968.530107	-3.012800	3.324900	-10.015000	26.763181	0.000128	20.753508
1969.528365	-2.982900	3.325700	-9.919300	26.731711	0.000129	20.730877
1970.530789	-3.020800	3.324600	-10.042000	26.661143	0.000127	20.742909
1971.526413	-2.995000	3.325000	-9.957400	26.626069	0.000128	20.756961
1972.530056	-3.021800	3.323700	-10.041000	26.627459	0.000126	20.753618
1973.536439	-2.999500	3.322500	-9.964000	26.655739	0.000128	20.757866
1974.525270	-2.990900	3.323000	-9.937500	26.667084	0.000127	20.749830
1975.529552	-3.004600	3.322000	-9.979300	26.697220	0.000126	20.711372
1976.532512	-3.009000	3.323100	-9.997900	26.776255	0.000125	20.741522
1977.531347	-3.013100	3.322200	-10.009000	26.762952	0.000126	20.754226
1978.530207	-3.006400	3.322600	-9.988700	26.787426	0.000128	20.747538
1979.531856	-2.985300	3.322800	-9.918400	26.804703	0.000127	20.753055
1980.529959	-3.002000	3.320800	-9.967500	26.842159	0.000126	20.741878
1981.533442	-2.994900	3.322100	-9.948300	26.869235	0.000125	20.740653
1982.534194	-2.992500	3.319600	-9.932800	26.832654	0.000123	20.731372
1983.532696	-3.017400	3.319900	-10.016000	26.783487	0.000122	20.740258
1984.537057	-3.004500	3.320500	-9.976100	26.767128	0.000121	20.738983
1985.537255	-2.992600	3.319000	-9.931400	26.778825	0.000124	20.744580
1986.530815	-3.009700	3.318800	-9.987500	26.780668	0.000124	20.743114
1987.534728	-2.994100	3.319500	-9.938600	26.808137	0.000119	20.738490
1988.534432	-3.006800	3.317100	-9.972700	26.835533	0.000122	20.748492
1989.534275	-3.015900	3.318100	-10.006000	26.872473	0.000121	20.721622
1990.533797	-2.988400	3.318300	-9.915100	26.861897	0.000120	20.727110
1991.531331	-3.006400	3.316700	-9.970400	26.867678	0.000120	20.724862
1992.535661	-3.017700	3.316600	-10.007000	26.877139	0.000121	20.744808
1993.541116	-2.979400	3.317800	-9.883900	26.838348	0.000119	20.748003
1994.531875	-3.011300	3.316200	-9.985800	26.826387	0.000119	20.742615
1995.534927	-2.985600	3.316800	-9.901600	26.874708	0.000118	20.733827
1996.533901	-2.992500	3.316100	-9.922800	26.924043	0.000118	20.740762
1997.537274	-2.992800	3.314800	-9.919600	26.955316	0.000118	20.732380
1998.538490	-2.994500	3.315600	-9.927500	26.986687	0.000118	20.751125
1999.531799	-3.010900	3.313900	-9.977000	27.005669	0.000118	20.728014
2000.531109	-2.990300	3.314900	-9.911800	26.986038	0.000116	20.714435
2001.534604	-2.998800	3.314900	-9.940000	26.968175	0.000117	20.732035
2002.536968	-3.007900	3.313500	-9.966600	26.884831	0.000115	20.728834
2003.536678	-2.987600	3.312600	-9.896200	26.902633	0.000115	20.732035
2004.539545	-2.975100	3.314000	-9.858300	26.925242	0.000114	20.732958
2005.535584	-3.014000	3.312500	-9.983200	26.997452	0.000114	20.728760
2006.533818	-3.018300	3.311000	-9.992600	27.023935	0.000113	20.729313
2007.534610	-3.004000	3.312700	-9.951000	26.997635	0.000112	20.735581
2008.538057	-3.010900	3.312300	-9.972200	26.906282	0.000113	20.730963
2009.537560	-2.983800	3.312600	-9.882700	26.932934	0.000111	20.723623
2010.537158	-3.035600	3.310200	-10.047000	26.969216	0.000112	20.717434
2011.542147	-3.005300	3.311200	-9.950600	26.934629	0.000111	20.708257
2012.539792	-2.999000	3.311700	-9.931400	26.924996	0.000112	20.721331
2013.534896	-2.995700	3.310400	-9.915900	26.930606	0.000113	20.724127
2014.540951	-3.033700	3.309100	-10.038000	26.969222	0.000110	20.746838
2015.540755	-2.989500	3.309700	-9.893100	26.957336	0.000110	20.713073
2016.541502	-2.998700	3.309600	-9.924000	26.932148	0.000111	20.733265
2017.542754	-3.005000	3.309000	-9.943100	26.919000	0.000110	20.720043
2018.543618	-2.999300	3.308900	-9.922300	26.912791	0.000111	20.722809
2019.538353	-3.005300	3.308500	-9.942600	26.930366	0.000110	20.724834
2020.541565	-2.996100	3.307300	-9.908200	27.001761	0.000110	20.710332
2021.540495	-3.006300	3.308000	-9.944300	27.017026	0.000109	20.723787
2022.539345	-3.008700	3.306800	-9.948200	27.087404	0.000108	20.722493
2023.539701	-3.002300	3.307400	-9.928600	27.079885	0.000108	20.689799
2024.537737	-3.003300	3.305500	-9.926700	27.018097	0.000109	20.715855
2025.545550	-2.971000	3.305500	-9.819700	27.008967	0.000109	20.723269
2026.541359	-2.981400	3.306400	-9.856500	26.935631	0.000107	20.728707
2027.539493	-2.972300	3.306300	-9.825500	26.967970	0.000107	20.705749
2028.549769	-3.025900	3.303900	-9.995900	26.978520	0.000108	20.706875
2029.544464	-3.003500	3.304700	-9.924900	26.938387	0.000105	20.708243
2030.540758	-3.004600	3.304600	-9.927900	26.922483	0.000105	20.704578
2031.548937	-2.992100	3.304100	-9.885500	26.923720	0.000104	20.704874
2032.543725	-3.037900	3.302200	-10.031000	26.920798	0.000104	20.696245
2033.541560	-3.009000	3.302700	-9.936800	26.896745	0.000102	20.721846
2034.545739	-2.998000	3.302500	-9.899700	26.960780	0.000104	20.719382
2035.539893	-2.986200	3.303600	-9.864300	26.953309	0.000103	20.713766
2036.543338	-2.999900	3.301400	-9.902800	26.976934	0.000101	20.715238
2037.546474	-2.986900	3.302300	-9.862500	26.992229	0.000102	20.689839
2038.547598	-3.024600	3.301600	-9.984500	26.976223	0.000102	20.721635
2039.545941	-3.013500	3.301900	-9.949100	26.990967	0.000102	20.714177
2040.548755	-3.010600	3.300600	-9.935800	27.001488	0.000101	20.689667
2041.544659	-3.008500	3.299700	-9.925900	26.957294	0.000101	20.721566
2042.548444	-3.013800	3.300100	-9.943300	26.979436	9.932078E-5	20.696889
2043.549937	-3.007900	3.299500	-9.923800	26.949253	9.813270E-5	20.692616
2044.547136	-3.021900	3.298800	-9.967600	26.991414	9.846272E-5	20.700875
2045.547068	-3.010800	3.298700	-9.930900	26.991719	9.895776E-5	20.706397
2046.550474	-3.005400	3.297900	-9.910300	26.992761	9.971681E-5	20.710764
2047.550999	-2.990500	3.297400	-9.859700	26.993036	9.823170E-5	20.677373
2048.548370	-3.013400	3.298600	-9.939200	26.932436	9.925478E-5	20.712216
2049.552934	-2.988900	3.298200	-9.857200	26.928143	9.803369E-5	20.689880
2050.551279	-3.000200	3.296200	-9.888400	27.024533	9.866073E-5	20.717112
2051.549435	-2.989800	3.297000	-9.856100	27.056962	9.730764E-5	20.699937
2052.546150	-3.011400	3.295900	-9.924300	27.099993	9.555851E-5	20.701962
2053.550513	-2.974800	3.297900	-9.809700	27.142301	9.661458E-5	20.685242
2054.550536	-2.996700	3.295200	-9.872700	27.148901	9.407340E-5	20.692355
2055.547390	-3.029100	3.295600	-9.981800	27.142405	9.437042E-5	20.710479
2056.552641	-2.993500	3.295100	-9.862800	27.138088	9.526149E-5	20.698076
2057.549301	-3.018000	3.294500	-9.940600	27.133403	9.522848E-5	20.691941
2058.552984	-2.968500	3.294500	-9.779000	27.171216	9.344635E-5	20.678762
2059.550902	-3.011000	3.293300	-9.914500	27.163006	9.413940E-5	20.695162
2060.549054	-3.005100	3.293900	-9.897000	27.186945	9.262129E-5	20.702171
2061.551671	-2.986000	3.293500	-9.833400	27.163698	9.239028E-5	20.684951
2062.555597	-3.003300	3.292200	-9.886500	27.158291	9.298432E-5	20.697533
2063.552892	-2.994800	3.291900	-9.858000	27.168870	9.123519E-5	20.699163
2064.555042	-3.004200	3.292200	-9.889400	27.206327	9.252229E-5	20.698432
2065.553408	-2.979700	3.292600	-9.810400	27.239012	9.318233E-5	20.689107
2066.555016	-2.998000	3.291800	-9.868000	27.269382	9.126819E-5	20.704484
2067.554035	-3.014600	3.291000	-9.920600	27.266903	9.077316E-5	20.679228
2068.556241	-3.008900	3.290200	-9.898800	27.209864	9.146621E-5	20.699144
2069.558510	-3.003100	3.292000	-9.885800	27.203490	8.935405E-5	20.710752
2070.553999	-3.031700	3.290200	-9.974000	27.127438	9.024512E-5	20.697796
2071.554797	-3.019500	3.290000	-9.933700	27.132305	9.107018E-5	20.683249
2072.551790	-2.998800	3.289300	-9.862700	27.153672	8.984909E-5	20.694309
2073.558654	-3.005700	3.288600	-9.883800	27.135035	8.856200E-5	20.684099
2074.554526	-2.978400	3.289000	-9.795200	27.064936	8.747292E-5	20.683772
2075.554988	-2.987400	3.287800	-9.820700	27.120647	8.876001E-5	20.701397
2076.559948	-3.004900	3.287900	-9.878100	27.158858	8.720890E-5	20.690041
2077.552798	-2.991300	3.288900	-9.837400	27.177175	8.658185E-5	20.715105
2078.555625	-3.000700	3.288300	-9.865500	27.242701	8.800096E-5	20.701353
2079.562503	-3.009900	3.286900	-9.891700	27.212458	8.674686E-5	20.685631
2080.557206	-3.049300	3.285900	-10.019000	27.174101	8.526176E-5	20.707745
2081.557546	-2.998100	3.286700	-9.853200	27.128421	8.605381E-5	20.700682
2082.558431	-3.006200	3.284800	-9.873300	27.149459	8.582280E-5	20.711884
2083.559488	-3.008200	3.285900	-9.884000	27.089070	8.687887E-5	20.699511
2084.563270	-2.976400	3.286500	-9.780700	27.151527	8.694488E-5	20.695945
2085.561089	-2.989000	3.286700	-9.823000	27.115349	8.437069E-5	20.681368
2086.568154	-2.973400	3.284100	-9.764000	27.113537	8.476672E-5	20.693771
2087.564803	-2.983400	3.283400	-9.794400	27.171897	8.479972E-5	20.696992
2088.564270	-2.984300	3.283900	-9.799400	27.166515	8.430469E-5	20.693001
2089.565545	-3.013500	3.283100	-9.892000	27.145301	8.371064E-5	20.679249
2090.561067	-2.985600	3.282300	-9.799300	27.200059	8.384265E-5	20.691653
2091.564581	-3.001700	3.283100	-9.853100	27.217452	8.103745E-5	20.680697
2092.568530	-3.026300	3.281900	-9.930000	27.244499	8.202752E-5	20.696998
2093.563091	-2.985700	3.282900	-9.800800	27.186492	8.136747E-5	20.686541
2094.565818	-2.992900	3.282300	-9.823100	27.179440	8.328161E-5	20.708847
2095.568711	-2.993300	3.281100	-9.820700	27.144706	7.810023E-5	20.687662
2096.563677	-3.004500	3.280700	-9.856000	27.106825	7.882628E-5	20.703617
2097.565175	-2.986300	3.280500	-9.795200	27.093220	7.948633E-5	20.697521
2098.566151	-3.018700	3.280300	-9.901800	27.092155	7.843026E-5	20.709727
2099.564495	-3.002600	3.281100	-9.851000	27.126203	7.869428E-5	20.689915
2100.566498	-2.998600	3.278800	-9.830600	27.166428	7.876028E-5	20.695284
2101.567341	-2.995900	3.278200	-9.820400	27.201656	7.922231E-5	20.704165
2102.567444	-3.018600	3.276800	-9.890800	27.182903	7.918931E-5	20.711382
2103.566424	-2.992600	3.277300	-9.806800	27.241009	7.770420E-5	20.699177
2104.566493	-2.993200	3.278100	-9.810100	27.250461	7.889229E-5	20.699201
2105.567402	-2.987200	3.278000	-9.791800	27.265447	7.800122E-5	20.699103
2106.566793	-3.005600	3.276000	-9.845900	27.307601	7.661512E-5	20.708315
2107.567070	-3.004000	3.276600	-9.841600	27.301296	7.654912E-5	20.692963
2108.571677	-3.006100	3.275500	-9.844600	27.300304	7.793522E-5	20.707139
2109.567190	-3.016500	3.275300	-9.879000	27.295542	7.684614E-5	20.704719
2110.566007	-3.023200	3.275000	-9.899800	27.346704	7.516302E-5	20.704502
2111.567791	-3.003900	3.275300	-9.837800	27.327668	7.664813E-5	20.694835
2112.569796	-3.016600	3.274900	-9.878100	27.268973	7.433796E-5	20.704072
2113.566930	-2.995700	3.273800	-9.806000	27.256251	7.552604E-5	20.711664
2114.568217	-3.003700	3.274500	-9.834400	27.254464	7.493200E-5	20.704176
2115.574206	-2.994100	3.275500	-9.806000	27.208144	7.513001E-5	20.695991
2116.571903	-2.998400	3.272700	-9.812400	27.154996	7.209379E-5	20.717453
2117.569731	-2.978000	3.273300	-9.746800	27.160010	7.493200E-5	20.717281
2118.575542	-2.980900	3.272700	-9.754300	27.207324	7.394193E-5	20.699908
2119.571562	-3.000300	3.271700	-9.815200	27.278283	7.397493E-5	20.709170
2120.574231	-3.001300	3.271700	-9.818400	27.304258	7.433796E-5	20.691200
2121.567697	-2.999300	3.270100	-9.807400	27.348339	7.437096E-5	20.735072
2122.571939	-2.972500	3.274000	-9.731100	27.305623	7.143374E-5	20.701583
2123.571243	-2.986000	3.271600	-9.767700	27.253968	7.021265E-5	20.714109
2124.572990	-2.965700	3.270500	-9.698300	27.256496	7.024566E-5	20.731827
2125.577788	-3.007900	3.271500	-9.839100	27.297683	7.173077E-5	20.717305
2126.573483	-2.988500	3.268500	-9.767100	27.297482	7.173077E-5	20.696238
2127.572906	-3.027000	3.268900	-9.894100	27.231164	6.955261E-5	20.711086
2128.583611	-3.000400	3.269400	-9.808200	27.215956	7.173077E-5	20.687727
2129.574296	-3.016800	3.266500	-9.853400	27.218809	7.074069E-5	20.691071
2130.572838	-2.990200	3.269500	-9.775500	27.243145	6.981663E-5	20.716025
2131.572439	-3.036100	3.265400	-9.912600	27.239850	6.968462E-5	20.708918
2132.574923	-2.989000	3.268700	-9.768500	27.235780	6.753946E-5	20.726636
2133.575729	-3.005000	3.266400	-9.814700	27.251979	6.942060E-5	20.713057
2134.575231	-2.980300	3.266700	-9.735700	27.263616	6.912357E-5	20.715754
2135.575257	-2.996100	3.265600	-9.783500	27.229450	6.895856E-5	20.705094
2136.575789	-2.986400	3.265700	-9.752400	27.236123	6.819951E-5	20.695210
2137.579457	-2.992200	3.265600	-9.769600	27.234591	6.968462E-5	20.705525
2138.580497	-2.993900	3.266100	-9.777500	27.279937	6.701142E-5	20.732172
2139.584904	-3.003700	3.264300	-9.804000	27.302013	6.793549E-5	20.735886
2140.579327	-2.988800	3.264500	-9.755700	27.329627	6.763847E-5	20.712454
2141.579044	-2.985700	3.263400	-9.742500	27.394677	6.753946E-5	20.714830
2142.577363	-2.982000	3.263500	-9.730300	27.444759	6.760546E-5	20.718747
2143.578962	-2.998700	3.263400	-9.784700	27.453537	6.770447E-5	20.716672
2144.580079	-3.006700	3.261600	-9.805300	27.455490	6.638437E-5	20.724328
2145.578138	-2.988700	3.262400	-9.749000	27.445421	6.466825E-5	20.707559
2146.578143	-2.977600	3.261000	-9.709000	27.437237	6.565832E-5	20.713550
2147.577432	-3.005000	3.260100	-9.795700	27.412130	6.529529E-5	20.709628
2148.577555	-3.002500	3.260700	-9.789100	27.406076	6.658239E-5	20.720608
2149.580007	-3.008000	3.260000	-9.805900	27.374846	6.440423E-5	20.729969
2150.576136	-3.005800	3.259400	-9.796200	27.361747	6.427222E-5	20.726748
2151.577562	-2.982100	3.259600	-9.719100	27.341283	6.387619E-5	20.731292
2152.583074	-2.988200	3.259100	-9.738500	27.404216	6.394220E-5	20.720159
2153.579272	-3.029800	3.257600	-9.868400	27.444332	6.008091E-5	20.718791
2154.581640	-3.002400	3.258500	-9.782800	27.425032	6.341416E-5	20.719290
2155.581227	-2.984400	3.258100	-9.723000	27.463974	6.235808E-5	20.732863
2156.576896	-2.985500	3.257900	-9.726000	27.502374	6.440423E-5	20.730720
2157.579635	-2.992600	3.255500	-9.741300	27.496468	6.163203E-5	20.745167
2158.576905	-2.991600	3.255200	-9.737200	27.470822	6.285312E-5	20.723632
2159.581173	-2.990900	3.257100	-9.740300	27.427615	6.034493E-5	20.731846
2160.580912	-2.929200	3.257400	-9.539900	27.472432	6.107099E-5	20.734261
2161.580446	-3.010000	3.254700	-9.796000	27.415753	6.021292E-5	20.728922
2162.582599	-2.988100	3.254700	-9.723900	27.458367	5.988290E-5	20.728171
2163.578183	-2.979100	3.254200	-9.693000	27.462407	6.140101E-5	20.740771
2164.585706	-3.000500	3.252300	-9.757900	27.465167	5.935486E-5	20.737383
2165.588533	-3.008700	3.253500	-9.787800	27.443708	5.879382E-5	20.736182
2166.590148	-3.008900	3.253800	-9.789900	27.450557	5.872781E-5	20.746392
2167.584483	-3.004300	3.252500	-9.770500	27.436191	5.935486E-5	20.739052
2168.581957	-2.997600	3.252200	-9.747500	27.477592	5.938786E-5	20.747039
2169.585873	-2.988200	3.252600	-9.719000	27.555224	5.912384E-5	20.718459
2170.586143	-3.005700	3.251100	-9.770900	27.574643	5.826578E-5	20.732309
2171.585511	-3.021000	3.251400	-9.821100	27.512639	5.602162E-5	20.736306
2172.581810	-3.009700	3.249700	-9.779600	27.530517	5.681367E-5	20.734853
2173.586432	-3.011200	3.249600	-9.784700	27.491382	5.681367E-5	20.736256
2174.584390	-3.006300	3.251700	-9.774500	27.505839	5.440450E-5	20.738000
2175.580704	-2.989700	3.250700	-9.718100	27.461268	5.447050E-5	20.747686
2176.584547	-2.995200	3.249500	-9.731500	27.437458	5.364544E-5	20.717566
2177.587598	-2.980600	3.249500	-9.684600	27.525859	5.324941E-5	20.732537
2178.586469	-3.016700	3.246900	-9.793400	27.588162	5.377745E-5	20.743067
2179.589643	-2.997000	3.249200	-9.737300	27.546123	5.245735E-5	20.745814
2180.587438	-3.000200	3.247200	-9.741400	27.511200	5.447050E-5	20.739126
2181.583382	-2.976700	3.248000	-9.667700	27.560040	5.407447E-5	20.753653
2182.587486	-3.010200	3.246200	-9.770900	27.615891	5.298539E-5	20.756744
2183.584334	-2.995600	3.246800	-9.724300	27.653908	5.107125E-5	20.732882
2184.588534	-2.983100	3.244800	-9.679200	27.592036	5.321641E-5	20.736533
2185.588592	-2.989800	3.245800	-9.703600	27.534646	5.199532E-5	20.756553
2186.586562	-3.043900	3.244300	-9.874000	27.494583	5.209433E-5	20.731890
2187.587020	-2.983200	3.246600	-9.684900	27.521396	5.126927E-5	20.760765
2188.583931	-3.001100	3.243900	-9.734500	27.552339	5.232534E-5	20.748275
2189.587708	-2.996200	3.244900	-9.721400	27.576111	5.166530E-5	20.746115
2190.587939	-3.021500	3.244000	-9.800800	27.613472	5.093924E-5	20.742930
2191.586498	-2.992100	3.243600	-9.703200	27.658759	5.169830E-5	20.738712
2192.585232	-2.999200	3.242100	-9.722800	27.669057	4.955314E-5	20.740540
2193.591112	-2.988100	3.241800	-9.686000	27.658808	5.153329E-5	20.756780
2194.589643	-2.969200	3.243600	-9.629400	27.661836	5.051021E-5	20.747499
2195.589270	-2.995300	3.240100	-9.704200	27.618828	4.747399E-5	20.745474
2196.596921	-3.022000	3.241300	-9.794000	27.597775	5.041120E-5	20.762223
2197.589102	-3.009600	3.240500	-9.752200	27.648000	5.136827E-5	20.749697
2198.598783	-2.985900	3.241200	-9.677200	27.631458	4.968515E-5	20.774779
2199.589844	-3.005400	3.240300	-9.737400	27.668164	4.856307E-5	20.739167
2200.588336	-3.030800	3.238600	-9.814100	27.683217	4.922312E-5	20.763325
2201.586734	-3.001900	3.238000	-9.719100	27.724510	4.737498E-5	20.759833
2202.586035	-3.007600	3.237900	-9.737300	27.687654	4.902510E-5	20.742185
2203.586702	-2.999500	3.237600	-9.710100	27.680096	4.829905E-5	20.759710
2204.586663	-2.984400	3.237900	-9.662300	27.678279	4.625290E-5	20.744605
2205.586972	-2.989800	3.240400	-9.687500	27.641378	4.631890E-5	20.771485
2206.588822	-2.989800	3.236300	-9.675200	27.645257	4.823304E-5	20.757369
2207.587430	-2.999600	3.235400	-9.703800	27.654253	4.938813E-5	20.757887
2208.589190	-3.009100	3.235500	-9.734600	27.710405	4.575786E-5	20.753699
2209.590808	-2.987900	3.236900	-9.670500	27.668989	4.555985E-5	20.763706
2210.588462	-2.994200	3.235200	-9.685400	27.664650	4.724297E-5	20.783996
2211.595550	-3.036300	3.234300	-9.819100	27.665391	4.621990E-5	20.752973
2212.587807	-2.957500	3.235200	-9.566000	27.596622	4.417375E-5	20.754425
2213.591051	-2.978500	3.234700	-9.633700	27.578661	4.539484E-5	20.786614
2214.591374	-2.969000	3.233900	-9.600700	27.559669	4.585687E-5	20.763237
2215.592413	-2.984700	3.231600	-9.643900	27.587865	4.635191E-5	20.768848
2216.589552	-3.002400	3.232200	-9.703700	27.605777	4.371171E-5	20.768379
2217.599878	-3.011000	3.232600	-9.732600	27.597442	4.572486E-5	20.766630
2218.594892	-3.017800	3.230900	-9.749600	27.641389	4.648392E-5	20.771021
2219.594190	-2.976400	3.233400	-9.621900	27.631047	4.225961E-5	20.757295
2220.593642	-3.012400	3.229600	-9.727800	27.660905	4.272164E-5	20.760787
2221.592593	-2.996800	3.229500	-9.677700	27.683375	4.532883E-5	20.776761
2222.595410	-3.000600	3.228800	-9.687700	27.649228	4.341469E-5	20.766581
2223.591460	-3.013200	3.228400	-9.726500	27.646896	4.476779E-5	20.754752
2224.605240	-2.987400	3.230300	-9.648300	27.721326	4.341469E-5	20.781286
2225.594390	-2.992300	3.227400	-9.655700	27.742004	4.232561E-5	20.779334
2226.592874	-3.019900	3.228300	-9.748300	27.702376	4.225961E-5	20.773121
2227.597466	-3.008500	3.226900	-9.707000	27.706347	4.206159E-5	20.778539
2228.597707	-2.992700	3.228200	-9.660700	27.665451	4.453677E-5	20.761094
2229.593755	-2.991500	3.226400	-9.651000	27.660066	3.925639E-5	20.777487
2230.595184	-2.992800	3.226700	-9.655600	27.647667	4.282065E-5	20.784451
2231.600997	-2.976700	3.228300	-9.608900	27.648384	4.258963E-5	20.779956
2232.594835	-3.000400	3.224500	-9.674200	27.724717	4.222660E-5	20.772844
2233.596047	-2.977800	3.224900	-9.602300	27.772207	4.315067E-5	20.777487
2234.593911	-2.983700	3.224000	-9.619100	27.825343	4.044447E-5	20.784969
2235.598890	-2.995000	3.223000	-9.652100	27.776026	4.051048E-5	20.797925
2236.603011	-2.990900	3.223700	-9.641300	27.736570	4.080750E-5	20.799945
2237.598303	-2.991700	3.222900	-9.640900	27.704108	4.014745E-5	20.780554
2238.597998	-2.998200	3.223600	-9.663600	27.700583	3.922338E-5	20.781275
2239.599054	-2.989400	3.222700	-9.632900	27.749464	3.879435E-5	20.784470
2240.602271	-2.999300	3.221700	-9.662200	27.784629	4.176457E-5	20.782401
2241.603039	-2.978600	3.221400	-9.594600	27.824445	4.027946E-5	20.774582
2242.600121	-2.993800	3.220600	-9.641400	27.832533	4.014745E-5	20.792679
2243.598388	-3.027100	3.220800	-9.748300	27.799774	3.935539E-5	20.808074
2244.603398	-3.011000	3.218900	-9.691000	27.766273	3.876135E-5	20.778153
2245.597904	-2.991900	3.221600	-9.637300	27.724908	4.084050E-5	20.806701
2246.603122	-3.008600	3.219000	-9.684100	27.744104	4.097251E-5	20.805155
2247.602482	-2.989500	3.218400	-9.620900	27.758685	3.770527E-5	20.784268
2248.602098	-2.985000	3.217800	-9.603500	27.817824	3.968542E-5	20.792575
2249.599320	-2.996900	3.217500	-9.642000	27.791587	3.843133E-5	20.803629
2250.612551	-2.998500	3.217100	-9.645700	27.803513	3.674820E-5	20.808992
2251.602009	-2.981600	3.216300	-9.588000	27.797021	3.902537E-5	20.798665
2252.602546	-2.993500	3.215400	-9.624400	27.780530	3.707823E-5	20.804829
2253.608305	-3.008200	3.214800	-9.670500	27.846160	3.727624E-5	20.810661
2254.608881	-3.020000	3.214500	-9.707600	27.797089	3.813430E-5	20.796837
2255.602651	-2.985900	3.218700	-9.609800	27.747391	3.612116E-5	20.791868
2256.611178	-3.002200	3.215700	-9.653600	27.731622	3.724324E-5	20.788801
2257.606585	-2.999200	3.214900	-9.641500	27.803655	3.740825E-5	20.794910
2258.607419	-3.010600	3.213300	-9.673000	27.856024	3.618716E-5	20.801622
2259.608693	-3.001100	3.215500	-9.648400	27.858949	3.466905E-5	20.804566
2260.603933	-3.020500	3.213100	-9.704700	27.849796	3.526309E-5	20.802941
2261.610574	-3.022200	3.210700	-9.702500	27.852873	3.417401E-5	20.811253
2262.607418	-3.021500	3.211000	-9.700400	27.920688	3.466905E-5	20.795582
2263.610150	-3.007300	3.210900	-9.654500	27.909725	3.625317E-5	20.795927
2264.609643	-3.008600	3.210700	-9.659200	27.990231	3.513108E-5	20.801568
2265.613904	-2.989200	3.209700	-9.593900	28.021816	3.549411E-5	20.812498
2266.612317	-2.984300	3.211700	-9.584000	28.025315	3.664919E-5	20.811278
2267.611382	-2.995400	3.208100	-9.608700	28.020452	3.404200E-5	20.809702
2268.608527	-3.006400	3.210000	-9.649200	27.933054	3.414101E-5	20.814666
2269.610682	-2.996200	3.207200	-9.608500	27.919716	3.140181E-5	20.811673
2270.612247	-2.970700	3.208900	-9.532000	27.889168	3.272191E-5	20.816014
2271.609686	-2.999100	3.208000	-9.619900	27.871432	3.351396E-5	20.832776
2272.612708	-2.997800	3.206000	-9.610300	27.929310	3.463605E-5	20.826070
2273.611055	-2.984700	3.205200	-9.566000	27.944453	3.044474E-5	20.833725
2274.615812	-2.987100	3.206000	-9.575700	27.933520	3.183084E-5	20.807074
2275.611296	-2.999100	3.206500	-9.615800	27.951189	2.968568E-5	20.834816
2276.618831	-3.003900	3.203600	-9.622700	27.935227	2.991670E-5	20.820646
2277.613650	-3.006200	3.205600	-9.635800	27.891709	2.968568E-5	20.819046
2278.609524	-2.985700	3.203100	-9.562900	27.864115	3.018072E-5	20.840111
2279.615289	-3.005100	3.204700	-9.629800	27.839195	3.004871E-5	20.837315
2280.610706	-2.952500	3.204200	-9.459500	27.808369	3.031273E-5	20.817198
2281.614315	-2.987300	3.202200	-9.564900	27.756591	2.849760E-5	20.812980
2282.614760	-3.028300	3.201900	-9.695800	27.779580	2.727651E-5	20.833270
2283.613377	-2.970600	3.202900	-9.513100	27.851757	2.691348E-5	20.838105
2284.612784	-3.038200	3.201400	-9.725400	27.878390	2.945467E-5	20.816546
2285.614850	-2.993900	3.200500	-9.581100	27.903084	2.994970E-5	20.825278
2286.617965	-2.990000	3.202800	-9.575300	27.914818	2.793655E-5	20.835191
2287.614338	-3.012400	3.201200	-9.642700	27.891086	2.899263E-5	20.819840
2288.617995	-3.015500	3.199200	-9.646300	27.900900	2.513135E-5	20.829718
2289.620134	-2.998900	3.199600	-9.594700	27.922619	2.615442E-5	20.844466
2290.618955	-3.020500	3.196700	-9.654700	27.922747	2.503234E-5	20.845069
2291.616546	-3.041900	3.196300	-9.721900	27.929416	2.602241E-5	20.811953
2292.612975	-3.017400	3.198200	-9.650000	27.870327	2.447130E-5	20.813647
2293.619790	-2.978400	3.195800	-9.516400	27.865077	2.556038E-5	20.803621
2294.619151	-2.991200	3.194900	-9.555700	27.897229	2.420728E-5	20.838825
2295.615115	-2.981400	3.196200	-9.527700	27.933460	2.453730E-5	20.838781
2296.621584	-2.992200	3.193500	-9.554600	27.917669	2.453730E-5	20.856552
2297.619817	-3.001500	3.193700	-9.584900	27.901058	2.424028E-5	20.843153
2298.617915	-2.997200	3.192800	-9.568800	27.861430	2.391026E-5	20.842150
2299.623165	-2.987000	3.193500	-9.538400	27.879706	2.298619E-5	20.832094
2300.615035	-2.996800	3.193200	-9.568100	27.901995	2.473532E-5	20.856897
2301.617154	-3.008800	3.192500	-9.604500	27.926492	2.189711E-5	20.833665
2302.635683	-2.989200	3.191600	-9.539200	27.880770	2.427329E-5	20.828899
2303.619228	-2.999900	3.191300	-9.573200	27.862843	2.193011E-5	20.840727
2304.618771	-2.986100	3.190800	-9.527700	27.874749	2.311820E-5	20.855080
2305.620710	-3.005600	3.188200	-9.581700	27.882783	2.348123E-5	20.847044
2306.615822	-3.000400	3.188900	-9.566600	27.909979	2.252416E-5	20.836485
2307.620835	-3.002100	3.188200	-9.570500	27.981730	2.252416E-5	20.852753
2308.620670	-2.972400	3.188900	-9.477900	27.975337	2.605542E-5	20.855327
2309.621953	-3.005900	3.187500	-9.579700	27.969684	2.084103E-5	20.866706
2310.621601	-2.986400	3.188000	-9.520100	28.013640	2.212813E-5	20.847889
2311.617121	-2.993100	3.185800	-9.534600	28.026186	2.265617E-5	20.847242
2312.622938	-2.994100	3.184900	-9.535200	28.103906	2.371224E-5	20.843449
2313.616837	-3.001200	3.185200	-9.558200	28.154524	2.160009E-5	20.839404
2314.624323	-2.976500	3.185600	-9.481000	28.091483	2.239215E-5	20.863658
2315.624300	-3.025300	3.183600	-9.630800	28.107895	2.278818E-5	20.870222
2316.622996	-3.007400	3.183100	-9.572300	28.149152	2.117106E-5	20.863866
2317.627299	-2.998900	3.182900	-9.544200	28.157202	2.490033E-5	20.853954
2318.621737	-3.036000	3.180700	-9.655200	28.132417	2.328321E-5	20.845597
2319.622166	-3.010900	3.182000	-9.579500	28.154529	2.374525E-5	20.858848
2320.619750	-3.003600	3.184100	-9.562700	28.205767	2.407527E-5	20.859224
2321.623594	-2.979600	3.180500	-9.475700	28.248992	2.549438E-5	20.865283
2322.619507	-3.020000	3.179400	-9.600700	28.297920	2.183111E-5	20.860019
2323.623048	-2.984000	3.180600	-9.489700	28.326867	2.447130E-5	20.858818
2324.620705	-2.999000	3.177700	-9.528800	28.294953	2.437229E-5	20.872677
2325.629587	-2.970300	3.179400	-9.443100	28.269994	2.295319E-5	20.866514
2326.620881	-2.981400	3.178900	-9.476500	28.257504	2.107205E-5	20.859629
2327.625227	-3.016700	3.176400	-9.581500	28.235982	2.070902E-5	20.855505
2328.628576	-3.015100	3.175500	-9.573800	28.118611	2.315120E-5	20.857303
2329.625106	-2.974500	3.175300	-9.443600	28.061593	2.249115E-5	20.864390
2330.625600	-2.986000	3.175200	-9.479400	28.047247	2.070902E-5	20.839044
2331.625717	-2.989000	3.174800	-9.488700	28.080189	2.226014E-5	20.859876
2332.625103	-2.967000	3.175200	-9.420300	28.107012	2.255716E-5	20.857007
2333.625099	-2.986400	3.173200	-9.474700	28.152925	2.298619E-5	20.872406
2334.630648	-2.993100	3.172700	-9.494600	28.200244	2.476832E-5	20.845129
2335.628334	-2.993700	3.172000	-9.494800	28.157635	2.037900E-5	20.876199
2336.628622	-3.002800	3.170100	-9.518400	28.145860	2.252416E-5	20.843958
2337.626903	-2.999200	3.170300	-9.507700	28.135670	2.344822E-5	20.833226
2338.628939	-3.006900	3.168600	-9.526600	28.143500	2.367924E-5	20.838737
2339.624779	-3.009400	3.167600	-9.532100	28.145286	2.156709E-5	20.850966
2340.630845	-2.979900	3.169300	-9.443300	28.132716	2.288718E-5	20.838787
2341.626278	-2.992700	3.169200	-9.483000	28.152149	2.305220E-5	20.824212
2342.626489	-2.990500	3.166800	-9.468500	28.102468	2.166609E-5	20.842002
2343.629033	-3.014300	3.165500	-9.541000	28.133549	2.255716E-5	20.842945
2344.637593	-2.994000	3.165500	-9.475500	28.136890	2.090704E-5	20.829713
2345.630481	-3.006600	3.164400	-9.513300	28.207145	2.265617E-5	20.840697
2346.629482	-3.010000	3.162500	-9.518200	28.210608	2.206212E-5	20.830434
2347.633191	-3.010200	3.163500	-9.521100	28.261760	2.226014E-5	20.823612
2348.626261	-2.983600	3.163800	-9.438500	28.319169	2.097304E-5	20.837318
2349.627084	-2.992900	3.162000	-9.462700	28.296554	2.054401E-5	20.832092
2350.630413	-2.977700	3.162800	-9.416800	28.315367	2.183111E-5	20.827800
2351.628535	-2.993700	3.160400	-9.460500	28.244299	1.968595E-5	20.815990
2352.631550	-2.983500	3.161000	-9.429900	28.260056	1.971895E-5	20.815733
2353.630356	-3.000900	3.160000	-9.482000	28.295027	2.219413E-5	20.839563
2354.633243	-3.008300	3.157700	-9.497700	28.178275	1.968595E-5	20.839133
2355.632163	-3.001100	3.157500	-9.474700	28.182509	1.889389E-5	20.831067
2356.632183	-3.006300	3.156900	-9.489200	28.178319	2.021399E-5	20.835384
2357.629977	-2.988500	3.156200	-9.430900	28.200798	1.938893E-5	20.832885
2358.637343	-3.008000	3.156200	-9.492800	28.187159	1.975195E-5	20.825792
2359.633402	-3.009800	3.154100	-9.492100	28.127294	2.014798E-5	20.851820
2360.639446	-2.999200	3.154500	-9.459200	28.180388	1.826684E-5	20.808070
2361.634867	-3.015500	3.152800	-9.507100	28.170890	1.750779E-5	20.817000
2362.635785	-3.019900	3.152600	-9.518900	28.179735	1.853086E-5	20.830646
2363.639372	-2.995800	3.152000	-9.442200	28.207846	1.618769E-5	20.825757
2364.641288	-2.979900	3.152700	-9.393800	28.215455	1.876188E-5	20.808761
2365.640225	-3.004400	3.149700	-9.461800	28.286043	1.823384E-5	20.829569
2366.641483	-2.998400	3.150000	-9.444300	28.295461	1.935592E-5	20.840948
2367.637575	-2.996000	3.149800	-9.435900	28.285670	1.932292E-5	20.825400
2368.634077	-2.991900	3.148200	-9.416900	28.191803	1.876188E-5	20.819563
2369.640819	-3.012900	3.146400	-9.478500	28.192843	1.711176E-5	20.837679
2370.641345	-2.996600	3.145700	-9.424900	28.256937	1.664973E-5	20.824447
2371.636619	-3.006900	3.146400	-9.459800	28.245812	1.691374E-5	20.822728
2372.641087	-3.013200	3.143600	-9.471300	28.287652	1.790382E-5	20.840672
2373.636584	-3.005000	3.143400	-9.445000	28.332555	1.820084E-5	20.819977
2374.642518	-2.998300	3.143700	-9.425200	28.251732	1.671573E-5	20.828689
2375.639074	-2.991400	3.143500	-9.402400	28.211922	1.608868E-5	20.816584
2376.643991	-3.009200	3.142000	-9.452100	28.282540	1.582466E-5	20.817033
2377.639366	-3.018300	3.140300	-9.477600	28.332898	1.625370E-5	20.825538
2378.640536	-3.022800	3.141000	-9.493900	28.312085	1.641871E-5	20.805056
2379.641157	-3.012100	3.139900	-9.457300	28.312997	1.800282E-5	20.812613
2380.639272	-3.021100	3.139600	-9.483800	28.357464	1.562665E-5	20.807126
2381.643259	-3.010100	3.137500	-9.443700	28.357910	1.440556E-5	20.821325
2382.640564	-3.030600	3.136300	-9.503400	28.395013	1.763980E-5	20.809847
2383.641990	-2.991800	3.136100	-9.381100	28.393154	1.661672E-5	20.805130
2384.641848	-2.993300	3.136100	-9.386400	28.397955	1.641871E-5	20.818026
2385.647620	-3.022100	3.133700	-9.468800	28.378428	1.572566E-5	20.808795
2386.641803	-3.009100	3.133600	-9.428100	28.364552	1.565965E-5	20.827538
2387.642257	-2.972500	3.134600	-9.316300	28.415451	1.496660E-5	20.797711
2388.645688	-2.995700	3.133900	-9.387100	28.469296	1.546164E-5	20.817319
2389.642870	-3.006100	3.131300	-9.412200	28.513138	1.420755E-5	20.826382
2390.638317	-2.993200	3.130800	-9.370000	28.522378	1.503261E-5	20.811980
2391.645682	-3.016100	3.130600	-9.441500	28.524408	1.298646E-5	20.822085
2392.642330	-2.970300	3.130100	-9.296000	28.465749	1.179837E-5	20.802368
2393.640112	-3.016100	3.128200	-9.433900	28.409442	1.420755E-5	20.821531
2394.643717	-3.016100	3.126400	-9.428500	28.423067	1.400953E-5	20.806329
2395.643774	-3.007100	3.126600	-9.401400	28.418383	1.470258E-5	20.818681
2396.646293	-3.008000	3.125400	-9.400600	28.426187	1.245842E-5	20.798090
2397.650494	-3.015700	3.124900	-9.423100	28.461942	1.275544E-5	20.797112
2398.644986	-2.990000	3.124700	-9.342400	28.510145	1.186437E-5	20.789229
2399.643862	-3.007400	3.123000	-9.391800	28.509296	1.232641E-5	20.808289
2400.642109	-3.012700	3.123100	-9.407300	28.517923	1.272244E-5	20.789002
2401.643175	-3.018200	3.121900	-9.421800	28.510085	1.212839E-5	20.808610
2402.642787	-3.005600	3.120700	-9.378900	28.547256	1.107231E-5	20.810007
2403.645525	-3.001600	3.120100	-9.364300	28.558996	1.074229E-5	20.804762
2404.643987	-2.997100	3.118800	-9.346400	28.622504	1.064328E-5	20.789065
2405.644784	-2.982200	3.118400	-9.298500	28.636250	9.224179E-6	20.792004
2406.646165	-2.996900	3.117600	-9.342100	28.644552	9.719215E-6	20.794202
2407.650468	-3.005000	3.115400	-9.360600	28.633254	9.587206E-6	20.807478
2408.645527	-2.987600	3.114900	-9.305000	28.570138	1.061028E-5	20.812664
2409.648386	-3.024900	3.112300	-9.413300	28.580869	7.772072E-6	20.800237
2410.647310	-3.008300	3.112900	-9.363700	28.505661	9.059167E-6	20.802257
2411.649483	-3.004800	3.111300	-9.347900	28.498255	9.785220E-6	20.811395
2412.647408	-2.984800	3.112000	-9.288400	28.379965	1.018125E-5	20.801333
2413.647998	-3.014900	3.110200	-9.375500	28.405766	9.026164E-6	20.776579
2414.651343	-3.003800	3.110100	-9.340700	28.502512	8.333113E-6	20.779171
2415.646896	-2.982000	3.109600	-9.272100	28.565798	1.067629E-5	20.801180
2416.653237	-2.987600	3.108700	-9.286500	28.623528	9.785220E-6	20.803373
2417.653214	-3.002200	3.105400	-9.321900	28.634955	8.036092E-6	20.814881
2418.651038	-3.025700	3.105800	-9.396000	28.583816	8.795147E-6	20.788981
2419.655691	-3.023400	3.103600	-9.382200	28.552120	9.191176E-6	20.785508
2420.651376	-2.995600	3.104000	-9.297100	28.493321	8.663138E-6	20.783192
2421.652687	-2.994700	3.101700	-9.287300	28.497975	7.046019E-6	20.803052
2422.654010	-2.986500	3.102200	-9.264100	28.534724	7.178028E-6	20.784585
2423.659656	-3.002700	3.099500	-9.306200	28.596307	7.706067E-6	20.770266
2424.655149	-2.993600	3.098400	-9.274600	28.616986	7.112024E-6	20.775921
2425.656463	-2.979800	3.098900	-9.233600	28.676431	8.003089E-6	20.766092
2426.656600	-2.992600	3.097400	-9.268500	28.629305	4.339819E-6	20.816778
2427.660259	-2.989000	3.095000	-9.249300	28.649573	6.352968E-6	20.788827
2428.659097	-2.970700	3.095900	-9.196100	28.635406	6.385970E-6	20.770765
2429.657403	-3.003900	3.093700	-9.292200	28.677726	6.616987E-6	20.779725
2430.659222	-2.975000	3.093800	-9.203400	28.667963	7.475050E-6	20.798340
2431.660073	-2.986300	3.091000	-9.229000	28.592540	5.890934E-6	20.786862
2432.655376	-2.988400	3.090600	-9.235100	28.565033	2.920715E-6	20.807048
2433.657095	-2.994600	3.090200	-9.252400	28.582330	5.527907E-6	20.793648
2434.664206	-3.006600	3.089000	-9.286100	28.575837	5.296890E-6	20.779522
2435.657042	-2.978200	3.088300	-9.196400	28.664918	6.947011E-6	20.781049
2436.662223	-2.980400	3.087400	-9.200500	28.628369	6.418973E-6	20.783592
2437.666921	-3.016600	3.085400	-9.306400	28.576558	4.339819E-6	20.797318
2438.656490	-3.008000	3.083500	-9.274300	28.541443	5.725922E-6	20.778549
2439.658905	-2.989000	3.084300	-9.218300	28.588505	6.253960E-6	20.791332
2440.657220	-2.993000	3.082600	-9.224900	28.662338	6.616987E-6	20.785563
2441.656721	-3.001100	3.080400	-9.243500	28.736789	6.385970E-6	20.778525
2442.659959	-3.013300	3.080000	-9.280100	28.689171	6.418973E-6	20.782244
2443.657698	-2.993900	3.080600	-9.222400	28.576013	6.484977E-6	20.780174
2444.663985	-2.988600	3.078300	-9.199200	28.549025	5.626914E-6	20.770064
2445.663247	-3.001400	3.077100	-9.235100	28.562183	4.174807E-6	20.767194
2446.660414	-2.996900	3.076000	-9.217200	28.518501	5.362895E-6	20.770143
2447.663743	-2.971600	3.076500	-9.140300	28.573091	3.118730E-6	20.771541
2448.662054	-2.987500	3.075200	-9.186900	28.603668	5.230885E-6	20.768197
2449.664820	-2.992200	3.071500	-9.190000	28.622646	5.659917E-6	20.783992
2450.666177	-3.004200	3.071700	-9.226700	28.608322	3.382749E-6	20.782841
2451.663857	-3.033800	3.071100	-9.316000	28.616306	4.273815E-6	20.778554
2452.670078	-2.999900	3.070100	-9.208900	28.677971	5.725922E-6	20.771437
2453.665278	-3.007400	3.068100	-9.225800	28.735201	5.791926E-6	20.766018
2454.666573	-3.009600	3.067300	-9.230600	28.789603	5.560909E-6	20.762022
2455.667694	-2.984000	3.066400	-9.149800	28.766312	4.471829E-6	20.771752
2456.670615	-2.992200	3.065100	-9.170700	28.667408	4.636841E-6	20.767910
2457.665945	-2.988200	3.063400	-9.151800	28.624465	7.211031E-6	20.777763
2458.671100	-2.991000	3.062200	-9.158100	28.680608	7.178028E-6	20.760817
2459.668266	-2.982100	3.063200	-9.133800	28.740741	5.527907E-6	20.765909
2460.673226	-2.980900	3.060800	-9.123100	28.746507	5.362895E-6	20.770295
2461.663699	-2.996700	3.059700	-9.167500	28.750297	4.372822E-6	20.776009
2462.671737	-2.983800	3.059100	-9.126600	28.760922	5.065873E-6	20.784816
2463.667520	-3.008100	3.055100	-9.188800	28.671006	5.494905E-6	20.785759
2464.674251	-3.036600	3.055400	-9.276600	28.687159	4.966866E-6	20.774053
2465.671108	-3.003200	3.054700	-9.172300	28.755361	4.834856E-6	20.786326
2466.670704	-2.983100	3.053200	-9.106400	28.806546	3.415751E-6	20.759650
2467.673581	-3.012200	3.052300	-9.193000	28.837337	2.491683E-6	20.774546
2468.667998	-2.982300	3.051400	-9.099600	28.855669	4.768851E-6	20.772625
2469.671419	-2.976700	3.050700	-9.079900	28.850168	4.669844E-6	20.783205
2470.678897	-2.989000	3.049100	-9.112900	28.857302	3.250739E-6	20.756251
2471.674087	-2.995600	3.046600	-9.125400	28.833071	-9.075668E-7	20.771197
2472.670841	-3.012900	3.045300	-9.174300	28.757185	3.349747E-6	20.793379
2473.671787	-3.020800	3.043400	-9.192700	28.659741	7.425547E-7	20.745488
2474.670766	-2.992000	3.043700	-9.106000	28.704958	2.656696E-6	20.783446
2475.672462	-3.009300	3.041600	-9.152400	28.665733	4.075800E-6	20.757214
2476.673400	-3.017300	3.040300	-9.172800	28.702550	2.623693E-6	20.763003
2477.670889	-3.001100	3.040300	-9.123500	28.775336	2.920715E-6	20.784162
2478.674174	-2.997800	3.038500	-9.107800	28.746647	2.359674E-6	20.778023
2479.671235	-2.990700	3.038400	-9.086000	28.668572	3.679771E-6	20.764815
2480.670597	-2.985100	3.035900	-9.061700	28.637619	3.481756E-6	20.764459
2481.673354	-3.017900	3.034600	-9.157000	28.681498	3.679771E-6	20.762661
2482.675317	-2.978800	3.033800	-9.036400	28.652291	2.260666E-6	20.742252
2483.670555	-3.007000	3.032400	-9.118100	28.700676	1.270594E-6	20.767279
2484.675919	-2.995700	3.030300	-9.076800	28.799028	4.009795E-6	20.761085
2485.670851	-3.018800	3.030100	-9.145900	28.843719	2.755703E-6	20.753000
2486.683372	-3.011400	3.027800	-9.116500	28.809427	3.283742E-6	20.788156
2487.675167	-2.993500	3.026700	-9.059900	28.772339	2.359674E-6	20.755064
2488.675529	-2.996100	3.026000	-9.064100	28.750221	2.326671E-6	20.760759
2489.677891	-2.953900	3.025700	-8.937100	28.759238	2.062652E-6	20.759411
2490.678222	-3.008000	3.021500	-9.087400	28.734309	2.293669E-6	20.754688
2491.679548	-3.013000	3.020900	-9.100900	28.746901	3.316744E-6	20.749828
2492.678419	-3.007700	3.018800	-9.078700	28.728685	3.795279E-7	20.750920
2493.680310	-3.015300	3.017800	-9.098600	28.716617	7.095522E-7	20.751092
2494.675145	-3.020400	3.016900	-9.111100	28.692933	-1.155085E-7	20.742883
2495.681993	-2.979800	3.016500	-8.987500	28.660269	1.204589E-6	20.750761
2496.681798	-2.993200	3.015300	-9.023200	28.655169	-3.465255E-7	20.757479
2497.680269	-3.015500	3.013700	-9.087000	28.657817	3.795279E-7	20.769155
2498.679259	-3.004200	3.012500	-9.049400	28.674005	2.062652E-6	20.744207
2499.677889	-2.996800	3.011500	-9.024000	28.671322	4.455328E-7	20.760946
2500.676875	-2.991000	3.009100	-8.998700	28.732171	-1.485109E-7	20.763440
2501.681591	-2.999600	3.008000	-9.021200	28.722339	5.775425E-7	20.763495
2502.683169	-3.007000	3.005700	-9.037100	28.749740	6.765498E-7	20.762645
2503.688539	-3.002600	3.005900	-9.025100	28.804808	1.171586E-6	20.763114
2504.678283	-2.994200	3.004000	-8.992600	28.808255	1.402603E-6	20.737662
2505.685658	-2.981900	3.003800	-8.955900	28.835035	1.996647E-6	20.742829
2506.688731	-2.983700	3.000700	-8.952700	28.794879	-1.270594E-6	20.764493
2507.683462	-3.023500	2.999600	-9.066800	28.808034	-1.765630E-6	20.745501
2508.682045	-2.973900	3.000200	-8.921400	28.765945	2.145158E-7	20.736768
2509.684390	-3.012600	2.997400	-9.029300	28.778973	-4.950365E-8	20.717648
2510.680440	-2.991800	2.996100	-8.963000	28.790344	-1.650122E-8	20.737638
2511.686007	-3.020700	2.993000	-9.040100	28.771961	-1.336598E-6	20.710110
2512.687799	-2.989300	2.992400	-8.944300	28.842517	-1.815134E-7	20.747521
2513.680469	-3.008500	2.990500	-8.996600	28.790349	-8.085595E-7	20.740962
2514.683215	-2.988800	2.990800	-8.938200	28.814452	-1.996647E-6	20.730629
2515.683681	-2.996400	2.988700	-8.954500	28.766323	4.125304E-7	20.757539
2516.681469	-3.003600	2.986700	-8.969700	28.841184	6.765498E-7	20.758032
2517.681218	-2.992700	2.984300	-8.930000	28.922163	-9.735717E-7	20.740038
2518.682069	-2.990200	2.984300	-8.923100	28.999640	1.666623E-6	20.733222
2519.696281	-2.994800	2.982000	-8.929200	29.001827	3.184734E-6	20.751547
2520.683674	-2.998700	2.980500	-8.936600	29.013886	2.194662E-6	20.728134
2521.684875	-3.001700	2.979900	-8.944200	28.983217	1.815134E-7	20.736116
2522.683049	-3.020100	2.978200	-8.993200	28.980394	6.435474E-7	20.727107
2523.685541	-2.996000	2.977400	-8.919100	28.950371	8.250607E-8	20.723886
2524.686447	-3.014700	2.974600	-8.966500	28.905342	-2.475182E-7	20.753913
2525.684726	-2.999200	2.974700	-8.920900	28.896791	-1.303596E-6	20.742453
2526.687859	-2.981500	2.972600	-8.860700	28.917750	5.115377E-7	20.734170
2527.687418	-3.005700	2.971200	-8.929900	28.908117	3.795279E-7	20.723042
2528.689989	-2.979800	2.970500	-8.850200	28.861589	8.745644E-7	20.734017
2529.693308	-3.010100	2.966400	-8.928300	28.943753	-1.815134E-7	20.735237
2530.685114	-2.982900	2.966300	-8.847100	28.957279	5.775425E-7	20.731320
2531.694382	-3.038900	2.963900	-9.006000	28.976050	1.798632E-6	20.727472
2532.707973	-3.030500	2.962700	-8.976900	28.889476	8.250607E-8	20.731764
2533.693808	-3.035000	2.960400	-8.984200	28.869978	1.435606E-6	20.746261
2534.692795	-2.978200	2.961500	-8.819200	28.867399	4.455328E-7	20.731334
2535.693733	-3.000700	2.958400	-8.876300	28.842820	1.204589E-6	20.734075
2536.688910	-2.996200	2.957800	-8.860900	28.828278	-1.303596E-6	20.731280
2537.693874	-2.991100	2.955900	-8.839200	28.865457	2.805207E-7	20.744551
2538.695614	-2.994300	2.953700	-8.843000	28.826390	7.755571E-7	20.737913
2539.694772	-3.009400	2.952100	-8.882600	28.879552	-8.415620E-7	20.720818
2540.690070	-2.995500	2.949800	-8.835000	28.903330	-1.237591E-6	20.745248
2541.688879	-2.992100	2.950100	-8.825900	28.928451	-5.115377E-7	20.727881
2542.694211	-2.980800	2.948400	-8.787800	29.014198	5.775425E-7	20.737458
2543.692076	-3.012800	2.944600	-8.870000	29.052566	5.775425E-7	20.745297
2544.697109	-2.960000	2.946000	-8.719100	29.043674	-1.336598E-6	20.727802
2545.700925	-3.019400	2.942200	-8.882500	29.002335	-5.445401E-7	20.736885
2546.696310	-3.004300	2.940500	-8.833400	29.057547	-1.402603E-6	20.724710
2547.692201	-2.984500	2.939400	-8.772200	29.085831	3.217737E-6	20.716698
2548.691972	-2.990500	2.937700	-8.784100	28.981701	2.475182E-7	20.733640
2549.695349	-2.969600	2.937800	-8.723600	28.970485	1.798632E-6	20.727555
2550.699941	-2.986700	2.935600	-8.767100	29.058135	1.996647E-6	20.727673
2551.695018	-2.992500	2.933700	-8.778100	29.048380	-1.485109E-7	20.719267
2552.697822	-2.977300	2.933100	-8.731800	29.036493	5.775425E-7	20.728153
2553.702410	-3.008500	2.929800	-8.813300	29.018061	4.125304E-7	20.714322
2554.694531	-2.987700	2.929000	-8.750300	29.007536	-2.805207E-7	20.727426
2555.698291	-2.972100	2.927900	-8.700900	29.069556	-4.950365E-8	20.746295
2556.693239	-2.982500	2.925200	-8.723800	29.061056	8.415620E-7	20.740575
2557.697449	-3.003000	2.923000	-8.777400	29.121045	2.392676E-6	20.733215
2558.693750	-2.978900	2.920800	-8.700000	29.160816	1.039577E-6	20.716866
2559.694411	-2.996900	2.919200	-8.747500	29.245357	2.095654E-6	20.731886
2560.697367	-2.993500	2.918700	-8.736500	29.280664	2.326671E-6	20.730958
2561.693960	-2.986200	2.916200	-8.707500	29.316964	5.775425E-7	20.743834
2562.695656	-3.005300	2.914100	-8.756800	29.347760	2.029649E-6	20.733620
2563.702539	-3.029900	2.911200	-8.819600	29.212333	2.656696E-6	20.733694
2564.697919	-2.996700	2.910700	-8.721700	29.211436	4.950364E-8	20.741325
2565.698788	-3.000200	2.908900	-8.725800	29.239838	1.765630E-6	20.726798
2566.693183	-2.976000	2.908200	-8.652900	29.212739	8.745644E-7	20.763502
2567.700091	-2.989800	2.905600	-8.686100	29.162594	-2.145158E-7	20.731461
2568.696999	-2.995100	2.903300	-8.694400	29.177822	1.155085E-7	20.745859
2569.697072	-2.994900	2.902900	-8.692900	29.174083	-3.795279E-7	20.728339
2570.697333	-2.989800	2.900600	-8.671400	29.228781	5.445401E-7	20.742208
2571.700604	-3.011600	2.898300	-8.727700	29.123474	6.765498E-7	20.734241
2572.695367	-3.007900	2.897000	-8.712900	29.112499	4.075800E-6	20.724130
2573.699112	-3.011600	2.893600	-8.713500	29.148726	3.052725E-6	20.737402
2574.699747	-2.985400	2.893800	-8.638400	29.189810	1.105581E-6	20.749404
2575.697899	-2.992000	2.890600	-8.647400	29.101342	1.138584E-6	20.734225
2576.695126	-2.971200	2.890000	-8.586000	29.007249	1.006574E-6	20.751320
2577.694376	-2.982900	2.888000	-8.613300	29.004146	1.204589E-6	20.738236
2578.695638	-3.034400	2.883400	-8.748600	29.013450	1.171586E-6	20.744291
2579.695446	-2.981100	2.884800	-8.598800	29.034926	1.666623E-6	20.743644
2580.693475	-3.011200	2.882000	-8.677800	29.097013	-1.815134E-7	20.742666
2581.706051	-2.979900	2.880700	-8.582800	29.105454	2.425679E-6	20.736472
2582.697356	-2.961300	2.879300	-8.525700	29.092101	1.930642E-6	20.745304
2583.693109	-2.991100	2.874800	-8.598200	29.102130	1.666623E-6	20.741658
2584.695744	-2.996200	2.874800	-8.613100	29.119654	1.996647E-6	20.748410
2585.698885	-3.010700	2.872400	-8.646800	29.162033	2.161659E-6	20.754604
2586.697267	-2.991900	2.869700	-8.585500	29.252142	8.085595E-7	20.745362
2587.695308	-2.970700	2.868800	-8.521400	29.326503	3.448754E-6	20.765776
2588.699155	-2.989500	2.866800	-8.569100	29.332712	3.019722E-6	20.742162
2589.696757	-3.009200	2.863500	-8.616100	29.291604	-5.115377E-7	20.749096
2590.696411	-2.987800	2.862300	-8.550900	29.313761	2.821708E-6	20.761469
2591.701974	-3.002800	2.861700	-8.592800	29.309521	-8.250608E-8	20.749610
2592.708614	-3.003900	2.858900	-8.586900	29.271358	1.831635E-6	20.743391
2593.702299	-3.005300	2.856000	-8.582400	29.291859	1.897640E-6	20.745559
2594.703274	-2.993500	2.854600	-8.544800	29.261968	1.567615E-6	20.724918
2595.703218	-2.995400	2.852700	-8.543900	29.277807	1.468608E-6	20.762693
2596.702852	-2.995200	2.849900	-8.535200	29.302488	2.029649E-6	20.755324
2597.702701	-2.995000	2.848400	-8.530500	29.284257	2.854710E-6	20.759710
2598.700051	-3.021300	2.846500	-8.598800	29.287815	3.151732E-6	20.736268
2599.703669	-3.003200	2.843900	-8.539800	29.367118	2.458681E-6	20.742224
2600.699861	-2.994500	2.841800	-8.509000	29.390243	6.435474E-7	20.761740
2601.701246	-3.037300	2.839300	-8.623100	29.460326	-4.455328E-7	20.744659
2602.704630	-2.973400	2.838900	-8.439500	29.422609	2.095654E-6	20.749791
2603.707260	-2.987800	2.834800	-8.469200	29.441867	2.656696E-6	20.757348
2604.710123	-3.007100	2.833400	-8.519600	29.374689	3.514759E-6	20.759339
2605.703930	-2.998900	2.830900	-8.488900	29.335063	2.062652E-6	20.766343
2606.704647	-2.996500	2.828600	-8.474600	29.396510	3.448754E-6	20.767108
2607.711573	-2.979200	2.826700	-8.419600	29.460605	2.161659E-6	20.796625
2608.707028	-3.007300	2.824200	-8.492200	29.432076	3.019722E-6	20.756015
2609.704439	-2.999000	2.821900	-8.462600	29.428151	1.534613E-6	20.756800
2610.708061	-3.018900	2.818300	-8.507600	29.377090	2.623693E-6	20.759388
2611.709030	-3.018700	2.816200	-8.500800	29.416155	1.534613E-6	20.776478
2612.710418	-3.012700	2.814700	-8.478700	29.469552	2.062652E-6	20.775297
2613.711443	-3.004400	2.811100	-8.444800	29.535128	3.448754E-6	20.765058
2614.708351	-3.011500	2.809700	-8.460300	29.443249	2.491683E-6	20.761112
2615.708147	-2.995800	2.805900	-8.404200	29.403753	1.699625E-6	20.769192
2616.712727	-3.012500	2.805200	-8.449400	29.408050	4.125304E-7	20.783482
2617.710107	-2.965100	2.801700	-8.306200	29.410868	2.788705E-6	20.779209
2618.711371	-3.002900	2.798800	-8.403500	29.478329	2.722700E-6	20.781299
2619.714378	-2.984000	2.795900	-8.341500	29.508679	2.689698E-6	20.789132
2620.708609	-3.007100	2.793700	-8.399300	29.544540	2.260666E-6	20.783556
2621.709158	-2.982700	2.791400	-8.325100	29.492622	2.524686E-6	20.773421
2622.711060	-2.992700	2.787900	-8.342400	29.469489	1.996647E-6	20.778553
2623.715767	-2.992000	2.785300	-8.333000	29.519101	3.118730E-6	20.773085
2624.710756	-3.006600	2.782900	-8.366200	29.571479	2.293669E-6	20.779891
2625.714827	-3.010100	2.779600	-8.365600	29.551493	2.689698E-6	20.765435
2626.713046	-2.989300	2.776500	-8.299100	29.475634	3.250739E-6	20.758194
2627.709726	-3.001900	2.773000	-8.323500	29.503995	4.537834E-6	20.767816
2628.710962	-2.993600	2.770000	-8.290700	29.499091	3.283742E-6	20.776148
2629.709857	-2.986300	2.768400	-8.266500	29.469250	3.976793E-6	20.783053
2630.710595	-3.026300	2.764600	-8.365900	29.402470	3.580764E-6	20.787341
2631.709780	-3.008700	2.761700	-8.308500	29.472362	1.105581E-6	20.770543
2632.720613	-2.986400	2.759800	-8.240900	29.576413	2.128657E-6	20.782970
2633.712172	-3.023400	2.755200	-8.329200	29.574625	3.085727E-6	20.778796
2634.714531	-2.974100	2.752600	-8.185200	29.557786	2.524686E-6	20.775097
2635.714942	-2.996600	2.747700	-8.233200	29.573896	1.468608E-6	20.774267
2636.719030	-2.997200	2.746000	-8.229400	29.595968	1.798632E-6	20.788932
2637.714594	-3.015300	2.742600	-8.268500	29.651419	2.524686E-6	20.803581
2638.714746	-3.026900	2.738700	-8.288900	29.589496	2.788705E-6	20.796632
2639.713955	-3.012800	2.735600	-8.241000	29.577561	3.052725E-6	20.778911
2640.709587	-3.004000	2.731600	-8.204800	29.652041	3.547761E-6	20.795200
2641.711630	-3.027800	2.728200	-8.260000	29.642331	3.217737E-6	20.772609
2642.714930	-2.996800	2.724900	-8.165000	29.613833	1.600618E-6	20.795087
2643.713318	-3.008600	2.722600	-8.190000	29.530477	2.656696E-6	20.795932
2644.710885	-2.992200	2.718200	-8.132000	29.533245	2.887713E-6	20.788291
2645.714965	-2.997100	2.713800	-8.133000	29.563241	2.590691E-6	20.791502
2646.717082	-3.024600	2.710100	-8.195200	29.592546	1.996647E-6	20.779792
2647.716650	-2.995700	2.706200	-8.106000	29.623730	2.986720E-6	20.785625
2648.718846	-3.012600	2.702900	-8.141800	29.644567	1.336598E-6	20.808528
2649.717614	-3.012900	2.698800	-8.130400	29.673620	3.151732E-6	20.791350
2650.720871	-2.982000	2.695600	-8.037400	29.741313	3.019722E-6	20.809813
2651.715058	-3.025100	2.690700	-8.138800	29.780635	2.887713E-6	20.795406
2652.715973	-2.962800	2.687700	-7.962400	29.743557	2.854710E-6	20.813498
2653.721363	-2.966300	2.680800	-7.950400	29.700654	8.745644E-7	20.813389
2654.721267	-3.017800	2.677300	-8.079100	29.760772	3.679771E-6	20.823742
2655.729362	-2.992200	2.674100	-8.000200	29.835534	5.065873E-6	20.801448
2656.723132	-2.986800	2.669100	-7.971000	29.854265	3.250739E-6	20.805636
2657.721902	-3.022500	2.664100	-8.051300	29.924715	5.428900E-6	20.801285
2658.721462	-3.059400	2.660100	-8.136500	29.952721	2.227664E-6	20.809139
2659.723424	-2.985600	2.656000	-7.929200	29.960832	1.996647E-6	20.807835
2660.718034	-2.996500	2.650100	-7.939400	29.841144	2.227664E-6	20.828441
2661.735785	-2.999300	2.646000	-7.934600	29.848193	2.194662E-6	20.815635
2662.721076	-3.010600	2.640500	-7.949200	29.853635	3.646768E-6	20.803105
2663.722674	-3.001900	2.635300	-7.910400	29.845015	2.029649E-6	20.831396
2664.720618	-3.005900	2.631600	-7.909400	29.852260	2.062652E-6	20.822106
2665.720271	-2.975300	2.626900	-7.814900	29.942066	4.933863E-6	20.808825
2666.721632	-2.979600	2.622200	-7.811900	30.003356	2.326671E-6	20.812787
2667.718632	-2.972100	2.617100	-7.777500	29.991397	1.864637E-6	20.806416
2668.722365	-2.984000	2.611600	-7.792400	29.974564	2.161659E-6	20.822157
2669.721767	-2.988800	2.605800	-7.786100	29.927516	3.976793E-6	20.842042
2670.718654	-2.989900	2.599300	-7.771000	29.883512	4.273815E-6	20.813791
2671.726088	-2.985600	2.594700	-7.745200	29.859297	2.755703E-6	20.809287
2672.719205	-2.995800	2.589100	-7.756000	29.812493	2.524686E-6	20.852182
2673.722286	-3.002100	2.583200	-7.754100	29.808080	1.798632E-6	20.817862
2674.724829	-3.003000	2.577800	-7.740600	29.879307	2.095654E-6	20.824723
2675.723281	-2.971600	2.572500	-7.643600	29.862095	3.712773E-6	20.817325
2676.730046	-2.977700	2.565200	-7.637200	29.782747	2.491683E-6	20.822664
2677.722061	-3.000200	2.559300	-7.677800	29.779225	3.415751E-6	20.844243
2678.723192	-3.000600	2.552800	-7.659100	29.817753	3.382749E-6	20.826666
2679.722403	-3.007000	2.548100	-7.661200	29.889644	4.999868E-6	20.819974
2680.722945	-3.048100	2.539300	-7.738600	29.953166	4.009795E-6	20.810536
2681.719450	-2.999300	2.534100	-7.598600	29.975256	6.451975E-6	20.842769
2682.722458	-3.032900	2.527300	-7.663500	30.026250	5.857931E-6	20.838245
2683.724454	-2.996500	2.521400	-7.554000	30.032161	4.636841E-6	20.850845
2684.726226	-2.990600	2.516500	-7.525400	30.050488	5.758924E-6	20.858896
2685.726168	-2.986900	2.510500	-7.498200	29.998791	4.108802E-6	20.842796
2686.727707	-3.029400	2.502600	-7.580300	29.962779	5.527907E-6	20.849627
2687.726907	-2.970500	2.498400	-7.420500	29.968442	6.451975E-6	20.831630
