LabVIEW Measurement	
Writer_Version	2
Reader_Version	2
Separator	Tab
Decimal_Separator	.
Multi_Headings	No
X_Columns	One
Time_Pref	Absolute
Operator	admin
Description	Clolumns are: time, Current, Voltage, Power, Battery Temp, and Chamber Temp
Date	2024/08/16
Time	13:07:17.8513970375061035156
***End_of_Header***	
	
Channels	6						
Samples	1	1	1	1	1	1	
Date	2024/09/10	2024/09/10	2024/09/10	2024/09/10	2024/09/10	2024/09/10	
Time	03:41:22.5503544807434082031	03:41:22.5598759651184082031	03:41:22.5698790550231933594	03:41:22.530727386474609375	03:41:22.530727386474609375	03:41:22.530727386474609375	
X_Dimension	Time	Time	Time	Time	Time	Time	
X0	0.0000000000000000E+0	0.0000000000000000E+0	0.0000000000000000E+0	0.0000000000000000E+0	0.0000000000000000E+0	0.0000000000000000E+0	
Delta_X	1.000000	1.000000	1.000000	1.000000	1.000000	1.000000	
***End_of_Header***							
X_Value	Untitled	Untitled 1	Untitled 2	Untitled 3	Untitled 4	Untitled 5	Comment
0.000000	0.033792	4.091400	0.138220	20.823547	0.000448	20.800788
1.005002	-2.995500	3.921700	-11.746000	20.836422	0.000448	20.790430
1.998350	-3.020800	3.914500	-11.823000	20.842453	0.000446	20.793142
2.998738	-2.979900	3.912200	-11.657000	20.823718	0.000448	20.805227
4.003780	-2.994300	3.907500	-11.700000	20.820605	0.000444	20.807803
5.002962	-2.996000	3.907500	-11.706000	20.842914	0.000446	20.792655
5.998324	-3.020900	3.903200	-11.789000	20.850804	0.000445	20.791062
7.005470	-3.002700	3.900400	-11.711000	20.860506	0.000443	20.791755
7.999613	-3.001900	3.898800	-11.702000	20.860117	0.000443	20.799901
9.004885	-3.001900	3.897300	-11.699000	20.858208	0.000441	20.802733
10.003407	-3.019000	3.894200	-11.755000	20.885343	0.000444	20.807585
11.004648	-2.987100	3.893500	-11.630000	20.888199	0.000440	20.806174
12.003466	-2.980400	3.892200	-11.598000	20.884309	0.000441	20.816034
13.005874	-2.994000	3.891700	-11.651000	20.897341	0.000439	20.826696
14.005484	-2.982200	3.890700	-11.603000	20.885014	0.000439	20.823377
15.002278	-3.004600	3.889400	-11.685000	20.924353	0.000436	20.813408
16.014019	-2.965400	3.890000	-11.535000	20.907772	0.000437	20.820532
17.006581	-3.007200	3.887200	-11.689000	20.942952	0.000436	20.807828
18.010340	-3.006800	3.886500	-11.685000	20.932851	0.000439	20.817639
19.010231	-2.994500	3.885000	-11.633000	20.931367	0.000438	20.811414
20.011763	-3.002600	3.884300	-11.662000	20.936789	0.000437	20.818733
21.009041	-2.985200	3.883400	-11.591000	20.980271	0.000436	20.816228
22.010488	-3.008500	3.884700	-11.686000	20.969804	0.000437	20.827096
23.008494	-2.990300	3.883500	-11.611000	20.958353	0.000435	20.823705
24.013364	-2.985400	3.883100	-11.592000	20.969840	0.000437	20.806270
25.013790	-2.995700	3.880400	-11.623000	20.989533	0.000436	20.789930
26.014279	-2.996500	3.880200	-11.626000	20.983637	0.000434	20.814379
27.013890	-3.001500	3.879400	-11.643000	20.986543	0.000435	20.813018
28.014489	-2.983300	3.879300	-11.573000	21.029123	0.000437	20.782112
29.014525	-3.005300	3.878000	-11.652000	21.032029	0.000435	20.804459
30.010132	-2.997500	3.877900	-11.623000	21.028771	0.000434	20.790769
31.012119	-2.993700	3.878900	-11.610000	21.029937	0.000436	20.803789
32.013474	-2.994600	3.877300	-11.609000	21.075616	0.000433	20.788786
33.010598	-2.983500	3.876900	-11.566000	21.037644	0.000432	20.797747
34.013654	-2.977200	3.877400	-11.543000	21.062647	0.000432	20.783401
35.011284	-2.984100	3.876900	-11.568000	21.078752	0.000433	20.775801
36.016526	-2.993200	3.876800	-11.603000	21.076163	0.000432	20.782695
37.018137	-3.024700	3.874300	-11.718000	21.074595	0.000430	20.807206
38.015753	-2.995600	3.874800	-11.607000	21.098163	0.000431	20.783364
39.015350	-2.989300	3.874400	-11.581000	21.123809	0.000431	20.796215
40.018154	-2.979300	3.874200	-11.542000	21.127370	0.000428	20.789819
41.013493	-2.972500	3.875400	-11.519000	21.126494	0.000430	20.773297
42.020962	-2.988900	3.873400	-11.575000	21.130773	0.000430	20.797017
43.018329	-2.998600	3.873500	-11.614000	21.150596	0.000431	20.788397
44.016382	-2.984400	3.873600	-11.559000	21.151848	0.000430	20.784434
45.017375	-3.005300	3.872100	-11.636000	21.157305	0.000428	20.784676
46.016488	-3.014600	3.871700	-11.670000	21.146877	0.000431	20.759072
47.018238	-3.011900	3.871400	-11.660000	21.174588	0.000431	20.773041
48.017586	-3.013500	3.870400	-11.662000	21.194350	0.000429	20.770524
49.018667	-3.010000	3.871300	-11.651000	21.209299	0.000431	20.799704
50.018877	-3.010800	3.871800	-11.656000	21.185708	0.000429	20.789855
51.026863	-3.009200	3.870100	-11.645000	21.222776	0.000430	20.780943
52.024546	-3.001500	3.871600	-11.619000	21.222728	0.000432	20.792275
53.022870	-2.985400	3.870500	-11.554000	21.230433	0.000431	20.780542
54.027993	-3.004100	3.870400	-11.627000	21.217636	0.000428	20.789077
55.023958	-2.980300	3.870800	-11.535000	21.252029	0.000428	20.780335
56.021453	-2.996800	3.869200	-11.594000	21.263854	0.000431	20.765138
57.019995	-2.992900	3.870200	-11.582000	21.267317	0.000430	20.771922
58.021281	-2.979300	3.869400	-11.527000	21.283310	0.000431	20.767533
59.018791	-2.987100	3.868400	-11.555000	21.299363	0.000429	20.780748
60.020649	-3.014700	3.867800	-11.660000	21.282618	0.000428	20.792919
61.023531	-3.029600	3.867300	-11.715000	21.279215	0.000427	20.789988
62.029428	-3.000400	3.868200	-11.605000	21.299072	0.000431	20.769077
63.023670	-2.978800	3.867700	-11.520000	21.323741	0.000430	20.769575
64.025695	-2.988400	3.867500	-11.557000	21.312038	0.000429	20.775411
65.025260	-2.996600	3.868000	-11.590000	21.335771	0.000431	20.780188
66.022662	-2.989900	3.868200	-11.565000	21.351472	0.000429	20.784043
67.023247	-2.985800	3.868500	-11.550000	21.348629	0.000430	20.774560
68.023846	-3.016100	3.866400	-11.661000	21.354923	0.000429	20.793185
69.024375	-3.007300	3.867300	-11.629000	21.369505	0.000430	20.768893
70.032770	-3.026100	3.866200	-11.699000	21.357559	0.000431	20.773063
71.024582	-2.999400	3.866800	-11.597000	21.388243	0.000429	20.773416
72.029377	-3.000900	3.866700	-11.603000	21.391025	0.000431	20.767191
73.032346	-3.003000	3.865500	-11.607000	21.424454	0.000431	20.753221
74.025949	-3.005700	3.865800	-11.619000	21.421634	0.000427	20.763203
75.030097	-3.011500	3.865100	-11.639000	21.437552	0.000427	20.779129
76.024699	-3.016300	3.865100	-11.657000	21.428086	0.000430	20.766814
77.028465	-3.015300	3.865400	-11.654000	21.446155	0.000431	20.763080
78.030153	-3.009800	3.865400	-11.632000	21.444210	0.000427	20.757342
79.030764	-2.999300	3.864800	-11.591000	21.456252	0.000429	20.766071
80.024737	-2.983300	3.865400	-11.531000	21.446664	0.000428	20.765013
81.027262	-2.987500	3.864700	-11.545000	21.450601	0.000429	20.762314
82.028505	-2.990500	3.864000	-11.555000	21.495255	0.000430	20.751992
83.028483	-2.994500	3.864700	-11.571000	21.451670	0.000428	20.735882
84.030130	-3.011300	3.862600	-11.631000	21.479289	0.000431	20.755457
85.032393	-2.997200	3.864700	-11.581000	21.503541	0.000430	20.773086
86.029418	-3.002400	3.863400	-11.599000	21.502326	0.000430	20.756697
87.028312	-3.009400	3.864100	-11.628000	21.522921	0.000431	20.772563
88.035610	-3.005800	3.863400	-11.611000	21.526930	0.000428	20.754763
89.033304	-2.975100	3.863200	-11.492000	21.529008	0.000428	20.736453
90.032634	-2.992800	3.863800	-11.562000	21.556430	0.000427	20.767687
91.027620	-2.997200	3.862300	-11.576000	21.559905	0.000430	20.756940
92.029383	-2.992400	3.863100	-11.559000	21.580814	0.000428	20.760793
93.027810	-3.019000	3.861300	-11.656000	21.588699	0.000430	20.762994
94.028662	-3.005900	3.862200	-11.608000	21.600460	0.000429	20.764805
95.034865	-3.014800	3.862600	-11.644000	21.589768	0.000430	20.760270
96.027778	-3.012600	3.862300	-11.634000	21.590886	0.000429	20.745267
97.025456	-3.006100	3.860400	-11.603000	21.602999	0.000431	20.764975
98.033281	-3.011700	3.861300	-11.628000	21.614298	0.000428	20.754945
99.031613	-2.984900	3.861400	-11.525000	21.629399	0.000430	20.752039
100.030444	-2.987400	3.861700	-11.535000	21.613192	0.000430	20.764744
101.037958	-2.999300	3.861400	-11.581000	21.621405	0.000431	20.745461
102.027419	-2.998000	3.860700	-11.573000	21.626434	0.000431	20.760926
103.029781	-2.995100	3.859800	-11.559000	21.646808	0.000431	20.755236
104.036893	-3.012300	3.860100	-11.626000	21.675564	0.000432	20.744659
105.034656	-3.007100	3.859300	-11.604000	21.675844	0.000430	20.751103
106.035277	-2.960600	3.861600	-11.431000	21.664667	0.000430	20.742762
107.029251	-3.001700	3.858300	-11.580000	21.678662	0.000431	20.726421
108.034026	-3.000100	3.860300	-11.580000	21.665553	0.000434	20.743175
109.034379	-3.003800	3.860200	-11.595000	21.718557	0.000431	20.752598
110.034786	-3.004000	3.859400	-11.592000	21.695038	0.000431	20.766993
111.039348	-2.975300	3.860600	-11.486000	21.685404	0.000434	20.753558
112.037663	-2.996900	3.860300	-11.569000	21.709470	0.000434	20.759625
113.038030	-2.994600	3.858800	-11.554000	21.728676	0.000435	20.766045
114.037757	-2.986300	3.859000	-11.523000	21.735358	0.000436	20.740488
115.035082	-2.987400	3.859500	-11.529000	21.756604	0.000436	20.754641
116.036311	-3.009500	3.857600	-11.607000	21.744481	0.000436	20.734445
117.042162	-3.005000	3.857100	-11.588000	21.757856	0.000434	20.746410
118.038698	-2.995300	3.858100	-11.556000	21.760868	0.000436	20.736148
119.037559	-3.003500	3.858300	-11.587000	21.757576	0.000436	20.734750
120.040365	-3.000600	3.858500	-11.577000	21.796970	0.000436	20.736245
121.038557	-2.995600	3.858000	-11.556000	21.797699	0.000434	20.762106
122.037388	-2.999800	3.857500	-11.570000	21.796084	0.000434	20.725400
123.039681	-3.008100	3.857200	-11.601000	21.793435	0.000434	20.751674
124.040978	-3.000400	3.857700	-11.573000	21.795500	0.000432	20.752318
125.044763	-3.007700	3.856800	-11.599000	21.813394	0.000436	20.738458
126.040828	-2.980000	3.857900	-11.495000	21.830448	0.000437	20.749365
127.035729	-2.985900	3.856900	-11.516000	21.861908	0.000438	20.746240
128.041637	-2.987900	3.857500	-11.525000	21.827216	0.000437	20.749923
129.041765	-3.006100	3.856600	-11.592000	21.858944	0.000434	20.730945
130.044580	-3.012300	3.855500	-11.613000	21.852543	0.000437	20.742082
131.037569	-3.009200	3.856200	-11.603000	21.884586	0.000437	20.734799
132.041604	-3.005600	3.855800	-11.588000	21.869391	0.000437	20.743298
133.041147	-2.995900	3.855900	-11.551000	21.883299	0.000436	20.753426
134.041709	-2.985400	3.855600	-11.510000	21.882484	0.000438	20.744550
135.040441	-2.999400	3.855800	-11.563000	21.904712	0.000439	20.728392
136.038402	-2.990000	3.854600	-11.523000	21.911745	0.000440	20.726896
137.042592	-3.004200	3.855600	-11.582000	21.905794	0.000441	20.742751
138.041150	-3.020700	3.854600	-11.642000	21.914964	0.000439	20.740550
139.044967	-3.005600	3.854800	-11.586000	21.917114	0.000440	20.723261
140.049038	-3.009700	3.854600	-11.600000	21.954705	0.000438	20.740028
141.049100	-2.999700	3.855100	-11.563000	21.974162	0.000440	20.727262
142.048014	-3.019800	3.853400	-11.636000	21.961410	0.000438	20.724928
143.057792	-3.028800	3.852700	-11.668000	21.953589	0.000441	20.737962
144.048600	-2.997400	3.853700	-11.550000	21.971418	0.000440	20.730205
145.046529	-2.989200	3.854500	-11.521000	21.984474	0.000441	20.729524
146.049448	-3.010000	3.853500	-11.598000	21.987766	0.000441	20.718593
147.048910	-3.015900	3.853200	-11.619000	22.000980	0.000442	20.737038
148.050042	-2.992700	3.852900	-11.530000	21.984839	0.000440	20.717561
149.045925	-3.008300	3.852800	-11.590000	21.994167	0.000441	20.712199
150.049841	-3.003800	3.851700	-11.568000	22.000349	0.000440	20.723129
151.049241	-2.987700	3.853400	-11.511000	21.997483	0.000440	20.717889
152.049339	-2.993700	3.853400	-11.535000	22.014256	0.000441	20.740845
153.054349	-3.017700	3.851200	-11.621000	22.032339	0.000442	20.718643
154.050285	-2.996100	3.853200	-11.544000	22.047689	0.000441	20.731166
155.052675	-3.004000	3.851100	-11.567000	22.047605	0.000442	20.731556
156.054159	-3.002000	3.851300	-11.560000	22.050301	0.000440	20.697743
157.052785	-3.008300	3.851800	-11.587000	22.046148	0.000444	20.707811
158.050526	-2.969700	3.852600	-11.440000	22.075429	0.000442	20.718158
159.052080	-2.999200	3.852000	-11.552000	22.087622	0.000442	20.711872
160.052910	-3.010300	3.851400	-11.592000	22.105413	0.000441	20.706923
161.050362	-2.999100	3.852100	-11.552000	22.107137	0.000443	20.725247
162.053107	-3.011600	3.850900	-11.597000	22.092468	0.000444	20.723363
163.052648	-3.026400	3.849700	-11.650000	22.119087	0.000446	20.712079
164.052132	-2.996700	3.850000	-11.537000	22.135093	0.000441	20.701550
165.051142	-2.998400	3.850300	-11.545000	22.146217	0.000444	20.730232
166.053028	-2.996800	3.850600	-11.538000	22.153831	0.000444	20.708931
167.055313	-3.017100	3.849500	-11.613000	22.148694	0.000444	20.724652
168.052904	-2.998900	3.849200	-11.543000	22.141651	0.000447	20.695788
169.056915	-2.991900	3.848900	-11.514000	22.156624	0.000446	20.696554
170.056253	-2.998000	3.848700	-11.537000	22.159842	0.000445	20.717321
171.049656	-2.993700	3.848800	-11.521000	22.173807	0.000448	20.701904
172.050284	-2.990700	3.849000	-11.511000	22.173941	0.000448	20.716264
173.052324	-2.997400	3.849700	-11.538000	22.163802	0.000446	20.705637
174.052995	-2.991300	3.849700	-11.515000	22.203911	0.000447	20.706914
175.048833	-3.008700	3.848000	-11.576000	22.190626	0.000445	20.697406
176.054029	-3.017700	3.848100	-11.611000	22.213395	0.000447	20.714040
177.050874	-3.015400	3.849400	-11.606000	22.228342	0.000449	20.701504
178.057509	-2.996700	3.848100	-11.531000	22.230965	0.000451	20.695120
179.054764	-3.021400	3.847600	-11.624000	22.230139	0.000449	20.696190
180.051237	-3.010000	3.846900	-11.578000	22.225344	0.000449	20.701346
181.051650	-2.980500	3.848300	-11.469000	22.236467	0.000449	20.686403
182.062428	-3.001700	3.847400	-11.548000	22.234985	0.000449	20.704836
183.057533	-2.999800	3.846600	-11.538000	22.235689	0.000450	20.705541
184.054995	-3.009600	3.845900	-11.574000	22.226583	0.000449	20.688361
185.058661	-2.985500	3.848200	-11.488000	22.250175	0.000453	20.705347
186.053793	-3.013000	3.847100	-11.591000	22.245294	0.000452	20.692872
187.053971	-3.015600	3.845800	-11.597000	22.279511	0.000450	20.711013
188.052300	-3.019000	3.845400	-11.608000	22.288023	0.000451	20.697724
189.055824	-2.998500	3.846500	-11.533000	22.289966	0.000451	20.701092
190.056355	-2.974900	3.846300	-11.441000	22.294653	0.000451	20.683972
191.060608	-2.999500	3.845700	-11.534000	22.332608	0.000450	20.694477
192.055608	-2.997800	3.846500	-11.530000	22.319763	0.000452	20.684933
193.057952	-3.014300	3.843900	-11.585000	22.346740	0.000451	20.685869
194.057861	-3.012400	3.844600	-11.580000	22.367951	0.000453	20.677236
195.061844	-3.017800	3.843700	-11.599000	22.363047	0.000453	20.677540
196.058928	-3.003500	3.843400	-11.543000	22.357899	0.000453	20.684240
197.055530	-3.011700	3.845200	-11.578000	22.383881	0.000454	20.681808
198.061450	-2.997300	3.844800	-11.523000	22.367879	0.000456	20.706563
199.059431	-3.009100	3.844200	-11.566000	22.389016	0.000453	20.679364
200.058196	-3.024500	3.843200	-11.623000	22.402712	0.000455	20.670319
201.060189	-2.999000	3.844200	-11.528000	22.397272	0.000455	20.677675
202.059006	-3.008700	3.844000	-11.565000	22.400332	0.000453	20.685955
203.062735	-2.987000	3.843400	-11.479000	22.436195	0.000456	20.680617
204.067804	-2.973700	3.843300	-11.428000	22.433112	0.000456	20.678951
205.061529	-2.988300	3.843900	-11.485000	22.488386	0.000458	20.694004
206.057740	-2.976300	3.843700	-11.439000	22.447146	0.000455	20.682575
207.061831	-2.983800	3.842800	-11.466000	22.446697	0.000455	20.696351
208.062398	-2.975700	3.842200	-11.432000	22.454856	0.000459	20.655679
209.058702	-2.990500	3.843400	-11.493000	22.453933	0.000459	20.671353
210.065457	-2.996300	3.842700	-11.513000	22.469897	0.000459	20.683073
211.062779	-3.029200	3.840100	-11.632000	22.477254	0.000457	20.702771
212.062669	-3.022900	3.842400	-11.614000	22.490171	0.000459	20.683463
213.062590	-3.010700	3.841000	-11.562000	22.476344	0.000460	20.688582
214.063766	-2.996100	3.842300	-11.511000	22.457175	0.000459	20.683135
215.067652	-2.984600	3.842400	-11.467000	22.479282	0.000460	20.691999
216.063838	-2.998900	3.841700	-11.520000	22.479039	0.000463	20.677056
217.061934	-3.002500	3.841300	-11.532000	22.511683	0.000460	20.673238
218.069067	-2.998900	3.840700	-11.516000	22.497759	0.000459	20.683002
219.066857	-3.023100	3.839400	-11.606000	22.527817	0.000459	20.680388
220.066244	-2.999000	3.840000	-11.515000	22.550954	0.000462	20.695975
221.069086	-3.000900	3.839600	-11.522000	22.549157	0.000461	20.688011
222.068074	-3.012600	3.840000	-11.567000	22.547349	0.000460	20.671025
223.067950	-3.005900	3.838500	-11.537000	22.570256	0.000461	20.672156
224.070164	-2.994300	3.839400	-11.496000	22.583985	0.000461	20.666940
225.069801	-3.013400	3.837500	-11.563000	22.570754	0.000461	20.676923
226.067028	-3.011800	3.839400	-11.562000	22.589096	0.000463	20.689130
227.068324	-2.994900	3.839200	-11.498000	22.599596	0.000462	20.662187
228.067614	-2.985600	3.839000	-11.461000	22.609489	0.000464	20.687271
229.068388	-2.972800	3.838800	-11.411000	22.613798	0.000464	20.665032
230.074522	-2.985300	3.838600	-11.458000	22.626228	0.000465	20.677483
231.068420	-3.012700	3.837900	-11.562000	22.634506	0.000464	20.665385
232.072248	-2.996900	3.837600	-11.499000	22.612184	0.000463	20.686651
233.073076	-2.985700	3.838300	-11.460000	22.615826	0.000465	20.683186
234.073287	-3.041900	3.836400	-11.669000	22.637626	0.000463	20.672303
235.075946	-3.013000	3.836900	-11.560000	22.607754	0.000463	20.670832
236.075737	-2.997600	3.836700	-11.500000	22.626337	0.000465	20.670954
237.070389	-2.990000	3.838000	-11.475000	22.637699	0.000468	20.687551
238.074046	-2.995000	3.835900	-11.488000	22.654086	0.000465	20.681204
239.075290	-3.004600	3.835900	-11.524000	22.649777	0.000469	20.678785
240.071618	-3.004800	3.836300	-11.527000	22.663638	0.000469	20.676547
241.088236	-3.002900	3.836500	-11.519000	22.664051	0.000467	20.670796
242.078174	-3.010900	3.834700	-11.545000	22.674866	0.000468	20.678785
243.077082	-3.035100	3.834100	-11.636000	22.695331	0.000468	20.686482
244.077713	-2.988800	3.835900	-11.463000	22.682550	0.000467	20.677472
245.071757	-2.998100	3.835500	-11.498000	22.682477	0.000471	20.689728
246.082679	-2.993800	3.835400	-11.482000	22.697698	0.000469	20.693121
247.075665	-3.015300	3.834500	-11.562000	22.697746	0.000470	20.676572
248.071992	-3.000500	3.835500	-11.508000	22.683703	0.000469	20.688112
249.073953	-3.000700	3.833800	-11.504000	22.710357	0.000472	20.658382
250.076854	-3.010400	3.834500	-11.542000	22.696654	0.000469	20.679272
251.076452	-2.993700	3.833900	-11.476000	22.737533	0.000470	20.667113
252.077679	-3.013300	3.832300	-11.547000	22.764174	0.000470	20.675782
253.080841	-3.005400	3.832800	-11.517000	22.752935	0.000472	20.683965
254.078746	-2.990800	3.833900	-11.466000	22.771311	0.000473	20.681036
255.083328	-2.994200	3.833900	-11.479000	22.796457	0.000469	20.683941
256.085191	-3.002400	3.832400	-11.506000	22.805026	0.000472	20.682567
257.079498	-3.012900	3.832100	-11.544000	22.809055	0.000474	20.673800
258.079431	-3.003300	3.832100	-11.507000	22.798824	0.000472	20.696744
259.084142	-2.994300	3.832800	-11.476000	22.797538	0.000474	20.676488
260.082279	-3.008100	3.831400	-11.525000	22.781251	0.000473	20.667758
261.086314	-2.989600	3.830800	-11.452000	22.785887	0.000472	20.665764
262.081655	-3.013700	3.830100	-11.540000	22.801252	0.000476	20.672147
263.080885	-3.001800	3.831800	-11.501000	22.807550	0.000473	20.673716
264.082638	-3.022100	3.830500	-11.575000	22.822042	0.000477	20.693925
265.079314	-2.987700	3.830200	-11.443000	22.835901	0.000475	20.704490
266.078746	-3.013500	3.828700	-11.537000	22.842285	0.000473	20.676744
267.082458	-3.017200	3.829100	-11.551000	22.841739	0.000475	20.674774
268.080121	-3.012800	3.830400	-11.538000	22.855039	0.000476	20.708965
269.080715	-3.013400	3.829200	-11.538000	22.846338	0.000478	20.676537
270.081810	-2.984200	3.829000	-11.425000	22.861095	0.000477	20.688951
271.084213	-2.979500	3.830100	-11.411000	22.860840	0.000477	20.694386
272.087314	-2.969400	3.830400	-11.373000	22.876083	0.000476	20.700174
273.082603	-2.996600	3.828100	-11.471000	22.893558	0.000477	20.680221
274.081709	-3.007300	3.828700	-11.513000	22.879092	0.000479	20.699869
275.087150	-2.989100	3.828500	-11.443000	22.894189	0.000475	20.692708
276.082834	-2.995500	3.829100	-11.469000	22.892417	0.000478	20.680974
277.085402	-2.987000	3.830000	-11.439000	22.946698	0.000479	20.694106
278.091052	-3.014400	3.827800	-11.538000	22.910996	0.000477	20.687735
279.083108	-3.010200	3.827500	-11.520000	22.913981	0.000479	20.685509
280.085035	-3.016800	3.827900	-11.546000	22.932183	0.000480	20.675295
281.098941	-2.994600	3.826900	-11.459000	22.930994	0.000481	20.671733
282.089612	-2.999100	3.827200	-11.477000	22.943942	0.000480	20.691345
283.085396	-2.994600	3.827000	-11.460000	22.955798	0.000480	20.683308
284.091189	-2.986400	3.827200	-11.429000	22.943081	0.000480	20.702337
285.087098	-2.997000	3.826500	-11.467000	22.941904	0.000482	20.695467
286.089451	-2.997000	3.827600	-11.470000	22.973333	0.000482	20.703249
287.093772	-3.013800	3.825200	-11.527000	23.026141	0.000482	20.690725
288.090746	-2.997700	3.827200	-11.472000	23.023205	0.000482	20.696793
289.090157	-2.996900	3.826000	-11.466000	23.013619	0.000481	20.702362
290.089017	-3.006200	3.826300	-11.502000	23.006642	0.000483	20.668341
291.089909	-3.011800	3.825300	-11.521000	22.999191	0.000483	20.706872
292.094126	-2.980900	3.825600	-11.403000	22.970493	0.000484	20.669581
293.093262	-2.976000	3.825900	-11.385000	22.990127	0.000484	20.702058
294.094357	-2.965900	3.825600	-11.346000	23.015803	0.000483	20.704076
295.088412	-3.000600	3.824700	-11.475000	22.985480	0.000484	20.689340
296.092103	-2.988300	3.825000	-11.429000	23.066268	0.000485	20.705802
297.093316	-2.993100	3.823600	-11.443000	23.041758	0.000486	20.691200
298.088796	-2.982200	3.823500	-11.401000	23.057750	0.000484	20.710544
299.094604	-2.975400	3.823300	-11.375000	23.024686	0.000485	20.698277
300.101015	-2.999400	3.822000	-11.463000	23.042547	0.000487	20.706691
301.089287	-3.000000	3.822300	-11.466000	23.095983	0.000487	20.704283
302.094665	-3.009000	3.821100	-11.497000	23.070212	0.000485	20.684622
303.094626	-3.006300	3.821800	-11.488000	23.078536	0.000487	20.684428
304.090405	-2.993800	3.822400	-11.443000	23.070005	0.000487	20.699115
305.094378	-3.014100	3.820500	-11.515000	23.095158	0.000486	20.696343
306.092720	-3.002200	3.821100	-11.471000	23.085245	0.000489	20.691151
307.094061	-2.994300	3.821700	-11.442000	23.105956	0.000487	20.712854
308.092326	-2.976900	3.822100	-11.377000	23.140850	0.000487	20.695662
309.092629	-3.002000	3.821600	-11.471000	23.154330	0.000490	20.706799
310.092575	-2.992600	3.821200	-11.434000	23.165334	0.000490	20.714034
311.097005	-3.009900	3.820700	-11.498000	23.206851	0.000489	20.703006
312.093294	-3.000200	3.819900	-11.459000	23.210394	0.000491	20.715092
313.108160	-3.013800	3.818500	-11.507000	23.216435	0.000487	20.698860
314.096118	-3.017500	3.818600	-11.521000	23.173620	0.000489	20.700525
315.102037	-2.999500	3.818300	-11.452000	23.166390	0.000490	20.712721
316.100354	-2.997700	3.819300	-11.447000	23.196794	0.000491	20.690555
317.100183	-3.007000	3.819500	-11.485000	23.177515	0.000492	20.711067
318.096728	-2.962500	3.819700	-11.315000	23.199875	0.000491	20.689850
319.102889	-2.987100	3.818400	-11.405000	23.196624	0.000489	20.710776
320.098993	-3.003100	3.818400	-11.465000	23.193772	0.000494	20.711711
321.102292	-3.000400	3.817800	-11.454000	23.190205	0.000492	20.737536
322.103254	-2.977900	3.819200	-11.372000	23.221956	0.000492	20.711506
323.100254	-3.004500	3.818000	-11.470000	23.220438	0.000490	20.713778
324.105811	-2.998200	3.817100	-11.444000	23.197461	0.000492	20.724891
325.104310	-3.006700	3.817400	-11.476000	23.210915	0.000494	20.713244
326.105704	-3.006200	3.815900	-11.470000	23.242761	0.000492	20.716235
327.109564	-3.014400	3.816000	-11.502000	23.245479	0.000491	20.719433
328.102610	-2.995500	3.816700	-11.432000	23.231648	0.000493	20.698932
329.102962	-2.984800	3.816700	-11.391000	23.207397	0.000492	20.722520
330.107316	-2.990300	3.815300	-11.408000	23.225946	0.000494	20.732101
331.106225	-3.008500	3.816500	-11.480000	23.233444	0.000494	20.720174
332.104847	-2.995700	3.815000	-11.428000	23.272083	0.000495	20.717170
333.115886	-2.990300	3.815000	-11.407000	23.235882	0.000494	20.714556
334.111420	-2.998500	3.816100	-11.442000	23.224285	0.000494	20.727591
335.108539	-3.022000	3.814400	-11.526000	23.238490	0.000494	20.702945
336.108181	-2.999100	3.816100	-11.444000	23.255985	0.000495	20.721426
337.110751	-3.027600	3.814500	-11.548000	23.230691	0.000494	20.717889
338.103263	-3.000600	3.814800	-11.445000	23.221531	0.000495	20.713925
339.108546	-2.995100	3.814200	-11.424000	23.240129	0.000498	20.715967
340.109063	-3.009800	3.813500	-11.478000	23.242956	0.000498	20.726862
341.107206	-3.002800	3.812800	-11.449000	23.264478	0.000494	20.727094
342.107425	-3.012800	3.812500	-11.485000	23.257551	0.000496	20.732954
343.108025	-2.999500	3.812500	-11.434000	23.299295	0.000495	20.729744
344.113671	-3.018200	3.811900	-11.505000	23.339145	0.000498	20.725587
345.107572	-3.016300	3.811900	-11.497000	23.354502	0.000498	20.719167
346.107574	-2.992800	3.812900	-11.410000	23.341535	0.000496	20.719446
347.115626	-3.035500	3.810500	-11.566000	23.346085	0.000498	20.727326
348.117403	-3.024500	3.812400	-11.530000	23.342033	0.000495	20.722317
349.114955	-3.000700	3.811600	-11.437000	23.355850	0.000499	20.739959
350.117881	-2.983000	3.811000	-11.368000	23.340190	0.000499	20.727582
351.111169	-3.020600	3.811300	-11.511000	23.362656	0.000497	20.710268
352.118004	-3.000400	3.810800	-11.433000	23.348342	0.000499	20.734330
353.120671	-3.003600	3.810000	-11.443000	23.381809	0.000499	20.736105
354.115322	-3.020700	3.810200	-11.509000	23.387268	0.000501	20.724981
355.114095	-3.003800	3.811300	-11.447000	23.399047	0.000500	20.710707
356.112694	-3.013900	3.810700	-11.484000	23.423925	0.000500	20.722367
357.116491	-2.989100	3.809300	-11.386000	23.420856	0.000498	20.731619
358.115846	-2.988000	3.809200	-11.381000	23.404785	0.000497	20.737796
359.119132	-2.990200	3.809300	-11.389000	23.418079	0.000500	20.730732
360.116911	-2.995000	3.808800	-11.406000	23.419826	0.000501	20.732957
361.117957	-3.005500	3.808200	-11.444000	23.392971	0.000500	20.754405
362.115394	-3.012500	3.806800	-11.467000	23.446305	0.000500	20.733894
363.116630	-2.969200	3.810400	-11.313000	23.440629	0.000503	20.719195
364.117858	-2.989200	3.807600	-11.381000	23.465106	0.000500	20.717651
365.121565	-2.968700	3.808500	-11.305000	23.457379	0.000501	20.729347
366.126215	-2.979500	3.809000	-11.348000	23.434237	0.000503	20.741712
367.121069	-3.025600	3.806700	-11.517000	23.411008	0.000503	20.728387
368.120241	-3.002600	3.806400	-11.429000	23.445482	0.000502	20.728327
369.121701	-2.989200	3.806600	-11.378000	23.462705	0.000503	20.738479
370.119571	-2.997500	3.807100	-11.409000	23.509935	0.000503	20.722758
371.116102	-3.011600	3.805800	-11.461000	23.493052	0.000504	20.731913
372.122794	-2.989800	3.806100	-11.379000	23.490979	0.000504	20.735999
373.120803	-2.997300	3.805000	-11.404000	23.475756	0.000505	20.736388
374.118130	-2.994700	3.805300	-11.394000	23.481021	0.000506	20.753520
375.123758	-2.985800	3.805600	-11.361000	23.467739	0.000503	20.754431
376.123153	-2.983700	3.805600	-11.354000	23.452650	0.000503	20.769653
377.122728	-3.004400	3.805000	-11.431000	23.468225	0.000503	20.750650
378.123521	-2.984300	3.804700	-11.354000	23.495212	0.000505	20.749726
379.128639	-3.002400	3.803500	-11.419000	23.517747	0.000502	20.744814
380.130898	-3.014600	3.802900	-11.463000	23.558584	0.000503	20.734541
381.128167	-3.004900	3.804500	-11.431000	23.552192	0.000504	20.715804
382.123966	-3.007000	3.803600	-11.437000	23.524152	0.000504	20.764037
383.125421	-2.995900	3.803500	-11.394000	23.529573	0.000506	20.751927
384.125582	-2.991600	3.804000	-11.379000	23.502478	0.000505	20.739940
385.120268	-3.009100	3.801800	-11.439000	23.513175	0.000508	20.748766
386.118410	-2.983100	3.803100	-11.343000	23.558026	0.000508	20.745836
387.122325	-2.983200	3.802100	-11.342000	23.580597	0.000507	20.762773
388.127209	-2.999600	3.802400	-11.404000	23.607727	0.000507	20.747295
389.122737	-3.010200	3.802600	-11.446000	23.611196	0.000506	20.750299
390.124598	-2.993600	3.801400	-11.378000	23.595272	0.000508	20.753776
391.121617	-3.011000	3.800300	-11.441000	23.576571	0.000509	20.776755
392.121366	-3.018300	3.800100	-11.468000	23.609559	0.000508	20.743442
393.127419	-3.006300	3.801000	-11.426000	23.604222	0.000510	20.770335
394.124497	-2.987500	3.800200	-11.353000	23.590070	0.000509	20.759467
395.125316	-3.012000	3.801000	-11.448000	23.578524	0.000506	20.754531
396.125722	-2.980400	3.799400	-11.323000	23.568422	0.000510	20.757206
397.129169	-3.019300	3.798500	-11.467000	23.573915	0.000510	20.735685
398.124560	-3.002400	3.798700	-11.405000	23.574764	0.000510	20.756452
399.127206	-3.013100	3.798100	-11.443000	23.621748	0.000509	20.755662
400.124053	-2.987800	3.798300	-11.347000	23.584079	0.000511	20.773376
401.129515	-2.995200	3.798600	-11.377000	23.625701	0.000512	20.751090
402.128670	-3.002100	3.799000	-11.404000	23.654649	0.000511	20.772525
403.126022	-2.999000	3.797400	-11.388000	23.674841	0.000510	20.758154
404.128565	-3.000200	3.798200	-11.394000	23.692558	0.000508	20.750312
405.127606	-3.019800	3.797700	-11.468000	23.699410	0.000511	20.774251
406.134442	-2.984900	3.798700	-11.337000	23.717454	0.000509	20.773850
407.131010	-3.036900	3.795200	-11.523000	23.712179	0.000512	20.760975
408.133538	-2.980200	3.797000	-11.315000	23.716702	0.000511	20.764561
409.134243	-2.965000	3.798700	-11.262000	23.732830	0.000513	20.766980
410.133677	-3.003500	3.795600	-11.399000	23.741330	0.000509	20.758907
411.128759	-2.969700	3.796200	-11.272000	23.739972	0.000513	20.772245
412.133429	-2.972100	3.797700	-11.286000	23.740760	0.000513	20.776828
413.130402	-2.997500	3.796100	-11.377000	23.775247	0.000512	20.774421
414.133574	-2.990900	3.794600	-11.349000	23.797861	0.000511	20.770542
415.131764	-3.011200	3.795000	-11.427000	23.799146	0.000509	20.749545
416.131314	-3.006400	3.796400	-11.413000	23.794914	0.000513	20.772329
417.139204	-3.009400	3.794000	-11.417000	23.763399	0.000513	20.773922
418.131763	-3.009000	3.794200	-11.416000	23.763508	0.000511	20.774031
419.138485	-2.991800	3.795000	-11.353000	23.732890	0.000512	20.771308
420.134089	-2.999700	3.795300	-11.383000	23.749187	0.000515	20.761569
421.135186	-2.999000	3.793900	-11.376000	23.757772	0.000511	20.772073
422.142969	-2.979900	3.793600	-11.304000	23.747186	0.000513	20.771416
423.138594	-2.991200	3.792700	-11.345000	23.725783	0.000513	20.777933
424.135927	-2.988800	3.792800	-11.335000	23.724910	0.000514	20.788912
425.135290	-2.996400	3.793100	-11.365000	23.747040	0.000514	20.771271
426.138371	-2.986400	3.792000	-11.324000	23.783237	0.000513	20.770578
427.133168	-2.984700	3.792600	-11.319000	23.822753	0.000512	20.774164
428.136325	-2.984700	3.792800	-11.319000	23.797605	0.000514	20.788303
429.135087	-3.012300	3.791600	-11.420000	23.796901	0.000516	20.811306
430.140427	-3.008800	3.791000	-11.405000	23.762476	0.000514	20.782954
431.134622	-2.993300	3.792000	-11.350000	23.777184	0.000513	20.788692
432.132733	-2.984100	3.791200	-11.313000	23.800563	0.000515	20.786528
433.136625	-3.008600	3.790200	-11.402000	23.821006	0.000513	20.767196
434.137835	-3.006000	3.790300	-11.392000	23.832804	0.000514	20.793251
435.136646	-3.042700	3.788700	-11.527000	23.823832	0.000515	20.782832
436.141623	-3.001100	3.790500	-11.375000	23.808517	0.000515	20.772692
437.139362	-3.011800	3.789800	-11.413000	23.835349	0.000515	20.803864
438.137422	-3.002200	3.789800	-11.376000	23.814058	0.000515	20.776351
439.140124	-3.005300	3.789400	-11.387000	23.816798	0.000516	20.785737
440.139752	-3.003400	3.789400	-11.380000	23.832173	0.000517	20.794989
441.142021	-3.006200	3.788000	-11.387000	23.811971	0.000514	20.795122
442.138302	-2.986300	3.788300	-11.312000	23.852615	0.000516	20.778976
443.144149	-3.013100	3.786800	-11.409000	23.874428	0.000516	20.820289
444.142382	-2.996700	3.788500	-11.353000	23.872099	0.000514	20.807997
445.144801	-2.990300	3.787900	-11.327000	23.891535	0.000517	20.818951
446.144510	-3.028200	3.786600	-11.466000	23.905162	0.000517	20.801322
447.144699	-3.011900	3.786500	-11.404000	23.950823	0.000516	20.787365
448.143543	-2.987700	3.786700	-11.313000	23.912668	0.000517	20.810270
449.140471	-2.990400	3.787000	-11.324000	23.903368	0.000518	20.802367
450.144239	-3.008600	3.786400	-11.390000	23.895985	0.000517	20.774575
451.139322	-2.992000	3.784800	-11.324000	23.931363	0.000517	20.820008
452.143138	-3.027300	3.784400	-11.455000	23.948603	0.000517	20.808373
453.145353	-3.018200	3.784500	-11.422000	23.978597	0.000517	20.822804
454.142845	-2.998900	3.785500	-11.351000	23.958908	0.000518	20.821077
455.143388	-3.018300	3.783800	-11.420000	23.972680	0.000519	20.829672
456.145825	-2.989800	3.784900	-11.315000	23.963478	0.000517	20.821867
457.143220	-3.004700	3.783600	-11.367000	23.969964	0.000517	20.806560
458.142886	-2.997700	3.784100	-11.343000	23.965320	0.000520	20.802377
459.151361	-3.011100	3.782800	-11.390000	23.949389	0.000518	20.800152
460.142936	-3.008600	3.783900	-11.383000	23.940175	0.000518	20.801818
461.146312	-2.998400	3.783800	-11.345000	23.969114	0.000519	20.820881
462.151136	-2.976700	3.784000	-11.262000	23.964580	0.000517	20.813014
463.146582	-3.018100	3.782100	-11.414000	23.967768	0.000520	20.811471
464.144265	-2.988900	3.783400	-11.307000	24.008466	0.000517	20.807713
465.146773	-3.009900	3.782800	-11.385000	24.011473	0.000519	20.807409
466.147558	-2.997300	3.782300	-11.336000	24.021535	0.000520	20.807543
467.145689	-2.989300	3.783300	-11.308000	23.993651	0.000518	20.852598
468.147215	-2.987600	3.782500	-11.299000	23.995881	0.000517	20.820223
469.146570	-2.997700	3.781400	-11.335000	23.989117	0.000517	20.812016
470.148726	-3.010500	3.781200	-11.382000	23.996161	0.000520	20.824770
471.152091	-3.023900	3.781300	-11.433000	23.986788	0.000518	20.815845
472.150163	-2.987500	3.781600	-11.296000	24.003143	0.000521	20.820392
473.151961	-2.998100	3.780700	-11.334000	23.997239	0.000517	20.821109
474.152206	-3.009800	3.780800	-11.378000	24.013266	0.000517	20.799250
475.150822	-2.994100	3.781000	-11.320000	24.017048	0.000518	20.798302
476.147771	-3.003300	3.779600	-11.350000	24.054423	0.000519	20.807809
477.151778	-2.998400	3.779600	-11.333000	24.044046	0.000519	20.824428
478.153129	-3.021600	3.778700	-11.417000	24.028202	0.000520	20.817548
479.152536	-3.007200	3.779900	-11.366000	24.032239	0.000520	20.815432
480.154138	-3.008900	3.778400	-11.368000	24.018770	0.000520	20.802873
481.155471	-3.011700	3.777600	-11.376000	24.060994	0.000521	20.828623
482.159959	-2.984300	3.779400	-11.277000	24.103144	0.000518	20.826325
483.150990	-3.008700	3.777600	-11.365000	24.108005	0.000521	20.810338
484.157264	-2.997400	3.778200	-11.323000	24.098332	0.000521	20.819603
485.153924	-2.980500	3.778800	-11.262000	24.099798	0.000521	20.811591
486.154389	-2.988100	3.777000	-11.285000	24.058085	0.000521	20.814800
487.158361	-2.992200	3.777400	-11.302000	24.068510	0.000522	20.798229
488.157354	-2.987200	3.776900	-11.282000	24.085191	0.000521	20.787932
489.152648	-2.992100	3.777000	-11.300000	24.081651	0.000522	20.801925
490.156698	-3.001100	3.777400	-11.336000	24.096962	0.000521	20.798315
491.161445	-3.010000	3.776500	-11.367000	24.108526	0.000522	20.792843
492.154852	-2.963600	3.777300	-11.193000	24.116660	0.000521	20.801949
493.161564	-3.017200	3.775500	-11.390000	24.136771	0.000521	20.790825
494.158694	-3.013300	3.774400	-11.373000	24.103205	0.000523	20.805998
495.160113	-3.009200	3.774400	-11.356000	24.144722	0.000524	20.786946
496.163197	-3.008800	3.773700	-11.353000	24.167220	0.000523	20.803822
497.163416	-3.003200	3.774200	-11.334000	24.169293	0.000522	20.779822
498.158052	-3.003200	3.773700	-11.332000	24.136661	0.000523	20.769852
499.165329	-2.989800	3.774000	-11.282000	24.181826	0.000522	20.798557
500.162054	-3.018600	3.772100	-11.386000	24.172081	0.000523	20.801585
501.161302	-3.001300	3.772300	-11.320000	24.199839	0.000524	20.792916
502.161565	-3.005500	3.772900	-11.338000	24.198954	0.000523	20.794400
503.162392	-2.986200	3.773900	-11.268000	24.237862	0.000522	20.792175
504.164818	-3.008100	3.772000	-11.346000	24.266128	0.000519	20.788284
505.161537	-3.006600	3.773000	-11.343000	24.256249	0.000523	20.794023
506.166165	-3.001900	3.772200	-11.323000	24.253026	0.000523	20.784151
507.162910	-3.007100	3.770900	-11.339000	24.243002	0.000521	20.799227
508.162584	-3.015900	3.772500	-11.376000	24.238662	0.000524	20.787762
509.160638	-3.005900	3.771200	-11.335000	24.198422	0.000523	20.775373
510.160413	-3.004600	3.770800	-11.329000	24.196361	0.000524	20.783264
511.161463	-3.014600	3.769900	-11.364000	24.196264	0.000526	20.803082
512.160034	-3.012000	3.769500	-11.353000	24.209573	0.000521	20.764748
513.164600	-2.985800	3.771200	-11.259000	24.206919	0.000522	20.782474
514.164429	-2.990500	3.769600	-11.272000	24.196325	0.000521	20.767581
515.164956	-2.983400	3.769700	-11.246000	24.186204	0.000524	20.781137
516.166075	-2.978900	3.768400	-11.225000	24.181695	0.000524	20.783727
517.164064	-3.015700	3.769000	-11.366000	24.216120	0.000525	20.759934
518.168386	-3.007900	3.768800	-11.335000	24.233344	0.000526	20.788591
519.162950	-3.010400	3.768300	-11.343000	24.237926	0.000525	20.785126
520.171521	-2.994000	3.767900	-11.280000	24.221018	0.000523	20.779546
521.164807	-3.003100	3.768400	-11.316000	24.200788	0.000522	20.789127
522.167252	-3.013800	3.767500	-11.353000	24.193285	0.000524	20.774489
523.171044	-3.022400	3.766500	-11.383000	24.156739	0.000524	20.778611
524.168965	-2.991100	3.768500	-11.270000	24.147297	0.000522	20.776727
525.170723	-3.009000	3.766800	-11.333000	24.189492	0.000522	20.780167
526.178491	-3.002700	3.767600	-11.311000	24.231214	0.000525	20.769384
527.170335	-2.963600	3.767200	-11.164000	24.280447	0.000524	20.766612
528.168716	-2.998800	3.766100	-11.293000	24.269333	0.000525	20.763050
529.179532	-3.015800	3.764700	-11.353000	24.260558	0.000526	20.774637
530.173053	-3.035900	3.764100	-11.425000	24.275163	0.000524	20.763683
531.173316	-3.005300	3.764300	-11.312000	24.287660	0.000524	20.762467
532.173856	-3.001600	3.764600	-11.298000	24.297720	0.000523	20.769714
533.172331	-3.008000	3.764600	-11.323000	24.294897	0.000526	20.770201
534.175596	-3.006900	3.764000	-11.317000	24.259554	0.000522	20.767940
535.179216	-2.993900	3.763600	-11.267000	24.248755	0.000522	20.753314
536.172301	-2.990900	3.763800	-11.255000	24.256052	0.000522	20.744037
537.170351	-2.999300	3.762600	-11.284000	24.286111	0.000522	20.763284
538.172417	-2.987900	3.762500	-11.241000	24.285602	0.000525	20.774154
539.197273	-3.001100	3.762200	-11.289000	24.297335	0.000522	20.766483
540.170834	-2.979000	3.763100	-11.210000	24.293288	0.000522	20.755784
541.175834	-3.020400	3.762400	-11.362000	24.281277	0.000525	20.751323
542.170901	-2.986400	3.763100	-11.238000	24.315383	0.000522	20.744757
543.181278	-3.003300	3.762800	-11.300000	24.308571	0.000524	20.773013
544.175037	-2.985800	3.763100	-11.235000	24.323140	0.000525	20.772929
545.176670	-2.992000	3.762300	-11.254000	24.283508	0.000524	20.765415
546.173791	-2.980800	3.761700	-11.211000	24.325637	0.000525	20.759312
547.174617	-3.007000	3.761300	-11.309000	24.325092	0.000525	20.769671
548.176214	-3.028100	3.759900	-11.384000	24.325602	0.000522	20.740784
549.178525	-2.993400	3.761000	-11.256000	24.353683	0.000525	20.774644
550.174781	-3.013000	3.760000	-11.328000	24.321143	0.000525	20.732517
551.179489	-3.002400	3.759700	-11.288000	24.325518	0.000525	20.755399
552.180243	-2.998000	3.760000	-11.272000	24.337238	0.000524	20.742135
553.176394	-3.010300	3.758900	-11.314000	24.385703	0.000526	20.748919
554.176287	-3.024600	3.759400	-11.370000	24.386407	0.000523	20.728286
555.175788	-3.018700	3.758000	-11.343000	24.375826	0.000524	20.757503
556.175049	-3.008000	3.757600	-11.303000	24.383353	0.000524	20.766476
557.181902	-2.979100	3.759200	-11.198000	24.407942	0.000525	20.759375
558.182700	-2.988400	3.758800	-11.232000	24.392080	0.000524	20.745832
559.180186	-2.982200	3.759100	-11.209000	24.406622	0.000526	20.755680
560.187641	-2.972200	3.759200	-11.172000	24.392322	0.000524	20.735643
561.180251	-2.989700	3.757700	-11.234000	24.405107	0.000527	20.748470
562.183231	-3.000800	3.756400	-11.271000	24.381657	0.000525	20.743911
563.183378	-3.000600	3.756900	-11.271000	24.388408	0.000525	20.751633
564.177584	-2.987500	3.758000	-11.226000	24.376871	0.000525	20.747171
565.176285	-2.994400	3.756700	-11.248000	24.382119	0.000523	20.755280
566.176895	-2.968300	3.758000	-11.154000	24.377478	0.000523	20.740192
567.180987	-3.003700	3.756400	-11.282000	24.409145	0.000524	20.746357
568.181034	-3.005600	3.755700	-11.287000	24.427395	0.000524	20.732897
569.181098	-2.994900	3.756000	-11.248000	24.432328	0.000526	20.755864
570.180751	-3.008800	3.754700	-11.296000	24.486315	0.000524	20.746491
571.177363	-3.012800	3.755000	-11.311000	24.496664	0.000523	20.749762
572.178463	-3.000000	3.755600	-11.266000	24.471155	0.000522	20.747876
573.177248	-3.002100	3.752800	-11.265000	24.466648	0.000524	20.734819
574.177378	-2.987000	3.755100	-11.215000	24.452663	0.000522	20.739281
575.179535	-3.005400	3.753300	-11.279000	24.438339	0.000524	20.745774
576.179442	-3.007800	3.753600	-11.289000	24.420052	0.000523	20.752084
577.183487	-2.988200	3.754000	-11.216000	24.388677	0.000524	20.743367
578.178188	-3.005800	3.754300	-11.284000	24.368499	0.000523	20.716485
579.177474	-3.006400	3.752300	-11.280000	24.434850	0.000521	20.745118
580.180462	-2.982100	3.754600	-11.195000	24.425798	0.000522	20.737933
581.178710	-3.020300	3.752600	-11.333000	24.414964	0.000523	20.718529
582.178694	-3.019900	3.753300	-11.333000	24.408662	0.000523	20.725483
583.182767	-3.007400	3.752000	-11.282000	24.425932	0.000521	20.750396
584.185637	-2.998400	3.751200	-11.246000	24.408844	0.000522	20.732304
585.181376	-3.001500	3.751200	-11.258000	24.436112	0.000523	20.733581
586.184674	-2.990900	3.750000	-11.215000	24.460749	0.000522	20.726530
587.182777	-2.996300	3.750100	-11.235000	24.439360	0.000522	20.734944
588.183353	-2.985900	3.750700	-11.198000	24.427533	0.000520	20.726871
589.179219	-2.990100	3.750600	-11.214000	24.436803	0.000522	20.759881
590.182730	-2.986400	3.750200	-11.199000	24.440694	0.000520	20.718263
591.184127	-3.007500	3.750100	-11.278000	24.433132	0.000521	20.731066
592.188973	-2.987900	3.749800	-11.203000	24.483097	0.000522	20.721450
593.186257	-3.012700	3.749300	-11.295000	24.506182	0.000521	20.730860
594.184216	-2.995100	3.749600	-11.229000	24.490271	0.000522	20.731967
595.187947	-2.984800	3.748900	-11.188000	24.517972	0.000523	20.728939
596.192753	-3.001700	3.749400	-11.252000	24.525546	0.000519	20.725159
597.189329	-2.999400	3.749100	-11.243000	24.473803	0.000521	20.719711
598.189386	-2.977000	3.748800	-11.159000	24.499057	0.000521	20.748369
599.187505	-3.031100	3.747300	-11.357000	24.464267	0.000520	20.708721
600.190979	-3.016200	3.747400	-11.302000	24.439194	0.000520	20.712490
601.190917	-3.017800	3.748000	-11.309000	24.444054	0.000520	20.728273
602.192776	-2.997200	3.747300	-11.231000	24.476737	0.000519	20.719336
603.191525	-2.998400	3.748300	-11.238000	24.466231	0.000519	20.694095
604.190261	-3.008000	3.746500	-11.269000	24.495629	0.000521	20.713160
605.188264	-2.985900	3.748100	-11.191000	24.524785	0.000522	20.717282
606.192117	-3.015200	3.744600	-11.289000	24.549359	0.000520	20.722498
607.198507	-2.980500	3.746600	-11.165000	24.538841	0.000521	20.722377
608.200513	-2.986700	3.747000	-11.189000	24.530238	0.000520	20.714693
609.190984	-2.989200	3.745300	-11.194000	24.515309	0.000520	20.712042
610.190279	-2.960100	3.746800	-11.090000	24.471212	0.000520	20.705732
611.191798	-2.991200	3.744900	-11.200000	24.477890	0.000519	20.714329
612.188112	-2.983900	3.745000	-11.174000	24.492213	0.000522	20.714474
613.191748	-3.003200	3.744000	-11.243000	24.522424	0.000522	20.704006
614.197384	-3.002600	3.743900	-11.241000	24.554693	0.000519	20.715995
615.191283	-2.977200	3.743600	-11.144000	24.598156	0.000521	20.704602
616.191261	-2.991500	3.743700	-11.199000	24.633634	0.000520	20.732616
617.193119	-2.996800	3.743700	-11.218000	24.608892	0.000518	20.713479
618.192694	-2.993200	3.743000	-11.202000	24.606905	0.000518	20.709588
619.193590	-3.003200	3.741900	-11.237000	24.580552	0.000520	20.713018
620.187586	-2.993500	3.742000	-11.201000	24.514415	0.000520	20.692177
621.194451	-2.996300	3.742500	-11.213000	24.490399	0.000517	20.714550
622.196543	-3.000700	3.743200	-11.231000	24.514562	0.000519	20.711292
623.193766	-2.991900	3.743300	-11.200000	24.546577	0.000519	20.705007
624.190883	-3.013500	3.741000	-11.273000	24.583740	0.000522	20.706259
625.195449	-3.005300	3.741500	-11.244000	24.582529	0.000519	20.705044
626.197858	-3.019100	3.742400	-11.298000	24.541283	0.000518	20.704437
627.189978	-3.001300	3.740900	-11.227000	24.585947	0.000520	20.686660
628.193721	-3.004000	3.741500	-11.239000	24.582627	0.000518	20.706091
629.199272	-2.977600	3.741500	-11.140000	24.556491	0.000519	20.700255
630.195218	-2.989700	3.740400	-11.182000	24.567118	0.000518	20.695744
631.195822	-2.993200	3.740500	-11.196000	24.596636	0.000517	20.701655
632.196229	-3.008200	3.738800	-11.247000	24.612002	0.000518	20.710435
633.200997	-3.006400	3.739000	-11.240000	24.573700	0.000516	20.687175
634.202391	-3.013600	3.737800	-11.263000	24.566333	0.000516	20.715821
635.196851	-3.019300	3.737200	-11.283000	24.592882	0.000517	20.683661
636.197228	-2.987600	3.739300	-11.170000	24.558252	0.000516	20.680684
637.202554	-3.003000	3.737700	-11.223000	24.592822	0.000517	20.702569
638.198423	-3.034300	3.736300	-11.335000	24.569280	0.000518	20.694120
639.197769	-2.965900	3.739200	-11.088000	24.615493	0.000517	20.703032
640.199914	-3.005000	3.736800	-11.228000	24.606407	0.000515	20.690595
641.200983	-3.006800	3.735800	-11.232000	24.643217	0.000515	20.681062
642.203148	-3.010700	3.736300	-11.248000	24.690251	0.000517	20.707873
643.202013	-2.988000	3.736300	-11.163000	24.693572	0.000517	20.714999
644.203679	-3.014000	3.735100	-11.256000	24.654898	0.000514	20.692785
645.207461	-3.007000	3.736700	-11.235000	24.686423	0.000515	20.689331
646.200281	-2.987100	3.737000	-11.162000	24.638541	0.000514	20.685380
647.197410	-2.987900	3.736600	-11.164000	24.687987	0.000515	20.692798
648.198353	-3.015100	3.734500	-11.259000	24.636469	0.000516	20.701794
649.203836	-3.009600	3.734500	-11.239000	24.670759	0.000514	20.690208
650.199329	-2.984300	3.735400	-11.147000	24.667379	0.000513	20.688239
651.203516	-3.009700	3.734700	-11.240000	24.672383	0.000513	20.693261
652.203506	-3.003800	3.734600	-11.217000	24.658559	0.000513	20.699304
653.203465	-3.003000	3.735900	-11.218000	24.638385	0.000516	20.682378
654.202826	-3.010700	3.733600	-11.238000	24.648576	0.000514	20.672689
655.206430	-2.983200	3.734500	-11.140000	24.692593	0.000514	20.691730
656.209026	-3.006500	3.733200	-11.223000	24.655675	0.000514	20.681236
657.208022	-2.991700	3.732400	-11.165000	24.635490	0.000516	20.689431
658.204235	-3.000000	3.733500	-11.200000	24.589447	0.000512	20.671679
659.206667	-3.010600	3.732200	-11.235000	24.622162	0.000516	20.685067
660.204974	-3.002400	3.731500	-11.203000	24.651339	0.000513	20.701068
661.208013	-3.001500	3.732900	-11.203000	24.639695	0.000514	20.698393
662.205847	-2.987400	3.732900	-11.150000	24.680938	0.000513	20.688095
663.201362	-3.012300	3.731700	-11.240000	24.716849	0.000513	20.690940
664.205573	-3.007800	3.731900	-11.224000	24.724761	0.000515	20.668531
665.211048	-2.989500	3.731300	-11.154000	24.745091	0.000514	20.680873
666.203925	-3.011000	3.730600	-11.232000	24.693406	0.000512	20.675948
667.203780	-2.998200	3.731100	-11.186000	24.649002	0.000514	20.670271
668.211152	-2.991200	3.730400	-11.158000	24.679606	0.000514	20.679645
669.206038	-2.992500	3.729800	-11.161000	24.661784	0.000512	20.657966
670.209822	-2.997500	3.731100	-11.182000	24.651958	0.000512	20.686041
671.208785	-3.000900	3.730000	-11.192000	24.670835	0.000512	20.663729
672.209221	-2.994700	3.730600	-11.171000	24.674180	0.000512	20.676570
673.211061	-2.999100	3.729400	-11.184000	24.639564	0.000515	20.665542
674.214073	-3.006600	3.729800	-11.212000	24.671248	0.000511	20.666040
675.204954	-3.004200	3.729100	-11.202000	24.674022	0.000512	20.673566
676.212781	-3.008000	3.727700	-11.212000	24.679984	0.000511	20.685240
677.209486	-2.984100	3.728300	-11.124000	24.674435	0.000513	20.681568
678.206133	-3.015100	3.728700	-11.241000	24.666232	0.000512	20.670491
679.208424	-2.992200	3.728600	-11.156000	24.677815	0.000512	20.683537
680.209025	-2.994900	3.728100	-11.164000	24.686223	0.000512	20.693398
681.207732	-2.995800	3.728100	-11.168000	24.669589	0.000512	20.666746
682.209189	-2.996900	3.726900	-11.168000	24.634221	0.000510	20.681045
683.211166	-3.000400	3.727000	-11.182000	24.654261	0.000512	20.684559
684.207927	-3.008000	3.726800	-11.209000	24.668995	0.000511	20.676583
685.210337	-3.008300	3.727200	-11.212000	24.662852	0.000509	20.678954
686.211092	-2.983200	3.726700	-11.116000	24.672569	0.000512	20.680169
687.208580	-2.985800	3.727300	-11.128000	24.679681	0.000515	20.657906
688.209919	-2.995300	3.725100	-11.157000	24.724303	0.000511	20.670917
689.208342	-2.986200	3.725800	-11.125000	24.748811	0.000511	20.680339
690.210635	-2.992100	3.725600	-11.146000	24.759727	0.000510	20.688923
691.213731	-2.996100	3.724300	-11.157000	24.769638	0.000511	20.668522
692.213743	-2.986100	3.724200	-11.119000	24.820409	0.000510	20.671585
693.210990	-3.001600	3.724900	-11.180000	24.817102	0.000510	20.696244
694.215770	-3.015300	3.722700	-11.224000	24.836847	0.000509	20.665322
695.213735	-2.988500	3.724100	-11.128000	24.810196	0.000510	20.676983
696.212116	-3.006300	3.724500	-11.196000	24.777147	0.000509	20.673213
697.217904	-2.988100	3.724200	-11.127000	24.725501	0.000509	20.679707
698.212479	-2.999000	3.723600	-11.167000	24.702856	0.000508	20.679742
699.211096	-2.995800	3.723400	-11.153000	24.719442	0.000507	20.675523
700.216074	-3.009300	3.721800	-11.199000	24.739832	0.000508	20.664689
701.220251	-2.983100	3.722200	-11.103000	24.716873	0.000509	20.679583
702.216176	-2.985700	3.722100	-11.112000	24.745902	0.000508	20.688326
703.218117	-2.988200	3.721200	-11.118000	24.733932	0.000508	20.691961
704.217975	-3.002400	3.721600	-11.172000	24.722688	0.000509	20.681152
705.212812	-2.984200	3.723700	-11.111000	24.735714	0.000507	20.667668
706.217625	-3.001300	3.721200	-11.167000	24.711797	0.000506	20.669272
707.227081	-2.995200	3.721400	-11.146000	24.733338	0.000507	20.687572
708.220993	-2.987100	3.720700	-11.113000	24.781386	0.000508	20.676994
709.219689	-2.992800	3.721300	-11.136000	24.831043	0.000506	20.676094
710.220665	-3.021700	3.719800	-11.240000	24.797778	0.000506	20.684435
711.219774	-3.016500	3.719700	-11.219000	24.766777	0.000507	20.663753
712.219729	-3.003900	3.719200	-11.171000	24.686210	0.000504	20.674417
713.225713	-3.005600	3.720000	-11.180000	24.684393	0.000506	20.673542
714.217410	-3.006800	3.718600	-11.181000	24.687784	0.000505	20.666513
715.224798	-2.997200	3.719500	-11.147000	24.700918	0.000505	20.657406
716.221535	-2.987400	3.719300	-11.110000	24.684090	0.000507	20.655218
717.220092	-2.995100	3.719000	-11.138000	24.710974	0.000506	20.676034
718.225577	-2.985400	3.719100	-11.102000	24.725549	0.000505	20.660787
719.228921	-2.981100	3.717600	-11.082000	24.742583	0.000505	20.686892
720.224597	-3.008200	3.717300	-11.181000	24.747321	0.000504	20.684534
721.222770	-3.013400	3.718400	-11.204000	24.763882	0.000505	20.687878
722.223610	-3.009300	3.716500	-11.183000	24.756129	0.000504	20.681993
723.219805	-2.983900	3.717900	-11.093000	24.769770	0.000504	20.680983
724.221533	-2.998200	3.716900	-11.143000	24.785216	0.000505	20.672776
725.219519	-2.989900	3.717200	-11.113000	24.765082	0.000507	20.681969
726.219522	-2.999600	3.717600	-11.150000	24.800700	0.000504	20.671720
727.224200	-3.008800	3.715200	-11.178000	24.810512	0.000503	20.672084
728.223829	-3.002800	3.716100	-11.158000	24.792813	0.000504	20.698420
729.224983	-3.004200	3.715900	-11.162000	24.752725	0.000505	20.678103
730.224247	-3.006000	3.716200	-11.170000	24.773600	0.000502	20.691466
731.228127	-3.018800	3.714200	-11.211000	24.757015	0.000503	20.686676
732.230907	-3.022400	3.714400	-11.225000	24.771648	0.000503	20.676704
733.228199	-2.991100	3.714100	-11.108000	24.761351	0.000505	20.678698
734.227558	-3.008200	3.714300	-11.172000	24.777246	0.000504	20.652921
735.229436	-3.011500	3.715200	-11.187000	24.780977	0.000504	20.664728
736.224018	-2.982000	3.714300	-11.075000	24.842058	0.000504	20.673398
737.231990	-3.010500	3.714100	-11.180000	24.791213	0.000501	20.663621
738.230255	-3.009600	3.714900	-11.179000	24.796327	0.000505	20.680134
739.231232	-3.014100	3.713100	-11.191000	24.795891	0.000502	20.676852
740.229388	-3.021700	3.713400	-11.219000	24.808683	0.000502	20.680207
741.228909	-3.020200	3.713200	-11.214000	24.801900	0.000502	20.682882
742.239341	-3.013400	3.712300	-11.186000	24.836158	0.000502	20.693083
743.228782	-3.012900	3.712000	-11.183000	24.835796	0.000504	20.686080
744.228411	-3.019000	3.712200	-11.205000	24.806831	0.000503	20.677399
745.234662	-2.987100	3.712700	-11.089000	24.838169	0.000503	20.663330
746.226826	-3.024100	3.711700	-11.223000	24.821767	0.000504	20.681958
747.229030	-2.995000	3.711200	-11.114000	24.801779	0.000503	20.689874
748.228451	-3.005700	3.711300	-11.153000	24.794740	0.000502	20.692767
749.230015	-3.016100	3.710200	-11.190000	24.785666	0.000504	20.679393
750.230080	-2.984000	3.710800	-11.072000	24.786794	0.000500	20.689060
751.229477	-3.016100	3.710200	-11.190000	24.762601	0.000502	20.688014
752.232183	-3.001700	3.710100	-11.136000	24.742950	0.000500	20.691528
753.227727	-2.991900	3.710400	-11.100000	24.737123	0.000501	20.685681
754.238964	-3.007900	3.709900	-11.158000	24.730205	0.000502	20.682057
755.234737	-3.006100	3.710000	-11.152000	24.757379	0.000502	20.671867
756.229728	-2.993100	3.711400	-11.108000	24.747033	0.000502	20.686616
757.236352	-2.997400	3.709100	-11.117000	24.759900	0.000502	20.665861
758.229430	-2.985900	3.709300	-11.075000	24.778060	0.000500	20.676501
759.228209	-2.999500	3.709600	-11.126000	24.833738	0.000502	20.694922
760.230077	-3.015700	3.707600	-11.180000	24.858730	0.000502	20.671637
761.231283	-2.996700	3.707900	-11.111000	24.890541	0.000499	20.679858
762.230654	-3.025700	3.707900	-11.218000	24.901431	0.000501	20.678459
763.232581	-2.994500	3.708800	-11.105000	24.935251	0.000497	20.687749
764.235229	-2.988500	3.708500	-11.081000	24.938243	0.000501	20.668465
765.232328	-2.986600	3.707700	-11.072000	24.884243	0.000499	20.687288
766.237360	-2.979200	3.708800	-11.047000	24.902013	0.000499	20.679044
767.235541	-2.984300	3.707700	-11.064000	24.904023	0.000499	20.684855
768.238719	-3.003500	3.706400	-11.132000	24.897543	0.000500	20.696370
769.238293	-2.980400	3.706600	-11.047000	24.915047	0.000498	20.702085
770.238604	-3.019900	3.704900	-11.187000	24.921516	0.000499	20.679652
771.236868	-2.979000	3.707700	-11.044000	24.919384	0.000497	20.698377
772.240052	-2.968400	3.707200	-11.003000	24.924750	0.000496	20.702341
773.237684	-3.004400	3.705400	-11.132000	24.872056	0.000497	20.700662
774.240247	-3.017200	3.705500	-11.179000	24.839337	0.000498	20.694377
775.247910	-3.005400	3.704400	-11.132000	24.868362	0.000498	20.704542
776.235087	-3.007100	3.704200	-11.138000	24.892360	0.000496	20.694013
777.238461	-2.991700	3.704200	-11.081000	24.890143	0.000499	20.691787
778.238649	-2.991200	3.705200	-11.083000	24.886908	0.000496	20.700395
779.235990	-2.980600	3.704600	-11.041000	24.892008	0.000497	20.695082
780.240570	-3.023600	3.704300	-11.199000	24.878683	0.000498	20.675543
781.237120	-2.980000	3.705300	-11.041000	24.904388	0.000494	20.689489
782.238433	-2.999500	3.703500	-11.107000	24.922922	0.000496	20.677270
783.238583	-2.986600	3.703900	-11.061000	24.896550	0.000495	20.696796
784.241719	-3.013800	3.703700	-11.161000	24.901347	0.000495	20.703508
785.240913	-3.008700	3.703600	-11.142000	24.899639	0.000496	20.698949
786.236396	-2.988100	3.703200	-11.065000	24.877108	0.000494	20.695301
787.236662	-3.011100	3.702200	-11.146000	24.882887	0.000495	20.683556
788.241236	-2.968700	3.701100	-10.986000	24.862680	0.000495	20.707374
789.241302	-2.995900	3.702800	-11.092000	24.892287	0.000493	20.697733
790.242521	-3.025300	3.701200	-11.195000	24.881953	0.000493	20.705380
791.242744	-3.003600	3.701100	-11.116000	24.884085	0.000493	20.703252
792.242493	-3.007800	3.700000	-11.128000	24.897979	0.000494	20.712930
793.242270	-3.004600	3.700800	-11.118000	24.910806	0.000496	20.710157
794.241639	-3.014700	3.700100	-11.154000	24.953251	0.000493	20.700127
795.239086	-2.996500	3.700900	-11.088000	24.958616	0.000497	20.701719
796.245315	-3.013900	3.700500	-11.152000	24.958653	0.000493	20.708869
797.239282	-2.998300	3.700500	-11.093000	24.922920	0.000494	20.707617
798.243293	-2.990100	3.700000	-11.062000	24.920643	0.000492	20.701064
799.243313	-3.008300	3.700300	-11.129000	24.928686	0.000491	20.701549
800.243008	-3.005800	3.700100	-11.121000	24.894720	0.000490	20.723885
801.244522	-3.002600	3.699500	-11.107000	24.877737	0.000493	20.712528
802.242769	-3.002100	3.697300	-11.099000	24.896513	0.000491	20.710036
803.245041	-2.992200	3.698900	-11.067000	24.876078	0.000491	20.717502
804.245507	-2.982300	3.697900	-11.026000	24.901951	0.000491	20.706485
805.244972	-2.992300	3.697600	-11.064000	24.894030	0.000490	20.723666
806.241941	-2.989000	3.699200	-11.056000	24.946492	0.000491	20.700455
807.242751	-2.975600	3.699000	-11.005000	24.979790	0.000491	20.714438
808.244063	-2.992900	3.699000	-11.070000	25.020911	0.000490	20.715885
809.247152	-2.997800	3.698700	-11.087000	25.056400	0.000490	20.720214
810.241807	-2.997800	3.696900	-11.082000	25.046540	0.000489	20.725964
811.245750	-2.989500	3.697500	-11.053000	25.061752	0.000487	20.733648
812.246349	-2.975700	3.695800	-10.997000	25.062237	0.000489	20.718962
813.243539	-3.002500	3.695500	-11.095000	25.088385	0.000488	20.707277
814.252591	-2.998200	3.696300	-11.081000	25.070461	0.000488	20.724372
815.247953	-2.994200	3.694500	-11.061000	24.986307	0.000488	20.712444
816.254345	-2.989200	3.694600	-11.042000	24.953288	0.000487	20.729564
817.248561	-2.999700	3.694500	-11.081000	25.005953	0.000487	20.708931
818.245495	-2.979100	3.694600	-11.005000	24.982200	0.000486	20.713538
819.248903	-2.990500	3.694300	-11.047000	25.009212	0.000485	20.724056
820.249866	-2.994800	3.694300	-11.063000	24.969567	0.000487	20.707495
821.250785	-2.999500	3.694700	-11.082000	24.970028	0.000485	20.724081
822.249730	-3.003600	3.693700	-11.093000	24.964408	0.000487	20.717965
823.250776	-3.022700	3.693800	-11.165000	25.020815	0.000485	20.760361
824.251415	-3.018600	3.693200	-11.148000	25.047291	0.000485	20.720554
825.253709	-2.979100	3.694300	-11.005000	25.026144	0.000483	20.722087
826.252117	-3.011300	3.692500	-11.118000	24.977925	0.000486	20.727740
827.248723	-2.999400	3.693700	-11.079000	24.959950	0.000485	20.735302
828.246644	-2.989600	3.692800	-11.038000	24.943853	0.000484	20.727206
829.249372	-2.972100	3.692100	-10.972000	24.969398	0.000486	20.730560
830.253689	-3.019300	3.692800	-11.148000	24.967932	0.000483	20.736202
831.251433	-2.980100	3.691700	-11.000000	24.940423	0.000482	20.728505
832.252766	-2.998300	3.692600	-11.071000	24.903395	0.000481	20.734014
833.249678	-3.010900	3.692300	-11.116000	24.929582	0.000483	20.744651
834.255138	-3.009200	3.690700	-11.105000	24.988087	0.000484	20.726560
835.252402	-2.998800	3.690700	-11.067000	25.025514	0.000483	20.729041
836.250289	-3.002000	3.692100	-11.083000	25.059755	0.000481	20.738282
837.254039	-3.003100	3.690800	-11.083000	25.046878	0.000482	20.732468
838.249675	-3.004100	3.690300	-11.085000	25.043633	0.000480	20.735849
839.252759	-3.002000	3.689900	-11.076000	25.002344	0.000481	20.756045
840.256322	-2.989100	3.688900	-11.025000	25.006074	0.000480	20.733236
841.253605	-2.957600	3.690200	-10.912000	25.012349	0.000481	20.721041
842.253794	-3.001700	3.690200	-11.076000	25.017049	0.000481	20.748519
843.251401	-2.975500	3.689000	-10.977000	25.041805	0.000481	20.736859
844.253839	-3.017100	3.688800	-11.129000	25.041467	0.000481	20.730355
845.254809	-2.997600	3.688500	-11.055000	25.092324	0.000479	20.724508
846.255856	-2.995900	3.690800	-11.057000	25.123085	0.000480	20.763924
847.255848	-3.014100	3.689200	-11.119000	25.107087	0.000479	20.744545
848.255933	-3.017500	3.687200	-11.124000	25.116800	0.000480	20.740070
849.257902	-3.003000	3.686600	-11.069000	25.106360	0.000480	20.722003
850.257124	-2.994600	3.687200	-11.041000	25.135051	0.000482	20.740374
851.257065	-3.020500	3.687300	-11.137000	25.082308	0.000477	20.747172
852.259681	-3.012300	3.686800	-11.105000	25.046010	0.000478	20.734442
853.261602	-3.001300	3.687400	-11.067000	25.045368	0.000480	20.741859
854.257787	-2.997300	3.686800	-11.050000	25.051823	0.000477	20.751183
855.264872	-3.000000	3.686400	-11.057000	25.071457	0.000479	20.717311
856.257246	-3.001200	3.685200	-11.059000	25.032652	0.000478	20.740473
857.260115	-2.963000	3.685900	-10.921000	25.024452	0.000475	20.743149
858.262023	-2.980900	3.684800	-10.983000	25.027552	0.000476	20.742467
859.258404	-2.996500	3.685300	-11.042000	25.055652	0.000477	20.729422
860.258302	-3.026900	3.683200	-11.147000	25.064904	0.000475	20.750564
861.264242	-2.980300	3.686000	-10.984000	25.072281	0.000478	20.746115
862.267427	-2.996500	3.684200	-11.039000	25.129058	0.000476	20.741470
863.266585	-3.008700	3.684400	-11.084000	25.173383	0.000475	20.749458
864.269434	-2.994600	3.683200	-11.029000	25.136543	0.000476	20.756097
865.261744	-3.002500	3.682100	-11.054000	25.144548	0.000476	20.754650
866.264130	-2.982700	3.684500	-10.989000	25.130220	0.000475	20.770139
867.264655	-2.974400	3.683800	-10.955000	25.125400	0.000474	20.752023
868.264262	-3.009900	3.682200	-11.082000	25.085434	0.000477	20.752681
869.261285	-3.009100	3.681700	-11.078000	25.116426	0.000477	20.775732
870.261047	-3.003000	3.682700	-11.058000	25.130826	0.000476	20.771696
871.264019	-3.003500	3.682100	-11.058000	25.129845	0.000475	20.765020
872.266486	-3.000700	3.681300	-11.046000	25.111775	0.000476	20.750200
873.267277	-3.022600	3.681100	-11.125000	25.107731	0.000473	20.764158
874.267685	-2.978000	3.682400	-10.965000	25.102777	0.000473	20.771039
875.269348	-2.999200	3.680700	-11.038000	25.090944	0.000474	20.771489
876.268177	-2.996000	3.681700	-11.029000	25.068913	0.000472	20.759330
877.270039	-3.010900	3.680300	-11.080000	25.092882	0.000472	20.781495
878.267970	-3.022500	3.679200	-11.119000	25.115930	0.000473	20.760060
879.266785	-3.010100	3.681100	-11.079000	25.145394	0.000474	20.777311
880.265921	-2.995300	3.680100	-11.022000	25.163427	0.000474	20.775974
881.265686	-2.989300	3.679200	-10.997000	25.198935	0.000472	20.756145
882.266631	-2.993800	3.680100	-11.017000	25.209326	0.000474	20.745239
883.266652	-3.000700	3.679400	-11.039000	25.194236	0.000473	20.768972
884.270330	-3.011300	3.678500	-11.075000	25.157456	0.000470	20.770929
885.268181	-2.978300	3.679600	-10.958000	25.116123	0.000471	20.776376
886.267053	-3.004300	3.677900	-11.049000	25.091344	0.000471	20.779477
887.268172	-2.966100	3.679400	-10.913000	25.058546	0.000472	20.767889
888.275377	-2.973200	3.678400	-10.936000	25.046181	0.000474	20.762590
889.265694	-2.998000	3.678100	-11.025000	25.062107	0.000469	20.776680
890.267106	-2.945200	3.680100	-10.838000	25.085639	0.000469	20.758576
891.271103	-2.999200	3.677900	-11.030000	25.091865	0.000470	20.772887
892.267347	-2.987200	3.677600	-10.985000	25.121452	0.000470	20.775088
893.270424	-2.995800	3.676100	-11.012000	25.117469	0.000471	20.768244
894.270505	-3.002900	3.675700	-11.037000	25.111885	0.000469	20.771173
895.270272	-3.005000	3.675000	-11.043000	25.067281	0.000470	20.783770
896.270594	-3.002000	3.675600	-11.033000	25.086210	0.000468	20.776693
897.273083	-2.984300	3.675200	-10.967000	25.086513	0.000469	20.759453
898.274494	-2.988100	3.676300	-10.984000	25.099097	0.000466	20.785837
899.273571	-2.980000	3.674800	-10.950000	25.120086	0.000471	20.781776
900.268219	-2.996600	3.674300	-11.009000	25.115580	0.000469	20.773934
901.270925	-2.985900	3.673800	-10.969000	25.154080	0.000468	20.799307
902.268380	-2.981100	3.675600	-10.956000	25.158767	0.000469	20.777935
903.274865	-2.994100	3.673400	-10.998000	25.182020	0.000464	20.774251
904.273855	-3.001000	3.673900	-11.025000	25.108253	0.000468	20.768476
905.268673	-2.984700	3.674400	-10.966000	25.096238	0.000465	20.794821
906.275851	-2.986100	3.674500	-10.971000	25.097983	0.000470	20.785667
907.276828	-3.016500	3.673900	-11.081000	25.104584	0.000464	20.777595
908.275074	-3.026800	3.672300	-11.115000	25.152179	0.000465	20.786020
909.271297	-2.988300	3.672800	-10.975000	25.157847	0.000463	20.782226
910.274518	-2.989700	3.672700	-10.980000	25.183898	0.000464	20.797474
911.284007	-3.005700	3.672400	-11.038000	25.213857	0.000464	20.784403
912.272620	-2.980200	3.672800	-10.944000	25.203528	0.000466	20.784939
913.280228	-3.019300	3.670800	-11.083000	25.227832	0.000465	20.776148
914.277318	-2.987700	3.672500	-10.972000	25.247136	0.000464	20.796477
915.276106	-3.006200	3.671800	-11.038000	25.189856	0.000463	20.766945
916.277078	-2.996400	3.671600	-11.001000	25.184915	0.000463	20.780951
917.277237	-3.015600	3.671700	-11.071000	25.192182	0.000463	20.780186
918.277098	-3.011000	3.671600	-11.054000	25.219089	0.000463	20.786337
919.272536	-3.003100	3.670800	-11.022000	25.172249	0.000462	20.790046
920.281954	-3.011600	3.669900	-11.051000	25.170553	0.000461	20.790240
921.277210	-3.001800	3.670000	-11.015000	25.183426	0.000461	20.808379
922.275428	-2.986900	3.670800	-10.964000	25.191747	0.000462	20.783542
923.274158	-3.010000	3.668600	-11.042000	25.182239	0.000461	20.786326
924.280556	-3.005600	3.669200	-11.027000	25.184311	0.000459	20.786983
925.277699	-3.001500	3.669500	-11.012000	25.214755	0.000459	20.803323
926.277570	-3.017200	3.667500	-11.065000	25.232860	0.000459	20.788782
927.282368	-3.001100	3.668200	-11.008000	25.252682	0.000458	20.790192
928.279909	-3.025000	3.667200	-11.093000	25.237765	0.000456	20.792759
929.278997	-2.998100	3.667600	-10.995000	25.215021	0.000456	20.780356
930.280141	-3.000800	3.668100	-11.006000	25.178957	0.000456	20.807687
931.276601	-2.983200	3.668300	-10.943000	25.186672	0.000459	20.778922
932.276940	-2.990300	3.667200	-10.965000	25.221270	0.000459	20.793268
933.281226	-3.008300	3.668000	-11.034000	25.247536	0.000458	20.791663
934.284275	-3.004000	3.667700	-11.018000	25.213000	0.000456	20.779749
935.277214	-2.984800	3.666300	-10.942000	25.197463	0.000457	20.785488
936.280998	-3.016200	3.665000	-11.054000	25.211122	0.000457	20.771700
937.281713	-3.014100	3.665100	-11.046000	25.167829	0.000456	20.769962
938.277723	-3.000300	3.664600	-10.994000	25.163033	0.000458	20.761354
939.283723	-2.990000	3.666400	-10.962000	25.136074	0.000458	20.796879
940.276149	-3.014100	3.665400	-11.047000	25.128227	0.000457	20.772879
941.280408	-3.016600	3.665200	-11.055000	25.179103	0.000458	20.784599
942.277771	-3.001400	3.664000	-10.997000	25.195826	0.000455	20.784319
943.280081	-2.991700	3.665400	-10.965000	25.152956	0.000456	20.765937
944.279766	-3.016600	3.663600	-11.051000	25.148403	0.000456	20.792186
945.276578	-3.004800	3.664300	-11.009000	25.172914	0.000455	20.777912
946.281008	-3.007300	3.663500	-11.017000	25.161990	0.000455	20.776428
947.288071	-3.000500	3.662800	-10.990000	25.148596	0.000454	20.784793
948.281273	-3.009400	3.663700	-11.025000	25.116199	0.000454	20.775978
949.277758	-2.997900	3.663800	-10.983000	25.178193	0.000454	20.764720
950.288435	-2.988400	3.663700	-10.947000	25.155050	0.000455	20.774203
951.292309	-3.009200	3.661600	-11.018000	25.109622	0.000453	20.778384
952.282295	-3.014700	3.661400	-11.037000	25.196540	0.000453	20.750422
953.283473	-3.014800	3.661400	-11.037000	25.231768	0.000454	20.764927
954.280462	-3.016000	3.661400	-11.042000	25.251228	0.000454	20.788732
955.288665	-3.000300	3.661000	-10.983000	25.259340	0.000451	20.756573
956.282541	-2.990800	3.661700	-10.950000	25.213457	0.000452	20.761242
957.281009	-3.018500	3.659300	-11.044000	25.148328	0.000450	20.766506
958.283382	-2.981100	3.662100	-10.916000	25.120716	0.000453	20.756804
959.283094	-2.989600	3.659600	-10.939000	25.112566	0.000452	20.753838
960.280625	-3.025500	3.660400	-11.074000	25.163211	0.000452	20.756317
961.282792	-3.020600	3.660000	-11.054000	25.203164	0.000452	20.770348
962.286015	-2.983300	3.659300	-10.916000	25.242787	0.000451	20.766980
963.285655	-2.985200	3.659300	-10.923000	25.234892	0.000450	20.752415
964.283717	-3.003900	3.658300	-10.988000	25.240546	0.000451	20.772792
965.281702	-2.977300	3.658900	-10.893000	25.236333	0.000452	20.755759
966.286242	-2.983700	3.658700	-10.915000	25.252232	0.000448	20.738056
967.283583	-2.992300	3.658500	-10.947000	25.308962	0.000450	20.746651
968.286930	-3.006700	3.658000	-10.997000	25.326593	0.000450	20.765302
969.286898	-3.008900	3.658300	-11.007000	25.317924	0.000449	20.742846
970.286424	-3.020100	3.658700	-11.049000	25.292192	0.000448	20.763478
971.285166	-3.018500	3.657000	-11.037000	25.306456	0.000449	20.755040
972.284458	-2.992900	3.656800	-10.944000	25.281027	0.000448	20.762700
973.286069	-3.001400	3.657000	-10.974000	25.265405	0.000450	20.733264
974.287306	-2.981300	3.656200	-10.899000	25.263444	0.000447	20.736510
975.291015	-2.997300	3.656000	-10.957000	25.315912	0.000447	20.747465
976.297401	-2.995200	3.656700	-10.952000	25.289091	0.000448	20.757519
977.291421	-2.994400	3.656700	-10.948000	25.290435	0.000445	20.750808
978.285565	-2.985400	3.656600	-10.915000	25.326435	0.000446	20.746177
979.288266	-2.989100	3.656500	-10.928000	25.358389	0.000447	20.755975
980.281080	-2.985300	3.656200	-10.915000	25.369940	0.000444	20.741969
981.286836	-2.999100	3.654800	-10.960000	25.340928	0.000444	20.748874
982.286071	-3.003900	3.653700	-10.974000	25.338907	0.000444	20.747793
983.284720	-3.007800	3.654700	-10.992000	25.302059	0.000444	20.725968
984.287833	-2.992000	3.653900	-10.932000	25.294007	0.000443	20.738272
985.288050	-2.988100	3.653500	-10.916000	25.311420	0.000443	20.746274
986.286942	-3.000700	3.653300	-10.962000	25.269862	0.000444	20.766189
987.288410	-3.002000	3.654500	-10.970000	25.312606	0.000442	20.735610
988.288892	-3.007500	3.652100	-10.983000	25.330962	0.000444	20.756412
989.286886	-3.014400	3.651100	-11.005000	25.352322	0.000439	20.744668
990.292205	-2.974600	3.653400	-10.866000	25.351716	0.000442	20.737421
991.290810	-3.002900	3.652500	-10.967000	25.330927	0.000444	20.747368
992.286620	-3.004900	3.651800	-10.972000	25.294964	0.000442	20.757252
993.289657	-3.011600	3.651500	-10.995000	25.300752	0.000442	20.738881
994.296006	-2.985900	3.651700	-10.902000	25.265647	0.000439	20.743464
995.292245	-2.995200	3.650200	-10.932000	25.267330	0.000441	20.724290
996.292533	-2.979000	3.651500	-10.877000	25.301284	0.000439	20.718077
997.295182	-2.995800	3.651400	-10.938000	25.266108	0.000440	20.728753
998.299191	-2.991100	3.650800	-10.919000	25.248015	0.000439	20.750418
999.298803	-2.995700	3.650700	-10.935000	25.266350	0.000439	20.732789
1000.292481	-2.985700	3.648800	-10.893000	25.209556	0.000438	20.730771
1001.294028	-3.011600	3.649200	-10.989000	25.251334	0.000440	20.748534
1002.289559	-3.006400	3.649400	-10.970000	25.298367	0.000436	20.732692
1003.290111	-2.997700	3.648400	-10.935000	25.330286	0.000436	20.743404
1004.293307	-3.017600	3.649400	-11.012000	25.317887	0.000439	20.723842
1005.292654	-3.018600	3.647100	-11.008000	25.348400	0.000437	20.724133
1006.295713	-2.998700	3.647100	-10.936000	25.353739	0.000437	20.730917
1007.296520	-2.993000	3.649000	-10.921000	25.332757	0.000436	20.707951
1008.292562	-2.994100	3.646700	-10.918000	25.330189	0.000436	20.742359
1009.294868	-2.998100	3.646000	-10.930000	25.344501	0.000436	20.733495
1010.295537	-2.996400	3.647500	-10.928000	25.346814	0.000437	20.742456
1011.293790	-2.989800	3.647400	-10.904000	25.355048	0.000437	20.733654
1012.293058	-3.002700	3.646600	-10.948000	25.339247	0.000435	20.737229
1013.297773	-3.005200	3.646500	-10.958000	25.368828	0.000435	20.701969
1014.293146	-2.991800	3.646900	-10.909000	25.393249	0.000433	20.722699
1015.296012	-3.000000	3.644800	-10.934000	25.358850	0.000435	20.713762
1016.296420	-2.990300	3.644700	-10.898000	25.334804	0.000433	20.723283
1017.298462	-2.998600	3.645400	-10.930000	25.276258	0.000433	20.712864
1018.295678	-3.035600	3.642800	-11.057000	25.257306	0.000429	20.727503
1019.295855	-3.000400	3.645400	-10.937000	25.237532	0.000434	20.719503
1020.300069	-3.017400	3.643400	-10.993000	25.267612	0.000431	20.722203
1021.300748	-3.007600	3.644200	-10.959000	25.288888	0.000431	20.722227
1022.304479	-2.994700	3.643700	-10.911000	25.324972	0.000432	20.718627
1023.299551	-2.992300	3.644000	-10.903000	25.320735	0.000430	20.705363
1024.302844	-2.984100	3.643200	-10.870000	25.329563	0.000430	20.722288
1025.296685	-2.991600	3.643600	-10.900000	25.308650	0.000432	20.722154
1026.303852	-3.018200	3.642000	-10.991000	25.293624	0.000430	20.708489
1027.298218	-3.024000	3.642900	-11.016000	25.282252	0.000428	20.700390
1028.303131	-2.980500	3.643700	-10.859000	25.257502	0.000429	20.695454
1029.300201	-3.004900	3.641200	-10.941000	25.276502	0.000429	20.704099
1030.307463	-3.010000	3.640400	-10.956000	25.252210	0.000432	20.709108
1031.303161	-2.990200	3.642000	-10.890000	25.227313	0.000429	20.709243
1032.300350	-2.994900	3.639900	-10.900000	25.217141	0.000428	20.724635
1033.304588	-2.997100	3.640200	-10.909000	25.211497	0.000428	20.706640
1034.303541	-3.002300	3.641200	-10.931000	25.199921	0.000428	20.723943
1035.305459	-3.012100	3.639900	-10.963000	25.197948	0.000425	20.710107
1036.302596	-3.009300	3.639200	-10.951000	25.215675	0.000426	20.705619
1037.302332	-2.999900	3.639600	-10.917000	25.276418	0.000426	20.708283
1038.304886	-2.980800	3.640600	-10.851000	25.288866	0.000426	20.697072
1039.309266	-3.017400	3.636700	-10.972000	25.247052	0.000426	20.715784
1040.301701	-3.003300	3.639100	-10.928000	25.251654	0.000424	20.699541
1041.301901	-2.994400	3.638100	-10.893000	25.268062	0.000426	20.708903
1042.302659	-3.027100	3.637500	-11.010000	25.312285	0.000425	20.718217
1043.301390	-2.983900	3.637600	-10.853000	25.326222	0.000425	20.702811
1044.303951	-3.007000	3.636400	-10.934000	25.346831	0.000424	20.705961
1045.301933	-2.999500	3.635700	-10.904000	25.389730	0.000423	20.698301
1046.309507	-3.003700	3.636800	-10.923000	25.399853	0.000422	20.688550
1047.300860	-3.007000	3.637200	-10.936000	25.425714	0.000422	20.692708
1048.303085	-3.013600	3.634800	-10.953000	25.432845	0.000423	20.683746
1049.304474	-3.006300	3.636600	-10.932000	25.388761	0.000422	20.704915
1050.305517	-3.028300	3.634200	-11.004000	25.313871	0.000420	20.707006
1051.308630	-2.976000	3.635900	-10.820000	25.281879	0.000418	20.706179
1052.305651	-3.024600	3.633600	-10.989000	25.288079	0.000421	20.691067
1053.305279	-3.010500	3.634000	-10.940000	25.272809	0.000420	20.698495
1054.306498	-2.993200	3.635000	-10.880000	25.276625	0.000418	20.713232
1055.306966	-3.001900	3.633600	-10.906000	25.284688	0.000417	20.701887
1056.302824	-3.007300	3.634200	-10.928000	25.342763	0.000419	20.702824
1057.305152	-2.954100	3.635700	-10.740000	25.358915	0.000419	20.701025
1058.305882	-2.991200	3.633300	-10.866000	25.336841	0.000419	20.711104
1059.305931	-2.979500	3.633900	-10.825000	25.345269	0.000417	20.713876
1060.306047	-3.002300	3.633500	-10.908000	25.426840	0.000419	20.700478
1061.306307	-2.981300	3.634200	-10.834000	25.426272	0.000420	20.704174
1062.304815	-2.995200	3.632800	-10.880000	25.449940	0.000418	20.700440
1063.303898	-3.010500	3.631500	-10.932000	25.420133	0.000417	20.681887
1064.307248	-3.044500	3.630000	-11.051000	25.403920	0.000418	20.704490
1065.312173	-3.002800	3.630000	-10.899000	25.343101	0.000417	20.700319
1066.311726	-3.001300	3.630300	-10.895000	25.319404	0.000414	20.674152
1067.308106	-2.985300	3.630600	-10.837000	25.347375	0.000411	20.701766
1068.309034	-3.006700	3.630300	-10.914000	25.384075	0.000414	20.698786
1069.313361	-2.987000	3.629600	-10.841000	25.418631	0.000413	20.693656
1070.305138	-2.997700	3.630200	-10.881000	25.403290	0.000414	20.680621
1071.308320	-2.995600	3.629400	-10.871000	25.435327	0.000412	20.687661
1072.309631	-3.001600	3.628200	-10.890000	25.380031	0.000413	20.693303
1073.309197	-2.988200	3.628900	-10.843000	25.394694	0.000413	20.700915
1074.306173	-2.984100	3.629100	-10.829000	25.422723	0.000415	20.684488
1075.314074	-2.996500	3.628500	-10.872000	25.402756	0.000412	20.698105
1076.307030	-3.007100	3.628800	-10.912000	25.381204	0.000412	20.688317
1077.311290	-2.999700	3.628100	-10.881000	25.402126	0.000410	20.677081
1078.317111	-2.988600	3.627700	-10.841000	25.425543	0.000411	20.685423
1079.307202	-3.005800	3.627500	-10.903000	25.391714	0.000410	20.701715
1080.309753	-3.022600	3.625400	-10.957000	25.397138	0.000409	20.685824
1081.309949	-3.015200	3.626600	-10.933000	25.409706	0.000408	20.690383
1082.312949	-3.016300	3.625700	-10.935000	25.442335	0.000409	20.691380
1083.312342	-3.012100	3.626300	-10.922000	25.453958	0.000410	20.700681
1084.309860	-3.005200	3.624800	-10.892000	25.473899	0.000409	20.685143
1085.309588	-2.993400	3.625500	-10.851000	25.515800	0.000408	20.687392
1086.309597	-3.025400	3.624400	-10.964000	25.515012	0.000407	20.694662
1087.312059	-3.014300	3.623100	-10.920000	25.491187	0.000409	20.694918
1088.310332	-3.021200	3.623400	-10.946000	25.495678	0.000409	20.701799
1089.314701	-2.978200	3.623900	-10.792000	25.471331	0.000408	20.697739
1090.313025	-3.005700	3.623900	-10.891000	25.479297	0.000407	20.677761
1091.313593	-2.986800	3.624100	-10.823000	25.464054	0.000407	20.678101
1092.310263	-2.980100	3.623200	-10.797000	25.421377	0.000405	20.703526
1093.313078	-2.994300	3.623600	-10.849000	25.412344	0.000405	20.691136
1094.312965	-2.969300	3.623100	-10.758000	25.424487	0.000406	20.672033
1095.312560	-3.004500	3.620900	-10.878000	25.402210	0.000405	20.667681
1096.318594	-2.988900	3.622200	-10.825000	25.403965	0.000406	20.672763
1097.313926	-3.001700	3.622000	-10.871000	25.393758	0.000402	20.672472
1098.315118	-3.010000	3.621200	-10.899000	25.360921	0.000404	20.669845
1099.313825	-3.004400	3.619800	-10.875000	25.384690	0.000402	20.670952
1100.315430	-2.988200	3.620500	-10.818000	25.399207	0.000403	20.678892
1101.311221	-2.978400	3.619200	-10.778000	25.423858	0.000405	20.664763
1102.309190	-3.000800	3.620100	-10.862000	25.386651	0.000403	20.681932
1103.314419	-3.016100	3.620300	-10.918000	25.436886	0.000402	20.687805
1104.313023	-2.993800	3.619900	-10.836000	25.450604	0.000402	20.673603
1105.313746	-3.020500	3.619300	-10.931000	25.441281	0.000402	20.703599
1106.313926	-2.988400	3.619000	-10.815000	25.433364	0.000402	20.683319
1107.314273	-2.984900	3.619500	-10.803000	25.388492	0.000401	20.680461
1108.314714	-2.984400	3.619700	-10.801000	25.438558	0.000401	20.671938
1109.316741	-2.981200	3.618900	-10.788000	25.453086	0.000400	20.688425
1110.316977	-2.987900	3.618000	-10.809000	25.477979	0.000400	20.679757
1111.318761	-3.018600	3.617300	-10.918000	25.481671	0.000401	20.668764
1112.314666	-2.999200	3.616400	-10.845000	25.505848	0.000400	20.693520
1113.319182	-3.001000	3.617200	-10.854000	25.546404	0.000400	20.671184
1114.318010	-2.995400	3.617400	-10.835000	25.552276	0.000397	20.660484
1115.319175	-3.013600	3.616700	-10.898000	25.526005	0.000395	20.675355
1116.318878	-2.984300	3.616000	-10.791000	25.503996	0.000399	20.667002
1117.317417	-3.003400	3.616100	-10.860000	25.514070	0.000398	20.646769
1118.318950	-2.970300	3.615900	-10.739000	25.528827	0.000398	20.671075
1119.323085	-2.996800	3.615400	-10.833000	25.517533	0.000396	20.679174
1120.324038	-2.996300	3.615300	-10.831000	25.466467	0.000397	20.672463
1121.316483	-2.997600	3.614400	-10.834000	25.436671	0.000398	20.656291
1122.326880	-3.013400	3.612900	-10.886000	25.406850	0.000393	20.681351
1123.326540	-2.992100	3.614400	-10.813000	25.407140	0.000397	20.662200
1124.322236	-3.014700	3.612400	-10.889000	25.382453	0.000394	20.675345
1125.320803	-3.010900	3.612700	-10.876000	25.365878	0.000392	20.663442
1126.318768	-3.004900	3.612900	-10.856000	25.388458	0.000394	20.652449
1127.322452	-3.008400	3.611600	-10.864000	25.417687	0.000395	20.660462
1128.320322	-2.993700	3.612600	-10.814000	25.410169	0.000394	20.655757
1129.324798	-2.999000	3.610500	-10.827000	25.425521	0.000394	20.669752
1130.320051	-2.983100	3.611800	-10.773000	25.397140	0.000393	20.658322
1131.320638	-3.007400	3.610800	-10.858000	25.410882	0.000393	20.673071
1132.322886	-2.979000	3.611100	-10.757000	25.414394	0.000393	20.657156
1133.321793	-2.985000	3.611600	-10.780000	25.390457	0.000390	20.653507
1134.318937	-3.000500	3.610600	-10.833000	25.430908	0.000390	20.683698
1135.319572	-2.992500	3.610900	-10.805000	25.428547	0.000390	20.661885
1136.322449	-3.008900	3.609500	-10.859000	25.463344	0.000390	20.678336
1137.319389	-2.995800	3.608500	-10.808000	25.504774	0.000391	20.676792
1138.322412	-3.022800	3.609100	-10.908000	25.479167	0.000392	20.654394
1139.324472	-3.019200	3.609700	-10.897000	25.454021	0.000390	20.668973
1140.326991	-2.974200	3.609100	-10.733000	25.444081	0.000388	20.676536
1141.323561	-3.022600	3.607500	-10.903000	25.425749	0.000390	20.685630
1142.321732	-2.993000	3.608600	-10.800000	25.410942	0.000389	20.672183
1143.321829	-3.015400	3.607500	-10.877000	25.437929	0.000389	20.667039
1144.318338	-3.011100	3.607100	-10.859000	25.406207	0.000385	20.677386
1145.320346	-2.995600	3.607900	-10.807000	25.409706	0.000388	20.668570
1146.321346	-2.992500	3.606800	-10.791000	25.471828	0.000385	20.671682
1147.317470	-2.982800	3.607300	-10.758000	25.507071	0.000387	20.658709
1148.319336	-2.999600	3.605800	-10.815000	25.492930	0.000386	20.671062
1149.320397	-2.999900	3.605100	-10.814000	25.440761	0.000385	20.679841
1150.317983	-2.994800	3.605600	-10.798000	25.479648	0.000385	20.694711
1151.334347	-3.002100	3.604400	-10.820000	25.439658	0.000383	20.687743
1152.322348	-2.993900	3.605800	-10.795000	25.396616	0.000384	20.683877
1153.320345	-2.995800	3.605700	-10.802000	25.410527	0.000385	20.667498
1154.322383	-3.017500	3.605600	-10.879000	25.388951	0.000383	20.673809
1155.323116	-3.008300	3.603900	-10.841000	25.380148	0.000383	20.665443
1156.323433	-3.014600	3.603400	-10.862000	25.370328	0.000385	20.668859
1157.325614	-2.994700	3.603700	-10.792000	25.369263	0.000383	20.673954
1158.324999	-2.986100	3.602900	-10.758000	25.392740	0.000383	20.670500
1159.325918	-2.979400	3.604000	-10.737000	25.360798	0.000381	20.666877
1160.323287	-2.990900	3.601900	-10.772000	25.341171	0.000383	20.687000
1161.329476	-2.982200	3.601700	-10.740000	25.387315	0.000382	20.684969
1162.330678	-2.989700	3.602500	-10.770000	25.430175	0.000379	20.686282
1163.321723	-3.003400	3.602000	-10.817000	25.419218	0.000381	20.685710
1164.323626	-2.984200	3.601000	-10.745000	25.380074	0.000382	20.683388
1165.324382	-3.016600	3.600200	-10.859000	25.378075	0.000379	20.691813
1166.324641	-3.005800	3.599700	-10.819000	25.392689	0.000380	20.684676
1167.326190	-3.016200	3.600600	-10.859000	25.412184	0.000379	20.677223
1168.329229	-3.017200	3.599400	-10.859000	25.446326	0.000379	20.689698
1169.327317	-2.961000	3.601000	-10.661000	25.470201	0.000378	20.690439
1170.330674	-3.015600	3.598200	-10.849000	25.475674	0.000376	20.698781
1171.327921	-3.017600	3.598300	-10.857000	25.460237	0.000376	20.711729
1172.328185	-3.000900	3.599100	-10.799000	25.512768	0.000375	20.674863
1173.328525	-3.011100	3.598400	-10.835000	25.463966	0.000375	20.693187
1174.330697	-2.999100	3.598000	-10.790000	25.477490	0.000377	20.685430
1175.329032	-2.995400	3.596900	-10.773000	25.507612	0.000376	20.673952
1176.332637	-3.002000	3.597200	-10.798000	25.504924	0.000375	20.683582
1177.333748	-2.981800	3.598800	-10.730000	25.478568	0.000374	20.677029
1178.336894	-3.008300	3.596700	-10.818000	25.469984	0.000375	20.686901
1179.333401	-2.985000	3.597900	-10.739000	25.444233	0.000375	20.671947
1180.332034	-2.989400	3.597400	-10.753000	25.497661	0.000373	20.685772
1181.336137	-2.965800	3.596700	-10.666000	25.427465	0.000373	20.699682
1182.331508	-2.989200	3.596200	-10.748000	25.473666	0.000374	20.675425
1183.332223	-2.965800	3.596500	-10.666000	25.484454	0.000372	20.689579
1184.335058	-3.007200	3.595400	-10.811000	25.447624	0.000377	20.679620
1185.334020	-2.992800	3.596200	-10.761000	25.450119	0.000370	20.706784
1186.335179	-2.992300	3.595800	-10.760000	25.441668	0.000374	20.699720
1187.336319	-3.016900	3.593800	-10.841000	25.431873	0.000372	20.692254
1188.335940	-2.972900	3.594900	-10.685000	25.447141	0.000372	20.674393
1189.336226	-2.994100	3.593500	-10.759000	25.457832	0.000371	20.707891
1190.338492	-2.989700	3.594600	-10.746000	25.456887	0.000371	20.685130
1191.339110	-2.996300	3.592400	-10.763000	25.389074	0.000371	20.695271
1192.337199	-3.000200	3.592300	-10.777000	25.344202	0.000368	20.677240
1193.343173	-2.998500	3.591800	-10.769000	25.363212	0.000369	20.688268
1194.339684	-2.998100	3.592700	-10.769000	25.384848	0.000368	20.691976
1195.341151	-2.996200	3.591700	-10.760000	25.396908	0.000369	20.710251
1196.338249	-2.980800	3.593600	-10.710000	25.385526	0.000367	20.695028
1197.341350	-2.992200	3.590300	-10.741000	25.440701	0.000370	20.701120
1198.342133	-2.989500	3.592200	-10.738000	25.456477	0.000368	20.697520
1199.347046	-2.986600	3.590600	-10.723000	25.456817	0.000369	20.680317
1200.341450	-2.978100	3.590800	-10.693000	25.437833	0.000367	20.706775
1201.339226	-3.000000	3.589600	-10.768000	25.403483	0.000368	20.692670
1202.345409	-3.012800	3.590100	-10.816000	25.412407	0.000366	20.701631
1203.341476	-2.995300	3.589500	-10.751000	25.410191	0.000367	20.701777
1204.342928	-2.991500	3.587600	-10.732000	25.468039	0.000368	20.689691
1205.344545	-2.992300	3.587700	-10.734000	25.495135	0.000364	20.688451
1206.341145	-2.968900	3.589500	-10.656000	25.470982	0.000366	20.689801
1207.342316	-3.008400	3.587600	-10.792000	25.458681	0.000364	20.682664
1208.344788	-3.005700	3.588300	-10.784000	25.495366	0.000365	20.698166
1209.344459	-2.988300	3.587900	-10.721000	25.549312	0.000363	20.704452
1210.340998	-3.009600	3.586400	-10.793000	25.522472	0.000364	20.703577
1211.344813	-2.972900	3.587900	-10.666000	25.541116	0.000364	20.677727
1212.343777	-3.013300	3.587400	-10.809000	25.555704	0.000364	20.697121
1213.347377	-2.989700	3.586400	-10.721000	25.550511	0.000361	20.688111
1214.347527	-3.025000	3.585300	-10.844000	25.514627	0.000360	20.697595
1215.347484	-2.994100	3.586800	-10.737000	25.506855	0.000365	20.696903
1216.361129	-3.010200	3.584700	-10.789000	25.522013	0.000362	20.696003
1217.347518	-2.987900	3.584800	-10.709000	25.465571	0.000362	20.708076
1218.344469	-2.987600	3.585300	-10.710000	25.491505	0.000359	20.696186
1219.343321	-2.989500	3.585600	-10.719000	25.460972	0.000359	20.701561
1220.354015	-3.003600	3.584600	-10.766000	25.504435	0.000361	20.709646
1221.345948	-3.009200	3.584100	-10.784000	25.521808	0.000360	20.706704
1222.345109	-3.010400	3.583100	-10.786000	25.464435	0.000358	20.713574
1223.349041	-2.996700	3.583400	-10.737000	25.457449	0.000360	20.721732
1224.344693	-2.979600	3.583300	-10.676000	25.496845	0.000360	20.716723
1225.344995	-3.002700	3.583200	-10.758000	25.553830	0.000359	20.722742
1226.351280	-3.005900	3.582000	-10.766000	25.570996	0.000357	20.701574
1227.348810	-3.034000	3.581100	-10.864000	25.596177	0.000357	20.709319
1228.348878	-3.005000	3.582300	-10.764000	25.574169	0.000357	20.705709
1229.352777	-2.970100	3.581900	-10.638000	25.584108	0.000355	20.695775
1230.346528	-2.988900	3.581800	-10.705000	25.558468	0.000357	20.707484
1231.347198	-2.985700	3.581500	-10.692000	25.541291	0.000354	20.707777
1232.354655	-2.990700	3.580000	-10.706000	25.552416	0.000356	20.712786
1233.349977	-2.987200	3.581300	-10.697000	25.527006	0.000357	20.698172
1234.353646	-3.000400	3.580000	-10.740000	25.481231	0.000355	20.703413
1235.352844	-3.010000	3.578600	-10.770000	25.482974	0.000354	20.716544
1236.349267	-3.007800	3.579900	-10.767000	25.482140	0.000352	20.701955
1237.351128	-2.995300	3.579300	-10.720000	25.481123	0.000355	20.690501
1238.349895	-2.987100	3.580000	-10.692000	25.486462	0.000354	20.711037
1239.347035	-3.018200	3.577100	-10.796000	25.521015	0.000352	20.722504
1240.345898	-2.992000	3.577700	-10.704000	25.527842	0.000351	20.727938
1241.351169	-2.992400	3.577200	-10.703000	25.550239	0.000351	20.712971
1242.350495	-3.002300	3.577000	-10.738000	25.589160	0.000353	20.721714
1243.349043	-3.003600	3.577400	-10.745000	25.614969	0.000351	20.696423
1244.354991	-2.999100	3.576300	-10.725000	25.633067	0.000351	20.706066
1245.352271	-2.993200	3.576600	-10.705000	25.635743	0.000350	20.713970
1246.348220	-2.973400	3.575500	-10.630000	25.626398	0.000350	20.715016
1247.347716	-3.023900	3.575600	-10.810000	25.634883	0.000349	20.717848
1248.350235	-2.987900	3.576200	-10.684000	25.614947	0.000348	20.723904
1249.353448	-3.008700	3.575800	-10.757000	25.577164	0.000350	20.725787
1250.348410	-3.009400	3.574400	-10.756000	25.547602	0.000348	20.716961
1251.354905	-3.029300	3.574600	-10.828000	25.600456	0.000351	20.731162
1252.354494	-2.996900	3.574200	-10.710000	25.610818	0.000347	20.727819
1253.352657	-3.015200	3.572500	-10.771000	25.560918	0.000349	20.732706
1254.356980	-3.021300	3.573600	-10.796000	25.561088	0.000348	20.730505
1255.350355	-2.999700	3.573900	-10.720000	25.574913	0.000348	20.713095
1256.352673	-3.008500	3.573000	-10.748000	25.588339	0.000347	20.713776
1257.348478	-3.011500	3.573500	-10.761000	25.567262	0.000346	20.731491
1258.362586	-2.983100	3.571900	-10.654000	25.525424	0.000346	20.716500
1259.349471	-2.980300	3.572300	-10.646000	25.539116	0.000345	20.728354
1260.352741	-3.008400	3.572100	-10.746000	25.563692	0.000345	20.724111
1261.359622	-2.991100	3.571800	-10.683000	25.550303	0.000346	20.740538
1262.354416	-3.006900	3.571800	-10.739000	25.561718	0.000345	20.717387
1263.354117	-3.017500	3.571400	-10.776000	25.599053	0.000346	20.728804
1264.356865	-2.997200	3.569700	-10.698000	25.594149	0.000344	20.754227
1265.354551	-2.981400	3.571200	-10.646000	25.590614	0.000345	20.730761
1266.351886	-3.010500	3.570500	-10.748000	25.601400	0.000343	20.726895
1267.356027	-3.004600	3.569700	-10.724000	25.621108	0.000346	20.734360
1268.358364	-3.009400	3.569200	-10.740000	25.610649	0.000344	20.738081
1269.353898	-3.009900	3.568700	-10.740000	25.621956	0.000342	20.725728
1270.352868	-3.006500	3.568900	-10.730000	25.616194	0.000343	20.728476
1271.356486	-2.998000	3.568800	-10.699000	25.601897	0.000342	20.736402
1272.366523	-3.019000	3.568200	-10.771000	25.565119	0.000343	20.706103
1273.359478	-3.011000	3.568200	-10.743000	25.536222	0.000341	20.731138
1274.360849	-3.008400	3.566500	-10.728000	25.575761	0.000342	20.730068
1275.357038	-3.002300	3.566900	-10.708000	25.618214	0.000343	20.719125
1276.367751	-3.014400	3.566600	-10.751000	25.601231	0.000339	20.745218
1277.362126	-3.013100	3.566400	-10.745000	25.636894	0.000340	20.748318
1278.354764	-2.998300	3.566400	-10.692000	25.662315	0.000340	20.762471
1279.354206	-3.007700	3.565400	-10.722000	25.699851	0.000339	20.745169
1280.359814	-2.975200	3.565700	-10.607000	25.705454	0.000338	20.745107
1281.354464	-3.022700	3.564500	-10.773000	25.679393	0.000337	20.727940
1282.357535	-3.013300	3.563700	-10.738000	25.646033	0.000339	20.741850
1283.362211	-2.990100	3.564000	-10.656000	25.628431	0.000339	20.737448
1284.353415	-2.993000	3.564800	-10.669000	25.617538	0.000338	20.751638
1285.354420	-3.003200	3.563800	-10.701000	25.612731	0.000338	20.739697
1286.361233	-3.007700	3.563300	-10.716000	25.612042	0.000335	20.758920
1287.354762	-2.991900	3.563400	-10.659000	25.588895	0.000337	20.762700
1288.357133	-2.987400	3.563100	-10.644000	25.586837	0.000336	20.749254
1289.363684	-3.004200	3.562100	-10.700000	25.572601	0.000336	20.759613
1290.359838	-3.009800	3.561800	-10.719000	25.632087	0.000334	20.762458
1291.358689	-3.023300	3.561400	-10.765000	25.637219	0.000335	20.728730
1292.364646	-2.999400	3.561400	-10.681000	25.653404	0.000335	20.742615
1293.363597	-2.977400	3.561800	-10.604000	25.630478	0.000337	20.751358
1294.359938	-2.970900	3.560700	-10.578000	25.636323	0.000334	20.760548
1295.360964	-2.984900	3.561400	-10.629000	25.656296	0.000335	20.748839
1296.360774	-2.994600	3.560500	-10.662000	25.605417	0.000333	20.743731
1297.359432	-3.008500	3.560300	-10.711000	25.551570	0.000334	20.766467
1298.360314	-3.018100	3.559300	-10.741000	25.579257	0.000334	20.737847
1299.360718	-2.993800	3.560700	-10.659000	25.626407	0.000333	20.772400
1300.359385	-2.985500	3.560900	-10.630000	25.674330	0.000331	20.762211
1301.359414	-2.982900	3.559300	-10.616000	25.664392	0.000333	20.778782
1302.361542	-3.005700	3.559000	-10.696000	25.671715	0.000332	20.768119
1303.360430	-3.011200	3.558300	-10.714000	25.624312	0.000330	20.758442
1304.361281	-3.001500	3.558000	-10.678000	25.631805	0.000330	20.757432
1305.362753	-2.987700	3.559400	-10.634000	25.663980	0.000328	20.770307
1306.361547	-3.006600	3.557400	-10.694000	25.638269	0.000329	20.760605
1307.360799	-3.010200	3.556800	-10.705000	25.647226	0.000331	20.748738
1308.362261	-3.026700	3.556900	-10.764000	25.599422	0.000330	20.761419
1309.363969	-2.982100	3.557600	-10.609000	25.564957	0.000327	20.754307
1310.366477	-2.999200	3.556300	-10.664000	25.613004	0.000329	20.766525
1311.365546	-3.009000	3.556600	-10.702000	25.608731	0.000328	20.765078
1312.370317	-2.991200	3.555600	-10.635000	25.617350	0.000325	20.794598
1313.364933	-2.992700	3.555100	-10.639000	25.638122	0.000328	20.768993
1314.370905	-2.997300	3.555400	-10.656000	25.640421	0.000327	20.764190
1315.366207	-3.006400	3.554100	-10.685000	25.677389	0.000326	20.778560
1316.365018	-3.018700	3.553800	-10.726000	25.680718	0.000326	20.766256
1317.368502	-2.995000	3.553900	-10.643000	25.635615	0.000324	20.776432
1318.369130	-3.000000	3.554200	-10.662000	25.624139	0.000327	20.763010
1319.362940	-3.002500	3.552500	-10.665000	25.584673	0.000327	20.776004
1320.368408	-3.021700	3.552000	-10.732000	25.568888	0.000325	20.773428
1321.366098	-3.012400	3.552800	-10.700000	25.577508	0.000324	20.774972
1322.367898	-3.030200	3.551600	-10.761000	25.602930	0.000326	20.767787
1323.368989	-2.988100	3.551600	-10.612000	25.597688	0.000324	20.792395
1324.370016	-2.991900	3.552200	-10.627000	25.584928	0.000322	20.793330
1325.367092	-2.999800	3.551600	-10.653000	25.576926	0.000324	20.777707
1326.365386	-3.006500	3.550500	-10.674000	25.541806	0.000324	20.788430
1327.376989	-2.993100	3.551700	-10.630000	25.566357	0.000323	20.792223
1328.372170	-2.991800	3.551400	-10.624000	25.654473	0.000320	20.783044
1329.370950	-3.013900	3.550100	-10.699000	25.690726	0.000323	20.772515
1330.367872	-2.984700	3.550600	-10.597000	25.721192	0.000322	20.795529
1331.375862	-3.000100	3.549200	-10.647000	25.705275	0.000321	20.796137
1332.373378	-3.010400	3.549400	-10.684000	25.662667	0.000320	20.786059
1333.372878	-2.997800	3.549800	-10.641000	25.637222	0.000323	20.776624
1334.372022	-2.988100	3.549100	-10.604000	25.630819	0.000322	20.807177
1335.379508	-2.992900	3.547400	-10.616000	25.641640	0.000322	20.779165
1336.370526	-2.998200	3.547400	-10.635000	25.663914	0.000322	20.793001
1337.377330	-3.006600	3.548300	-10.667000	25.615868	0.000321	20.781730
1338.374809	-3.007200	3.546200	-10.663000	25.599610	0.000318	20.796221
1339.370859	-3.021900	3.545900	-10.714000	25.632888	0.000317	20.812574
1340.372221	-2.985400	3.546700	-10.588000	25.644098	0.000320	20.774520
1341.371608	-3.032200	3.546100	-10.751000	25.668330	0.000320	20.794592
1342.371686	-3.017600	3.544000	-10.693000	25.676380	0.000319	20.798883
1343.374579	-3.001900	3.545700	-10.643000	25.666091	0.000318	20.813679
1344.371918	-2.995600	3.544800	-10.617000	25.716458	0.000316	20.806421
1345.370790	-3.004100	3.544600	-10.647000	25.734965	0.000317	20.804148
1346.372487	-2.997300	3.544900	-10.624000	25.666345	0.000318	20.798288
1347.377433	-2.981600	3.546000	-10.571000	25.649954	0.000316	20.808378
1348.375247	-2.988200	3.544100	-10.590000	25.661805	0.000316	20.806530
1349.373678	-2.995200	3.544000	-10.615000	25.699898	0.000314	20.804961
1350.378790	-3.001700	3.544300	-10.638000	25.682638	0.000315	20.810858
1351.375895	-3.001200	3.543100	-10.633000	25.693410	0.000315	20.775211
1352.373893	-3.009200	3.543600	-10.663000	25.716941	0.000314	20.805484
1353.379250	-3.033500	3.541500	-10.742000	25.729094	0.000316	20.787819
1354.377943	-3.015800	3.541300	-10.679000	25.787264	0.000313	20.812583
1355.373480	-2.998000	3.542600	-10.620000	25.777048	0.000312	20.823184
1356.375453	-2.995900	3.542600	-10.612000	25.752743	0.000313	20.798771
1357.381718	-2.978900	3.541700	-10.549000	25.790603	0.000315	20.805032
1358.374271	-3.016700	3.541000	-10.681000	25.722980	0.000314	20.830041
1359.380826	-3.000100	3.540800	-10.622000	25.700090	0.000315	20.826964
1360.379389	-2.986800	3.539400	-10.570000	25.713791	0.000312	20.805165
1361.374279	-2.975200	3.540300	-10.532000	25.686290	0.000312	20.802673
1362.376663	-3.003300	3.538900	-10.627000	25.673882	0.000311	20.806806
1363.381430	-2.986700	3.539000	-10.569000	25.742187	0.000313	20.807608
1364.378317	-2.982200	3.540400	-10.557000	25.769239	0.000312	20.812970
1365.376046	-3.001000	3.538900	-10.620000	25.803249	0.000313	20.820580
1366.380534	-2.994500	3.538000	-10.594000	25.817955	0.000310	20.812118
1367.379056	-2.991500	3.536600	-10.578000	25.787442	0.000310	20.827461
1368.377558	-3.011900	3.536800	-10.651000	25.730228	0.000310	20.793225
1369.380376	-3.008900	3.537500	-10.642000	25.695815	0.000310	20.797067
1370.384144	-3.026100	3.535900	-10.699000	25.703816	0.000311	20.798465
1371.380638	-2.994700	3.536900	-10.591000	25.697449	0.000311	20.809139
1372.379794	-2.993300	3.536100	-10.584000	25.737998	0.000308	20.815255
1373.380348	-3.009400	3.535500	-10.638000	25.748080	0.000309	20.805467
1374.380434	-2.998900	3.536000	-10.603000	25.783604	0.000310	20.795631
1375.386984	-2.983400	3.535700	-10.548000	25.752522	0.000308	20.780057
1376.387691	-2.966300	3.535800	-10.486000	25.759179	0.000310	20.811400
1377.386136	-3.010400	3.534700	-10.640000	25.786933	0.000308	20.800397
1378.386966	-3.034300	3.532100	-10.716000	25.769031	0.000306	20.797588
1379.387421	-3.006100	3.533300	-10.621000	25.727648	0.000308	20.794427
1380.388908	-3.009000	3.534500	-10.634000	25.732356	0.000308	20.803897
1381.384550	-3.002600	3.533400	-10.609000	25.757774	0.000307	20.777272
1382.387919	-2.981100	3.533900	-10.534000	25.766247	0.000306	20.775351
1383.385441	-3.018800	3.532600	-10.662000	25.739836	0.000307	20.792919
1384.388365	-3.008300	3.532700	-10.627000	25.744495	0.000309	20.810401
1385.391456	-2.996600	3.533000	-10.586000	25.748816	0.000307	20.801465
1386.386843	-2.987500	3.531100	-10.548000	25.740381	0.000306	20.785405
1387.389973	-2.980600	3.531600	-10.526000	25.752241	0.000304	20.768870
1388.388752	-3.003300	3.530200	-10.602000	25.792220	0.000306	20.784371
1389.394586	-3.010200	3.530600	-10.626000	25.780165	0.000303	20.758036
1390.386122	-2.989500	3.531000	-10.555000	25.746129	0.000300	20.799240
1391.385845	-2.985900	3.530900	-10.541000	25.680632	0.000303	20.783714
1392.391586	-3.002400	3.529600	-10.597000	25.686539	0.000304	20.769732
1393.386751	-3.006200	3.529300	-10.609000	25.682339	0.000301	20.774048
1394.388539	-3.015700	3.527700	-10.637000	25.694406	0.000306	20.778108
1395.387803	-2.996700	3.530600	-10.579000	25.698969	0.000302	20.784114
1396.389552	-3.006900	3.528400	-10.607000	25.733999	0.000302	20.780892
1397.384899	-2.993200	3.528200	-10.560000	25.745280	0.000302	20.765196
1398.387696	-2.987600	3.528300	-10.540000	25.769657	0.000301	20.772612
1399.385787	-2.964000	3.528400	-10.457000	25.726227	0.000303	20.779249
1400.385447	-2.988000	3.526200	-10.535000	25.729458	0.000301	20.783918
1401.391863	-3.007600	3.527100	-10.607000	25.704790	0.000301	20.765304
1402.387854	-3.031500	3.524300	-10.683000	25.669009	0.000299	20.794325
1403.391319	-3.003800	3.526600	-10.592000	25.673341	0.000299	20.768804
1404.387470	-3.013300	3.524500	-10.619000	25.662459	0.000301	20.787272
1405.391016	-3.010900	3.524200	-10.609000	25.683835	0.000298	20.798311
1406.392566	-2.989300	3.525300	-10.537000	25.741148	0.000299	20.792815
1407.387701	-2.970600	3.525700	-10.472000	25.744380	0.000297	20.767137
1408.387837	-2.971000	3.525000	-10.472000	25.787675	0.000300	20.783599
1409.395216	-3.001600	3.524400	-10.579000	25.846954	0.000297	20.776290
1410.392009	-3.006700	3.523200	-10.592000	25.865810	0.000297	20.779111
1411.393021	-3.026300	3.523000	-10.661000	25.894602	0.000299	20.771050
1412.393734	-3.011100	3.523100	-10.608000	25.853284	0.000297	20.779330
1413.393841	-2.978700	3.523800	-10.496000	25.780979	0.000295	20.773080
1414.397965	-2.993200	3.521000	-10.539000	25.774842	0.000297	20.797262
1415.397054	-2.987600	3.522100	-10.522000	25.757316	0.000295	20.772070
1416.396189	-3.000600	3.521400	-10.565000	25.678250	0.000294	20.761407
1417.400183	-2.985600	3.521300	-10.512000	25.698670	0.000296	20.785710
1418.400270	-3.004300	3.521400	-10.578000	25.729912	0.000297	20.792434
1419.393550	-3.014200	3.519700	-10.608000	25.744061	0.000293	20.767765
1420.397544	-2.993200	3.520700	-10.537000	25.721607	0.000294	20.781721
1421.394773	-2.989000	3.520500	-10.522000	25.732223	0.000293	20.783849
1422.401206	-2.982100	3.521100	-10.500000	25.701115	0.000295	20.774415
1423.393949	-2.999800	3.520000	-10.558000	25.740744	0.000293	20.766329
1424.400455	-2.992000	3.520400	-10.532000	25.814369	0.000295	20.774377
1425.404846	-3.003500	3.518800	-10.567000	25.810762	0.000294	20.757477
1426.402436	-2.985600	3.519800	-10.508000	25.757918	0.000292	20.755605
1427.401588	-2.966400	3.518300	-10.436000	25.765047	0.000293	20.778413
1428.397287	-2.998200	3.516800	-10.543000	25.711571	0.000292	20.780176
1429.399509	-2.998500	3.517300	-10.545000	25.723034	0.000294	20.762766
1430.406397	-2.998600	3.516000	-10.541000	25.776932	0.000292	20.783239
1431.406837	-3.007100	3.516400	-10.572000	25.752192	0.000292	20.764552
1432.400263	-2.991200	3.516900	-10.519000	25.748694	0.000290	20.753927
1433.402367	-2.992300	3.516100	-10.519000	25.759212	0.000292	20.754059
1434.404794	-3.008100	3.516900	-10.579000	25.769682	0.000290	20.760783
1435.411337	-3.006500	3.515600	-10.568000	25.785246	0.000290	20.765038
1436.405008	-2.975100	3.516100	-10.460000	25.771061	0.000291	20.773549
1437.405610	-2.978200	3.516000	-10.471000	25.759611	0.000288	20.762996
1438.407011	-2.991700	3.515200	-10.516000	25.803329	0.000290	20.762813
1439.401909	-2.995300	3.515100	-10.528000	25.862003	0.000288	20.759165
1440.405853	-3.001100	3.513700	-10.543000	25.878378	0.000289	20.763761
1441.407997	-2.999100	3.514700	-10.540000	25.895636	0.000290	20.755967
1442.407456	-3.010400	3.513000	-10.574000	25.906371	0.000290	20.783822
1443.406497	-3.024800	3.512700	-10.624000	25.844298	0.000288	20.771251
1444.408981	-3.011400	3.512300	-10.576000	25.819874	0.000287	20.753828
1445.406420	-2.996100	3.513400	-10.525000	25.826857	0.000286	20.760369
1446.404217	-3.021100	3.511200	-10.607000	25.818240	0.000285	20.753609
1447.407746	-3.000000	3.512100	-10.535000	25.787315	0.000288	20.778022
1448.406469	-2.992200	3.509600	-10.500000	25.775007	0.000287	20.772296
1449.408210	-2.994600	3.511000	-10.513000	25.754092	0.000286	20.772150
1450.408894	-3.011100	3.510600	-10.570000	25.767575	0.000284	20.746812
1451.414442	-2.971500	3.510900	-10.432000	25.776096	0.000284	20.765803
1452.407589	-2.986500	3.510500	-10.483000	25.766268	0.000285	20.747871
1453.414023	-3.007800	3.508600	-10.553000	25.731808	0.000283	20.756406
1454.411559	-3.014500	3.508700	-10.575000	25.720576	0.000285	20.747494
1455.408591	-3.013500	3.509300	-10.574000	25.727136	0.000282	20.775421
1456.414654	-3.000800	3.507400	-10.524000	25.767684	0.000281	20.754509
1457.412785	-2.989900	3.507200	-10.485000	25.791613	0.000280	20.734922
1458.411828	-2.988800	3.508800	-10.486000	25.756162	0.000280	20.745780
1459.411402	-3.005400	3.507100	-10.540000	25.726023	0.000282	20.744430
1460.412442	-3.004900	3.508000	-10.539000	25.717477	0.000280	20.745330
1461.410443	-2.989900	3.507800	-10.488000	25.759925	0.000282	20.752405
1462.414356	-3.002700	3.505600	-10.525000	25.800703	0.000280	20.747846
1463.416525	-3.002200	3.505400	-10.523000	25.818991	0.000282	20.733500
1464.414710	-2.998600	3.505800	-10.511000	25.766220	0.000278	20.722691
1465.411057	-3.005100	3.506400	-10.536000	25.759199	0.000281	20.754520
1466.413558	-3.028700	3.504600	-10.613000	25.788792	0.000277	20.744891
1467.410186	-2.993800	3.504800	-10.492000	25.842640	0.000278	20.743506
1468.413432	-3.018300	3.505500	-10.580000	25.836903	0.000280	20.748175
1469.412559	-3.020500	3.503200	-10.580000	25.764174	0.000278	20.745293
1470.411935	-3.004700	3.505300	-10.531000	25.800593	0.000277	20.733511
1471.412516	-2.992700	3.504300	-10.486000	25.831395	0.000279	20.755445
1472.413048	-2.998900	3.504200	-10.508000	25.858482	0.000277	20.775068
1473.415459	-3.012800	3.502100	-10.550000	25.830645	0.000277	20.751371
1474.412394	-2.993600	3.502500	-10.484000	25.840048	0.000276	20.740902
1475.413761	-3.011400	3.501800	-10.544000	25.804477	0.000277	20.754483
1476.426001	-2.988500	3.501000	-10.461000	25.805735	0.000275	20.747686
1477.416908	-3.000500	3.502000	-10.507000	25.763797	0.000276	20.735430
1478.416637	-2.996100	3.501000	-10.489000	25.763252	0.000277	20.750057
1479.414772	-2.998000	3.500100	-10.493000	25.748751	0.000276	20.742129
1480.418460	-3.000500	3.501000	-10.503000	25.796694	0.000275	20.736707
1481.417099	-2.994100	3.500100	-10.479000	25.782944	0.000274	20.748974
1482.417674	-3.001000	3.498900	-10.499000	25.828015	0.000275	20.746359
1483.419303	-3.000400	3.500000	-10.500000	25.843012	0.000275	20.745777
1484.419454	-3.015700	3.499200	-10.552000	25.812379	0.000273	20.741083
1485.422936	-2.999000	3.499900	-10.495000	25.768516	0.000273	20.730687
1486.427538	-2.959400	3.499400	-10.356000	25.782822	0.000274	20.749326
1487.420171	-3.010200	3.497900	-10.528000	25.795494	0.000272	20.746882
1488.418844	-3.042100	3.496400	-10.636000	25.787313	0.000273	20.720171
1489.423575	-3.002400	3.496800	-10.498000	25.808941	0.000272	20.729095
1490.419837	-2.999100	3.497200	-10.487000	25.788172	0.000272	20.740001
1491.418749	-2.997500	3.496600	-10.479000	25.846811	0.000274	20.737738
1492.424040	-3.020800	3.496700	-10.561000	25.889389	0.000272	20.762020
1493.427723	-2.995700	3.495900	-10.472000	25.836718	0.000272	20.720486
1494.418034	-2.990300	3.496000	-10.453000	25.780244	0.000271	20.734408
1495.425064	-2.986400	3.495600	-10.438000	25.759086	0.000269	20.742079
1496.426883	-2.969500	3.495000	-10.378000	25.770331	0.000271	20.713069
1497.425148	-3.003200	3.493300	-10.490000	25.707111	0.000272	20.751039
1498.424242	-3.002300	3.494600	-10.491000	25.717134	0.000268	20.753994
1499.424343	-2.988600	3.495500	-10.446000	25.741778	0.000268	20.711415
1500.427764	-3.003200	3.492900	-10.489000	25.802151	0.000268	20.735550
1501.421021	-3.016100	3.492600	-10.532000	25.813818	0.000269	20.734467
1502.423574	-2.998500	3.493700	-10.475000	25.786791	0.000269	20.722966
1503.419930	-2.997100	3.492200	-10.465000	25.815960	0.000270	20.726662
1504.422555	-2.977900	3.493100	-10.400000	25.835434	0.000267	20.741957
1505.422630	-3.014800	3.492700	-10.528000	25.783377	0.000266	20.722856
1506.430509	-2.980600	3.492200	-10.409000	25.775669	0.000266	20.721276
1507.426241	-3.014700	3.490500	-10.522000	25.737771	0.000268	20.720668
1508.420765	-3.016700	3.491300	-10.532000	25.801692	0.000268	20.720389
1509.424913	-2.997500	3.491100	-10.463000	25.831271	0.000266	20.718334
1510.425353	-3.000300	3.488800	-10.466000	25.835434	0.000266	20.730103
1511.421837	-3.004800	3.490000	-10.486000	25.878254	0.000263	20.718590
1512.437630	-2.979200	3.490700	-10.398000	25.879380	0.000263	20.725885
1513.422247	-3.007700	3.488900	-10.493000	25.811023	0.000262	20.730237
1514.429834	-3.021100	3.488400	-10.538000	25.769920	0.000265	20.746324
1515.430084	-3.013200	3.488200	-10.508000	25.763590	0.000264	20.710566
1516.427541	-3.016500	3.489000	-10.524000	25.776542	0.000265	20.703660
1517.426238	-3.013600	3.488900	-10.512000	25.772087	0.000263	20.717204
1518.430241	-3.022700	3.487000	-10.539000	25.768917	0.000260	20.738203
1519.424797	-3.021300	3.486300	-10.532000	25.754670	0.000261	20.703501
1520.425774	-3.011300	3.486800	-10.499000	25.814825	0.000262	20.705131
1521.427328	-3.015400	3.487000	-10.514000	25.854825	0.000261	20.705958
1522.429251	-3.012900	3.486200	-10.503000	25.876427	0.000260	20.716754
1523.427718	-3.014900	3.485900	-10.509000	25.902944	0.000260	20.717314
1524.431892	-2.998600	3.484600	-10.448000	25.912360	0.000261	20.697848
1525.429354	-3.000600	3.484900	-10.456000	25.889123	0.000259	20.716232
1526.428543	-2.984900	3.485500	-10.402000	25.839854	0.000261	20.716050
1527.429681	-2.972600	3.484500	-10.357000	25.827218	0.000261	20.701933
1528.428668	-3.004100	3.484100	-10.466000	25.777547	0.000259	20.702299
1529.429695	-2.984800	3.485000	-10.401000	25.717197	0.000257	20.687672
1530.429989	-2.993300	3.484300	-10.428000	25.736600	0.000258	20.707636
1531.431386	-2.999900	3.484200	-10.451000	25.731589	0.000254	20.695965
1532.430459	-3.015900	3.483600	-10.505000	25.742919	0.000258	20.707345
1533.432429	-3.006200	3.481800	-10.466000	25.776276	0.000256	20.701496
1534.431796	-3.028400	3.482300	-10.545000	25.812962	0.000258	20.710847
1535.432830	-2.973900	3.483800	-10.359000	25.799818	0.000256	20.710920
1536.431256	-3.014000	3.481000	-10.491000	25.852769	0.000257	20.718593
1537.435202	-2.991900	3.481900	-10.417000	25.887092	0.000255	20.706130
1538.435310	-2.994300	3.480600	-10.421000	25.864655	0.000253	20.705402
1539.434252	-2.991800	3.481500	-10.415000	25.805436	0.000250	20.691906
1540.434622	-2.983700	3.481100	-10.385000	25.734485	0.000252	20.702666
1541.432878	-2.971100	3.480800	-10.341000	25.712394	0.000252	20.695176
1542.435300	-3.002000	3.480800	-10.449000	25.745100	0.000253	20.696259
1543.436001	-2.996300	3.479300	-10.424000	25.751891	0.000253	20.713513
1544.439745	-2.989900	3.479100	-10.401000	25.790065	0.000254	20.703019
1545.432150	-3.004000	3.480400	-10.453000	25.828773	0.000251	20.681208
1546.435601	-3.019900	3.477100	-10.500000	25.784802	0.000254	20.686826
1547.450579	-3.002500	3.478400	-10.442000	25.772298	0.000252	20.701294
1548.435249	-2.998600	3.477100	-10.426000	25.771888	0.000251	20.685707
1549.436213	-2.991700	3.477700	-10.404000	25.752643	0.000251	20.695301
1550.435139	-2.994400	3.477700	-10.413000	25.748335	0.000249	20.711364
1551.438301	-2.997300	3.476600	-10.419000	25.748832	0.000250	20.692421
1552.433935	-3.010600	3.475500	-10.463000	25.756832	0.000249	20.686706
1553.437142	-3.001700	3.476700	-10.435000	25.746133	0.000249	20.692081
1554.439278	-2.994600	3.474600	-10.405000	25.716624	0.000248	20.698003
1555.439562	-3.007700	3.475800	-10.454000	25.728814	0.000247	20.700764
1556.435432	-3.008200	3.476200	-10.456000	25.735120	0.000248	20.679595
1557.437830	-3.002400	3.475100	-10.433000	25.758916	0.000244	20.684057
1558.441252	-3.024200	3.474200	-10.504000	25.747793	0.000246	20.685212
1559.440750	-2.974600	3.473600	-10.331000	25.772607	0.000247	20.687852
1560.439914	-2.982100	3.475400	-10.362000	25.794369	0.000249	20.670355
1561.444085	-3.001600	3.473700	-10.425000	25.792202	0.000248	20.691888
1562.439861	-2.998300	3.472800	-10.412000	25.783948	0.000248	20.696401
1563.444667	-3.015900	3.472800	-10.472000	25.761545	0.000247	20.683379
1564.442589	-2.982100	3.473200	-10.357000	25.799646	0.000245	20.673286
1565.440491	-2.980800	3.473800	-10.354000	25.826988	0.000246	20.697435
1566.444486	-2.989200	3.472000	-10.377000	25.792131	0.000246	20.704146
1567.438585	-3.000900	3.471400	-10.416000	25.782376	0.000244	20.673956
1568.440273	-2.996800	3.469400	-10.396000	25.771205	0.000245	20.680280
1569.443233	-3.010000	3.471400	-10.448000	25.741514	0.000241	20.684596
1570.442168	-2.989700	3.469800	-10.372000	25.732545	0.000241	20.698822
1571.443154	-2.998000	3.470900	-10.405000	25.758073	0.000241	20.690324
1572.442747	-3.024900	3.468400	-10.491000	25.792714	0.000244	20.694774
1573.442892	-2.998100	3.469500	-10.400000	25.778105	0.000241	20.691005
1574.440916	-2.980600	3.470000	-10.342000	25.768713	0.000243	20.692950
1575.448246	-2.969700	3.470500	-10.306000	25.775394	0.000244	20.674055
1576.445922	-2.973100	3.469000	-10.313000	25.794736	0.000241	20.681631
1577.441240	-2.975100	3.468800	-10.319000	25.848268	0.000240	20.683722
1578.442123	-2.997100	3.468200	-10.393000	25.857018	0.000242	20.683030
1579.442881	-2.970700	3.469700	-10.306000	25.917385	0.000240	20.684878
1580.445558	-3.007600	3.466400	-10.425000	25.940632	0.000241	20.682154
1581.442165	-3.004400	3.467300	-10.417000	25.944373	0.000241	20.686386
1582.446878	-3.002800	3.467300	-10.410000	25.937572	0.000239	20.675285
1583.444592	-3.000800	3.466100	-10.399000	25.914542	0.000239	20.691979
1584.444793	-2.988900	3.466900	-10.360000	25.898398	0.000238	20.660111
1585.444700	-3.027700	3.464600	-10.489000	25.886271	0.000241	20.664524
1586.451602	-3.007300	3.465000	-10.419000	25.869014	0.000238	20.667577
1587.448153	-3.008700	3.464800	-10.423000	25.838963	0.000237	20.677694
1588.443556	-3.006900	3.466300	-10.422000	25.860518	0.000236	20.663309
1589.443620	-3.006000	3.464500	-10.414000	25.837112	0.000239	20.689586
1590.443274	-3.019400	3.464000	-10.458000	25.845887	0.000237	20.696031
1591.446422	-2.980600	3.464100	-10.324000	25.810910	0.000237	20.679859
1592.444133	-3.019900	3.462600	-10.456000	25.857288	0.000238	20.679032
1593.449305	-2.999800	3.463200	-10.388000	25.890909	0.000236	20.670133
1594.445682	-2.999300	3.463800	-10.388000	25.839389	0.000237	20.676224
1595.446964	-3.006300	3.463200	-10.410000	25.816297	0.000236	20.680530
1596.447784	-3.029700	3.460700	-10.484000	25.817616	0.000237	20.692762
1597.447635	-3.002700	3.461900	-10.394000	25.810440	0.000234	20.672274
1598.444947	-3.006200	3.461000	-10.403000	25.780532	0.000232	20.664517
1599.448448	-3.009100	3.460800	-10.413000	25.801629	0.000236	20.666742
1600.449079	-2.998000	3.460200	-10.373000	25.844752	0.000235	20.663118
1601.451591	-3.002200	3.460500	-10.388000	25.861878	0.000234	20.649975
1602.449596	-2.993800	3.460500	-10.359000	25.870470	0.000235	20.653866
1603.448091	-2.985600	3.459600	-10.328000	25.851263	0.000233	20.658754
1604.446790	-2.991400	3.459400	-10.348000	25.878047	0.000233	20.687084
1605.446328	-3.024600	3.458400	-10.460000	25.899953	0.000233	20.659302
1606.449812	-3.011700	3.458400	-10.415000	25.842211	0.000233	20.677638
1607.445859	-3.014100	3.457200	-10.419000	25.807488	0.000233	20.658403
1608.449242	-3.026400	3.457500	-10.462000	25.833704	0.000231	20.679523
1609.448738	-3.005400	3.458100	-10.392000	25.849232	0.000231	20.660981
1610.456429	-2.977500	3.457400	-10.293000	25.806145	0.000233	20.686453
1611.453668	-2.993100	3.458500	-10.351000	25.808312	0.000230	20.674404
1612.457621	-2.988400	3.456400	-10.328000	25.777388	0.000231	20.668945
1613.453666	-2.999900	3.456200	-10.367000	25.758809	0.000229	20.674940
1614.451422	-3.004800	3.456900	-10.387000	25.731406	0.000231	20.666854
1615.454726	-2.998400	3.456300	-10.362000	25.781382	0.000232	20.678174
1616.451381	-2.991000	3.455700	-10.335000	25.814182	0.000229	20.664653
1617.448816	-2.986700	3.455100	-10.318000	25.813868	0.000231	20.697532
1618.453708	-2.973000	3.454600	-10.268000	25.796790	0.000228	20.678478
1619.452546	-3.015500	3.454200	-10.415000	25.805262	0.000228	20.675134
1620.448553	-2.996900	3.453200	-10.348000	25.829177	0.000229	20.654110
1621.449897	-3.002100	3.453900	-10.367000	25.826262	0.000230	20.651655
1622.455325	-3.000400	3.453900	-10.362000	25.845215	0.000228	20.702468
1623.450200	-3.008800	3.452400	-10.387000	25.877093	0.000228	20.667633
1624.449285	-2.997500	3.453200	-10.349000	25.849741	0.000230	20.684254
1625.452644	-3.016900	3.452800	-10.417000	25.833366	0.000229	20.679184
1626.449381	-2.999000	3.453500	-10.356000	25.856398	0.000230	20.658221
1627.470622	-2.990400	3.452600	-10.324000	25.879622	0.000229	20.698151
1628.456441	-2.990000	3.452400	-10.322000	25.899167	0.000228	20.686491
1629.459198	-2.983900	3.450700	-10.296000	25.956203	0.000226	20.688789
1630.457160	-2.993800	3.451800	-10.333000	25.930862	0.000226	20.674234
1631.452557	-2.993400	3.451600	-10.331000	25.923638	0.000227	20.679779
1632.459007	-2.991600	3.451200	-10.324000	25.912940	0.000226	20.667609
1633.453508	-3.022500	3.450800	-10.429000	25.923262	0.000226	20.678928
1634.450932	-3.013800	3.449700	-10.395000	25.878654	0.000225	20.675840
1635.456400	-3.006900	3.449200	-10.371000	25.839623	0.000224	20.693531
1636.451029	-3.012400	3.448800	-10.388000	25.805879	0.000223	20.697093
1637.465672	-3.000000	3.447700	-10.342000	25.872215	0.000226	20.681226
1638.460113	-3.017600	3.447900	-10.404000	25.866951	0.000223	20.684947
1639.456572	-3.015300	3.448100	-10.396000	25.917223	0.000223	20.677128
1640.461513	-3.022000	3.447000	-10.416000	25.937470	0.000222	20.698418
1641.453040	-2.994400	3.446400	-10.319000	25.922318	0.000223	20.700741
1642.462125	-3.006400	3.446400	-10.360000	25.892281	0.000222	20.684788
1643.456267	-2.978300	3.447300	-10.265000	25.867362	0.000221	20.677298
1644.454965	-2.986800	3.447100	-10.295000	25.885552	0.000223	20.685615
1645.459215	-2.985300	3.447900	-10.292000	25.904129	0.000221	20.670136
1646.459282	-3.021900	3.444900	-10.409000	25.908835	0.000223	20.684824
1647.454298	-2.999300	3.446100	-10.335000	25.917272	0.000221	20.693774
1648.467209	-2.998200	3.445700	-10.330000	25.902882	0.000220	20.687852
1649.461428	-2.971300	3.445900	-10.238000	25.849970	0.000219	20.688752
1650.458192	-2.979200	3.444800	-10.262000	25.816602	0.000220	20.716400
1651.456669	-2.992100	3.445600	-10.309000	25.837443	0.000217	20.702722
1652.459561	-2.985500	3.444500	-10.283000	25.817170	0.000218	20.680459
1653.456311	-3.008800	3.442900	-10.358000	25.835845	0.000219	20.687364
1654.462428	-3.012400	3.443000	-10.371000	25.846170	0.000215	20.713859
1655.457423	-3.000200	3.442600	-10.328000	25.788897	0.000218	20.705165
1656.469345	-3.002400	3.443200	-10.336000	25.818549	0.000216	20.674731
1657.482322	-3.005300	3.443300	-10.347000	25.839270	0.000218	20.707876
1658.462431	-2.986200	3.443100	-10.281000	25.845127	0.000216	20.702854
1659.468407	-3.005700	3.440500	-10.340000	25.877636	0.000216	20.700423
1660.460701	-3.016900	3.441900	-10.382000	25.922316	0.000216	20.704532
1661.463409	-2.982300	3.441500	-10.262000	25.935097	0.000219	20.710260
1662.460740	-2.993500	3.439900	-10.297000	25.963619	0.000214	20.699085
1663.466192	-2.995800	3.440500	-10.306000	25.891142	0.000215	20.706405
1664.475041	-2.988100	3.439500	-10.277000	25.897398	0.000215	20.702733
1665.470426	-3.015100	3.439800	-10.371000	25.938508	0.000216	20.707523
1666.461997	-3.015300	3.438700	-10.368000	25.929021	0.000214	20.700836
1667.460162	-3.006500	3.438200	-10.336000	25.919013	0.000214	20.682245
1668.467540	-2.996100	3.440000	-10.306000	25.883638	0.000215	20.693176
1669.464607	-2.993200	3.439400	-10.294000	25.865448	0.000213	20.681540
1670.470613	-2.994100	3.438200	-10.294000	25.909997	0.000214	20.694526
1671.465136	-3.003900	3.438200	-10.326000	25.946484	0.000213	20.705578
1672.471820	-2.988400	3.438000	-10.272000	25.931646	0.000213	20.704897
1673.465128	-2.997700	3.438300	-10.305000	25.922426	0.000213	20.691365
1674.471399	-3.004200	3.436300	-10.323000	25.952437	0.000212	20.694489
1675.471346	-2.992700	3.437200	-10.286000	25.994017	0.000212	20.689795
1676.467243	-3.001500	3.436500	-10.314000	25.964188	0.000210	20.680688
1677.469501	-3.004400	3.436500	-10.323000	25.895666	0.000211	20.690086
1678.476758	-3.011400	3.435800	-10.346000	25.895438	0.000209	20.702186
1679.472752	-3.000100	3.436800	-10.309000	25.841593	0.000210	20.711632
1680.471674	-2.987200	3.435500	-10.261000	25.837924	0.000211	20.705576
1681.472818	-2.994800	3.435100	-10.287000	25.907284	0.000210	20.699862
1682.471284	-2.967600	3.435800	-10.195000	25.900325	0.000210	20.695241
1683.469605	-3.032300	3.432600	-10.408000	25.841338	0.000211	20.708057
1684.475066	-3.013900	3.432700	-10.345000	25.813500	0.000209	20.714707
1685.471752	-3.004500	3.434200	-10.317000	25.864780	0.000208	20.707424
1686.472566	-3.015200	3.433100	-10.351000	25.902103	0.000209	20.715995
1687.470862	-2.998100	3.433400	-10.292000	25.882655	0.000210	20.712579
1688.472415	-3.016100	3.432200	-10.351000	25.883344	0.000207	20.716591
1689.472917	-2.984100	3.431800	-10.240000	25.865650	0.000208	20.721575
1690.473926	-2.982100	3.432100	-10.234000	25.854539	0.000206	20.706620
1691.474905	-2.984600	3.432700	-10.245000	25.851211	0.000205	20.723666
1692.474589	-2.992500	3.431100	-10.267000	25.854697	0.000206	20.705830
1693.474483	-3.007900	3.429800	-10.316000	25.874363	0.000204	20.715155
1694.474583	-3.000300	3.430700	-10.292000	25.862708	0.000205	20.719094
1695.481623	-2.977200	3.429100	-10.208000	25.819005	0.000205	20.710279
1696.470060	-3.002400	3.429800	-10.296000	25.828917	0.000206	20.713124
1697.477189	-2.994700	3.430200	-10.272000	25.829075	0.000203	20.737466
1698.475581	-2.991300	3.429400	-10.258000	25.821558	0.000203	20.712370
1699.477110	-2.994800	3.427600	-10.264000	25.821389	0.000204	20.732590
1700.476041	-3.009400	3.426600	-10.310000	25.826581	0.000202	20.716468
1701.477078	-3.007100	3.428400	-10.308000	25.895094	0.000205	20.720334
1702.475663	-3.002100	3.427900	-10.290000	25.886767	0.000202	20.723823
1703.476404	-2.987200	3.427600	-10.238000	25.883439	0.000203	20.719531
1704.476052	-2.998100	3.427800	-10.276000	25.911491	0.000203	20.714995
1705.474580	-3.008800	3.425600	-10.306000	25.915207	0.000204	20.727264
1706.479532	-2.983000	3.426600	-10.221000	25.934776	0.000204	20.728905
1707.475010	-2.965700	3.428000	-10.165000	25.901289	0.000203	20.734145
1708.476728	-3.000600	3.427000	-10.282000	25.931726	0.000202	20.713986
1709.480487	-2.992200	3.425500	-10.249000	25.972170	0.000203	20.716212
1710.476746	-2.992500	3.426500	-10.253000	26.014597	0.000200	20.746511
1711.473845	-3.016100	3.423900	-10.326000	26.072413	0.000199	20.705025
1712.479483	-3.022800	3.424700	-10.350000	26.056089	0.000198	20.744577
1713.475712	-3.005000	3.425000	-10.291000	26.004093	0.000202	20.732164
1714.476243	-2.978400	3.424700	-10.199000	26.019643	0.000198	20.742098
1715.479215	-3.023600	3.422700	-10.347000	26.002592	0.000198	20.718327
1716.481312	-3.005500	3.423100	-10.287000	26.014307	0.000201	20.737210
1717.480411	-2.983600	3.423600	-10.214000	26.039875	0.000200	20.734449
1718.477813	-2.996700	3.423300	-10.258000	25.992888	0.000198	20.752201
1719.479940	-2.987800	3.422200	-10.224000	26.005606	0.000199	20.723252
1720.480440	-2.972800	3.422300	-10.173000	26.015988	0.000199	20.720881
1721.480231	-2.991600	3.421900	-10.235000	25.953353	0.000197	20.721489
1722.485211	-3.011700	3.421900	-10.305000	25.910149	0.000196	20.731666
1723.482601	-3.020700	3.421300	-10.334000	25.904365	0.000198	20.720164
1724.481621	-2.999700	3.421800	-10.264000	25.930167	0.000196	20.750355
1725.482399	-3.007100	3.420300	-10.284000	25.962068	0.000195	20.720287
1726.486719	-3.003600	3.419300	-10.270000	25.985035	0.000197	20.729138
1727.491343	-2.991100	3.420500	-10.230000	25.929660	0.000197	20.722343
1728.481371	-3.012500	3.419700	-10.300000	25.912717	0.000194	20.738513
1729.485554	-3.023900	3.419300	-10.338000	25.961681	0.000196	20.739340
1730.486814	-3.014000	3.419300	-10.305000	26.040895	0.000195	20.739267
1731.483892	-3.008300	3.418700	-10.284000	26.024535	0.000197	20.747961
1732.487753	-3.005600	3.418300	-10.272000	25.984396	0.000195	20.725176
1733.483541	-2.991600	3.418900	-10.227000	26.010765	0.000194	20.740290
1734.485562	-2.975200	3.417500	-10.167000	25.951324	0.000193	20.737944
1735.487455	-2.989000	3.418400	-10.217000	25.948189	0.000193	20.736217
1736.483710	-3.027500	3.416300	-10.342000	25.971195	0.000192	20.742734
1737.489285	-2.986900	3.417300	-10.206000	25.994065	0.000192	20.741056
1738.483173	-2.994900	3.417600	-10.234000	26.028130	0.000193	20.725968
1739.483711	-2.998500	3.415400	-10.240000	26.014214	0.000193	20.738539
1740.483801	-3.009000	3.416900	-10.281000	25.992904	0.000191	20.732776
1741.485405	-2.997100	3.416000	-10.238000	25.957727	0.000190	20.741058
1742.483387	-2.991700	3.414500	-10.214000	25.967142	0.000192	20.738188
1743.484488	-2.992500	3.414900	-10.219000	25.958695	0.000191	20.740134
1744.483749	-3.004900	3.414900	-10.260000	26.033141	0.000190	20.765618
1745.495410	-3.008500	3.413600	-10.269000	26.066152	0.000190	20.742833
1746.486626	-3.004400	3.413900	-10.256000	26.054499	0.000189	20.749617
1747.486371	-3.008600	3.413100	-10.268000	26.072238	0.000188	20.746578
1748.487792	-3.024900	3.413200	-10.324000	26.080078	0.000187	20.765836
1749.485012	-2.989800	3.412900	-10.202000	26.053603	0.000188	20.746346
1750.487800	-3.001500	3.412700	-10.242000	26.047154	0.000186	20.723270
1751.486627	-2.999100	3.412900	-10.235000	26.073908	0.000185	20.745411
1752.488375	-2.984400	3.412700	-10.184000	26.116875	0.000187	20.750177
1753.488790	-2.991400	3.411700	-10.204000	26.107304	0.000187	20.770906
1754.495746	-3.000400	3.411100	-10.234000	26.041588	0.000186	20.752766
1755.489268	-3.000400	3.411700	-10.235000	25.979389	0.000186	20.745751
1756.490642	-2.980800	3.411000	-10.167000	25.934807	0.000186	20.749326
1757.490817	-2.994400	3.411900	-10.216000	25.971196	0.000186	20.760280
1758.494001	-3.003700	3.410000	-10.242000	26.003229	0.000187	20.753582
1759.491606	-2.992900	3.409200	-10.203000	25.994928	0.000185	20.757570
1760.498312	-3.023700	3.409300	-10.308000	25.982233	0.000187	20.772792
1761.494650	-2.981400	3.408900	-10.162000	26.053726	0.000184	20.765436
1762.491297	-2.991100	3.408700	-10.195000	26.053484	0.000184	20.742434
1763.494091	-2.994100	3.407600	-10.201000	26.004718	0.000186	20.771199
1764.496550	-2.986600	3.408000	-10.178000	25.966865	0.000185	20.753558
1765.494785	-3.001700	3.407900	-10.228000	25.968560	0.000182	20.738664
1766.498131	-3.002300	3.407800	-10.231000	25.968222	0.000183	20.751602
1767.500097	-3.031400	3.406600	-10.325000	25.942723	0.000183	20.774823
1768.497171	-2.992600	3.407200	-10.195000	25.983590	0.000182	20.767042
1769.501322	-3.002000	3.405300	-10.222000	26.019795	0.000183	20.761692
1770.498238	-3.011900	3.405900	-10.257000	26.020243	0.000181	20.749813
1771.496528	-3.012300	3.404900	-10.255000	26.038372	0.000180	20.777511
1772.498524	-2.998100	3.405900	-10.209000	26.032805	0.000181	20.755796
1773.497932	-2.996100	3.405500	-10.202000	26.031510	0.000182	20.746908
1774.498436	-2.993700	3.404700	-10.191000	26.074806	0.000181	20.769073
1775.497715	-2.991400	3.405400	-10.186000	26.049322	0.000183	20.754374
1776.497279	-2.999300	3.403500	-10.207000	26.056136	0.000180	20.766435
1777.513846	-3.013800	3.402500	-10.254000	26.053607	0.000179	20.764843
1778.497622	-2.989300	3.404300	-10.176000	26.047520	0.000182	20.773426
1779.497306	-3.006000	3.403600	-10.231000	26.044144	0.000179	20.749645
1780.500619	-2.995900	3.402900	-10.194000	26.058581	0.000180	20.761305
1781.496573	-2.974000	3.403800	-10.122000	26.109680	0.000178	20.784200
1782.501863	-2.974400	3.403000	-10.120000	26.072110	0.000178	20.761623
1783.502896	-2.992000	3.402800	-10.180000	26.045211	0.000178	20.773477
1784.499395	-3.015200	3.401700	-10.256000	26.059248	0.000179	20.750121
1785.500442	-3.011400	3.401700	-10.243000	26.068155	0.000177	20.785624
1786.506031	-3.014600	3.400600	-10.251000	26.046446	0.000180	20.766658
1787.500741	-3.018700	3.399900	-10.263000	26.037614	0.000178	20.781965
1788.505921	-2.997900	3.401300	-10.196000	26.017310	0.000176	20.781480
1789.503271	-3.025300	3.399100	-10.282000	26.064792	0.000177	20.755692
1790.503308	-3.000400	3.399800	-10.200000	26.044499	0.000178	20.773236
1791.506604	-2.999600	3.399100	-10.195000	26.022742	0.000176	20.779352
1792.501420	-2.988900	3.400100	-10.161000	26.013293	0.000176	20.780289
1793.502494	-3.009500	3.399500	-10.230000	25.982254	0.000175	20.783718
1794.501629	-3.011700	3.397500	-10.232000	25.991221	0.000176	20.775657
1795.506317	-3.012300	3.399100	-10.238000	26.017033	0.000176	20.765554
1796.502087	-2.973900	3.399600	-10.109000	26.036068	0.000175	20.784680
1797.504778	-3.001500	3.398200	-10.199000	26.007076	0.000174	20.793483
1798.505118	-3.031500	3.396600	-10.296000	26.009894	0.000172	20.791574
1799.505316	-3.017900	3.396200	-10.249000	25.998182	0.000172	20.784547
1800.506149	-3.024400	3.395900	-10.270000	26.044431	0.000173	20.782176
1801.502680	-3.002500	3.397200	-10.199000	26.011675	0.000173	20.769654
1802.507556	-2.985600	3.397500	-10.141000	26.064420	0.000171	20.795623
1803.507024	-2.984100	3.396700	-10.135000	26.107776	0.000171	20.774700
1804.505024	-2.995400	3.396200	-10.172000	26.173113	0.000173	20.771599
1805.508575	-2.983000	3.395700	-10.128000	26.192218	0.000171	20.784633
1806.503810	-3.000200	3.395600	-10.187000	26.175134	0.000171	20.800183
1807.504681	-2.986200	3.394700	-10.136000	26.139261	0.000172	20.776938
1808.509982	-2.996300	3.393900	-10.169000	26.118401	0.000173	20.777315
1809.502014	-2.995900	3.394100	-10.167000	26.129279	0.000171	20.778288
1810.508380	-3.011700	3.393100	-10.218000	26.140277	0.000169	20.781753
1811.509011	-2.996800	3.392900	-10.167000	26.172364	0.000172	20.773218
1812.504271	-2.990800	3.394600	-10.152000	26.133188	0.000172	20.785061
1813.505482	-2.996500	3.391700	-10.162000	26.079743	0.000170	20.792052
1814.511600	-2.999500	3.391000	-10.171000	26.153140	0.000169	20.763858
1815.508030	-3.004900	3.392600	-10.194000	26.144671	0.000169	20.788064
1816.511211	-3.013200	3.391400	-10.218000	26.132088	0.000169	20.786326
1817.512766	-3.010700	3.391200	-10.209000	26.124779	0.000169	20.793681
1818.508538	-3.019900	3.389900	-10.236000	26.166304	0.000167	20.789414
1819.507234	-3.013900	3.392100	-10.223000	26.213067	0.000168	20.801791
1820.509620	-2.997300	3.390400	-10.161000	26.217568	0.000168	20.782606
1821.510044	-3.002500	3.389500	-10.176000	26.187817	0.000166	20.802496
1822.513445	-3.046900	3.388000	-10.322000	26.162518	0.000167	20.799834
1823.509008	-2.982600	3.389400	-10.107000	26.125978	0.000168	20.802472
1824.516218	-3.014500	3.389200	-10.215000	26.133069	0.000168	20.808649
1825.511768	-2.980700	3.389000	-10.101000	26.137351	0.000168	20.793986
1826.512053	-2.976900	3.389300	-10.088000	26.144212	0.000165	20.797561
1827.515734	-3.018600	3.388300	-10.226000	26.144636	0.000167	20.800831
1828.510298	-2.992700	3.388300	-10.139000	26.129305	0.000167	20.803919
1829.509034	-2.969500	3.388800	-10.062000	26.108011	0.000166	20.795324
1830.510436	-2.980500	3.387700	-10.096000	26.088590	0.000165	20.800941
1831.512096	-3.004400	3.387800	-10.177000	26.079225	0.000165	20.801488
1832.514944	-2.996000	3.388000	-10.150000	26.092269	0.000164	20.792784
1833.509824	-2.983400	3.385900	-10.101000	26.094991	0.000164	20.806424
1834.514505	-3.020600	3.386500	-10.227000	26.083544	0.000161	20.800139
1835.510724	-3.010900	3.386200	-10.195000	26.104308	0.000163	20.803458
1836.512424	-2.991000	3.385300	-10.125000	26.095245	0.000163	20.796248
1837.509851	-3.021100	3.384400	-10.224000	26.165459	0.000163	20.798048
1838.511236	-2.996100	3.385900	-10.144000	26.203353	0.000162	20.807202
1839.511995	-3.004800	3.384600	-10.170000	26.212294	0.000162	20.811445
1840.512465	-3.004000	3.382700	-10.160000	26.153674	0.000162	20.817499
1841.518687	-2.994100	3.384600	-10.133000	26.152368	0.000161	20.797695
1842.512276	-2.995900	3.383300	-10.135000	26.182471	0.000163	20.798546
1843.512223	-2.996500	3.383000	-10.137000	26.170141	0.000161	20.808916
1844.517765	-3.011700	3.382300	-10.185000	26.143499	0.000160	20.794947
1845.511655	-2.969500	3.384400	-10.049000	26.174884	0.000162	20.791871
1846.517639	-2.980900	3.384300	-10.087000	26.165556	0.000161	20.794352
1847.515417	-3.028000	3.380100	-10.234000	26.131519	0.000160	20.827955
1848.513899	-3.022000	3.381000	-10.216000	26.137206	0.000159	20.819444
1849.517186	-3.030800	3.379600	-10.242000	26.162979	0.000158	20.800772
1850.517222	-2.990000	3.380700	-10.108000	26.216165	0.000159	20.791154
1851.515212	-2.996800	3.380900	-10.131000	26.267365	0.000161	20.789974
1852.515852	-3.004200	3.380600	-10.155000	26.311171	0.000158	20.790376
1853.516993	-3.026500	3.379400	-10.227000	26.244790	0.000158	20.794788
1854.516461	-2.997300	3.379400	-10.128000	26.205640	0.000159	20.823725
1855.518422	-2.986400	3.380200	-10.094000	26.209873	0.000159	20.800004
1856.517802	-2.999200	3.379600	-10.134000	26.198452	0.000156	20.794217
1857.521269	-2.972500	3.380500	-10.047000	26.214895	0.000158	20.794145
1858.518904	-2.996900	3.377700	-10.121000	26.175731	0.000157	20.805524
1859.517952	-3.000900	3.377500	-10.135000	26.189597	0.000157	20.788638
1860.521529	-2.998000	3.378500	-10.127000	26.200643	0.000155	20.785987
1861.516769	-2.993200	3.375800	-10.103000	26.140643	0.000154	20.784017
1862.516158	-3.020100	3.377400	-10.199000	26.108906	0.000155	20.790534
1863.519508	-3.007200	3.377900	-10.157000	26.100182	0.000156	20.798838
1864.521957	-3.001500	3.376400	-10.132000	26.091446	0.000154	20.790060
1865.520348	-3.001600	3.377500	-10.137000	26.134147	0.000155	20.764213
1866.519554	-3.000800	3.375100	-10.127000	26.204841	0.000156	20.780248
1867.522422	-3.003900	3.375200	-10.138000	26.231677	0.000153	20.773550
1868.520716	-3.024400	3.375100	-10.206000	26.264523	0.000155	20.772893
1869.520156	-3.024300	3.373700	-10.202000	26.270657	0.000153	20.766729
1870.520358	-2.988700	3.375700	-10.088000	26.222203	0.000153	20.808126
1871.524355	-3.012800	3.373100	-10.161000	26.201962	0.000153	20.791580
1872.520774	-2.988600	3.374500	-10.084000	26.191085	0.000154	20.779701
1873.524961	-2.997300	3.372500	-10.107000	26.205506	0.000156	20.798460
1874.522000	-3.011600	3.373900	-10.159000	26.258521	0.000154	20.779190
1875.524183	-3.013200	3.373200	-10.164000	26.289736	0.000152	20.766462
1876.525213	-2.991100	3.374600	-10.092000	26.359029	0.000153	20.781574
1877.522244	-3.030400	3.372500	-10.219000	26.318757	0.000151	20.769550
1878.525737	-3.000600	3.371500	-10.115000	26.297587	0.000154	20.770560
1879.523539	-2.990700	3.371300	-10.081000	26.247114	0.000152	20.763933
1880.524737	-3.002900	3.372900	-10.128000	26.203221	0.000149	20.763922
1881.526809	-2.986700	3.371400	-10.069000	26.191546	0.000149	20.789173
1882.526297	-3.009900	3.371200	-10.145000	26.200583	0.000151	20.774547
1883.525869	-3.007800	3.370400	-10.136000	26.211824	0.000150	20.763083
1884.524703	-3.011300	3.369000	-10.144000	26.194135	0.000150	20.761429
1885.526038	-2.989500	3.371500	-10.078000	26.216846	0.000147	20.758646
1886.525317	-3.000200	3.369500	-10.109000	26.241381	0.000150	20.749163
1887.525684	-2.995000	3.369900	-10.092000	26.178202	0.000148	20.751582
1888.526239	-2.989900	3.368300	-10.070000	26.187821	0.000149	20.750817
1889.524035	-3.014500	3.367100	-10.149000	26.135577	0.000148	20.742416
1890.528750	-2.989900	3.369300	-10.073000	26.140224	0.000145	20.775061
1891.526155	-2.997700	3.367500	-10.094000	26.199183	0.000147	20.750854
1892.529229	-3.013200	3.367300	-10.145000	26.214633	0.000149	20.747888
1893.540359	-2.990600	3.367500	-10.070000	26.170509	0.000145	20.759974
1894.525758	-2.988700	3.367900	-10.064000	26.173147	0.000147	20.775901
1895.529906	-2.982000	3.367900	-10.042000	26.155447	0.000146	20.759063
1896.528397	-3.004100	3.366300	-10.112000	26.149845	0.000144	20.750115
1897.526731	-2.988700	3.367300	-10.063000	26.225439	0.000143	20.761592
1898.534259	-2.993800	3.364800	-10.073000	26.240273	0.000147	20.765593
1899.527647	-2.966900	3.366000	-9.985800	26.208756	0.000145	20.736766
1900.528852	-2.991700	3.365400	-10.067000	26.243273	0.000145	20.736838
1901.535861	-3.033400	3.364800	-10.206000	26.249602	0.000143	20.740828
1902.531644	-3.003800	3.363900	-10.104000	26.218267	0.000144	20.752014
1903.528722	-3.014100	3.364100	-10.139000	26.200905	0.000145	20.752111
1904.528558	-3.002500	3.363600	-10.099000	26.216501	0.000144	20.742178
1905.531070	-3.003600	3.362700	-10.100000	26.174071	0.000144	20.755492
1906.531439	-2.969600	3.364600	-9.990600	26.185444	0.000142	20.746531
1907.528495	-2.993100	3.363800	-10.067000	26.251902	0.000143	20.756416
1908.529035	-2.996100	3.363500	-10.076000	26.296676	0.000141	20.748307
1909.539497	-3.007700	3.362000	-10.111000	26.335825	0.000139	20.758253
1910.533789	-3.011000	3.361900	-10.121000	26.335002	0.000142	20.739882
1911.535334	-3.015300	3.360500	-10.132000	26.333236	0.000140	20.748538
1912.533407	-2.982300	3.361300	-10.024000	26.336176	0.000141	20.739165
1913.532728	-3.021100	3.360900	-10.153000	26.272423	0.000140	20.732467
1914.531831	-3.010100	3.360300	-10.114000	26.267353	0.000139	20.733537
1915.531906	-2.988400	3.360200	-10.041000	26.288561	0.000140	20.744892
1916.531073	-3.011700	3.360300	-10.119000	26.298118	0.000139	20.715140
1917.529974	-3.011100	3.359400	-10.115000	26.262866	0.000139	20.737562
1918.529177	-2.998300	3.360200	-10.073000	26.259600	0.000137	20.710096
1919.530174	-3.005900	3.359600	-10.098000	26.230068	0.000138	20.742535
1920.529174	-3.001100	3.359300	-10.080000	26.268020	0.000138	20.726146
1921.529178	-3.001900	3.359200	-10.083000	26.277808	0.000138	20.744043
1922.530175	-3.021900	3.356200	-10.141000	26.356695	0.000137	20.728967
1923.532759	-3.005000	3.359200	-10.093000	26.411724	0.000137	20.730694
1924.533759	-3.005000	3.357800	-10.090000	26.441227	0.000137	20.733320
1925.531760	-3.019500	3.356600	-10.133000	26.475181	0.000137	20.729042
1926.533759	-3.021900	3.357500	-10.145000	26.471201	0.000139	20.736421
1927.533760	-3.013300	3.357100	-10.115000	26.446756	0.000139	20.745991
1928.531929	-2.996500	3.358100	-10.061000	26.332202	0.000134	20.729955
1929.531929	-3.001600	3.357100	-10.075000	26.324471	0.000135	20.715072
1930.542929	-3.006900	3.355800	-10.090000	26.357692	0.000135	20.737081
1931.532929	-3.010300	3.355100	-10.099000	26.285724	0.000135	20.714064
1932.532929	-2.975500	3.355700	-9.984100	26.318423	0.000134	20.737919
1933.533930	-2.999600	3.355000	-10.062000	26.377445	0.000134	20.707620
1934.533930	-2.980800	3.355400	-10.001000	26.403974	0.000133	20.735707
1935.540927	-2.989800	3.355100	-10.029000	26.363401	0.000133	20.742819
1936.534927	-3.013500	3.355100	-10.109000	26.351765	0.000132	20.727804
1937.537446	-3.016300	3.353400	-10.114000	26.321945	0.000134	20.722966
1938.534446	-3.000000	3.353500	-10.060000	26.305614	0.000131	20.743064
1939.534663	-3.011900	3.352900	-10.097000	26.282653	0.000134	20.729946
1940.537106	-3.008100	3.353500	-10.088000	26.334649	0.000129	20.718188
1941.535386	-2.986600	3.353200	-10.014000	26.368483	0.000132	20.720425
1942.535481	-2.998700	3.353200	-10.054000	26.341581	0.000130	20.731320
1943.539862	-2.975300	3.353300	-9.976100	26.309463	0.000130	20.717533
1944.535382	-2.970900	3.351800	-9.956600	26.282206	0.000129	20.718590
1945.537927	-2.988200	3.351400	-10.013000	26.307975	0.000130	20.715090
1946.540231	-3.005200	3.350600	-10.068000	26.371534	0.000129	20.718274
1947.538849	-3.000100	3.351000	-10.053000	26.377535	0.000129	20.722884
1948.563282	-3.011300	3.349900	-10.087000	26.371292	0.000129	20.721351
1949.538009	-3.018100	3.350800	-10.112000	26.371439	0.000128	20.712489
1950.537848	-2.986300	3.350000	-10.003000	26.387504	0.000130	20.717255
1951.537150	-2.992600	3.350300	-10.024000	26.389922	0.000128	20.720634
1952.539716	-2.998200	3.349300	-10.040000	26.357479	0.000128	20.709364
1953.538389	-3.006500	3.348100	-10.065000	26.346461	0.000128	20.723422
1954.538430	-3.002300	3.346900	-10.048000	26.344561	0.000127	20.708709
1955.538447	-2.985000	3.347700	-9.991400	26.387844	0.000126	20.711433
1956.541446	-2.995600	3.347500	-10.027000	26.373908	0.000129	20.728722
1957.577483	-3.006800	3.347800	-10.065000	26.405337	0.000126	20.726170
1958.539484	-2.987800	3.346600	-9.998100	26.415292	0.000127	20.715312
1959.538374	-3.011900	3.345800	-10.077000	26.448400	0.000126	20.699276
1960.538373	-3.009400	3.347300	-10.072000	26.455790	0.000125	20.708601
1961.538840	-3.014300	3.346700	-10.087000	26.431393	0.000126	20.713003
1962.541775	-3.064100	3.344500	-10.246000	26.432856	0.000124	20.699300
1963.538629	-3.008900	3.345700	-10.066000	26.445438	0.000123	20.714792
1964.538726	-3.011100	3.345500	-10.072000	26.472981	0.000121	20.711182
1965.542317	-3.000400	3.344500	-10.034000	26.532391	0.000122	20.705465
1966.540144	-3.002900	3.345600	-10.045000	26.536408	0.000125	20.722306
1967.540222	-2.974400	3.346100	-9.951000	26.534594	0.000119	20.697721
1968.540837	-2.988800	3.344300	-9.994300	26.491971	0.000122	20.712725
1969.543729	-2.995000	3.345300	-10.018000	26.467151	0.000122	20.700580
1970.540660	-3.020900	3.344100	-10.102000	26.456312	0.000121	20.699168
1971.544879	-2.995000	3.343700	-10.014000	26.418210	0.000123	20.691217
1972.545718	-2.989500	3.342600	-9.991300	26.377373	0.000122	20.702805
1973.542504	-2.995400	3.342700	-10.012000	26.367683	0.000120	20.700652
1974.547721	-2.992600	3.341000	-9.997900	26.368119	0.000121	20.701091
1975.545812	-2.982600	3.342200	-9.967800	26.352599	0.000119	20.704459
1976.543305	-3.008900	3.339400	-10.047000	26.382878	0.000119	20.711658
1977.546741	-3.012000	3.341500	-10.063000	26.417958	0.000119	20.700922
1978.546785	-2.999200	3.339500	-10.015000	26.418250	0.000116	20.710225
1979.545901	-3.019600	3.339800	-10.083000	26.402717	0.000118	20.690818
1980.545476	-3.007400	3.340100	-10.045000	26.379080	0.000117	20.699779
1981.545696	-2.997100	3.340500	-10.011000	26.420113	0.000118	20.721581
1982.547404	-2.991300	3.340100	-9.989900	26.426270	0.000116	20.688412
1983.546999	-3.004800	3.338900	-10.031000	26.488019	0.000117	20.694054
1984.546350	-3.003000	3.339500	-10.027000	26.513154	0.000115	20.699878
1985.548917	-2.995900	3.339300	-10.004000	26.507446	0.000115	20.707891
1986.546179	-3.020700	3.338600	-10.084000	26.506309	0.000115	20.663597
1987.549303	-2.989900	3.338100	-9.980000	26.484127	0.000115	20.691089
1988.554072	-3.003900	3.338400	-10.027000	26.462101	0.000114	20.705935
1989.548208	-2.996100	3.336400	-9.995600	26.484599	0.000114	20.683502
1990.549836	-3.002300	3.337900	-10.020000	26.503202	0.000115	20.705523
1991.550933	-3.000200	3.338200	-10.014000	26.504304	0.000111	20.699991
1992.550926	-2.992100	3.337100	-9.984400	26.542754	0.000112	20.682214
1993.551077	-2.989400	3.336800	-9.973500	26.543759	0.000112	20.687966
1994.550790	-2.986300	3.336500	-9.963300	26.532885	0.000111	20.682252
1995.550546	-3.008500	3.334900	-10.032000	26.537978	0.000111	20.696855
1996.551033	-3.010200	3.334800	-10.037000	26.577710	0.000110	20.679894
1997.550301	-3.030300	3.333900	-10.102000	26.618395	0.000110	20.681438
1998.551089	-2.993400	3.335300	-9.983000	26.636077	0.000112	20.689731
1999.551778	-2.992000	3.334100	-9.974600	26.629219	0.000110	20.675249
2000.550163	-2.994700	3.334800	-9.986200	26.627672	0.000110	20.667530
2001.553226	-2.981800	3.334000	-9.940100	26.555891	0.000109	20.668392
2002.552609	-2.988600	3.333500	-9.961400	26.566100	0.000110	20.663480
2003.551579	-3.009000	3.332400	-10.027000	26.512157	0.000109	20.678011
2004.554579	-2.988200	3.332100	-9.956300	26.459626	0.000107	20.684954
2005.552212	-3.017500	3.330200	-10.047000	26.425781	0.000105	20.685549
2006.552132	-2.996100	3.331100	-9.979300	26.408567	0.000107	20.686740
2007.556071	-2.976500	3.331500	-9.915500	26.488970	0.000106	20.675093
2008.553915	-2.998500	3.330600	-9.985900	26.535187	0.000107	20.685514
2009.555763	-2.985800	3.331000	-9.944300	26.555966	0.000105	20.671787
2010.559845	-3.007200	3.330100	-10.013000	26.564033	0.000104	20.672309
2011.554848	-2.996900	3.329900	-9.978800	26.516549	0.000106	20.666778
2012.554570	-3.022800	3.330400	-10.066000	26.442935	0.000103	20.674341
2013.555256	-3.003400	3.328900	-9.997200	26.429774	0.000104	20.670121
2014.554051	-2.991600	3.330100	-9.961600	26.474349	0.000104	20.702124
2015.554961	-3.010800	3.329700	-10.023000	26.533314	0.000104	20.672250
2016.562588	-3.000800	3.329300	-9.989600	26.536168	0.000103	20.660893
2017.555588	-2.993500	3.326400	-9.956100	26.511253	0.000105	20.669989
2018.556909	-2.988600	3.328100	-9.945100	26.492397	0.000101	20.672373
2019.557177	-2.997500	3.326700	-9.970900	26.502086	0.000102	20.679742
2020.559297	-3.000800	3.327700	-9.985400	26.514145	0.000101	20.671474
2021.558434	-2.993800	3.327800	-9.960900	26.512719	0.000102	20.684266
2022.558729	-3.011000	3.325900	-10.013000	26.490282	0.000103	20.684948
2023.561764	-3.021200	3.325100	-10.044000	26.467240	0.000101	20.665104
2024.559729	-2.990600	3.325200	-9.943700	26.477618	0.000101	20.671743
2025.561897	-3.001700	3.325300	-9.980900	26.485203	9.945279E-5	20.666564
2026.561890	-3.010200	3.323800	-10.004000	26.472552	9.974981E-5	20.660486
2027.561728	-2.994800	3.324600	-9.955900	26.514897	0.000101	20.675076
2028.562281	-3.025600	3.324600	-10.057000	26.479143	9.958480E-5	20.666637
2029.563455	-3.032400	3.323400	-10.077000	26.528070	9.767066E-5	20.660340
2030.562099	-3.016000	3.323700	-10.023000	26.548632	9.912277E-5	20.653033
2031.561453	-3.012700	3.322500	-10.009000	26.574310	9.819870E-5	20.652292
2032.561449	-2.993600	3.323900	-9.949200	26.551414	9.628456E-5	20.675746
2033.565609	-3.008900	3.322800	-9.997000	26.584518	9.687860E-5	20.664926
2034.562611	-2.998800	3.321800	-9.960700	26.559471	9.684560E-5	20.677681
2035.561972	-3.035300	3.321300	-10.080000	26.521324	9.470045E-5	20.651187
2036.561973	-2.992000	3.320700	-9.933800	26.520938	9.470045E-5	20.666448
2037.561972	-2.999000	3.321100	-9.959500	26.491461	9.691161E-5	20.657680
2038.562973	-3.013500	3.319500	-10.003000	26.527652	9.813270E-5	20.676042
2039.564275	-3.002300	3.320900	-9.969500	26.565243	9.565751E-5	20.668309
2040.561273	-3.022200	3.318700	-10.030000	26.573420	9.470045E-5	20.665149
2041.561349	-2.990400	3.319100	-9.925000	26.592917	9.539350E-5	20.661988
2042.564742	-3.018700	3.319800	-10.020000	26.614469	9.555851E-5	20.679388
2043.561930	-3.006500	3.320300	-9.981000	26.611543	9.275330E-5	20.657004
2044.564932	-2.998200	3.320100	-9.952900	26.656860	9.397439E-5	20.667000
2045.564678	-2.991000	3.319800	-9.929000	26.688267	9.456844E-5	20.656847
2046.562087	-3.006500	3.319400	-9.979600	26.704715	9.301732E-5	20.663427
2047.563233	-3.000000	3.318400	-9.954400	26.719831	9.024512E-5	20.653019
2048.561229	-3.007900	3.317600	-9.978200	26.707872	9.248928E-5	20.660910
2049.565228	-3.000900	3.317600	-9.954400	26.636302	9.070715E-5	20.647279
2050.561232	-2.989300	3.318100	-9.917800	26.627909	9.215926E-5	20.644057
2051.563269	-2.972900	3.318500	-9.864900	26.594627	9.219226E-5	20.669872
2052.564640	-2.976900	3.317400	-9.873800	26.634188	9.173023E-5	20.650370
2053.562638	-2.986300	3.316300	-9.903000	26.690931	8.988209E-5	20.655257
2054.565876	-2.996200	3.315700	-9.933300	26.688138	9.258829E-5	20.668573
2055.564843	-3.010200	3.316600	-9.982700	26.725325	9.120219E-5	20.657593
2056.562667	-3.001800	3.314200	-9.947500	26.799088	9.179623E-5	20.666323
2057.564429	-3.013700	3.314500	-9.988000	26.808605	8.918904E-5	20.670677
2058.564465	-3.003500	3.314500	-9.954500	26.745157	8.776994E-5	20.662834
2059.563431	-3.004300	3.313800	-9.954300	26.767577	8.955207E-5	20.653606
2060.563744	-3.009500	3.314300	-9.973600	26.783346	8.968408E-5	20.668988
2061.563803	-2.998700	3.313900	-9.936700	26.811641	8.743991E-5	20.631999
2062.565536	-2.971800	3.314000	-9.847300	26.760867	9.054214E-5	20.655395
2063.563273	-2.989100	3.312200	-9.899800	26.692857	8.635083E-5	20.663833
2064.564642	-3.018500	3.312400	-9.997400	26.707781	8.753892E-5	20.658922
2065.567834	-2.984700	3.311700	-9.883200	26.706861	8.569079E-5	20.649936
2066.565835	-2.999200	3.311200	-9.930100	26.691552	8.668086E-5	20.647346
2067.565831	-3.007100	3.311500	-9.956500	26.675578	8.466771E-5	20.668748
2068.568834	-2.980400	3.311600	-9.867900	26.715002	8.539376E-5	20.643895
2069.566833	-2.993700	3.310000	-9.908000	26.801499	8.509674E-5	20.656893
2070.566834	-2.966200	3.312400	-9.824100	26.835769	8.615282E-5	20.652468
2071.570783	-2.996100	3.310700	-9.918400	26.848756	8.367764E-5	20.658889
2072.567783	-3.001400	3.310100	-9.934500	26.846120	8.450270E-5	20.657186
2073.567068	-3.006300	3.309600	-9.948600	26.783230	8.120246E-5	20.662707
2074.570068	-2.998900	3.309700	-9.924900	26.715428	8.245655E-5	20.649065
2075.567068	-3.005800	3.308400	-9.942900	26.730073	8.110345E-5	20.639605
2076.568121	-3.012900	3.309800	-9.970600	26.802579	8.285258E-5	20.662720
2077.572443	-3.002100	3.308700	-9.932100	26.836629	8.460171E-5	20.638633
2078.568443	-3.009800	3.308000	-9.955100	26.928668	8.199452E-5	20.653894
2079.568443	-3.000300	3.307300	-9.922200	26.913640	8.265456E-5	20.654430
2080.573445	-2.993400	3.306300	-9.896400	26.879531	8.140047E-5	20.650951
2081.568443	-2.992500	3.307400	-9.896800	26.855302	7.849626E-5	20.668316
2082.569477	-2.961000	3.307900	-9.793800	26.833585	7.984936E-5	20.653118
2083.570788	-2.988400	3.306700	-9.881200	26.869376	8.153248E-5	20.654492
2084.570166	-2.988400	3.306100	-9.878000	26.903545	7.915631E-5	20.661823
2085.570207	-2.991200	3.304900	-9.885400	26.898564	8.074042E-5	20.650649
2086.575377	-2.985000	3.305900	-9.867300	26.924065	7.872728E-5	20.653532
2087.573372	-3.044800	3.303300	-10.056000	26.944981	7.856227E-5	20.647537
2088.572769	-3.000800	3.305400	-9.917800	26.978011	7.714316E-5	20.653252
2089.574771	-2.999900	3.304500	-9.911600	27.012916	7.948633E-5	20.648049
2090.573127	-3.012800	3.303100	-9.950200	27.028052	7.909030E-5	20.650469
2091.573237	-3.001000	3.303700	-9.913600	26.959116	7.707716E-5	20.659856
2092.572323	-2.987700	3.304100	-9.871400	26.927716	7.648311E-5	20.635865
2093.576323	-2.971500	3.303900	-9.815600	26.900501	7.598808E-5	20.647381
2094.571656	-2.994700	3.302300	-9.888900	26.813334	7.773721E-5	20.680174
2095.572085	-3.006300	3.301600	-9.924900	26.786708	7.569106E-5	20.654823
2096.573050	-3.016800	3.302000	-9.960700	26.783696	7.371091E-5	20.665547
2097.576050	-3.010800	3.301300	-9.938600	26.753961	7.245682E-5	20.663151
2098.573050	-3.011300	3.300600	-9.937400	26.731723	7.499800E-5	20.650749
2099.571054	-2.986100	3.300000	-9.853600	26.717540	7.496500E-5	20.651188
2100.575921	-3.019700	3.299000	-9.960900	26.748798	7.503101E-5	20.671711
2101.573522	-2.977400	3.301900	-9.830500	26.835027	7.390893E-5	20.655041
2102.573382	-3.028900	3.298300	-9.988800	26.896997	7.433796E-5	20.646702
2103.578384	-2.992300	3.299600	-9.872400	26.832779	7.288585E-5	20.661316
2104.574383	-3.003800	3.298100	-9.905500	26.793795	7.202779E-5	20.643930
2105.575762	-3.014600	3.297200	-9.939100	26.860264	7.404093E-5	20.650070
2106.577617	-3.007600	3.297900	-9.918100	26.871013	7.074069E-5	20.672261
2107.576754	-2.996800	3.298500	-9.884500	26.826166	7.453597E-5	20.654193
2108.577130	-3.004100	3.296900	-9.903000	26.784449	7.206079E-5	20.654923
2109.575699	-2.959300	3.299200	-9.762300	26.772091	7.116972E-5	20.654826
2110.576630	-2.979800	3.296700	-9.822900	26.808573	7.219280E-5	20.663057
2111.576618	-2.999900	3.296300	-9.887800	26.776215	7.229181E-5	20.668456
2112.578782	-2.987400	3.296400	-9.847100	26.838162	6.998164E-5	20.677162
2113.577684	-2.993900	3.297000	-9.870200	26.887700	7.017965E-5	20.648259
2114.576774	-3.017000	3.296300	-9.943500	26.956798	7.212679E-5	20.661319
2115.577202	-2.997400	3.294700	-9.874000	26.934733	6.829851E-5	20.658571
2116.579536	-2.997200	3.295700	-9.877400	26.861499	6.942060E-5	20.683084
2117.582098	-3.026800	3.293100	-9.967000	26.923502	6.988263E-5	20.661977
2118.579330	-2.982400	3.293900	-9.822700	26.941372	6.836452E-5	20.667144
2119.580011	-2.985900	3.293800	-9.834000	26.873663	6.793549E-5	20.651689
2120.579046	-3.001900	3.292600	-9.883100	26.912984	6.935459E-5	20.641440
2121.580729	-2.990600	3.292600	-9.845000	26.892563	6.882655E-5	20.660263
2122.580504	-3.005600	3.293200	-9.896800	26.839710	6.621936E-5	20.686306
2123.581406	-3.011900	3.291600	-9.913300	26.871246	6.615336E-5	20.673918
2124.580425	-3.042300	3.291000	-10.011000	26.947732	6.661539E-5	20.667850
2125.579257	-3.005900	3.291500	-9.893200	26.999757	6.744045E-5	20.678916
2126.579779	-3.004000	3.291400	-9.885500	27.014277	6.928859E-5	20.668861
2127.581182	-3.011700	3.291100	-9.910900	26.997640	6.615336E-5	20.695755
2128.581066	-3.002900	3.290300	-9.879500	26.926503	6.724244E-5	20.662623
2129.582365	-2.999600	3.289200	-9.865300	26.896263	6.664839E-5	20.673942
2130.582385	-3.010000	3.290000	-9.902100	26.911679	6.579033E-5	20.669055
2131.582158	-3.014600	3.289000	-9.913700	26.946923	6.384319E-5	20.665614
2132.582418	-3.007100	3.289900	-9.892800	26.996638	6.691241E-5	20.651121
2133.582712	-3.007800	3.289100	-9.892100	27.027623	6.480026E-5	20.668058
2134.582393	-2.993400	3.289100	-9.844800	27.055888	6.509728E-5	20.668508
2135.586709	-2.987200	3.287200	-9.818300	27.065052	6.437123E-5	20.697167
2136.583177	-3.008800	3.286900	-9.889000	27.113854	6.374418E-5	20.692668
2137.601866	-2.969400	3.287700	-9.761200	27.140158	6.324914E-5	20.693993
2138.586626	-2.985700	3.285800	-9.809400	27.090160	6.222607E-5	20.676424
2139.585526	-2.977500	3.287400	-9.787300	27.111448	6.113699E-5	20.684084
2140.588298	-3.001400	3.285100	-9.858700	27.129339	6.311713E-5	20.664617
2141.586604	-3.006000	3.286500	-9.878300	27.165034	6.338115E-5	20.679657
2142.586234	-2.999300	3.285900	-9.854800	27.151218	6.216006E-5	20.691366
2143.585574	-3.011100	3.283500	-9.886100	27.138090	6.136801E-5	20.669152
2144.589402	-2.984500	3.285800	-9.805700	27.097122	6.113699E-5	20.678210
2145.586091	-2.984800	3.284700	-9.803600	27.104267	6.199505E-5	20.689189
2146.586881	-2.999500	3.284700	-9.851600	27.060554	5.998191E-5	20.689324
2147.587468	-3.029400	3.283500	-9.945600	27.030259	6.090597E-5	20.689677
2148.588543	-2.997400	3.284600	-9.844000	27.051318	6.090597E-5	20.681457
2149.587947	-2.997400	3.281400	-9.835100	27.110020	6.107099E-5	20.681699
2150.588118	-2.993500	3.282900	-9.826700	27.156428	6.067496E-5	20.676216
2151.590419	-3.000500	3.281100	-9.843900	27.155340	6.093898E-5	20.689822
2152.589038	-3.018100	3.280800	-9.900900	27.148572	5.918985E-5	20.693920
2153.588154	-2.989800	3.281200	-9.808800	27.169834	5.833178E-5	20.688279
2154.590263	-2.995600	3.279900	-9.824800	27.158193	5.724270E-5	20.700753
2155.587433	-2.998200	3.281600	-9.838200	27.099166	5.803476E-5	20.685008
2156.589400	-3.009800	3.279700	-9.870300	27.084575	5.760573E-5	20.675548
2157.588752	-3.018300	3.281300	-9.903100	27.079933	5.621963E-5	20.674198
2158.590375	-3.013900	3.278900	-9.881600	27.089775	5.542757E-5	20.692158
2159.590405	-3.013900	3.278400	-9.879600	27.110674	5.658266E-5	20.688047
2160.589957	-3.016300	3.278300	-9.886800	27.059794	5.635164E-5	20.698517
2161.590022	-3.001000	3.278000	-9.835400	27.040318	5.374445E-5	20.699320
2162.590193	-2.984400	3.277800	-9.782000	27.023685	5.371145E-5	20.681168
2163.590044	-2.999600	3.276600	-9.827900	27.015064	5.450350E-5	20.686724
2164.589357	-2.974900	3.277500	-9.749200	26.991730	5.400847E-5	20.688863
2165.589111	-3.008200	3.275800	-9.853000	26.968699	5.456951E-5	20.712646
2166.589964	-2.996500	3.277300	-9.819700	27.028459	5.285338E-5	20.699247
2167.589977	-3.017400	3.274500	-9.879100	27.034130	5.070823E-5	20.700683
2168.590581	-3.021200	3.275500	-9.895000	27.026417	5.341442E-5	20.691504
2169.591290	-3.007900	3.275900	-9.851500	27.031253	5.324941E-5	20.679770
2170.591630	-2.977600	3.274600	-9.749600	27.075390	5.080723E-5	20.676742
2171.591541	-2.998400	3.273100	-9.813700	27.179351	5.285338E-5	20.684574
2172.592339	-3.011700	3.272700	-9.855200	27.176849	5.173130E-5	20.707190
2173.593375	-3.012700	3.273900	-9.861300	27.098505	5.014718E-5	20.716587
2174.593356	-2.992300	3.273500	-9.794200	27.041360	5.087324E-5	20.676658
2175.594442	-2.991800	3.273100	-9.791900	27.001975	4.994917E-5	20.718134
2176.594757	-3.002900	3.270500	-9.819500	27.026758	4.869508E-5	20.697062
2177.595329	-2.979400	3.273000	-9.751000	27.018319	4.806803E-5	20.673875
2178.599381	-3.022400	3.271500	-9.887100	27.017896	5.176430E-5	20.696211
2179.596948	-3.001800	3.271000	-9.817900	27.123384	5.018019E-5	20.685657
2180.595857	-3.007900	3.270800	-9.837000	27.191597	5.037820E-5	20.697841
2181.595159	-3.008100	3.271000	-9.838600	27.253327	4.886009E-5	20.685962
2182.595117	-3.009300	3.270400	-9.840600	27.255539	4.994917E-5	20.681074
2183.597117	-2.981900	3.270200	-9.750200	27.205667	4.813404E-5	20.689707
2184.595394	-3.006000	3.268100	-9.822400	27.195283	4.612089E-5	20.704867
2185.595933	-2.991200	3.268900	-9.777000	27.221162	4.823304E-5	20.690593
2186.596808	-3.012500	3.268600	-9.845500	27.179812	4.717697E-5	20.709695
2187.595203	-2.997400	3.268500	-9.796500	27.156760	4.546084E-5	20.693621
2188.595490	-2.991900	3.267400	-9.775400	27.235885	4.849706E-5	20.701136
2189.595903	-3.013000	3.267800	-9.845600	27.266041	4.631890E-5	20.696855
2190.596321	-3.021700	3.266800	-9.870100	27.304790	4.598888E-5	20.712126
2191.596490	-3.003200	3.266700	-9.810400	27.348409	4.796902E-5	20.703372
2192.596082	-3.013000	3.266100	-9.840000	27.362766	4.631890E-5	20.700745
2193.597831	-2.976800	3.267300	-9.725300	27.329180	4.559285E-5	20.708685
2194.596798	-3.021800	3.266000	-9.867700	27.289985	4.668193E-5	20.724261
2195.600052	-2.999200	3.265000	-9.791500	27.304560	4.552685E-5	20.724697
2196.597715	-3.009000	3.263600	-9.819100	27.342884	4.555985E-5	20.709669
2197.597713	-2.998700	3.263700	-9.784500	27.385872	4.569186E-5	20.711188
2198.598714	-2.986200	3.263800	-9.746000	27.280217	4.476779E-5	20.691673
2199.596715	-3.000600	3.263300	-9.791400	27.229851	4.387672E-5	20.725888
2200.596714	-3.015100	3.263000	-9.837100	27.252199	4.384372E-5	20.722763
2201.596715	-2.983000	3.262400	-9.730800	27.298721	4.364571E-5	20.728781
2202.600713	-3.017400	3.262300	-9.842700	27.372410	4.324968E-5	20.700963
2203.598749	-2.987000	3.262800	-9.745200	27.413667	4.232561E-5	20.722081
2204.598063	-3.027400	3.261700	-9.873000	27.434938	4.222660E-5	20.728307
2205.598065	-2.986700	3.261800	-9.741000	27.363647	4.100551E-5	20.728660
2206.598075	-2.994700	3.261100	-9.765000	27.254797	4.173157E-5	20.730592
2207.598367	-3.000300	3.261900	-9.785600	27.234758	4.272164E-5	20.727030
2208.599369	-2.988900	3.259900	-9.743300	27.241261	4.107152E-5	20.719346
2209.599372	-3.013700	3.259600	-9.822300	27.270015	3.853033E-5	20.723140
2210.598905	-3.009000	3.258700	-9.804000	27.209061	4.199559E-5	20.714459
2211.601810	-3.014100	3.260300	-9.826000	27.220760	3.922338E-5	20.728124
2212.600521	-3.023400	3.257100	-9.846700	27.250881	3.810130E-5	20.728076
2213.598522	-3.007800	3.256200	-9.793300	27.244186	4.060948E-5	20.720392
2214.599523	-3.005400	3.257500	-9.788900	27.231761	4.150055E-5	20.722593
2215.601684	-3.024900	3.255200	-9.845500	27.286321	4.064249E-5	20.726265
2216.603599	-2.963400	3.257700	-9.653200	27.339561	3.945440E-5	20.715335
2217.600149	-2.994500	3.255600	-9.747800	27.309841	3.981743E-5	20.718155
2218.601206	-3.027600	3.254000	-9.850300	27.313371	3.823331E-5	20.729293
2219.603235	-2.997300	3.254900	-9.754500	27.350391	3.975142E-5	20.723385
2220.601237	-2.992600	3.257200	-9.747400	27.301852	3.717723E-5	20.730508
2221.602608	-3.007700	3.254200	-9.786700	27.278864	3.757326E-5	20.706910
2222.604115	-3.008700	3.253200	-9.787500	27.220725	3.572513E-5	20.737573
2223.601245	-3.009300	3.254200	-9.792300	27.234444	3.938840E-5	20.742363
2224.601478	-3.007300	3.253100	-9.782300	27.298542	3.750726E-5	20.723859
2225.605527	-2.991000	3.253400	-9.729100	27.343114	3.856333E-5	20.732661
2226.603474	-2.989900	3.253200	-9.726000	27.286854	3.539510E-5	20.742923
2227.603471	-3.006300	3.251900	-9.775200	27.262222	3.684721E-5	20.752285
2228.602890	-3.008600	3.250200	-9.777500	27.221427	3.803530E-5	20.743494
2229.604829	-2.991500	3.250800	-9.724300	27.289985	3.542810E-5	20.727106
2230.602403	-3.001300	3.251700	-9.758500	27.308874	3.717723E-5	20.722873
2231.604508	-2.999700	3.251300	-9.751700	27.306397	3.625317E-5	20.725597
2232.606741	-3.016100	3.249300	-9.799900	27.336202	3.658319E-5	20.731397
2233.605798	-2.993300	3.248400	-9.722500	27.291991	3.466905E-5	20.739555
2234.605276	-2.999200	3.248500	-9.741800	27.344202	3.678120E-5	20.731858
2235.605681	-2.983100	3.249200	-9.691700	27.379710	3.453704E-5	20.737707
2236.605171	-3.015400	3.247700	-9.791100	27.340069	3.377798E-5	20.715846
2237.605175	-3.022200	3.247500	-9.813400	27.319499	3.473505E-5	20.752528
2238.609130	-2.968200	3.249000	-9.643100	27.254508	3.433902E-5	20.731249
2239.611694	-2.995900	3.248200	-9.729900	27.261895	3.532910E-5	20.734412
2240.606307	-3.004100	3.247100	-9.752900	27.299688	3.308493E-5	20.750618
2241.611738	-3.008000	3.245800	-9.762600	27.326497	3.490007E-5	20.748662
2242.608116	-3.017100	3.244900	-9.788700	27.392763	3.361297E-5	20.767435
2243.608981	-3.007700	3.245400	-9.760500	27.468837	3.410801E-5	20.757197
2244.609175	-3.024200	3.244500	-9.811000	27.424317	3.447103E-5	20.747969
2245.607228	-3.002300	3.244800	-9.741000	27.415775	3.470205E-5	20.749807
2246.608337	-2.990900	3.245200	-9.705000	27.405403	3.470205E-5	20.734631
2247.608740	-3.008700	3.243500	-9.757700	27.364290	3.285392E-5	20.745903
2248.609287	-3.007100	3.242500	-9.750300	27.320757	3.196285E-5	20.757588
2249.608334	-3.004000	3.242200	-9.738100	27.364073	3.140181E-5	20.747107
2250.614513	-3.002100	3.242400	-9.733600	27.449696	3.225987E-5	20.733197
2251.611516	-3.014200	3.242400	-9.771400	27.497647	3.074176E-5	20.746827
2252.611957	-2.969400	3.242900	-9.628000	27.495871	3.110479E-5	20.743618
2253.614442	-2.997700	3.240300	-9.712500	27.485310	3.341496E-5	20.752908
2254.613848	-3.000600	3.240200	-9.722100	27.480453	3.027973E-5	20.743279
2255.612386	-2.988200	3.240300	-9.681400	27.489431	3.087377E-5	20.763218
2256.614355	-2.996100	3.239100	-9.703600	27.502627	3.084077E-5	20.759899
2257.625033	-3.009200	3.239500	-9.747700	27.558020	2.777154E-5	20.770113
2258.614033	-3.001700	3.239200	-9.722000	27.580798	2.942166E-5	20.729019
2259.614573	-3.011600	3.238100	-9.750600	27.608587	2.912464E-5	20.753188
2260.616573	-2.982900	3.239000	-9.661100	27.600105	3.113779E-5	20.783060
2261.624573	-2.994300	3.237600	-9.692900	27.584169	2.816757E-5	20.776983
2262.617835	-3.001800	3.237700	-9.718300	27.596662	2.948767E-5	20.780544
2263.617837	-2.987200	3.237300	-9.668700	27.577461	2.763953E-5	20.762173
2264.620214	-3.012600	3.236400	-9.749400	27.634106	2.730951E-5	20.765115
2265.617213	-2.998600	3.237200	-9.707000	27.672576	2.932266E-5	20.775377
2266.617212	-3.003900	3.236300	-9.720300	27.644545	2.882762E-5	20.768507
2267.622213	-3.011600	3.235100	-9.741900	27.657618	2.853060E-5	20.780240
2268.619213	-3.004600	3.234800	-9.718700	27.600287	2.737551E-5	20.787985
2269.620213	-2.990500	3.234300	-9.671100	27.593277	2.730951E-5	20.779035
2270.624212	-3.013900	3.233500	-9.743400	27.571239	2.400927E-5	20.778672
2271.618212	-3.022700	3.231600	-9.767600	27.518905	2.628643E-5	20.765845
2272.619211	-2.992000	3.234100	-9.675900	27.537659	2.252416E-5	20.745359
2273.621212	-2.973300	3.233100	-9.612400	27.543435	2.697948E-5	20.769663
2274.619214	-3.005100	3.233600	-9.715900	27.570503	2.668246E-5	20.765128
2275.621214	-3.018000	3.230300	-9.748500	27.529999	2.480132E-5	20.775110
2276.620214	-3.012100	3.233000	-9.737500	27.541828	2.556038E-5	20.764253
2277.623211	-3.016200	3.231200	-9.745100	27.523896	2.503234E-5	20.762806
2278.620210	-2.989800	3.230300	-9.657200	27.495754	2.529636E-5	20.788546
2279.621211	-3.026400	3.229100	-9.770900	27.505565	2.453730E-5	20.777554
2280.623212	-2.991000	3.228700	-9.655200	27.494907	2.523036E-5	20.772995
2281.622213	-2.995700	3.229100	-9.671900	27.517577	2.394326E-5	20.777785
2282.626212	-3.001100	3.228700	-9.689300	27.524986	2.265617E-5	20.793301
2283.622211	-3.020900	3.228000	-9.750600	27.518991	2.460331E-5	20.755500
2284.622212	-3.010300	3.228700	-9.718700	27.495234	2.427329E-5	20.788023
2285.622212	-3.018400	3.226400	-9.737800	27.495995	2.338222E-5	20.785943
2286.624214	-3.017800	3.227500	-9.739200	27.494484	2.239215E-5	20.786794
2287.623211	-3.009800	3.226500	-9.710600	27.395583	2.298619E-5	20.785919
2288.622211	-2.993500	3.225500	-9.654300	27.425964	2.430629E-5	20.788034
2289.623211	-2.986200	3.225900	-9.632800	27.430436	2.084103E-5	20.772618
2290.625943	-3.001200	3.226600	-9.682700	27.509153	2.259016E-5	20.793492
2291.624287	-2.988200	3.224900	-9.635300	27.558333	2.232614E-5	20.784653
2292.624287	-3.000700	3.223900	-9.673000	27.578500	2.219413E-5	20.768434
2293.624287	-2.998500	3.224400	-9.667100	27.564012	2.199612E-5	20.788470
2294.625288	-2.996800	3.223100	-9.657500	27.574404	2.325021E-5	20.780434
2295.625288	-2.985400	3.222500	-9.619800	27.581472	2.103905E-5	20.773795
2296.625440	-3.018700	3.222900	-9.728400	27.616670	2.179810E-5	20.780762
2297.625440	-2.989100	3.224200	-9.637200	27.652748	2.163309E-5	20.784348
2298.625441	-3.005800	3.221000	-9.681100	27.666630	2.268917E-5	20.801636
2299.625440	-3.021200	3.221500	-9.731500	27.685888	2.183111E-5	20.800152
2300.625441	-3.017000	3.220000	-9.714100	27.728163	2.153408E-5	20.799545
2301.626442	-3.000700	3.219800	-9.660700	27.662183	2.031299E-5	20.779617
2302.627676	-2.983900	3.220600	-9.609600	27.628411	2.041200E-5	20.794947
2303.628446	-2.967600	3.219700	-9.553700	27.662352	2.183111E-5	20.785477
2304.629205	-3.003000	3.220800	-9.671800	27.689307	2.176510E-5	20.818765
2305.633283	-3.007300	3.218100	-9.676900	27.732026	2.008198E-5	20.808649
2306.632994	-3.006000	3.217700	-9.671500	27.748517	1.859687E-5	20.799166
2307.629994	-3.031400	3.216500	-9.749800	27.729949	1.945493E-5	20.798972
2308.630214	-3.022900	3.218400	-9.728400	27.688206	1.829985E-5	20.788734
2309.633215	-3.044100	3.215900	-9.788600	27.693595	1.882789E-5	20.785148
2310.636735	-3.013100	3.215600	-9.687900	27.714376	1.968595E-5	20.796102
2311.631333	-2.965900	3.217500	-9.542000	27.758013	1.714476E-5	20.799712
2312.631579	-2.974800	3.216200	-9.566500	27.834896	1.859687E-5	20.807385
2313.635577	-3.003800	3.214900	-9.656300	27.812147	1.688074E-5	20.794448
2314.631687	-2.993000	3.214500	-9.619900	27.774153	1.806883E-5	20.800308
2315.631686	-2.996000	3.216100	-9.634800	27.686067	1.721077E-5	20.804599
2316.634686	-2.987400	3.213400	-9.598100	27.655463	1.704575E-5	20.807469
2317.652741	-3.025000	3.212800	-9.716700	27.684640	1.559365E-5	20.799370
2318.632803	-2.971500	3.211700	-9.542500	27.728147	1.305246E-5	20.798581
2319.635806	-3.015100	3.212000	-9.683400	27.777307	1.605568E-5	20.788783
2320.634802	-3.005000	3.212500	-9.652400	27.809404	1.529663E-5	20.798799
2321.634171	-3.015100	3.210700	-9.679100	27.750739	1.579166E-5	20.809936
2322.637171	-2.997200	3.210200	-9.620200	27.753807	1.565965E-5	20.797851
2323.633237	-2.996000	3.211000	-9.618900	27.700093	1.513161E-5	20.815869
2324.634245	-2.990700	3.209500	-9.598100	27.615974	1.490060E-5	20.813253
2325.636248	-2.991100	3.209800	-9.600100	27.578846	1.470258E-5	20.797231
2326.635245	-3.001800	3.208300	-9.630200	27.576682	1.285445E-5	20.793632
2327.637245	-2.992000	3.209200	-9.601200	27.568682	1.364650E-5	20.791272
2328.634244	-3.008400	3.207700	-9.649500	27.629326	1.367951E-5	20.799187
2329.637244	-3.029000	3.205900	-9.709800	27.684228	1.315147E-5	20.816973
2330.634381	-3.012700	3.206900	-9.660900	27.717875	1.480159E-5	20.804839
2331.634730	-3.021000	3.206500	-9.686300	27.726683	1.816784E-5	20.794262
2332.640729	-3.005200	3.205300	-9.632400	27.719481	1.546164E-5	20.829689
2333.635295	-3.025000	3.203800	-9.689700	27.715760	1.648471E-5	20.798444
2334.635296	-2.985700	3.204600	-9.567300	27.686402	1.625370E-5	20.804462
2335.640870	-2.979500	3.205300	-9.549800	27.686969	1.569265E-5	20.795550
2336.635870	-2.995600	3.204300	-9.598500	27.745685	1.364650E-5	20.802479
2337.635915	-3.001100	3.203100	-9.612000	27.773278	1.625370E-5	20.795634
2338.637914	-3.003600	3.201500	-9.614900	27.809230	1.476859E-5	20.790089
2339.636775	-2.987300	3.203700	-9.569900	27.798696	1.513161E-5	20.798454
2340.635612	-3.019600	3.201200	-9.665800	27.773096	1.460357E-5	20.781700
2341.639611	-2.989700	3.203300	-9.575800	27.740864	1.146834E-5	20.792886
2342.639612	-3.009900	3.200400	-9.632000	27.725336	1.384452E-5	20.800020
2343.637005	-3.006700	3.200400	-9.621400	27.672298	1.519762E-5	20.786951
2344.641161	-3.004000	3.201000	-9.614700	27.646936	1.364650E-5	20.790828
2345.639249	-3.009100	3.199000	-9.624800	27.732222	1.367951E-5	20.799836
2346.637856	-2.988300	3.199900	-9.561000	27.768681	1.338248E-5	20.807603
2347.638263	-2.999100	3.198400	-9.591000	27.793387	1.216140E-5	20.784103
2348.637378	-2.989900	3.197800	-9.559800	27.835680	1.288745E-5	20.791105
2349.639740	-2.983400	3.197400	-9.538500	27.837613	1.173236E-5	20.813439
2350.639946	-2.946000	3.198300	-9.420600	27.882803	1.219440E-5	20.785426
2351.638362	-3.027300	3.196200	-9.674200	27.841984	1.562665E-5	20.794605
2352.640596	-2.994200	3.195600	-9.567800	27.826317	1.268943E-5	20.762715
2353.639031	-2.991200	3.195900	-9.558400	27.845076	1.572566E-5	20.779698
2354.640241	-2.990500	3.196400	-9.556800	27.784165	1.123733E-5	20.779090
2355.640575	-3.031600	3.193300	-9.680300	27.741555	1.315147E-5	20.776511
2356.638999	-2.994400	3.193400	-9.561400	27.690364	1.202939E-5	20.771465
2357.638970	-3.005900	3.192200	-9.595100	27.733507	1.259043E-5	20.785483
2358.639520	-3.016200	3.190900	-9.624100	27.793018	1.011524E-5	20.784680
2359.638991	-2.999400	3.190900	-9.569900	27.868579	1.321747E-5	20.792447
2360.639149	-2.979700	3.192300	-9.511200	27.892158	1.123733E-5	20.791997
2361.638357	-3.003200	3.191100	-9.582800	27.845250	9.488198E-6	20.769916
2362.640357	-2.976400	3.190500	-9.494700	27.891784	1.001624E-5	20.773602
2363.639417	-3.013600	3.189300	-9.610300	27.931102	1.120432E-5	20.778088
2364.639792	-3.014900	3.188700	-9.612700	27.913513	1.041227E-5	20.782196
2365.644009	-2.991400	3.189700	-9.540700	27.874436	1.100631E-5	20.782220
2366.640995	-3.011700	3.188600	-9.602000	27.826670	1.163336E-5	20.782986
2367.640961	-3.024900	3.185600	-9.634700	27.839308	9.389191E-6	20.775315
2368.642627	-3.015300	3.185900	-9.605500	27.832940	9.587206E-6	20.770329
2369.640831	-3.001100	3.185900	-9.559700	27.794740	8.102096E-6	20.786412
2370.643826	-3.006400	3.184900	-9.573400	27.793375	8.894155E-6	20.784564
2371.643313	-3.021700	3.184400	-9.622000	27.871366	7.409045E-6	20.775337
2372.642398	-2.997500	3.185800	-9.547900	27.947828	8.564130E-6	20.776905
2373.641721	-2.977300	3.186000	-9.485200	27.997531	8.234106E-6	20.762448
2374.643251	-2.981900	3.183500	-9.492100	27.970946	8.399118E-6	20.762241
2375.641438	-2.986100	3.182300	-9.501600	27.873646	9.653210E-6	20.761037
2376.641440	-2.986700	3.182700	-9.505000	27.821207	8.432121E-6	20.766107
2377.641464	-3.009700	3.181700	-9.575400	27.780723	6.418973E-6	20.771358
2378.642507	-2.990600	3.180600	-9.510800	27.865721	5.032870E-6	20.770130
2379.642111	-2.984800	3.181400	-9.494600	27.912649	9.455196E-6	20.786068
2380.643113	-2.994700	3.178700	-9.518200	27.949504	7.409045E-6	20.760099
2381.644161	-2.996700	3.178500	-9.524100	28.027941	6.682992E-6	20.778360
2382.644866	-2.988200	3.178000	-9.496100	28.005596	6.187956E-6	20.781472
2383.645867	-3.001800	3.178000	-9.538300	27.951736	7.343041E-6	20.759976
2384.646866	-3.017500	3.177000	-9.586100	27.890566	3.580764E-6	20.768109
2385.645868	-2.985400	3.176700	-9.483400	27.913530	5.329892E-6	20.785058
2386.650868	-3.010300	3.175100	-9.557500	27.949646	5.296890E-6	20.767355
2387.650870	-3.004200	3.174300	-9.535300	27.914544	4.570836E-6	20.786553
2388.649866	-3.007700	3.174500	-9.547600	27.909253	2.590691E-6	20.756096
2389.648869	-2.994100	3.174200	-9.502600	27.915364	6.187956E-6	20.764618
2390.650867	-2.997900	3.174500	-9.515900	27.930414	2.458681E-6	20.755110
2391.647873	-3.012400	3.172800	-9.557000	27.898827	2.392676E-6	20.763621
2392.648867	-3.000700	3.172600	-9.519500	27.932384	2.491683E-6	20.768947
2393.647867	-3.000900	3.172300	-9.519000	27.901110	2.689698E-6	20.763074
2394.649867	-2.981200	3.170900	-9.451800	27.836000	4.570836E-6	20.770564
2395.648866	-3.004100	3.170100	-9.522600	27.880151	3.778778E-6	20.775171
2396.648868	-3.018800	3.170100	-9.569600	27.921887	3.910788E-6	20.747475
2397.650866	-3.004100	3.169100	-9.519500	28.013226	1.270594E-6	20.761651
2398.648866	-2.988700	3.168300	-9.468300	28.063012	3.184734E-6	20.765299
2399.649868	-2.988000	3.167900	-9.465100	28.131732	3.811781E-6	20.787536
2400.650867	-3.005000	3.166700	-9.515000	28.053725	3.217737E-6	20.773495
2401.648869	-3.002800	3.166400	-9.507100	28.025958	2.260666E-6	20.769252
2402.650869	-2.993200	3.166200	-9.476200	28.015523	2.029649E-6	20.763015
2403.659869	-2.999700	3.163800	-9.489300	28.033302	1.138584E-6	20.752936
2404.649868	-2.982600	3.163200	-9.433600	28.036468	3.184734E-6	20.744269
2405.650866	-2.981400	3.163600	-9.431400	27.895775	-5.445401E-7	20.743953
2406.652866	-2.966300	3.164000	-9.384300	27.926916	1.204589E-6	20.743528
2407.649868	-3.002000	3.162300	-9.492400	27.991635	1.501611E-6	20.755091
2408.650868	-3.017800	3.160100	-9.535600	28.037437	5.775425E-7	20.763736
2409.657868	-3.036200	3.159300	-9.591200	28.004064	1.930642E-6	20.759542
2410.649874	-3.026700	3.158400	-9.558900	27.947285	1.336598E-6	20.771142
2411.649868	-2.991100	3.159600	-9.449900	27.929009	4.108802E-6	20.737099
2412.649869	-3.017300	3.158900	-9.530800	28.013790	9.405693E-7	20.764116
2413.649868	-2.997800	3.157900	-9.465900	28.118987	6.435474E-7	20.755266
2414.649870	-3.007500	3.156300	-9.491800	28.124530	-1.765630E-6	20.759423
2415.650866	-3.012200	3.155200	-9.502900	28.154989	-1.485109E-7	20.749783
2416.655866	-3.004900	3.155700	-9.482100	28.185846	-7.755571E-7	20.767572
2417.650920	-2.996000	3.154600	-9.450600	28.193454	8.250607E-8	20.743462
2418.650965	-3.021300	3.154500	-9.529700	28.207246	1.815134E-7	20.741226
2419.650966	-3.046300	3.151900	-9.600800	28.173384	-1.204589E-6	20.759767
2420.650964	-2.991100	3.152800	-9.429700	28.098193	-1.336598E-6	20.740970
2421.653014	-3.014000	3.152300	-9.500400	28.076890	-4.455328E-7	20.760778
2422.653078	-3.012200	3.149900	-9.487100	28.084389	-1.138584E-6	20.752205
2423.655089	-2.995300	3.148800	-9.430500	28.153183	-8.250608E-8	20.752232
2424.653234	-3.012000	3.148700	-9.483100	28.132181	-3.448754E-6	20.747684
2425.654582	-3.022800	3.147500	-9.513700	28.097797	-1.831635E-6	20.740571
2426.655757	-2.988500	3.147900	-9.406500	28.099224	-3.448754E-6	20.750068
2427.653760	-2.993700	3.147500	-9.422000	28.130358	-1.534613E-6	20.746324
2428.653572	-2.979600	3.147100	-9.376500	28.131228	-4.950365E-8	20.738664
2429.654191	-2.989400	3.146500	-9.405300	28.121712	-3.349747E-6	20.730980
2430.656695	-3.013500	3.143500	-9.471000	28.143281	-1.501611E-6	20.727090
2431.655095	-2.989300	3.144700	-9.399100	28.184655	-3.316744E-6	20.753097
2432.655769	-3.000700	3.143300	-9.431500	28.209751	-1.138584E-6	20.748015
2433.655784	-3.020400	3.140000	-9.483400	28.234096	-3.976793E-6	20.745499
2434.655784	-2.990800	3.143100	-9.399300	28.243068	-5.362895E-6	20.754058
2435.656431	-3.009400	3.138900	-9.445900	28.246413	-3.184735E-6	20.749365
2436.659625	-3.005200	3.139200	-9.433000	28.222370	-2.491683E-6	20.737961
2437.659683	-2.993700	3.139500	-9.398400	28.246076	-6.154953E-6	20.740491
2438.659823	-3.018900	3.136900	-9.469100	28.198956	-3.184735E-6	20.750424
2439.663252	-3.014800	3.136400	-9.453700	28.206866	-4.537834E-6	20.728989
2440.660703	-3.016900	3.137500	-9.464700	28.204064	-4.570837E-6	20.747032
2441.660103	-3.003900	3.135900	-9.418500	28.178814	-3.811781E-6	20.733938
2442.664289	-2.992800	3.134700	-9.380900	28.204621	-7.145026E-6	20.739531
2443.661278	-3.034500	3.133700	-9.508000	28.237805	-5.164880E-6	20.738801
2444.661280	-2.996900	3.131600	-9.384300	28.185830	-4.339820E-6	20.749538
2445.661679	-3.000500	3.132700	-9.398400	28.142125	-6.088948E-6	20.732090
2446.661906	-3.003100	3.131400	-9.402700	28.151871	-3.844783E-6	20.723409
2447.661846	-2.972200	3.130500	-9.302800	28.201964	-4.141805E-6	20.728321
2448.661895	-2.968300	3.130400	-9.289400	28.153092	-7.838077E-6	20.738389
2449.666895	-2.996700	3.129600	-9.377000	28.151762	-5.395897E-6	20.724247
2450.662895	-2.987600	3.127700	-9.342800	28.131632	-5.230885E-6	20.744287
2451.662562	-2.995900	3.127300	-9.368100	28.201046	-7.475051E-6	20.736406
2452.665105	-2.995100	3.125600	-9.360400	28.247949	-6.815002E-6	20.715348
2453.662100	-2.980500	3.126500	-9.317700	28.262826	-8.399119E-6	20.745027
2454.664690	-3.007300	3.125000	-9.395700	28.261304	-6.517980E-6	20.741598
2455.666730	-2.983900	3.125000	-9.323800	28.279478	-9.521201E-6	20.712479
2456.664783	-3.021600	3.122600	-9.434700	28.256752	-6.881007E-6	20.733222
2457.664761	-3.006800	3.121300	-9.383700	28.200334	-6.715995E-6	20.729525
2458.665805	-2.990700	3.121900	-9.335400	28.259781	-8.729143E-6	20.747652
2459.664988	-3.018100	3.120100	-9.416100	28.267512	-8.432121E-6	20.715130
2460.665772	-3.002900	3.118700	-9.364600	28.238613	-9.125172E-6	20.735821
2461.666766	-3.010000	3.118000	-9.384500	28.207880	-8.531128E-6	20.739019
2462.666935	-2.997900	3.116200	-9.341100	28.240462	-7.178029E-6	20.722509
2463.666409	-3.030300	3.115400	-9.439000	28.305100	-8.003089E-6	20.719311
2464.667558	-3.006200	3.115600	-9.364800	28.354666	-8.102097E-6	20.708526
2465.670778	-2.995400	3.115700	-9.332700	28.376520	-9.983235E-6	20.713462
2466.669033	-2.971400	3.114000	-9.252000	28.341155	-9.290184E-6	20.719104
2467.669513	-2.988000	3.112700	-9.300000	28.266618	-1.031326E-5	20.714704
2468.667730	-3.009800	3.111300	-9.363400	28.263779	-9.653211E-6	20.721803
2469.667945	-3.022600	3.109400	-9.398000	28.179295	-8.894155E-6	20.710240
2470.668751	-3.004000	3.108700	-9.336800	28.115639	-1.150135E-5	20.749524
2471.667471	-3.002700	3.108300	-9.332400	28.105978	-1.064328E-5	20.706131
2472.671520	-2.997900	3.107400	-9.314300	28.140254	-1.397653E-5	20.718826
2473.668742	-2.983600	3.106700	-9.268300	28.180962	-9.059167E-6	20.724721
2474.668737	-2.987000	3.105400	-9.274900	28.196783	-1.315147E-5	20.704612
2475.674739	-3.000400	3.104200	-9.313200	28.164237	-1.103931E-5	20.721160
2476.669788	-3.007300	3.103200	-9.331000	28.135882	-1.186437E-5	20.698302
2477.668789	-2.994100	3.103000	-9.289300	28.213449	-9.620209E-6	20.722340
2478.674789	-2.991700	3.102400	-9.280300	28.216058	-1.120433E-5	20.710741
2479.669776	-3.018500	3.101200	-9.360300	28.257140	-1.440556E-5	20.720335
2480.669100	-3.010000	3.099600	-9.329000	28.322671	-1.120433E-5	20.727521
2481.669096	-3.003600	3.098700	-9.307000	28.252032	-1.387752E-5	20.718037
2482.669275	-2.995800	3.097300	-9.278100	28.280543	-1.268943E-5	20.734415
2483.669278	-2.972600	3.098000	-9.207800	28.275231	-1.384452E-5	20.733809
2484.674667	-2.998400	3.095400	-9.280200	28.271718	-1.391052E-5	20.711304
2485.672702	-3.006900	3.095400	-9.306700	28.303281	-1.318447E-5	20.720324
2486.670745	-3.010100	3.094100	-9.312200	28.317277	-1.364651E-5	20.704070
2487.672954	-3.018400	3.092000	-9.331800	28.260271	-1.160035E-5	20.723487
2488.673042	-3.000900	3.092300	-9.278500	28.273144	-1.358050E-5	20.719379
2489.675097	-3.018400	3.091700	-9.331000	28.282068	-1.483459E-5	20.714612
2490.678082	-3.023500	3.088800	-9.338400	28.304022	-1.311847E-5	20.729606
2491.675730	-2.996700	3.088600	-9.254400	28.343373	-1.483459E-5	20.712328
2492.675618	-2.983300	3.088800	-9.214100	28.343434	-1.371251E-5	20.710967
2493.675618	-2.988000	3.087400	-9.224600	28.311161	-1.427355E-5	20.724465
2494.677529	-2.990200	3.085500	-9.225400	28.350789	-1.424055E-5	20.723590
2495.674965	-2.979100	3.086100	-9.193000	28.346974	-1.704576E-5	20.706945
2496.674287	-3.001600	3.083300	-9.253700	28.320122	-1.562665E-5	20.691285
2497.676682	-3.012100	3.082200	-9.283400	28.280540	-1.255743E-5	20.713074
2498.676681	-3.007400	3.080500	-9.263400	28.360547	-1.470258E-5	20.721561
2499.676847	-3.024100	3.080300	-9.313800	28.431591	-1.384452E-5	20.703957
2500.676198	-2.998900	3.078900	-9.232200	28.468669	-1.523062E-5	20.702887
2501.677122	-2.988400	3.078200	-9.197500	28.470975	-1.529663E-5	20.694303
2502.676079	-2.990500	3.076900	-9.200700	28.467837	-1.631970E-5	20.695410
2503.678235	-2.968000	3.075500	-9.127100	28.457780	-1.661672E-5	20.692870
2504.681555	-3.010400	3.074800	-9.256000	28.429034	-1.671573E-5	20.702329
2505.678518	-3.007900	3.073400	-9.244100	28.380608	-1.529663E-5	20.718527
2506.679877	-2.985400	3.072000	-9.170300	28.384327	-1.592367E-5	20.697614
2507.681809	-2.997500	3.072200	-9.207200	28.408741	-1.783781E-5	20.697542
2508.678810	-3.013700	3.070000	-9.251300	28.444080	-1.470258E-5	20.692824
2509.687916	-3.019200	3.068500	-9.263400	28.370551	-1.582467E-5	20.697493
2510.682246	-2.993000	3.068300	-9.182800	28.374115	-1.674873E-5	20.702979
2511.681309	-3.021300	3.065900	-9.262200	28.447052	-1.427355E-5	20.686808
2512.681707	-2.974100	3.065400	-9.115500	28.451750	-1.430655E-5	20.707187
2513.684759	-2.998600	3.063800	-9.186500	28.410496	-1.711176E-5	20.678919
2514.682669	-2.967700	3.063700	-9.091200	28.455276	-1.539563E-5	20.700306
2515.682717	-2.980400	3.062900	-9.127800	28.514953	-1.549464E-5	20.681691
2516.685777	-2.984700	3.060900	-9.135500	28.544326	-1.549464E-5	20.679029
2517.683868	-3.001700	3.058700	-9.180300	28.506382	-1.645171E-5	20.675904
2518.682948	-3.005000	3.058000	-9.188600	28.509571	-1.856387E-5	20.682435
2519.682950	-2.989600	3.057700	-9.139900	28.529442	-1.645171E-5	20.691068
2520.685950	-2.989000	3.056000	-9.133800	28.564295	-1.760680E-5	20.684442
2521.684073	-2.989200	3.055100	-9.131800	28.551391	-1.539563E-5	20.672867
2522.683291	-3.006700	3.052900	-9.177800	28.576983	-1.730978E-5	20.692005
2523.684560	-2.974300	3.051900	-9.076600	28.645078	-1.513161E-5	20.698000
2524.686496	-3.006800	3.051800	-9.175200	28.654314	-1.513161E-5	20.679326
2525.687329	-3.032600	3.049300	-9.246300	28.653421	-1.463658E-5	20.672736
2526.686392	-2.997100	3.049500	-9.139200	28.597893	-1.618769E-5	20.671337
2527.686914	-2.987100	3.047900	-9.103700	28.621494	-1.747479E-5	20.674719
2528.688952	-2.992100	3.045300	-9.110800	28.586886	-1.565965E-5	20.683960
2529.686917	-2.988100	3.045100	-9.098500	28.624319	-1.664973E-5	20.694161
2530.686957	-3.031300	3.041600	-9.218800	28.645070	-1.585767E-5	20.676653
2531.686957	-2.974000	3.043500	-9.049200	28.573992	-1.549464E-5	20.684725
2532.686962	-2.998200	3.041500	-9.117700	28.496805	-1.787082E-5	20.692814
2533.689108	-2.998300	3.040500	-9.115400	28.563081	-1.843186E-5	20.659983
2534.688324	-3.000700	3.039100	-9.119300	28.586343	-1.981796E-5	20.664445
2535.688326	-3.002600	3.037600	-9.120400	28.623514	-1.790382E-5	20.677701
2536.689771	-3.006900	3.036600	-9.129000	28.594627	-1.905890E-5	20.675161
2537.687767	-2.991800	3.034700	-9.078200	28.538684	-1.975196E-5	20.680460
2538.687983	-2.989100	3.034100	-9.067800	28.570689	-1.744179E-5	20.680450
2539.691985	-2.992200	3.032300	-9.072300	28.564255	-1.919091E-5	20.679186
2540.688210	-2.998300	3.031000	-9.087200	28.540303	-1.869588E-5	20.683987
2541.688394	-3.000500	3.029600	-9.089500	28.466564	-1.717777E-5	20.673738
2542.689789	-3.016500	3.027200	-9.130600	28.381484	-1.879488E-5	20.675309
2543.688831	-2.989200	3.028600	-9.052300	28.367694	-1.909191E-5	20.665690
2544.689252	-2.983000	3.025600	-9.024000	28.393583	-1.882789E-5	20.659041
2545.688987	-3.022900	3.022900	-9.136500	28.468220	-1.655072E-5	20.697693
2546.690992	-3.001100	3.022500	-9.069900	28.477469	-2.127007E-5	20.676659
2547.692015	-2.996200	3.023000	-9.056900	28.465615	-1.730978E-5	20.698389
2548.697303	-3.035300	3.019700	-9.164400	28.422777	-1.882789E-5	20.661886
2549.690194	-2.976600	3.018900	-8.984900	28.399223	-1.889389E-5	20.682266
2550.688351	-2.998800	3.018300	-9.050700	28.456548	-1.912491E-5	20.658909
2551.690407	-2.996100	3.016400	-9.036800	28.555302	-1.740878E-5	20.662581
2552.690454	-3.023600	3.013600	-9.111200	28.524111	-1.961995E-5	20.675266
2553.694479	-2.979500	3.014000	-8.978500	28.468103	-2.097305E-5	20.683823
2554.689708	-2.989700	3.013500	-9.007100	28.517300	-1.968595E-5	20.676468
2555.695409	-2.982600	3.012300	-8.982800	28.493253	-1.955394E-5	20.692556
2556.689457	-2.987600	3.011200	-8.995200	28.498734	-2.001598E-5	20.695705
2557.693492	-3.027700	3.007900	-9.106200	28.518860	-1.968595E-5	20.655751
2558.690517	-2.987900	3.007100	-8.984600	28.530256	-1.958694E-5	20.672920
2559.690481	-2.996400	3.005700	-9.005400	28.599114	-2.070903E-5	20.677309
2560.691483	-2.990300	3.004500	-8.983500	28.651879	-1.886089E-5	20.674501
2561.692482	-2.995100	3.002700	-8.993100	28.669104	-1.958694E-5	20.684266
2562.691573	-3.009100	3.002000	-9.032300	28.684337	-2.080803E-5	20.677322
2563.693199	-2.980300	3.001100	-8.943000	28.655803	-1.952094E-5	20.690309
2564.692464	-2.971600	2.998700	-8.908900	28.646411	-1.912491E-5	20.699343
2565.696466	-3.007100	2.999500	-9.018500	28.615484	-2.027999E-5	20.683840
2566.693939	-3.034100	2.996200	-9.089500	28.596423	-1.994997E-5	20.676969
2567.694942	-2.967800	2.995600	-8.889700	28.636188	-1.909191E-5	20.697581
2568.698485	-2.985700	2.994200	-8.938800	28.699909	-2.107205E-5	20.683999
2569.694917	-2.994800	2.992200	-8.960800	28.711509	-2.183111E-5	20.678139
2570.694881	-2.961400	2.992500	-8.861400	28.664084	-2.196312E-5	20.674466
2571.698457	-2.950400	2.990200	-8.819800	28.609776	-1.965295E-5	20.674771
2572.694579	-3.007700	2.987100	-8.983400	28.584014	-1.952094E-5	20.667315
2573.697581	-2.996700	2.985100	-8.944700	28.562673	-1.955394E-5	20.685653
2574.697582	-2.991400	2.984900	-8.928200	28.606962	-2.156709E-5	20.669091
2575.694802	-3.015400	2.982600	-8.992900	28.682852	-1.991697E-5	20.657333
2576.695189	-3.014500	2.981400	-8.986300	28.690336	-1.975196E-5	20.671985
2577.695251	-3.022500	2.979200	-9.004200	28.592983	-1.882789E-5	20.673030
2578.697425	-3.009000	2.977800	-8.958900	28.539940	-2.031300E-5	20.682199
2579.696640	-3.026200	2.977800	-9.010500	28.529702	-1.988397E-5	20.707453
2580.696640	-3.003200	2.975100	-8.934000	28.573910	-1.820084E-5	20.676581
2581.697258	-3.004000	2.973700	-8.932300	28.602519	-1.843186E-5	20.688326
2582.698063	-3.001700	2.971900	-8.920000	28.611766	-1.836585E-5	20.687682
2583.698243	-3.029000	2.970400	-8.996100	28.602557	-1.740878E-5	20.701641
2584.697307	-2.998200	2.970000	-8.903900	28.608051	-2.169910E-5	20.673033
2585.698704	-2.999800	2.968300	-8.903900	28.647837	-1.836585E-5	20.692718
2586.698928	-3.010300	2.967900	-8.933200	28.643514	-1.988397E-5	20.676983
2587.700653	-2.990200	2.966500	-8.869100	28.717653	-1.968595E-5	20.693812
2588.699452	-3.009600	2.963600	-8.918900	28.732813	-2.034600E-5	20.699125
2589.699748	-3.006300	2.962900	-8.906400	28.778497	-1.942193E-5	20.695830
2590.702963	-2.992100	2.960100	-8.855800	28.872924	-2.051101E-5	20.683317
2591.700052	-2.989700	2.960400	-8.849300	28.910191	-1.770580E-5	20.683878
2592.700491	-2.978200	2.957700	-8.807900	28.827594	-1.955394E-5	20.703088
2593.703202	-2.967900	2.957600	-8.777400	28.801091	-1.707876E-5	20.690139
2594.701022	-3.000000	2.954700	-8.862700	28.767574	-1.988397E-5	20.675342
2595.701625	-3.017900	2.953400	-8.911900	28.719680	-1.968595E-5	20.683525
2596.705739	-2.977300	2.953000	-8.790600	28.703311	-1.790382E-5	20.686952
2597.701156	-2.983500	2.949800	-8.799800	28.757579	-1.780481E-5	20.689932
2598.717410	-3.014000	2.948800	-8.886700	28.868252	-2.080803E-5	20.680507
2599.706374	-2.978200	2.948600	-8.780800	28.887319	-1.938893E-5	20.686914
2600.704575	-2.993900	2.945700	-8.818400	28.885182	-1.922392E-5	20.697090
2601.704700	-2.993400	2.944300	-8.812700	28.890854	-1.872888E-5	20.701382
2602.709560	-3.009100	2.941100	-8.848400	28.826904	-1.928992E-5	20.685322
2603.706525	-2.991600	2.940400	-8.796000	28.762888	-2.024699E-5	20.700022
2604.704453	-3.001700	2.939700	-8.823500	28.751059	-2.146808E-5	20.685734
2605.705668	-2.956800	2.939800	-8.691200	28.755295	-2.014798E-5	20.698537
2606.706669	-3.028200	2.934100	-8.883800	28.816233	-1.892689E-5	20.685478
2607.707721	-3.014700	2.934000	-8.844400	28.885495	-1.803583E-5	20.692189
2608.706721	-3.004400	2.932200	-8.808600	28.867585	-1.886089E-5	20.680310
2609.707214	-2.957500	2.932400	-8.671800	28.859790	-1.704576E-5	20.696166
2610.707513	-2.978200	2.931000	-8.728300	28.901267	-1.846486E-5	20.702864
2611.706933	-2.995400	2.927200	-8.767400	28.949081	-1.773881E-5	20.699825
2612.707201	-3.032000	2.924700	-8.866600	28.995576	-1.879488E-5	20.685028
2613.711203	-2.987900	2.924600	-8.737300	29.011034	-1.767280E-5	20.675945
2614.706168	-2.991600	2.922100	-8.741100	29.012120	-2.034600E-5	20.699801
2615.707536	-2.988200	2.921600	-8.729100	28.981276	-1.585767E-5	20.694328
2616.708037	-2.990500	2.919100	-8.728300	28.973856	-1.833285E-5	20.693491
2617.709037	-3.035300	2.917300	-8.853700	29.068000	-1.915791E-5	20.687824
2618.707744	-2.976300	2.916400	-8.679000	29.037810	-2.018099E-5	20.701978
2619.709095	-2.983700	2.912900	-8.690000	29.070353	-1.942193E-5	20.684031
2620.708308	-3.012700	2.911200	-8.769100	29.086002	-2.090704E-5	20.678936
2621.708509	-2.992500	2.910700	-8.709400	29.052423	-1.790382E-5	20.702476
2622.708624	-3.000000	2.908700	-8.725000	29.034262	-2.024699E-5	20.718792
2623.708318	-2.994800	2.907100	-8.704900	28.988504	-1.816784E-5	20.709198
2624.710639	-2.996000	2.905300	-8.703800	29.035626	-1.836585E-5	20.717321
2625.709854	-3.013100	2.903200	-8.746300	29.039751	-1.780481E-5	20.719107
2626.711259	-3.013000	2.900700	-8.738300	29.071872	-1.780481E-5	20.691251
2627.710410	-3.008100	2.899000	-8.719700	29.038762	-2.004898E-5	20.713369
2628.711405	-2.979100	2.898200	-8.633600	29.037168	-2.103905E-5	20.700382
2629.715405	-2.977200	2.896700	-8.623300	29.001825	-1.975196E-5	20.702231
2630.712406	-2.992200	2.894700	-8.659500	28.942623	-2.100605E-5	20.719873
2631.711577	-3.005200	2.891800	-8.689700	28.975323	-1.810183E-5	20.689279
2632.715828	-2.979400	2.890900	-8.612000	28.975395	-1.994997E-5	20.716381
2633.711793	-3.001900	2.888600	-8.669900	28.887746	-1.922392E-5	20.702044
2634.711560	-3.000000	2.887400	-8.661200	28.843080	-1.882789E-5	20.726751
2635.711559	-2.989200	2.886300	-8.627200	28.944211	-1.882789E-5	20.705824
2636.711559	-3.015700	2.883700	-8.696000	28.963603	-2.044501E-5	20.719199
2637.711559	-2.995600	2.881400	-8.630100	28.995207	-2.047801E-5	20.696985
2638.713080	-3.010400	2.879400	-8.666700	29.048433	-1.849786E-5	20.704146
2639.714413	-3.011000	2.878700	-8.667100	29.032237	-2.061002E-5	20.704897
2640.714382	-3.009400	2.875800	-8.653800	29.051278	-1.836585E-5	20.706064
2641.713225	-3.017100	2.873600	-8.669300	29.071815	-1.730978E-5	20.718697
2642.716313	-3.001300	2.871700	-8.618100	29.059216	-1.843186E-5	20.737298
2643.713597	-2.989600	2.871400	-8.582400	29.015125	-2.067602E-5	20.700457
2644.715593	-2.994400	2.868100	-8.587100	28.977922	-1.747479E-5	20.726039
2645.718545	-2.980800	2.867000	-8.545300	28.965394	-1.899290E-5	20.737126
2646.714545	-2.989100	2.865400	-8.564000	28.959578	-2.143508E-5	20.736008
2647.717977	-3.004900	2.861000	-8.596300	29.044323	-1.800283E-5	20.727033
2648.715556	-3.016100	2.859400	-8.623300	29.130390	-1.895990E-5	20.721294
2649.715598	-2.999100	2.856800	-8.567000	29.167790	-1.952094E-5	20.710617
2650.714598	-2.988400	2.856500	-8.534800	29.131836	-1.889389E-5	20.709949
2651.714835	-2.982600	2.854300	-8.511600	29.156051	-1.876188E-5	20.739566
2652.716739	-3.003900	2.852700	-8.568300	29.197564	-1.902590E-5	20.723078
2653.714853	-2.981000	2.849700	-8.494100	29.110466	-2.292019E-5	20.724926
2654.715454	-2.989200	2.847800	-8.511400	29.088408	-2.140208E-5	20.730676
2655.715097	-3.003200	2.845700	-8.545300	29.080879	-1.938893E-5	20.719295
2656.714314	-3.029400	2.843400	-8.613200	29.120479	-1.836585E-5	20.725058
2657.714434	-2.998100	2.841000	-8.516900	29.159486	-1.998297E-5	20.715526
2658.715652	-3.032100	2.838800	-8.606700	29.078598	-2.080803E-5	20.732171
2659.714355	-3.036700	2.837000	-8.614100	29.035833	-2.021399E-5	20.724643
2660.714422	-2.982900	2.836900	-8.461600	29.071996	-2.011498E-5	20.728838
2661.719390	-2.993200	2.833600	-8.480900	29.114334	-1.853087E-5	20.723134
2662.715389	-3.013200	2.829600	-8.525300	29.104236	-1.928992E-5	20.732874
2663.716390	-2.984800	2.828800	-8.442800	29.135739	-2.061002E-5	20.729056
2664.719446	-3.008200	2.825600	-8.499600	29.121489	-1.965295E-5	20.726076
2665.717448	-2.964300	2.824700	-8.372700	29.155321	-1.952094E-5	20.725554
2666.717345	-3.000200	2.821000	-8.462400	29.143413	-2.008198E-5	20.745324
2667.719253	-2.993500	2.818600	-8.436500	29.063537	-2.080803E-5	20.748290
2668.716392	-2.964900	2.817000	-8.351200	29.065333	-1.886089E-5	20.735875
2669.718373	-2.990700	2.813600	-8.413000	29.142578	-1.945493E-5	20.746854
2670.719340	-2.997800	2.811000	-8.426100	29.260934	-1.704576E-5	20.762758
2671.716566	-3.005100	2.809000	-8.439600	29.263949	-2.113806E-5	20.744459
2672.717775	-3.023200	2.805200	-8.479700	29.195447	-2.123707E-5	20.734695
2673.717780	-3.002900	2.802300	-8.414000	29.090346	-1.942193E-5	20.735474
2674.718779	-2.997000	2.801800	-8.396000	29.138886	-2.107205E-5	20.770635
2675.718177	-3.012900	2.798000	-8.428200	29.202721	-1.783781E-5	20.757674
2676.719177	-2.968600	2.796400	-8.300500	29.334978	-2.080803E-5	20.719314
2677.721177	-2.979000	2.795500	-8.326400	29.306015	-2.239215E-5	20.738014
2678.719471	-3.003600	2.791000	-8.382400	29.291852	-1.994997E-5	20.730853
2679.719525	-2.986300	2.788200	-8.325300	29.271910	-1.915791E-5	20.750585
2680.721523	-3.033900	2.783700	-8.444400	29.224293	-2.173210E-5	20.739582
2681.719523	-3.032700	2.780900	-8.433000	29.189341	-2.034600E-5	20.744664
2682.720561	-2.989100	2.781100	-8.311400	29.247976	-1.952094E-5	20.748751
2683.720178	-3.003000	2.776700	-8.337200	29.232834	-1.793682E-5	20.738233
2684.720369	-3.010700	2.772200	-8.344300	29.249024	-1.859687E-5	20.734633
2685.721402	-3.000600	2.771400	-8.313700	29.233185	-1.862987E-5	20.741905
2686.721982	-2.984900	2.767900	-8.261400	29.329212	-1.674873E-5	20.773723
2687.723006	-3.016400	2.764500	-8.337900	29.307196	-2.001598E-5	20.755327
2688.723249	-3.017800	2.761100	-8.331200	29.328886	-1.882789E-5	20.765333
2689.726250	-3.018000	2.757500	-8.320600	29.401324	-1.727677E-5	20.744459
2690.730134	-2.990200	2.756300	-8.240500	29.474696	-1.981796E-5	20.754877
2691.723403	-2.992200	2.751500	-8.232300	29.473721	-1.909191E-5	20.740143
2692.723615	-3.023400	2.748100	-8.307800	29.480910	-2.209513E-5	20.743597
2693.723616	-3.016300	2.745800	-8.280700	29.409226	-2.110506E-5	20.747207
2694.723835	-3.032700	2.740800	-8.311700	29.416512	-2.004898E-5	20.762612
2695.724059	-3.023200	2.738500	-8.278000	29.422277	-1.760680E-5	20.740447
2696.723116	-3.008500	2.735100	-8.226500	29.380240	-1.862987E-5	20.752132
2697.726471	-3.012900	2.731800	-8.229800	29.394388	-2.107205E-5	20.743158
2698.724471	-3.004900	2.729800	-8.201600	29.435727	-1.684774E-5	20.735037
2699.730522	-3.024200	2.724100	-8.236800	29.445894	-2.169910E-5	20.736277
2700.727258	-2.997000	2.721200	-8.153700	29.376875	-2.057702E-5	20.767233
2701.726326	-3.065800	2.716100	-8.326100	29.444326	-1.981796E-5	20.761249
2702.729325	-2.948200	2.715700	-8.004000	29.437801	-1.846486E-5	20.755147
2703.731823	-2.984000	2.710300	-8.086800	29.410469	-2.047801E-5	20.767901
2704.728332	-2.999400	2.705800	-8.115200	29.453156	-1.952094E-5	20.737907
2705.731357	-3.009700	2.702800	-8.134300	29.499534	-1.981796E-5	20.767111
2706.733346	-3.012500	2.699200	-8.130300	29.596261	-1.674873E-5	20.764571
2707.730345	-2.980000	2.694800	-8.029800	29.588022	-2.153409E-5	20.751523
2708.731339	-3.008300	2.691300	-8.095100	29.537731	-1.780481E-5	20.755354
2709.733393	-2.987300	2.687100	-8.026500	29.567329	-1.882789E-5	20.770493
2710.731150	-3.013500	2.682100	-8.081400	29.491091	-1.763980E-5	20.755281
2711.731355	-3.015600	2.676900	-8.072600	29.413363	-1.971895E-5	20.745687
2712.729572	-3.025400	2.673400	-8.088000	29.417199	-2.024699E-5	20.779900
2713.729095	-2.982200	2.669500	-7.959900	29.419431	-1.777181E-5	20.763657
2714.729705	-2.966400	2.666900	-7.910400	29.336766	-1.823384E-5	20.766163
2715.733173	-3.004000	2.660900	-7.992200	29.405740	-2.212813E-5	20.762661
2716.731745	-2.989400	2.656300	-7.939700	29.493574	-1.783781E-5	20.780070
2717.731960	-2.978700	2.651500	-7.897400	29.547753	-1.938893E-5	20.768302
2718.732989	-3.003800	2.647000	-7.950300	29.576215	-1.866288E-5	20.761432
2719.735958	-2.999300	2.641900	-7.923500	29.578543	-1.882789E-5	20.742441
2720.732830	-3.014800	2.636400	-7.947900	29.572669	-1.932292E-5	20.745529
2721.733829	-3.024800	2.631800	-7.960100	29.605810	-1.899290E-5	20.763765
2722.737882	-2.985100	2.628700	-7.846000	29.682812	-1.829985E-5	20.753202
2723.733429	-3.017100	2.622100	-7.910600	29.704203	-1.813484E-5	20.781880
2724.734472	-3.011000	2.616500	-7.877300	29.715840	-1.767280E-5	20.760896
2725.737505	-3.015600	2.613000	-7.878800	29.696087	-1.925692E-5	20.751887
2726.735529	-3.025800	2.606600	-7.886200	29.603722	-1.872888E-5	20.766403
2727.735628	-3.013100	2.601900	-7.838200	29.653530	-1.882789E-5	20.785795
2728.735688	-2.995300	2.596600	-7.776700	29.703767	-1.872888E-5	20.787131
2729.735685	-2.992300	2.590600	-7.749900	29.734398	-1.783781E-5	20.770598
2730.735655	-3.023600	2.584000	-7.812500	29.703829	-1.717777E-5	20.774391
2731.736181	-2.987300	2.580000	-7.706300	29.670375	-1.866288E-5	20.776225
2732.738064	-3.015800	2.573200	-7.758600	29.745984	-1.899290E-5	20.768054
2733.736064	-3.000900	2.566900	-7.702200	29.725363	-1.895990E-5	20.773817
2734.736063	-3.020600	2.561900	-7.737200	29.744041	-1.691375E-5	20.785536
2735.741508	-2.986200	2.556700	-7.633900	29.712051	-1.876188E-5	20.779361
2736.736549	-3.007300	2.549900	-7.667600	29.727835	-1.991697E-5	20.785318
2737.744738	-3.019000	2.544000	-7.679200	29.767953	-1.803583E-5	20.784989
2738.744101	-2.960800	2.539500	-7.517100	29.718646	-2.080803E-5	20.769889
2739.744291	-3.027900	2.529300	-7.657400	29.779130	-1.655072E-5	20.811431
2740.739450	-2.972300	2.527200	-7.510300	29.852235	-2.074203E-5	20.786045
2741.744507	-2.942300	2.520800	-7.416300	29.873889	-1.625370E-5	20.794130
2742.741055	-2.981700	2.513200	-7.492600	29.905586	-1.691375E-5	20.792902
2743.741130	-2.966100	2.506400	-7.433600	29.904453	-1.879488E-5	20.773267
2744.744181	-3.012100	2.499000	-7.526500	29.916738	-1.919091E-5	20.788500
