LabVIEW Measurement	
Writer_Version	2
Reader_Version	2
Separator	Tab
Decimal_Separator	.
Multi_Headings	No
X_Columns	One
Time_Pref	Absolute
Operator	admin
Description	Clolumns are: time, Current, Voltage, Power, Battery Temp, and Chamber Temp
Date	2024/08/16
Time	13:07:17.8513970375061035156
***End_of_Header***	
	
Channels	6						
Samples	1	1	1	1	1	1	
Date	2024/09/09	2024/09/09	2024/09/09	2024/09/09	2024/09/09	2024/09/09	
Time	05:20:44.0588054656982421875	05:20:44.06568145751953125	05:20:44.0726809501647949219	05:20:44.0390152931213378906	05:20:44.0390152931213378906	05:20:44.0390152931213378906	
X_Dimension	Time	Time	Time	Time	Time	Time	
X0	0.0000000000000000E+0	0.0000000000000000E+0	0.0000000000000000E+0	0.0000000000000000E+0	0.0000000000000000E+0	0.0000000000000000E+0	
Delta_X	1.000000	1.000000	1.000000	1.000000	1.000000	1.000000	
***End_of_Header***							
X_Value	Untitled	Untitled 1	Untitled 2	Untitled 3	Untitled 4	Untitled 5	Comment
0.000000	0.024287	4.089000	0.099515	20.764094	0.000448	20.760774
0.995505	-2.991600	3.921900	-11.731000	20.739838	0.000448	20.766391
1.995343	-3.011000	3.914600	-11.786000	20.761286	0.000446	20.775986
3.000551	-2.999000	3.910600	-11.727000	20.775354	0.000446	20.777725
4.002986	-3.005200	3.908100	-11.744000	20.782721	0.000445	20.768971
4.998210	-3.010600	3.903800	-11.752000	20.782711	0.000445	20.767063
6.001663	-2.989400	3.902100	-11.663000	20.767830	0.000442	20.779210
7.000485	-3.001700	3.899400	-11.704000	20.777386	0.000445	20.787344
7.998659	-2.976800	3.898600	-11.604000	20.792792	0.000443	20.770981
9.002708	-3.015600	3.895600	-11.746000	20.791771	0.000443	20.782288
10.001947	-2.999200	3.895700	-11.683000	20.819041	0.000443	20.788696
10.998296	-2.983000	3.894700	-11.617000	20.806166	0.000441	20.761595
11.999769	-2.995300	3.891300	-11.655000	20.845401	0.000440	20.773804
13.001022	-3.009600	3.889600	-11.705000	20.823444	0.000442	20.800685
14.000728	-3.007600	3.889100	-11.696000	20.821526	0.000438	20.760834
15.000131	-3.006600	3.888400	-11.690000	20.836967	0.000440	20.798561
15.999962	-3.019300	3.887800	-11.737000	20.835241	0.000440	20.788774
17.001745	-3.008500	3.886100	-11.691000	20.853575	0.000440	20.805687
18.001848	-2.985600	3.885000	-11.598000	20.884114	0.000440	20.787864
19.002947	-2.998600	3.884800	-11.648000	20.863618	0.000436	20.780169
20.004073	-2.992900	3.883400	-11.622000	20.884298	0.000437	20.777617
21.000321	-2.980300	3.884100	-11.575000	20.875729	0.000437	20.790858
22.001606	-2.996400	3.881700	-11.630000	20.902084	0.000436	20.802517
23.000334	-2.988300	3.882300	-11.601000	20.915324	0.000434	20.796792
24.000066	-2.989700	3.880500	-11.600000	20.928138	0.000438	20.785426
25.001534	-3.013400	3.879200	-11.688000	20.925416	0.000433	20.804988
26.000648	-2.995300	3.879800	-11.620000	20.944515	0.000437	20.785683
27.001015	-3.015100	3.879200	-11.695000	20.939750	0.000435	20.810315
28.003431	-3.013300	3.879300	-11.689000	20.960575	0.000434	20.827349
29.003522	-2.993800	3.878800	-11.611000	20.951908	0.000435	20.786913
30.002715	-2.988000	3.877400	-11.584000	20.981239	0.000434	20.800601
31.005014	-2.977600	3.878500	-11.548000	20.990030	0.000434	20.808919
32.003336	-2.988500	3.877200	-11.586000	20.985241	0.000432	20.805552
33.008387	-3.010300	3.875800	-11.666000	20.987952	0.000436	20.790246
34.003983	-3.011000	3.876400	-11.671000	21.024699	0.000433	20.784800
35.006434	-3.005100	3.874600	-11.643000	21.011439	0.000434	20.772485
36.006965	-3.003800	3.875800	-11.641000	21.008061	0.000432	20.799453
37.004795	-2.988100	3.875400	-11.579000	21.041622	0.000431	20.795562
38.003977	-2.981400	3.874000	-11.549000	21.039823	0.000432	20.803720
39.007220	-3.016600	3.872000	-11.680000	21.028581	0.000432	20.806701
40.004977	-2.969500	3.874900	-11.506000	21.074188	0.000431	20.802057
41.004082	-3.000700	3.873500	-11.623000	21.063225	0.000431	20.813851
42.005044	-3.000500	3.872300	-11.618000	21.082685	0.000430	20.809608
43.004780	-2.994300	3.873000	-11.596000	21.106885	0.000431	20.812477
44.005007	-3.005700	3.872200	-11.638000	21.122238	0.000431	20.802704
45.004689	-2.997800	3.871000	-11.603000	21.096167	0.000431	20.834472
46.003974	-2.989900	3.871700	-11.575000	21.114047	0.000431	20.797356
47.003607	-2.998300	3.871000	-11.606000	21.131210	0.000432	20.809782
48.005094	-2.981400	3.872300	-11.545000	21.123528	0.000430	20.803046
49.005023	-2.986700	3.870400	-11.559000	21.139330	0.000433	20.822646
50.005169	-3.006400	3.869500	-11.633000	21.147814	0.000429	20.817856
51.005229	-3.010100	3.870200	-11.649000	21.139271	0.000431	20.805517
52.010850	-3.010500	3.870500	-11.650000	21.169377	0.000429	20.819037
53.007355	-3.003200	3.869800	-11.621000	21.183207	0.000429	20.819121
54.006855	-2.995600	3.869500	-11.590000	21.180826	0.000432	20.802989
55.005659	-3.007600	3.868200	-11.633000	21.202278	0.000430	20.817810
56.005854	-2.990600	3.868500	-11.568000	21.206059	0.000431	20.824437
57.007166	-2.995300	3.869000	-11.588000	21.219745	0.000430	20.818688
58.009930	-3.026500	3.868100	-11.706000	21.236965	0.000430	20.816000
59.007671	-3.004500	3.867700	-11.619000	21.230295	0.000428	20.826396
60.011565	-2.981800	3.867800	-11.532000	21.238268	0.000429	20.817304
61.009075	-3.014500	3.867700	-11.658000	21.248549	0.000431	20.811467
62.006776	-3.008300	3.868400	-11.635000	21.269769	0.000429	20.823213
63.012111	-3.004600	3.868900	-11.622000	21.253522	0.000429	20.835882
64.007374	-2.999400	3.867000	-11.599000	21.289836	0.000430	20.830011
65.006808	-3.001200	3.866900	-11.604000	21.279349	0.000430	20.844650
66.008050	-2.994400	3.866800	-11.578000	21.311153	0.000429	20.828578
67.011450	-2.990900	3.867100	-11.564000	21.311434	0.000429	20.844506
68.007760	-3.000000	3.867700	-11.602000	21.302939	0.000430	20.831265
69.009936	-3.018900	3.865700	-11.669000	21.328643	0.000430	20.840860
70.012368	-2.994900	3.865300	-11.574000	21.319735	0.000429	20.840009
71.008968	-3.017600	3.864500	-11.660000	21.336591	0.000429	20.835062
72.009616	-3.019000	3.864200	-11.665000	21.338682	0.000430	20.843317
73.012844	-3.011000	3.864900	-11.636000	21.371992	0.000431	20.827332
74.010646	-2.997000	3.865400	-11.583000	21.377948	0.000430	20.840402
75.012713	-3.020200	3.863900	-11.669000	21.378738	0.000431	20.856840
76.011901	-2.961800	3.866200	-11.450000	21.398291	0.000430	20.829936
77.012126	-3.022300	3.864400	-11.678000	21.408803	0.000430	20.838557
78.010999	-3.001900	3.863700	-11.597000	21.400430	0.000432	20.835395
79.013570	-2.998300	3.865100	-11.587000	21.429376	0.000430	20.839227
80.016319	-2.988000	3.864400	-11.546000	21.417919	0.000431	20.844832
81.011103	-2.981600	3.864300	-11.520000	21.442976	0.000432	20.834816
82.011576	-2.989900	3.864100	-11.552000	21.435115	0.000428	20.827425
83.010801	-3.005900	3.864200	-11.614000	21.462394	0.000432	20.844762
84.012279	-3.010600	3.863400	-11.630000	21.452091	0.000430	20.834927
85.013975	-3.016700	3.863500	-11.654000	21.475579	0.000431	20.819549
86.014606	-2.996800	3.862500	-11.573000	21.466384	0.000429	20.832159
87.015042	-2.990300	3.864400	-11.554000	21.503527	0.000430	20.835185
88.016165	-2.994000	3.862900	-11.565000	21.491718	0.000430	20.830482
89.014996	-2.971400	3.863600	-11.479000	21.489398	0.000429	20.841910
90.017184	-2.998400	3.862800	-11.581000	21.516579	0.000431	20.842081
91.014259	-2.993200	3.863100	-11.562000	21.526118	0.000433	20.835031
92.017510	-3.014600	3.863400	-11.645000	21.528512	0.000430	20.836952
93.019526	-3.019000	3.861200	-11.656000	21.541550	0.000431	20.838144
94.016308	-2.990200	3.861800	-11.546000	21.529376	0.000434	20.840187
95.022449	-2.989500	3.862400	-11.546000	21.546776	0.000434	20.818718
96.016917	-2.989900	3.862000	-11.546000	21.547055	0.000433	20.825161
97.017682	-3.000200	3.863300	-11.590000	21.551065	0.000433	20.825855
98.017769	-2.996500	3.860800	-11.568000	21.547347	0.000431	20.834937
99.017529	-2.988200	3.861500	-11.538000	21.563472	0.000432	20.844907
100.018448	-3.008400	3.861700	-11.617000	21.567639	0.000434	20.818258
101.019871	-2.995600	3.861600	-11.567000	21.589654	0.000431	20.820848
102.017235	-3.004600	3.859700	-11.596000	21.619993	0.000433	20.831293
103.023004	-2.995300	3.860300	-11.562000	21.622825	0.000432	20.811843
104.017756	-3.004400	3.859700	-11.596000	21.623748	0.000433	20.815611
105.018247	-2.994500	3.859600	-11.557000	21.620651	0.000434	20.813460
106.018133	-2.993700	3.860400	-11.556000	21.650003	0.000434	20.801108
107.017795	-2.967900	3.860500	-11.457000	21.667875	0.000432	20.812829
108.020644	-2.983800	3.858900	-11.513000	21.662945	0.000433	20.828284
109.022529	-3.012400	3.858800	-11.623000	21.667878	0.000435	20.836065
110.018883	-2.988600	3.859100	-11.532000	21.669470	0.000434	20.813477
111.023954	-2.985000	3.859300	-11.519000	21.687098	0.000434	20.813575
112.020674	-3.022700	3.857200	-11.658000	21.678037	0.000434	20.809722
113.021107	-2.994600	3.857800	-11.552000	21.695567	0.000434	20.800713
114.022853	-3.006700	3.858600	-11.601000	21.708808	0.000435	20.817284
115.023984	-3.010100	3.858900	-11.615000	21.717848	0.000435	20.801676
116.019917	-2.996600	3.859300	-11.563000	21.713062	0.000436	20.798308
117.021313	-3.000400	3.856700	-11.570000	21.725467	0.000435	20.821154
118.021133	-2.999200	3.858700	-11.572000	21.751416	0.000433	20.806347
119.020706	-3.030400	3.856900	-11.687000	21.778883	0.000434	20.790689
120.019899	-2.995300	3.856600	-11.551000	21.775055	0.000436	20.814833
121.022564	-3.011300	3.856900	-11.613000	21.800285	0.000434	20.818748
122.021753	-2.983500	3.856700	-11.505000	21.809823	0.000435	20.828768
123.021265	-3.003600	3.857100	-11.584000	21.822370	0.000436	20.800549
124.022771	-3.016700	3.857500	-11.636000	21.805402	0.000436	20.808223
125.023870	-2.984900	3.859100	-11.518000	21.782053	0.000436	20.800974
126.023472	-2.986200	3.857700	-11.519000	21.824010	0.000435	20.810252
127.022531	-3.013300	3.856900	-11.621000	21.819614	0.000435	20.803481
128.022631	-2.990700	3.856500	-11.533000	21.822335	0.000437	20.784393
129.023979	-3.012300	3.856300	-11.616000	21.826090	0.000435	20.776297
130.024229	-3.015200	3.856100	-11.626000	21.836146	0.000436	20.809122
131.028246	-2.973300	3.856900	-11.467000	21.831872	0.000437	20.800577
132.024177	-3.008700	3.855500	-11.600000	21.839051	0.000437	20.790219
133.025151	-3.004800	3.853800	-11.579000	21.859592	0.000439	20.792760
134.027690	-3.013300	3.855100	-11.616000	21.871518	0.000438	20.793792
135.025133	-3.023500	3.854800	-11.654000	21.875903	0.000439	20.801975
136.050040	-3.005000	3.854700	-11.583000	21.895204	0.000439	20.796163
137.029479	-2.995400	3.856100	-11.550000	21.902992	0.000437	20.788311
138.028877	-3.014500	3.855000	-11.620000	21.884381	0.000440	20.800504
139.029304	-3.005900	3.854200	-11.583000	21.927756	0.000439	20.806462
140.032534	-2.985500	3.854900	-11.507000	21.917930	0.000439	20.784299
141.026099	-2.998600	3.855900	-11.561000	21.922643	0.000440	20.798973
142.028717	-3.012000	3.854400	-11.608000	21.931897	0.000440	20.782632
143.030096	-2.997100	3.853900	-11.550000	21.930466	0.000442	20.788786
144.027892	-3.002200	3.853600	-11.569000	21.917774	0.000440	20.773236
145.030734	-3.022700	3.854000	-11.649000	21.931862	0.000440	20.781175
146.030389	-3.012100	3.853900	-11.607000	21.945780	0.000441	20.779459
147.027603	-3.014800	3.852900	-11.615000	21.948866	0.000442	20.781600
148.029737	-2.991000	3.853300	-11.524000	21.976364	0.000442	20.774986
149.031115	-2.996700	3.853600	-11.547000	21.983277	0.000439	20.782855
150.031125	-2.994200	3.853000	-11.536000	22.015594	0.000443	20.769212
151.032805	-2.997500	3.852100	-11.545000	22.013445	0.000443	20.795037
152.031487	-2.996000	3.854100	-11.546000	22.004965	0.000444	20.777538
153.032500	-2.976800	3.853100	-11.469000	22.014295	0.000444	20.769334
154.032815	-3.003600	3.851900	-11.569000	22.021811	0.000442	20.768323
155.032971	-2.996500	3.851400	-11.540000	22.016649	0.000445	20.774062
156.033623	-2.992000	3.850700	-11.520000	22.012132	0.000444	20.780446
157.032141	-3.011600	3.853000	-11.603000	22.012665	0.000444	20.764858
158.033055	-2.980000	3.852400	-11.479000	22.043974	0.000445	20.777709
159.036862	-3.003400	3.853000	-11.571000	22.046743	0.000447	20.779058
160.030791	-3.010600	3.850100	-11.590000	22.043003	0.000445	20.761089
161.033218	-2.996200	3.851000	-11.537000	22.044145	0.000447	20.758913
162.035810	-2.995500	3.850400	-11.532000	22.072671	0.000446	20.773246
163.031999	-3.008600	3.851000	-11.584000	22.081743	0.000447	20.766681
164.033868	-2.989500	3.850600	-11.510000	22.093608	0.000449	20.769551
165.034950	-2.996800	3.849800	-11.536000	22.105727	0.000446	20.783580
166.033583	-2.991000	3.850600	-11.515000	22.115976	0.000446	20.770133
167.032809	-3.010700	3.850400	-11.591000	22.124574	0.000446	20.768310
168.034758	-3.015700	3.850400	-11.611000	22.124027	0.000449	20.772504
169.033305	-2.992400	3.849500	-11.519000	22.132434	0.000448	20.785662
170.033844	-3.000900	3.850000	-11.552000	22.128474	0.000447	20.773163
171.036094	-3.010700	3.849100	-11.587000	22.153174	0.000448	20.781297
172.037846	-2.998400	3.848000	-11.536000	22.125438	0.000448	20.777235
173.035316	-2.985100	3.848400	-11.487000	22.160459	0.000450	20.787642
174.035918	-3.006100	3.848700	-11.568000	22.165923	0.000449	20.751386
175.036400	-2.982300	3.848700	-11.477000	22.183157	0.000451	20.756312
176.035677	-2.996500	3.847100	-11.527000	22.171268	0.000450	20.759109
177.037020	-3.005600	3.847900	-11.564000	22.164248	0.000450	20.758244
178.039128	-2.991300	3.848700	-11.512000	22.195773	0.000451	20.767522
179.037305	-3.005200	3.847100	-11.561000	22.205098	0.000450	20.769746
180.038559	-3.030100	3.846200	-11.653000	22.212348	0.000450	20.764677
181.040600	-3.008200	3.847200	-11.572000	22.211073	0.000450	20.739692
182.036579	-2.991900	3.847500	-11.510000	22.190905	0.000451	20.773553
183.038417	-2.996100	3.846800	-11.524000	22.231837	0.000452	20.755266
184.037924	-3.008500	3.848100	-11.576000	22.199307	0.000451	20.745455
185.038369	-2.997600	3.847400	-11.532000	22.253464	0.000454	20.767438
186.040571	-3.010900	3.845300	-11.577000	22.260616	0.000453	20.763693
187.037506	-2.995600	3.846000	-11.521000	22.250344	0.000456	20.762417
188.039386	-3.011400	3.846900	-11.584000	22.273210	0.000455	20.744060
189.039007	-3.020300	3.844300	-11.610000	22.298670	0.000452	20.761019
190.038871	-2.993900	3.845800	-11.512000	22.293656	0.000452	20.763111
191.036816	-3.014800	3.846000	-11.593000	22.304718	0.000454	20.773713
192.042175	-2.985000	3.844400	-11.475000	22.288969	0.000453	20.755573
193.041490	-3.010600	3.845900	-11.576000	22.323732	0.000455	20.738224
194.043158	-2.980600	3.844600	-11.458000	22.339783	0.000455	20.750029
195.040817	-2.993100	3.845400	-11.509000	22.361394	0.000456	20.764558
196.054958	-3.012300	3.843300	-11.576000	22.365450	0.000458	20.763404
197.043815	-2.987200	3.845000	-11.485000	22.372128	0.000455	20.767720
198.040798	-2.983200	3.845300	-11.470000	22.341555	0.000455	20.767926
199.042026	-2.997800	3.844000	-11.523000	22.343947	0.000456	20.752777
200.046613	-2.989300	3.842900	-11.486000	22.324958	0.000456	20.737080
201.044510	-3.003000	3.843900	-11.543000	22.342259	0.000456	20.741128
202.043826	-3.005600	3.842300	-11.548000	22.349542	0.000459	20.749371
203.046577	-3.003900	3.844100	-11.546000	22.345524	0.000458	20.742028
204.048127	-3.004800	3.842900	-11.547000	22.333272	0.000456	20.753467
205.046361	-3.008900	3.842700	-11.562000	22.352042	0.000458	20.769892
206.047984	-3.012900	3.841900	-11.574000	22.373169	0.000457	20.743157
207.050411	-3.012400	3.843800	-11.578000	22.363431	0.000457	20.713016
208.045201	-3.004600	3.842300	-11.543000	22.372198	0.000458	20.745978
209.046158	-3.009600	3.841300	-11.560000	22.414377	0.000460	20.750284
210.052086	-3.004400	3.841900	-11.541000	22.413489	0.000460	20.715254
211.050430	-3.015900	3.842200	-11.586000	22.423613	0.000460	20.739619
212.046456	-3.005300	3.842600	-11.547000	22.453031	0.000460	20.754855
213.047567	-2.999900	3.841400	-11.523000	22.463166	0.000461	20.738451
214.049447	-3.011800	3.840800	-11.567000	22.484412	0.000462	20.747401
215.047436	-3.017600	3.840200	-11.587000	22.495155	0.000458	20.738245
216.047371	-3.007200	3.840400	-11.548000	22.517359	0.000460	20.725393
217.049232	-3.022600	3.838600	-11.602000	22.511750	0.000462	20.743959
218.048204	-3.022200	3.839600	-11.602000	22.532812	0.000464	20.732335
219.050841	-2.992400	3.841700	-11.495000	22.525348	0.000462	20.741456
220.049231	-3.013500	3.839100	-11.568000	22.535544	0.000460	20.739814
221.049469	-3.006300	3.839700	-11.542000	22.505536	0.000461	20.733468
222.046819	-3.008500	3.838300	-11.547000	22.532425	0.000462	20.743328
223.047052	-3.002200	3.840300	-11.528000	22.531429	0.000463	20.739486
224.047506	-2.977200	3.840200	-11.433000	22.546652	0.000464	20.734817
225.050959	-3.001400	3.838900	-11.522000	22.556448	0.000463	20.732300
226.048645	-3.018600	3.838300	-11.585000	22.563682	0.000463	20.737175
227.048889	-3.012500	3.838000	-11.561000	22.557151	0.000463	20.744859
228.048291	-3.007400	3.838400	-11.543000	22.546725	0.000464	20.737262
229.050019	-3.018900	3.838800	-11.588000	22.544404	0.000464	20.715969
230.050187	-3.006900	3.837300	-11.537000	22.547986	0.000464	20.727618
231.052717	-2.999400	3.839500	-11.515000	22.550510	0.000465	20.723033
232.051604	-3.020300	3.837400	-11.588000	22.560365	0.000464	20.722472
233.052010	-3.014400	3.837600	-11.567000	22.588334	0.000465	20.737684
234.052106	-3.004600	3.837300	-11.529000	22.596212	0.000467	20.735142
235.051570	-3.005400	3.836800	-11.531000	22.596588	0.000466	20.716077
236.050604	-3.004800	3.835700	-11.524000	22.599052	0.000467	20.725184
237.051158	-3.014400	3.836100	-11.562000	22.632445	0.000467	20.723068
238.050398	-3.001800	3.836900	-11.517000	22.616857	0.000467	20.735906
239.055764	-2.997900	3.835000	-11.496000	22.614466	0.000471	20.718337
240.051009	-2.995600	3.836700	-11.492000	22.608458	0.000468	20.706628
241.054070	-3.010200	3.836300	-11.546000	22.611831	0.000469	20.725655
242.053074	-2.983200	3.836700	-11.444000	22.639010	0.000468	20.729170
243.052724	-2.982000	3.835800	-11.437000	22.628205	0.000468	20.711709
244.056127	-2.988600	3.834900	-11.460000	22.643159	0.000469	20.725265
245.054231	-2.987500	3.834700	-11.456000	22.630123	0.000467	20.710785
246.051151	-2.982900	3.835800	-11.441000	22.659581	0.000468	20.716109
247.057827	-2.989500	3.836000	-11.467000	22.656327	0.000470	20.720436
248.057385	-3.009800	3.836100	-11.544000	22.655028	0.000470	20.716290
249.053702	-2.990600	3.834300	-11.467000	22.659094	0.000471	20.709931
250.056015	-3.010600	3.834900	-11.544000	22.686209	0.000469	20.721444
251.053985	-3.025100	3.833700	-11.596000	22.685833	0.000472	20.722015
252.055726	-3.018300	3.832400	-11.567000	22.681548	0.000472	20.723414
253.054973	-3.006300	3.834800	-11.528000	22.675078	0.000473	20.710768
254.057569	-3.020600	3.833200	-11.577000	22.690675	0.000471	20.715959
255.056401	-3.001600	3.832500	-11.503000	22.704169	0.000472	20.710510
256.059326	-3.019300	3.831400	-11.567000	22.712349	0.000473	20.709694
257.056503	-2.997100	3.832300	-11.485000	22.743555	0.000473	20.722462
258.056386	-2.994800	3.832700	-11.477000	22.737158	0.000471	20.710838
259.059302	-2.997200	3.832000	-11.485000	22.730458	0.000473	20.709816
260.056359	-2.996800	3.831400	-11.481000	22.748345	0.000473	20.700231
261.060078	-3.008300	3.831900	-11.527000	22.749316	0.000473	20.711162
262.058953	-3.003600	3.830900	-11.506000	22.803578	0.000475	20.689178
263.059250	-2.992400	3.830500	-11.461000	22.799754	0.000474	20.699573
264.060649	-2.993100	3.830200	-11.463000	22.775941	0.000474	20.701797
265.058043	-3.013200	3.829900	-11.539000	22.786184	0.000477	20.710636
266.063131	-3.017600	3.830200	-11.557000	22.796914	0.000476	20.682027
267.059642	-3.022500	3.829900	-11.575000	22.815735	0.000477	20.681916
268.061687	-2.999200	3.829500	-11.484000	22.824036	0.000478	20.690706
269.059917	-2.991500	3.830200	-11.457000	22.843393	0.000476	20.712470
270.061814	-3.015300	3.829100	-11.545000	22.855177	0.000475	20.705783
271.061565	-2.995300	3.829000	-11.468000	22.892020	0.000478	20.701916
272.064238	-3.014200	3.828500	-11.539000	22.881921	0.000478	20.698911
273.061124	-2.995600	3.828400	-11.467000	22.874119	0.000478	20.705793
274.062495	-2.998000	3.828500	-11.477000	22.838719	0.000480	20.657997
275.063951	-3.027000	3.828200	-11.587000	22.807627	0.000477	20.672369
276.063847	-3.005500	3.827300	-11.502000	22.829239	0.000478	20.684538
277.065177	-3.022100	3.827600	-11.567000	22.835465	0.000478	20.696941
278.067383	-2.974500	3.829000	-11.388000	22.859809	0.000479	20.712795
279.065627	-2.982400	3.827700	-11.415000	22.841886	0.000479	20.695312
280.063747	-3.014000	3.826800	-11.532000	22.878038	0.000479	20.684587
281.067443	-2.998400	3.828500	-11.478000	22.900488	0.000481	20.714193
282.063732	-3.016600	3.828000	-11.546000	22.917877	0.000480	20.698897
283.065929	-2.993800	3.826500	-11.454000	22.915243	0.000480	20.692938
284.065926	-3.034100	3.825700	-11.606000	22.905764	0.000481	20.691028
285.066978	-2.993800	3.826700	-11.455000	22.907221	0.000482	20.686324
286.065235	-3.005100	3.825600	-11.495000	22.931891	0.000482	20.701558
287.072914	-3.026300	3.823900	-11.571000	22.944196	0.000481	20.670735
288.066455	-3.001000	3.825800	-11.480000	22.959024	0.000481	20.696024
289.065086	-2.994800	3.826800	-11.460000	22.948320	0.000483	20.701422
290.068273	-2.996600	3.825300	-11.462000	22.959048	0.000483	20.674235
291.067135	-2.987900	3.826100	-11.431000	22.966704	0.000481	20.681432
292.067267	-2.991800	3.824800	-11.442000	22.963172	0.000482	20.679790
293.068162	-3.014700	3.824500	-11.528000	22.975027	0.000482	20.701153
294.068822	-2.982100	3.824700	-11.405000	22.983981	0.000480	20.691157
295.068594	-3.001300	3.824700	-11.478000	22.962295	0.000482	20.694086
296.069399	-3.007200	3.824800	-11.501000	23.006585	0.000483	20.689149
297.069170	-2.995700	3.823100	-11.452000	23.016245	0.000486	20.679860
298.075246	-3.012800	3.823400	-11.519000	23.002821	0.000484	20.697706
299.069620	-3.011200	3.822200	-11.508000	23.033010	0.000485	20.666311
300.071425	-2.971100	3.823900	-11.360000	23.024503	0.000485	20.699042
301.071023	-2.998100	3.822700	-11.460000	23.043164	0.000485	20.691186
302.071411	-2.998000	3.822600	-11.459000	23.032339	0.000482	20.695513
303.071659	-2.999000	3.822800	-11.463000	23.042907	0.000484	20.689032
304.072281	-2.986000	3.821900	-11.411000	23.032580	0.000486	20.683425
305.078438	-3.005000	3.822000	-11.485000	23.024180	0.000485	20.691131
306.077060	-2.980600	3.821900	-11.391000	23.035586	0.000488	20.685964
307.074855	-2.977100	3.822500	-11.380000	23.055764	0.000486	20.675835
308.072180	-3.014200	3.820200	-11.514000	23.091241	0.000485	20.681512
309.075194	-3.016300	3.821000	-11.523000	23.078705	0.000486	20.686495
310.073330	-3.003600	3.821900	-11.478000	23.089516	0.000486	20.682154
311.073898	-3.003500	3.819800	-11.472000	23.095240	0.000488	20.679354
312.075364	-3.006900	3.820600	-11.488000	23.094656	0.000488	20.675449
313.077343	-2.988700	3.820800	-11.418000	23.122428	0.000488	20.678622
314.075499	-2.999900	3.819600	-11.457000	23.094458	0.000488	20.697064
315.076573	-3.005300	3.816700	-11.470000	23.076755	0.000489	20.684066
316.074694	-3.004400	3.819900	-11.476000	23.080430	0.000488	20.697232
317.077121	-2.979200	3.819500	-11.378000	23.069484	0.000490	20.686263
318.080071	-3.008800	3.818400	-11.488000	23.078426	0.000488	20.689060
319.077579	-2.978000	3.818700	-11.371000	23.075597	0.000488	20.699977
320.083224	-3.004000	3.817700	-11.468000	23.085278	0.000490	20.679803
321.077924	-3.019400	3.817800	-11.526000	23.144486	0.000488	20.677492
322.078367	-2.998000	3.818500	-11.447000	23.150431	0.000490	20.692934
323.078393	-3.004300	3.818100	-11.470000	23.173419	0.000490	20.676614
324.078684	-3.002800	3.817400	-11.462000	23.214873	0.000492	20.685439
325.081301	-2.993700	3.817100	-11.426000	23.208357	0.000489	20.701670
326.078871	-2.999000	3.817400	-11.447000	23.230400	0.000490	20.668755
327.079348	-2.984200	3.817100	-11.391000	23.222270	0.000492	20.689059
328.080403	-3.012100	3.816200	-11.494000	23.213023	0.000490	20.670308
329.082004	-3.020800	3.816100	-11.526000	23.226731	0.000489	20.667923
330.082348	-2.993700	3.816100	-11.423000	23.250350	0.000490	20.664092
331.084922	-2.994700	3.815600	-11.425000	23.254484	0.000491	20.687677
332.081728	-2.993500	3.816600	-11.423000	23.250104	0.000493	20.686607
333.081716	-3.004600	3.816300	-11.465000	23.247784	0.000494	20.697085
334.083463	-2.978300	3.814500	-11.359000	23.257390	0.000494	20.678261
335.078828	-2.990300	3.814900	-11.406000	23.281774	0.000491	20.672825
336.080513	-3.010900	3.815100	-11.485000	23.281336	0.000494	20.669541
337.082161	-3.018300	3.814600	-11.513000	23.268886	0.000493	20.662753
338.080602	-3.018300	3.814000	-11.511000	23.244356	0.000494	20.675630
339.081519	-3.001300	3.813800	-11.445000	23.243334	0.000496	20.678399
340.080804	-3.014400	3.814100	-11.497000	23.199681	0.000493	20.673532
341.085203	-3.007500	3.812100	-11.464000	23.218544	0.000494	20.671573
342.083695	-2.984100	3.814300	-11.382000	23.239955	0.000495	20.684022
343.083795	-3.011000	3.811400	-11.475000	23.249550	0.000496	20.664712
344.088338	-3.012400	3.813000	-11.486000	23.249342	0.000496	20.686317
345.084687	-3.025000	3.813000	-11.533000	23.273918	0.000495	20.678703
346.083326	-3.012500	3.812100	-11.484000	23.293448	0.000498	20.701123
347.086908	-2.995400	3.813300	-11.421000	23.288884	0.000498	20.667623
348.090228	-2.982900	3.812500	-11.372000	23.294573	0.000496	20.674747
349.082482	-2.992700	3.811200	-11.405000	23.308534	0.000498	20.683050
350.084062	-3.002600	3.811300	-11.443000	23.324860	0.000498	20.673333
351.086134	-3.013800	3.809600	-11.481000	23.317834	0.000498	20.682887
352.089370	-3.008900	3.810900	-11.466000	23.328131	0.000498	20.682777
353.085968	-2.997400	3.809700	-11.418000	23.320657	0.000499	20.678130
354.089304	-2.989600	3.810100	-11.389000	23.291554	0.000499	20.676937
355.086150	-3.016700	3.809700	-11.491000	23.275490	0.000499	20.683598
356.086236	-2.998200	3.810100	-11.423000	23.285363	0.000498	20.683062
357.088807	-2.988700	3.809800	-11.385000	23.318649	0.000500	20.688446
358.085412	-3.015200	3.809500	-11.485000	23.339827	0.000499	20.675058
359.084891	-2.995500	3.808900	-11.408000	23.373511	0.000499	20.692698
360.089683	-3.009000	3.808500	-11.459000	23.370162	0.000498	20.674167
361.092783	-2.984700	3.809800	-11.370000	23.369954	0.000499	20.671113
362.088314	-2.991500	3.808500	-11.393000	23.385382	0.000500	20.704123
363.091030	-3.004600	3.808200	-11.441000	23.390500	0.000500	20.685543
364.089088	-3.009200	3.807700	-11.457000	23.414248	0.000500	20.684215
365.093141	-2.983500	3.807900	-11.360000	23.404603	0.000501	20.665537
366.091347	-3.012600	3.809400	-11.476000	23.424386	0.000500	20.685367
367.093239	-2.976100	3.807500	-11.330000	23.408883	0.000501	20.670776
368.089687	-2.983400	3.808600	-11.362000	23.405423	0.000500	20.691018
369.091931	-2.988400	3.807400	-11.376000	23.406635	0.000500	20.691284
370.090258	-2.983800	3.806500	-11.356000	23.396457	0.000501	20.697204
371.090855	-2.996700	3.805800	-11.404000	23.401937	0.000500	20.687049
372.090060	-3.011300	3.806000	-11.460000	23.386967	0.000502	20.673466
373.092598	-3.007900	3.805100	-11.445000	23.412402	0.000501	20.680468
374.093524	-2.996400	3.804800	-11.399000	23.465309	0.000503	20.687980
375.094118	-2.995700	3.804700	-11.397000	23.470110	0.000504	20.689473
376.097466	-2.985300	3.805000	-11.358000	23.459168	0.000501	20.695576
377.094001	-3.013800	3.805400	-11.467000	23.447618	0.000504	20.690637
378.100494	-3.005800	3.804400	-11.434000	23.465192	0.000502	20.702088
379.096458	-2.984300	3.805700	-11.356000	23.452939	0.000502	20.704032
380.094986	-2.978300	3.804200	-11.329000	23.465866	0.000503	20.679529
381.092787	-2.990900	3.803900	-11.376000	23.448859	0.000504	20.697097
382.099323	-2.998000	3.804500	-11.405000	23.421044	0.000504	20.691027
383.094968	-2.999400	3.804300	-11.410000	23.415135	0.000503	20.674198
384.096272	-3.012500	3.803000	-11.456000	23.446779	0.000503	20.676044
385.098772	-3.014100	3.802600	-11.460000	23.421973	0.000504	20.685794
386.099478	-2.994800	3.802100	-11.386000	23.462191	0.000502	20.684381
387.097817	-2.988800	3.802700	-11.364000	23.469358	0.000505	20.695833
388.098852	-2.995000	3.801100	-11.383000	23.511747	0.000505	20.682846
389.101773	-3.003500	3.802100	-11.419000	23.526239	0.000505	20.686941
390.098943	-3.018000	3.799900	-11.467000	23.528202	0.000506	20.687012
391.097298	-3.012900	3.800400	-11.449000	23.504792	0.000506	20.694367
392.098635	-3.006300	3.801000	-11.426000	23.544524	0.000509	20.690571
393.099314	-3.001100	3.799600	-11.402000	23.535643	0.000506	20.695420
394.098489	-2.997800	3.799600	-11.390000	23.556915	0.000506	20.678336
395.101316	-2.987400	3.800900	-11.354000	23.563208	0.000509	20.672790
396.099625	-3.029800	3.800100	-11.512000	23.572777	0.000508	20.693763
397.099779	-3.014600	3.799300	-11.453000	23.624111	0.000504	20.673626
398.102227	-3.000500	3.800400	-11.402000	23.615112	0.000507	20.697323
399.100657	-2.987500	3.798500	-11.348000	23.592637	0.000505	20.701345
400.100179	-2.979600	3.799800	-11.321000	23.568270	0.000506	20.703471
401.106434	-2.994900	3.798900	-11.376000	23.542120	0.000508	20.679626
402.101791	-2.983900	3.798700	-11.333000	23.564665	0.000507	20.691322
403.100474	-2.992400	3.800000	-11.370000	23.563463	0.000506	20.702446
404.099803	-3.008900	3.798600	-11.429000	23.572133	0.000506	20.697860
405.105185	-2.992600	3.797900	-11.365000	23.570725	0.000508	20.697871
406.105803	-3.010200	3.797500	-11.431000	23.571694	0.000507	20.690781
407.103155	-3.014100	3.796600	-11.443000	23.575792	0.000507	20.688725
408.102828	-2.994500	3.796400	-11.368000	23.583685	0.000510	20.688103
409.103195	-3.006900	3.796000	-11.413000	23.603003	0.000510	20.687080
410.103443	-2.987400	3.796500	-11.340000	23.647207	0.000508	20.702472
411.104930	-3.007800	3.796900	-11.419000	23.650092	0.000508	20.697303
412.103044	-3.010100	3.796900	-11.427000	23.676127	0.000509	20.684048
413.103199	-2.983600	3.797200	-11.328000	23.680685	0.000510	20.684825
414.103242	-3.023100	3.795000	-11.471000	23.708176	0.000512	20.678720
415.105583	-2.989700	3.795000	-11.345000	23.708658	0.000510	20.710027
416.104924	-2.979000	3.795700	-11.307000	23.719863	0.000510	20.696604
417.103975	-3.003900	3.795100	-11.399000	23.691242	0.000508	20.678813
418.105850	-3.000700	3.794000	-11.384000	23.652156	0.000508	20.692260
419.103573	-2.990000	3.793800	-11.342000	23.630787	0.000512	20.691226
420.108487	-3.032600	3.793100	-11.502000	23.655550	0.000508	20.691395
421.105881	-2.998800	3.795100	-11.381000	23.675510	0.000508	20.694810
422.104615	-3.015700	3.793400	-11.438000	23.672610	0.000509	20.689532
423.106636	-3.005600	3.792500	-11.397000	23.650683	0.000510	20.673712
424.108279	-2.988100	3.793000	-11.333000	23.659414	0.000509	20.702856
425.106256	-2.961100	3.793200	-11.231000	23.644496	0.000511	20.691693
426.105377	-2.988900	3.791600	-11.332000	23.657241	0.000512	20.689296
427.105757	-2.977200	3.792700	-11.290000	23.691875	0.000511	20.684663
428.107020	-2.978500	3.793900	-11.299000	23.735686	0.000509	20.685914
429.108204	-3.025200	3.791500	-11.469000	23.726433	0.000509	20.695130
430.107735	-3.023000	3.791000	-11.459000	23.712099	0.000513	20.685025
431.108994	-3.016500	3.791200	-11.435000	23.697728	0.000511	20.697645
432.107296	-2.997800	3.792400	-11.367000	23.702977	0.000510	20.705279
433.107537	-2.994400	3.791800	-11.353000	23.699630	0.000512	20.708087
434.114416	-2.998300	3.789700	-11.361000	23.700877	0.000513	20.708864
435.106811	-3.027400	3.790100	-11.472000	23.699797	0.000510	20.694978
436.108702	-2.986000	3.790100	-11.316000	23.689670	0.000510	20.713276
437.110077	-2.987900	3.789600	-11.322000	23.690603	0.000509	20.696666
438.110994	-3.003800	3.789600	-11.382000	23.705796	0.000512	20.700993
439.110935	-3.019000	3.788800	-11.437000	23.737203	0.000511	20.698342
440.111479	-2.997100	3.789400	-11.355000	23.748103	0.000511	20.721600
441.108148	-2.988000	3.788500	-11.318000	23.793138	0.000510	20.705112
442.110706	-3.001800	3.789300	-11.373000	23.824190	0.000513	20.682666
443.111902	-3.008800	3.788400	-11.397000	23.793705	0.000513	20.690981
444.109397	-2.996700	3.787900	-11.350000	23.813542	0.000512	20.694275
445.112046	-2.994700	3.788200	-11.344000	23.765692	0.000509	20.714579
446.110913	-2.978100	3.787600	-11.279000	23.778036	0.000514	20.707988
447.115880	-3.015300	3.786400	-11.415000	23.810373	0.000515	20.722395
448.110399	-2.997100	3.787500	-11.350000	23.804201	0.000516	20.702928
449.110774	-2.986900	3.786700	-11.309000	23.838854	0.000514	20.711596
450.114998	-2.998600	3.786700	-11.354000	23.823381	0.000512	20.696554
451.117581	-2.993200	3.787400	-11.336000	23.825029	0.000514	20.690145
452.114087	-3.011200	3.785300	-11.398000	23.831236	0.000511	20.692576
453.116619	-3.002600	3.786300	-11.367000	23.861645	0.000515	20.697463
454.110943	-3.001600	3.785300	-11.361000	23.837782	0.000513	20.703408
455.111918	-3.001500	3.784700	-11.358000	23.834301	0.000514	20.673836
456.112329	-2.983600	3.785000	-11.291000	23.847334	0.000512	20.694019
457.115684	-2.989600	3.784500	-11.313000	23.858707	0.000512	20.695465
458.113832	-3.012100	3.784900	-11.399000	23.920275	0.000514	20.695088
459.119851	-3.002500	3.784400	-11.362000	23.860863	0.000514	20.703792
460.114887	-2.999600	3.783900	-11.349000	23.860620	0.000514	20.698332
461.114899	-3.017200	3.783600	-11.415000	23.847196	0.000515	20.696252
462.114538	-3.031100	3.783700	-11.467000	23.871434	0.000515	20.704434
463.117726	-2.993300	3.784900	-11.329000	23.856640	0.000515	20.701455
464.117185	-2.994200	3.783100	-11.327000	23.836209	0.000514	20.697089
465.115141	-3.017000	3.782300	-11.410000	23.807726	0.000513	20.723059
466.114706	-3.008200	3.782100	-11.376000	23.817802	0.000513	20.699021
467.119168	-3.018100	3.780500	-11.409000	23.839045	0.000515	20.693768
468.114873	-2.995800	3.781500	-11.327000	23.857401	0.000513	20.716917
469.117706	-3.016300	3.781100	-11.404000	23.857085	0.000513	20.722765
470.119882	-3.010000	3.781000	-11.380000	23.863584	0.000513	20.702727
471.115178	-2.967700	3.783000	-11.226000	23.858115	0.000515	20.717159
472.114359	-3.003500	3.780800	-11.355000	23.860564	0.000517	20.696854
473.116784	-2.997400	3.781300	-11.333000	23.871500	0.000514	20.707820
474.114531	-2.999100	3.780000	-11.336000	23.879442	0.000514	20.706300
475.115619	-2.994900	3.780400	-11.321000	23.867644	0.000513	20.712015
476.117403	-2.996600	3.779200	-11.324000	23.851141	0.000514	20.692147
477.114556	-2.973000	3.780700	-11.239000	23.878458	0.000516	20.720963
478.117209	-2.983600	3.780100	-11.277000	23.872832	0.000514	20.717218
479.116536	-2.985500	3.779600	-11.283000	23.920469	0.000515	20.698602
480.114881	-2.997800	3.779000	-11.328000	23.893335	0.000515	20.698420
481.115418	-2.992700	3.778000	-11.306000	23.928107	0.000513	20.708159
482.119523	-2.991000	3.779000	-11.302000	23.932605	0.000516	20.700815
483.117177	-2.977600	3.778100	-11.249000	23.938522	0.000514	20.702481
484.115521	-2.976400	3.778100	-11.245000	23.909072	0.000518	20.685276
485.118462	-2.991500	3.777600	-11.300000	23.923985	0.000515	20.720621
486.120114	-2.998700	3.777000	-11.326000	23.902767	0.000515	20.728743
487.116639	-2.995300	3.776700	-11.311000	23.907120	0.000518	20.707028
488.114316	-2.984700	3.776400	-11.270000	23.951095	0.000516	20.690431
489.116091	-2.980000	3.776900	-11.255000	23.951749	0.000517	20.715746
490.116083	-2.988900	3.776500	-11.286000	23.988460	0.000517	20.692341
491.117598	-3.005900	3.774800	-11.346000	23.987757	0.000516	20.722932
492.115758	-3.000100	3.775000	-11.323000	23.977731	0.000516	20.716197
493.116186	-3.007900	3.775300	-11.355000	24.047513	0.000516	20.715528
494.119912	-3.010500	3.775000	-11.364000	24.017739	0.000515	20.708428
495.117710	-3.008600	3.775400	-11.358000	24.000051	0.000517	20.707759
496.117567	-2.978100	3.774900	-11.241000	23.980364	0.000516	20.700343
497.116692	-2.996800	3.774700	-11.311000	23.987044	0.000515	20.717475
498.118578	-2.981000	3.773700	-11.248000	24.001956	0.000517	20.717731
499.119774	-2.989500	3.773400	-11.279000	23.992016	0.000520	20.712029
500.119663	-2.986200	3.773600	-11.268000	24.003024	0.000515	20.715957
501.120101	-2.998800	3.773100	-11.313000	24.018870	0.000517	20.716675
502.122968	-2.998700	3.773300	-11.314000	24.077339	0.000516	20.709879
503.119617	-3.023300	3.772500	-11.404000	24.092977	0.000515	20.722245
504.124620	-3.005100	3.772100	-11.335000	24.118398	0.000517	20.710756
505.123332	-2.993100	3.771400	-11.287000	24.095900	0.000517	20.715218
506.118931	-3.006600	3.771100	-11.337000	24.065692	0.000516	20.723803
507.121052	-2.998200	3.772100	-11.308000	24.061934	0.000515	20.711025
508.122366	-2.994500	3.771400	-11.292000	24.040041	0.000518	20.703767
509.117577	-2.982500	3.772000	-11.248000	24.055087	0.000518	20.724073
510.119212	-2.997800	3.771300	-11.304000	24.065610	0.000518	20.727989
511.120091	-2.980000	3.771300	-11.237000	24.076970	0.000516	20.732269
512.117322	-2.987100	3.770200	-11.261000	24.028068	0.000517	20.720683
513.119963	-2.988700	3.771200	-11.270000	24.020758	0.000518	20.725207
514.121586	-3.007200	3.769200	-11.334000	24.060268	0.000517	20.734960
515.121322	-2.986600	3.769600	-11.257000	24.072185	0.000517	20.720358
516.121423	-3.015500	3.768700	-11.364000	24.080029	0.000517	20.699300
517.124307	-2.987400	3.770500	-11.263000	24.071751	0.000517	20.718026
518.124978	-2.995500	3.767700	-11.285000	24.086080	0.000517	20.724337
519.123902	-3.000100	3.768900	-11.306000	24.072322	0.000518	20.706270
520.123676	-3.007100	3.767400	-11.328000	24.086046	0.000517	20.714344
521.124354	-3.000300	3.767100	-11.302000	24.083720	0.000519	20.723392
522.126627	-3.020200	3.766500	-11.375000	24.088618	0.000516	20.689895
523.123623	-2.990700	3.768400	-11.269000	24.099420	0.000517	20.714955
524.122830	-3.014400	3.768100	-11.358000	24.174298	0.000515	20.698542
525.125868	-2.995800	3.766800	-11.284000	24.157074	0.000519	20.719675
526.124593	-2.993900	3.767700	-11.278000	24.153754	0.000517	20.722509
527.127201	-2.986100	3.766900	-11.248000	24.177817	0.000519	20.726729
528.125751	-3.007400	3.765900	-11.325000	24.171078	0.000517	20.723764
529.127743	-2.996300	3.766100	-11.284000	24.179250	0.000519	20.706828
530.127356	-2.985200	3.765100	-11.238000	24.186342	0.000516	20.714891
531.132427	-3.010600	3.766100	-11.337000	24.139675	0.000519	20.726406
532.127386	-3.005800	3.765200	-11.316000	24.152889	0.000516	20.704571
533.131750	-3.008800	3.765100	-11.327000	24.161267	0.000517	20.718190
534.128565	-3.013800	3.764800	-11.346000	24.167486	0.000520	20.715893
535.129391	-2.993900	3.764000	-11.268000	24.213658	0.000519	20.700089
536.130424	-3.005900	3.763100	-11.311000	24.199029	0.000518	20.739946
537.130383	-3.006300	3.764300	-11.316000	24.194619	0.000518	20.707546
538.131334	-2.985900	3.764000	-11.238000	24.173396	0.000516	20.736047
539.131091	-3.004000	3.763500	-11.305000	24.174186	0.000519	20.708388
540.129950	-3.000200	3.763000	-11.289000	24.201606	0.000517	20.738737
541.130673	-3.011800	3.761600	-11.327000	24.220505	0.000517	20.723079
542.129522	-3.001900	3.761900	-11.292000	24.225088	0.000516	20.711554
543.128869	-2.970700	3.762600	-11.177000	24.221611	0.000516	20.730353
544.130931	-3.023800	3.760400	-11.369000	24.201989	0.000516	20.730112
545.131667	-3.024500	3.760500	-11.372000	24.192924	0.000517	20.724339
546.130156	-2.995100	3.762200	-11.268000	24.201327	0.000518	20.727077
547.133213	-2.997200	3.761400	-11.272000	24.166031	0.000517	20.749049
548.132071	-2.977900	3.761200	-11.200000	24.175694	0.000517	20.721281
549.134153	-2.999100	3.761300	-11.279000	24.171430	0.000519	20.707520
550.131198	-2.979100	3.761000	-11.203000	24.184560	0.000516	20.721165
551.134925	-3.001200	3.760500	-11.285000	24.146900	0.000516	20.727963
552.130485	-3.003400	3.758900	-11.289000	24.110876	0.000518	20.712220
553.137334	-3.016300	3.758600	-11.337000	24.136553	0.000518	20.719007
554.134286	-3.012500	3.759700	-11.325000	24.193405	0.000516	20.735253
555.132283	-3.000200	3.758900	-11.276000	24.239721	0.000518	20.705369
556.141846	-3.018600	3.758300	-11.344000	24.287393	0.000515	20.721421
557.137763	-3.002400	3.758300	-11.282000	24.290123	0.000517	20.722262
558.133964	-3.002800	3.759100	-11.288000	24.288161	0.000516	20.706543
559.137241	-2.986000	3.757500	-11.219000	24.277946	0.000514	20.692976
560.134473	-2.999500	3.758500	-11.272000	24.291148	0.000519	20.716652
561.133574	-2.997100	3.758400	-11.263000	24.264910	0.000516	20.699815
562.134287	-2.980900	3.757500	-11.199000	24.269955	0.000517	20.711989
563.134198	-3.024200	3.756300	-11.359000	24.284949	0.000514	20.702373
564.135549	-3.006700	3.757200	-11.295000	24.279327	0.000516	20.709062
565.134982	-3.011700	3.755500	-11.308000	24.241443	0.000517	20.718477
566.133955	-3.020100	3.755000	-11.339000	24.245264	0.000515	20.725154
567.135362	-2.994700	3.756300	-11.248000	24.244551	0.000517	20.709266
568.137040	-2.999500	3.755400	-11.263000	24.259983	0.000514	20.689656
569.137036	-3.013300	3.754500	-11.312000	24.295413	0.000518	20.684418
570.139115	-3.004200	3.754200	-11.278000	24.312565	0.000513	20.698780
571.136230	-3.008800	3.754000	-11.294000	24.308399	0.000518	20.697920
572.139552	-3.012000	3.753700	-11.305000	24.316340	0.000517	20.684073
573.137115	-3.001200	3.754700	-11.268000	24.317421	0.000519	20.699384
574.137087	-3.005000	3.753800	-11.280000	24.333446	0.000515	20.699338
575.139030	-3.010900	3.754000	-11.302000	24.319596	0.000515	20.691607
576.140109	-2.989600	3.754000	-11.222000	24.355775	0.000516	20.670526
577.137503	-2.995100	3.753000	-11.240000	24.341090	0.000515	20.688039
578.139841	-2.988000	3.753600	-11.215000	24.324076	0.000516	20.682825
579.148220	-2.998500	3.752000	-11.249000	24.300471	0.000516	20.693760
580.142174	-3.004800	3.753100	-11.277000	24.306291	0.000516	20.668775
581.139146	-2.998700	3.752500	-11.251000	24.308791	0.000516	20.682664
582.141075	-2.989900	3.752700	-11.219000	24.328645	0.000516	20.690728
583.139536	-3.007100	3.751700	-11.281000	24.346295	0.000516	20.676189
584.138831	-3.028700	3.749700	-11.356000	24.359110	0.000517	20.685726
585.143122	-2.992200	3.752200	-11.226000	24.390925	0.000517	20.679235
586.140570	-2.984100	3.751200	-11.193000	24.384044	0.000516	20.696991
587.139718	-3.020100	3.750600	-11.326000	24.335242	0.000516	20.677904
588.140727	-2.960000	3.751400	-11.104000	24.372112	0.000515	20.676484
589.141799	-3.003800	3.750100	-11.264000	24.392355	0.000517	20.676877
590.141931	-2.988300	3.749500	-11.203000	24.435864	0.000515	20.699191
591.141467	-2.982400	3.751200	-11.186000	24.463050	0.000515	20.665296
592.145079	-3.001500	3.748700	-11.251000	24.440646	0.000517	20.671270
593.141449	-3.008900	3.748100	-11.277000	24.402838	0.000518	20.676014
594.144506	-3.003600	3.749000	-11.259000	24.401702	0.000515	20.675349
595.149122	-3.006700	3.747400	-11.266000	24.399269	0.000517	20.667691
596.147924	-2.985800	3.749200	-11.193000	24.395794	0.000515	20.678905
597.149436	-2.987200	3.748500	-11.196000	24.412001	0.000516	20.647271
598.147306	-3.003300	3.748100	-11.254000	24.423008	0.000517	20.681551
599.143882	-2.993600	3.746400	-11.214000	24.434233	0.000517	20.653929
600.145524	-3.002400	3.746700	-11.249000	24.463393	0.000516	20.680816
601.147016	-2.996800	3.747700	-11.230000	24.472158	0.000515	20.663055
602.147682	-3.003800	3.747200	-11.255000	24.458007	0.000516	20.658340
603.147239	-2.997400	3.747400	-11.232000	24.423922	0.000515	20.664922
604.146995	-3.001000	3.746500	-11.241000	24.398403	0.000515	20.671564
605.148951	-3.012800	3.745700	-11.284000	24.424801	0.000516	20.666752
606.147318	-3.014400	3.744600	-11.287000	24.407413	0.000515	20.635554
607.146935	-2.985900	3.746100	-11.185000	24.376245	0.000515	20.637478
608.150095	-2.982300	3.746400	-11.171000	24.409661	0.000514	20.651088
609.148023	-2.996500	3.746100	-11.224000	24.408477	0.000514	20.659384
610.147837	-3.014200	3.744900	-11.286000	24.410505	0.000514	20.651934
611.151546	-3.009400	3.744400	-11.267000	24.412954	0.000514	20.670041
612.149202	-3.018400	3.745100	-11.304000	24.397726	0.000513	20.641009
613.148560	-3.013800	3.742700	-11.278000	24.396262	0.000514	20.642386
614.147659	-2.986300	3.744900	-11.183000	24.385419	0.000515	20.650001
615.150529	-3.003700	3.744200	-11.245000	24.390683	0.000516	20.644850
616.151749	-3.002700	3.744000	-11.241000	24.420655	0.000515	20.664490
617.150839	-2.988400	3.744000	-11.187000	24.441868	0.000517	20.642146
618.149382	-3.017600	3.742900	-11.294000	24.438404	0.000514	20.651000
619.151550	-3.019400	3.743300	-11.300000	24.446952	0.000516	20.669535
620.151718	-3.008100	3.743800	-11.261000	24.442070	0.000517	20.646617
621.154370	-3.013000	3.742600	-11.276000	24.463100	0.000514	20.641162
622.151033	-2.999000	3.742500	-11.223000	24.484298	0.000513	20.635876
623.150109	-3.017500	3.741700	-11.290000	24.472800	0.000514	20.642359
624.155679	-3.005200	3.742400	-11.246000	24.448917	0.000513	20.645900
625.150151	-2.987900	3.742300	-11.181000	24.435760	0.000514	20.639811
626.154741	-3.012500	3.741300	-11.269000	24.469126	0.000514	20.635352
627.151500	-3.000400	3.741800	-11.226000	24.436215	0.000512	20.638845
628.152815	-2.996100	3.741700	-11.210000	24.414695	0.000515	20.626737
629.153776	-3.012600	3.739700	-11.265000	24.463585	0.000511	20.626473
630.154140	-3.014700	3.741200	-11.278000	24.464047	0.000513	20.634999
631.156889	-2.998800	3.740000	-11.215000	24.476218	0.000513	20.635830
632.151737	-3.012700	3.739500	-11.265000	24.462343	0.000512	20.622856
633.152399	-3.015000	3.739900	-11.275000	24.464420	0.000514	20.643434
634.153440	-3.019900	3.738100	-11.288000	24.425886	0.000514	20.638439
635.152355	-2.996500	3.738700	-11.202000	24.399470	0.000513	20.639914
636.152773	-2.984500	3.738200	-11.155000	24.395206	0.000512	20.645120
637.155758	-2.980700	3.739100	-11.144000	24.416598	0.000512	20.637183
638.153439	-2.994600	3.738100	-11.193000	24.432768	0.000512	20.637758
639.154251	-3.008400	3.737500	-11.242000	24.415853	0.000511	20.610827
640.155946	-3.005000	3.738100	-11.232000	24.410754	0.000511	20.649814
641.154490	-3.022600	3.737300	-11.295000	24.427493	0.000512	20.624403
642.160782	-2.996500	3.738200	-11.201000	24.483941	0.000514	20.639786
643.157138	-3.005400	3.736200	-11.228000	24.505139	0.000511	20.635923
644.155504	-3.007000	3.735400	-11.232000	24.539010	0.000510	20.643355
645.158094	-2.992700	3.736900	-11.182000	24.561891	0.000510	20.644501
646.158648	-3.004900	3.736800	-11.228000	24.566451	0.000510	20.630583
647.156342	-2.981800	3.736900	-11.141000	24.550021	0.000514	20.636858
648.160251	-2.973200	3.736300	-11.107000	24.505612	0.000511	20.644934
649.158302	-3.013400	3.735300	-11.255000	24.490334	0.000511	20.635768
650.159009	-2.994600	3.735000	-11.184000	24.495488	0.000512	20.625765
651.156413	-3.001200	3.734400	-11.207000	24.527383	0.000511	20.651604
652.157270	-3.011900	3.734100	-11.246000	24.515910	0.000512	20.649102
653.156331	-3.003400	3.734600	-11.215000	24.507721	0.000509	20.636617
654.155556	-3.008100	3.733700	-11.230000	24.515238	0.000511	20.639891
655.157252	-3.006900	3.733700	-11.226000	24.516693	0.000509	20.631868
656.158937	-2.992100	3.734500	-11.173000	24.496738	0.000510	20.626544
657.158496	-3.000700	3.733700	-11.202000	24.497518	0.000510	20.643925
658.159960	-3.016500	3.734200	-11.263000	24.542972	0.000512	20.639743
659.160563	-3.012300	3.732000	-11.241000	24.584196	0.000509	20.621834
660.160193	-3.004500	3.733200	-11.215000	24.631503	0.000511	20.612401
661.160004	-3.001900	3.733700	-11.207000	24.594465	0.000508	20.643046
662.163014	-2.996400	3.732400	-11.184000	24.608221	0.000510	20.636934
663.160923	-3.010300	3.730900	-11.230000	24.617566	0.000509	20.628290
664.163417	-2.994000	3.732600	-11.175000	24.628800	0.000509	20.637194
665.162744	-2.994700	3.731900	-11.175000	24.603138	0.000510	20.616182
666.163028	-2.994900	3.731700	-11.174000	24.559131	0.000510	20.616598
667.166874	-2.993700	3.731100	-11.169000	24.555889	0.000510	20.614293
668.165583	-3.006500	3.730900	-11.216000	24.544113	0.000508	20.603898
669.169337	-3.004400	3.731400	-11.209000	24.565517	0.000509	20.628697
670.165122	-3.015900	3.729700	-11.248000	24.597155	0.000508	20.625354
671.166501	-2.984300	3.729600	-11.129000	24.578681	0.000508	20.627206
672.169674	-3.008100	3.729100	-11.217000	24.620790	0.000509	20.623939
673.165712	-2.987000	3.729000	-11.137000	24.652792	0.000507	20.627127
674.164977	-2.994900	3.729700	-11.169000	24.660815	0.000506	20.608622
675.170527	-3.012400	3.728400	-11.230000	24.615566	0.000507	20.628180
676.170863	-2.983800	3.728900	-11.125000	24.612368	0.000508	20.624498
677.166286	-3.012200	3.727800	-11.228000	24.620782	0.000507	20.614920
678.170102	-3.001200	3.728400	-11.189000	24.590794	0.000507	20.611383
679.166081	-3.018200	3.727200	-11.248000	24.585904	0.000508	20.602681
680.171147	-2.995500	3.727500	-11.164000	24.587142	0.000506	20.627635
681.170414	-3.005300	3.726900	-11.200000	24.550648	0.000507	20.606188
682.168108	-2.997100	3.726800	-11.169000	24.563363	0.000505	20.613257
683.167067	-3.006400	3.726700	-11.203000	24.559766	0.000508	20.613915
684.168539	-3.008500	3.727800	-11.215000	24.547980	0.000505	20.617737
685.168122	-3.021100	3.726700	-11.258000	24.577973	0.000503	20.608949
686.167836	-2.987300	3.726700	-11.132000	24.545514	0.000507	20.610995
687.169595	-3.003500	3.726100	-11.190000	24.560810	0.000505	20.622076
688.170451	-2.994900	3.726500	-11.159000	24.589057	0.000508	20.621495
689.171938	-2.989300	3.725900	-11.135000	24.597625	0.000507	20.609228
690.169735	-3.002900	3.726000	-11.188000	24.593280	0.000506	20.603919
691.173862	-2.999200	3.724800	-11.170000	24.631074	0.000503	20.624300
692.172091	-2.992700	3.725900	-11.149000	24.608358	0.000504	20.615730
693.172525	-2.988600	3.724200	-11.129000	24.648200	0.000505	20.622993
694.172971	-2.985500	3.724700	-11.118000	24.677597	0.000506	20.609816
695.174292	-2.983400	3.724000	-11.110000	24.671806	0.000505	20.607324
696.172578	-2.957900	3.726300	-11.021000	24.636588	0.000505	20.617030
697.174168	-2.981600	3.724000	-11.103000	24.633646	0.000503	20.608387
698.172919	-2.991100	3.723800	-11.137000	24.665407	0.000504	20.616076
699.173886	-3.006200	3.723100	-11.192000	24.670387	0.000506	20.603054
700.177609	-2.997100	3.723500	-11.158000	24.702012	0.000502	20.593061
701.176702	-3.014700	3.723400	-11.224000	24.686857	0.000503	20.607254
702.177439	-3.014200	3.723900	-11.223000	24.688583	0.000502	20.599027
703.178503	-3.016500	3.722900	-11.229000	24.744738	0.000504	20.597057
704.176707	-3.005100	3.722600	-11.186000	24.740717	0.000503	20.608197
705.177044	-2.992500	3.722500	-11.139000	24.698949	0.000502	20.616544
706.179147	-2.995000	3.722500	-11.148000	24.654122	0.000504	20.600482
707.176789	-2.995100	3.722300	-11.147000	24.653360	0.000501	20.595924
708.175817	-2.990300	3.721600	-11.128000	24.638132	0.000502	20.597714
709.178779	-2.999000	3.721600	-11.160000	24.652178	0.000504	20.624140
710.178286	-2.995700	3.721100	-11.147000	24.638975	0.000504	20.595241
711.177647	-3.015000	3.721000	-11.218000	24.643021	0.000502	20.607837
712.176915	-3.011700	3.720300	-11.204000	24.662751	0.000500	20.606298
713.178819	-3.010000	3.720400	-11.197000	24.684308	0.000503	20.615603
714.177279	-3.007100	3.719100	-11.183000	24.712601	0.000501	20.609854
715.177207	-3.000200	3.718600	-11.156000	24.719220	0.000503	20.591837
716.178915	-3.002400	3.718900	-11.165000	24.732499	0.000502	20.615597
717.179610	-3.006700	3.719200	-11.181000	24.715503	0.000500	20.583364
718.181485	-2.971900	3.719800	-11.054000	24.681641	0.000501	20.603441
719.178801	-2.990800	3.719000	-11.122000	24.659944	0.000499	20.592098
720.179395	-2.990300	3.719400	-11.122000	24.690720	0.000501	20.608759
721.180673	-2.986100	3.717800	-11.101000	24.686520	0.000502	20.603596
722.179298	-2.993300	3.718700	-11.130000	24.649991	0.000500	20.603450
723.179650	-3.004800	3.717000	-11.167000	24.646577	0.000500	20.600024
724.179919	-2.999600	3.717100	-11.148000	24.601276	0.000498	20.603881
725.180718	-2.996900	3.716400	-11.137000	24.608388	0.000499	20.609596
726.180380	-3.011300	3.715600	-11.188000	24.589187	0.000499	20.583213
727.182490	-2.992800	3.716900	-11.123000	24.630906	0.000499	20.597101
728.183048	-3.001800	3.715900	-11.153000	24.618827	0.000498	20.597309
729.182446	-2.993500	3.716200	-11.123000	24.640689	0.000500	20.608816
730.182530	-2.993700	3.715200	-11.121000	24.655130	0.000499	20.579205
731.183326	-2.980000	3.717000	-11.076000	24.644619	0.000499	20.586677
732.183108	-3.005900	3.716200	-11.169000	24.681986	0.000499	20.597149
733.184566	-2.991500	3.714600	-11.111000	24.729917	0.000498	20.598305
734.184412	-3.004400	3.715900	-11.163000	24.708886	0.000498	20.595218
735.183750	-3.003700	3.715500	-11.158000	24.716474	0.000499	20.586236
736.183887	-2.988900	3.715000	-11.103000	24.696060	0.000498	20.582819
737.184437	-2.984900	3.714400	-11.086000	24.668813	0.000497	20.585350
738.185431	-3.009600	3.714100	-11.178000	24.712786	0.000497	20.577317
739.186673	-3.001500	3.714300	-11.147000	24.637414	0.000497	20.597467
740.185605	-3.009600	3.712200	-11.171000	24.647848	0.000497	20.592764
741.184824	-3.015100	3.712100	-11.192000	24.676952	0.000498	20.597312
742.188156	-3.008200	3.713400	-11.170000	24.742524	0.000498	20.589618
743.187251	-3.015500	3.712400	-11.194000	24.729781	0.000496	20.585839
744.188535	-2.978300	3.714100	-11.061000	24.732741	0.000498	20.576954
745.186790	-3.009100	3.713000	-11.172000	24.778635	0.000497	20.589821
746.186990	-3.031800	3.712400	-11.254000	24.793985	0.000496	20.588631
747.185834	-2.977100	3.713300	-11.054000	24.814509	0.000497	20.582674
748.187514	-2.988300	3.711400	-11.090000	24.838353	0.000498	20.598546
749.189073	-3.005700	3.711400	-11.155000	24.843781	0.000495	20.606366
750.190701	-3.011900	3.710600	-11.175000	24.773813	0.000496	20.589724
751.190599	-3.013600	3.710800	-11.182000	24.742943	0.000494	20.596678
752.190654	-3.005600	3.710100	-11.149000	24.705027	0.000495	20.590397
753.191436	-3.004500	3.710100	-11.146000	24.740523	0.000495	20.569114
754.191531	-3.011700	3.711400	-11.177000	24.734992	0.000494	20.581584
755.191185	-3.023200	3.710300	-11.216000	24.787269	0.000497	20.577147
756.190727	-3.010400	3.709800	-11.167000	24.770757	0.000495	20.590450
757.191918	-3.012500	3.709300	-11.173000	24.767088	0.000494	20.583922
758.192434	-2.984000	3.709700	-11.069000	24.695066	0.000493	20.584193
759.192999	-3.005800	3.708500	-11.146000	24.718682	0.000494	20.591297
760.192408	-3.003600	3.709700	-11.142000	24.773818	0.000493	20.598739
761.193979	-2.995500	3.709800	-11.112000	24.784179	0.000495	20.588746
762.196366	-2.990600	3.709300	-11.092000	24.816538	0.000497	20.581391
763.193572	-2.986700	3.709100	-11.077000	24.831391	0.000495	20.586341
764.192898	-2.976800	3.709500	-11.042000	24.827665	0.000491	20.606787
765.192461	-2.977600	3.707400	-11.038000	24.763409	0.000493	20.598251
766.192966	-3.000300	3.707600	-11.123000	24.761982	0.000495	20.581168
767.194972	-2.983900	3.708300	-11.065000	24.785452	0.000493	20.596663
768.191578	-3.004600	3.707200	-11.137000	24.758569	0.000493	20.603351
769.193913	-3.005200	3.706400	-11.137000	24.749037	0.000491	20.569124
770.195557	-2.967900	3.707300	-11.002000	24.736974	0.000492	20.590213
771.193560	-3.010200	3.706100	-11.155000	24.763313	0.000491	20.597680
772.197758	-3.011800	3.705200	-11.159000	24.754408	0.000494	20.594907
773.195146	-3.006900	3.705000	-11.140000	24.726946	0.000493	20.571611
774.195221	-3.008400	3.706600	-11.149000	24.734327	0.000491	20.565741
775.193986	-3.008200	3.704200	-11.141000	24.736569	0.000492	20.577002
776.195581	-3.007000	3.703900	-11.137000	24.731555	0.000491	20.581928
777.193782	-3.002100	3.705600	-11.124000	24.704989	0.000493	20.576131
778.196111	-3.024600	3.704300	-11.203000	24.753536	0.000491	20.590237
779.194365	-2.977400	3.705200	-11.031000	24.749539	0.000490	20.579586
780.193678	-2.989900	3.703500	-11.072000	24.801974	0.000492	20.581948
781.196023	-2.987900	3.704200	-11.066000	24.781017	0.000491	20.586521
782.196025	-3.003700	3.704300	-11.126000	24.801164	0.000492	20.586352
783.195130	-2.995900	3.703000	-11.093000	24.823601	0.000492	20.584213
784.196009	-3.008900	3.703200	-11.142000	24.859657	0.000494	20.586734
785.194875	-2.995400	3.702800	-11.091000	24.871733	0.000488	20.601227
786.194847	-2.998200	3.703700	-11.104000	24.868816	0.000489	20.599248
787.199553	-3.002700	3.702400	-11.117000	24.856133	0.000488	20.567072
788.198933	-2.989600	3.703600	-11.072000	24.860775	0.000491	20.583115
789.196119	-2.997000	3.702000	-11.093000	24.866131	0.000488	20.579006
790.198135	-2.991900	3.702200	-11.076000	24.849707	0.000488	20.586705
791.198760	-3.015400	3.700700	-11.158000	24.837423	0.000486	20.581489
792.197215	-3.016000	3.700700	-11.160000	24.808498	0.000488	20.606043
793.196784	-2.990900	3.700500	-11.067000	24.831807	0.000489	20.602883
794.202681	-2.987200	3.702500	-11.059000	24.862627	0.000488	20.588293
795.197506	-2.996800	3.700300	-11.089000	24.882117	0.000488	20.607857
796.197675	-3.021000	3.700100	-11.176000	24.915298	0.000488	20.581886
797.199867	-3.013100	3.700200	-11.149000	24.914647	0.000488	20.602573
798.198976	-3.007900	3.699600	-11.126000	24.864401	0.000488	20.590074
799.200202	-2.997500	3.699100	-11.087000	24.877389	0.000489	20.578925
800.202803	-3.010300	3.699100	-11.135000	24.877427	0.000485	20.579438
801.199291	-2.987900	3.699200	-11.052000	24.836310	0.000487	20.604558
802.200602	-3.012800	3.699400	-11.144000	24.783785	0.000487	20.581238
803.202838	-3.004600	3.699800	-11.115000	24.798022	0.000489	20.582724
804.201782	-3.003600	3.697800	-11.105000	24.803957	0.000488	20.592949
805.202377	-3.017300	3.697400	-11.155000	24.888539	0.000485	20.583479
806.202666	-2.997600	3.698100	-11.084000	24.881540	0.000485	20.579772
807.205379	-3.007500	3.698400	-11.121000	24.850238	0.000484	20.607631
808.201937	-3.020900	3.697000	-11.167000	24.828689	0.000485	20.588371
809.204808	-3.009300	3.696300	-11.122000	24.815412	0.000485	20.582158
810.203372	-3.011800	3.697900	-11.136000	24.794079	0.000484	20.602477
811.203665	-3.020200	3.696600	-11.162000	24.843422	0.000486	20.606954
812.206096	-3.002000	3.696500	-11.096000	24.853816	0.000484	20.597943
813.203815	-2.996700	3.696400	-11.076000	24.865376	0.000484	20.586310
814.204342	-2.998300	3.695800	-11.080000	24.873706	0.000483	20.613167
815.205420	-3.013300	3.695600	-11.134000	24.875779	0.000484	20.592485
816.204220	-3.027700	3.695700	-11.188000	24.870669	0.000483	20.597314
817.203299	-3.021300	3.695900	-11.165000	24.832507	0.000482	20.583668
818.204504	-2.990400	3.696500	-11.053000	24.822769	0.000483	20.579583
819.203132	-3.008700	3.695600	-11.118000	24.821096	0.000481	20.604461
820.203714	-2.984000	3.695300	-11.026000	24.873730	0.000483	20.596593
821.209207	-2.991000	3.694300	-11.048000	24.878961	0.000483	20.607060
822.205598	-2.983800	3.695300	-11.025000	24.867950	0.000482	20.607389
823.204391	-2.989700	3.694300	-11.044000	24.821771	0.000483	20.606561
824.206003	-3.005100	3.695000	-11.103000	24.808397	0.000481	20.611159
825.205754	-2.996900	3.694700	-11.071000	24.841079	0.000484	20.603653
826.205182	-2.995900	3.692800	-11.063000	24.872525	0.000483	20.624785
827.205636	-3.017400	3.693100	-11.143000	24.867410	0.000480	20.616805
828.206972	-3.006000	3.693900	-11.102000	24.845813	0.000478	20.619786
829.212749	-3.021900	3.692300	-11.158000	24.838808	0.000482	20.609910
830.204691	-2.998200	3.691700	-11.068000	24.851091	0.000480	20.615600
831.206127	-3.008900	3.691300	-11.106000	24.905917	0.000480	20.583377
832.205360	-3.016700	3.692200	-11.137000	24.958451	0.000480	20.619041
833.206189	-3.005400	3.692100	-11.095000	24.939724	0.000482	20.608303
834.211418	-3.019800	3.690300	-11.143000	24.961006	0.000479	20.611647
835.208518	-2.996300	3.690600	-11.057000	24.981256	0.000480	20.606367
836.206643	-2.999900	3.690600	-11.071000	24.945937	0.000479	20.608376
837.207844	-2.989400	3.692400	-11.037000	24.943744	0.000477	20.618978
838.208096	-3.000300	3.689800	-11.069000	24.961984	0.000478	20.634918
839.208324	-2.996000	3.689800	-11.054000	24.947123	0.000477	20.628061
840.209863	-3.003000	3.688900	-11.077000	24.931119	0.000475	20.637603
841.207878	-3.004500	3.689800	-11.085000	24.930078	0.000476	20.634187
842.209575	-3.012300	3.690100	-11.115000	24.907368	0.000477	20.613287
843.210054	-3.009200	3.688700	-11.099000	24.895519	0.000478	20.617991
844.211270	-3.011300	3.688600	-11.106000	24.882908	0.000474	20.618136
845.209577	-2.991000	3.689700	-11.035000	24.890491	0.000475	20.625748
846.210358	-3.006400	3.688200	-11.087000	24.873387	0.000477	20.624702
847.210110	-2.970200	3.689000	-10.957000	24.871618	0.000476	20.624349
848.211171	-3.026600	3.688500	-11.163000	24.883867	0.000477	20.628109
849.213385	-2.994400	3.687300	-11.040000	24.894333	0.000473	20.619171
850.210199	-3.013300	3.688000	-11.113000	24.940422	0.000476	20.638881
851.210826	-3.023700	3.687000	-11.148000	24.935747	0.000475	20.638455
852.213085	-3.001600	3.686500	-11.065000	24.913601	0.000474	20.627606
853.212315	-3.015600	3.685500	-11.113000	24.907040	0.000474	20.638566
854.210958	-3.030400	3.686100	-11.170000	24.924881	0.000476	20.642248
855.214123	-3.008600	3.685800	-11.089000	24.969326	0.000473	20.624267
856.209610	-3.020500	3.686700	-11.134000	24.999438	0.000475	20.652125
857.212294	-2.993100	3.686200	-11.032000	25.018718	0.000473	20.646821
858.214003	-2.974100	3.685600	-10.961000	25.002330	0.000471	20.622781
859.211215	-2.970500	3.686800	-10.951000	25.012096	0.000471	20.647760
860.212639	-3.019900	3.685900	-11.130000	25.015002	0.000473	20.650204
861.215926	-3.013000	3.684800	-11.102000	24.999982	0.000471	20.662156
862.213216	-3.009000	3.684600	-11.086000	24.958060	0.000472	20.638566
863.213646	-3.001300	3.685000	-11.059000	24.956860	0.000469	20.666288
864.215220	-3.008500	3.684500	-11.084000	24.941367	0.000470	20.661643
865.215316	-2.998700	3.685600	-11.052000	24.864555	0.000469	20.625322
866.214501	-3.005800	3.683000	-11.069000	24.867525	0.000470	20.613127
867.217817	-2.990900	3.684100	-11.018000	24.904726	0.000472	20.640037
868.213483	-2.971400	3.683200	-10.943000	24.888544	0.000471	20.654617
869.213422	-3.001200	3.683400	-11.054000	24.898161	0.000470	20.643879
870.222508	-2.981800	3.682900	-10.980000	24.891812	0.000472	20.630393
871.214579	-3.004400	3.682400	-11.063000	24.915009	0.000469	20.655575
872.217954	-3.020700	3.682200	-11.122000	24.894140	0.000467	20.651699
873.221452	-2.988600	3.682800	-11.005000	24.923927	0.000467	20.640342
874.216452	-3.006800	3.681200	-11.068000	24.975370	0.000470	20.659262
875.219543	-3.003700	3.681500	-11.057000	24.969518	0.000470	20.648646
876.221905	-2.986300	3.680800	-10.991000	24.931799	0.000466	20.668161
877.217580	-3.000700	3.681700	-11.046000	24.915809	0.000467	20.661120
878.220243	-3.003900	3.680500	-11.055000	24.944529	0.000468	20.652013
879.220506	-3.013000	3.679400	-11.085000	24.913471	0.000467	20.645495
880.218896	-3.012400	3.680900	-11.087000	24.916426	0.000468	20.644668
881.220857	-2.993900	3.679300	-11.015000	24.920870	0.000467	20.649604
882.219743	-3.013900	3.678300	-11.085000	24.917004	0.000468	20.677969
883.218307	-2.989100	3.679200	-10.997000	24.923898	0.000466	20.654539
884.226867	-3.008100	3.679600	-11.067000	24.939776	0.000465	20.659097
885.219430	-2.992000	3.679400	-11.007000	24.955973	0.000467	20.664449
886.219433	-2.976500	3.679500	-10.950000	24.960186	0.000464	20.670575
887.221273	-2.962800	3.678800	-10.898000	25.003221	0.000465	20.647387
888.226474	-2.991000	3.679200	-11.004000	25.032629	0.000466	20.685919
889.220750	-2.995500	3.677300	-11.014000	24.994005	0.000466	20.659475
890.222089	-2.974400	3.677900	-10.938000	25.014582	0.000465	20.643143
891.222996	-3.005500	3.677300	-11.051000	25.027785	0.000463	20.659243
892.223686	-2.971500	3.678200	-10.929000	25.061370	0.000462	20.660239
893.222643	-3.005600	3.676000	-11.048000	25.044934	0.000466	20.665552
894.224422	-3.023600	3.675900	-11.113000	25.070249	0.000465	20.678162
895.221159	-2.995000	3.677400	-11.012000	25.075372	0.000466	20.654379
896.223981	-3.015400	3.674600	-11.080000	25.079151	0.000464	20.669554
897.223922	-3.013400	3.676600	-11.078000	25.037511	0.000465	20.671853
898.222429	-2.992700	3.675500	-10.999000	25.018593	0.000465	20.685106
899.228500	-3.003800	3.674300	-11.036000	25.045855	0.000463	20.677383
900.227803	-3.012600	3.676200	-11.074000	25.086588	0.000462	20.640981
901.224959	-3.013700	3.675200	-11.074000	25.076206	0.000462	20.665649
902.229734	-3.019000	3.674400	-11.092000	25.048289	0.000465	20.665601
903.229034	-2.972600	3.675800	-10.926000	25.022405	0.000460	20.669017
904.224447	-3.008800	3.675300	-11.057000	25.047681	0.000461	20.662146
905.229213	-3.016400	3.674900	-11.084000	25.030315	0.000459	20.688812
906.228738	-2.993200	3.674700	-10.998000	25.047561	0.000459	20.678148
907.224941	-2.989500	3.673300	-10.981000	25.088559	0.000459	20.674257
908.230711	-3.003300	3.673400	-11.031000	25.066768	0.000458	20.670875
909.228850	-2.990600	3.673200	-10.984000	25.102122	0.000462	20.677441
910.225933	-3.012200	3.672800	-11.062000	25.097447	0.000459	20.671325
911.233860	-2.998300	3.672200	-11.009000	25.072123	0.000460	20.677674
912.228631	-2.987000	3.672800	-10.970000	25.006272	0.000459	20.680325
913.226153	-3.015100	3.671200	-11.068000	25.031390	0.000459	20.680882
914.231820	-2.999900	3.673200	-11.018000	25.027066	0.000458	20.671325
915.227462	-3.032700	3.671400	-11.134000	25.038610	0.000460	20.689553
916.224237	-3.015800	3.669300	-11.064000	25.035231	0.000456	20.678574
917.224891	-2.976400	3.672300	-10.930000	25.005520	0.000458	20.682890
918.230030	-2.980800	3.670900	-10.941000	25.041604	0.000456	20.701567
919.225272	-2.980300	3.670600	-10.939000	25.015151	0.000456	20.680703
920.227170	-2.992500	3.670700	-10.984000	24.998281	0.000457	20.697435
921.230136	-3.000800	3.670300	-11.012000	25.000402	0.000457	20.690080
922.227999	-2.993300	3.670700	-10.987000	25.031482	0.000457	20.689984
923.225894	-2.992900	3.669100	-10.980000	25.021899	0.000453	20.715929
924.229878	-2.988600	3.670300	-10.968000	25.037806	0.000455	20.699651
925.229118	-3.002100	3.669200	-11.014000	25.062609	0.000455	20.688513
926.226688	-2.989300	3.668800	-10.967000	25.051143	0.000456	20.708298
927.230419	-2.972700	3.670500	-10.909000	25.052801	0.000453	20.705221
928.228415	-2.978100	3.668600	-10.925000	25.062527	0.000453	20.689379
929.229464	-2.975300	3.669400	-10.916000	25.067588	0.000452	20.696356
930.226758	-2.995100	3.667400	-10.983000	25.103573	0.000452	20.693598
931.230080	-2.987400	3.666300	-10.952000	25.080708	0.000453	20.696250
932.228889	-2.962700	3.668500	-10.868000	25.059756	0.000453	20.697977
933.229172	-3.012600	3.666600	-11.044000	25.053312	0.000454	20.719485
934.231783	-3.016400	3.666400	-11.058000	25.063728	0.000453	20.704810
935.230146	-3.004400	3.666000	-11.013000	25.060460	0.000452	20.709590
936.234353	-3.016600	3.665900	-11.057000	25.060267	0.000451	20.702758
937.232341	-3.015600	3.665000	-11.051000	25.119767	0.000451	20.723608
938.232656	-2.990300	3.666100	-10.961000	25.149162	0.000452	20.704752
939.231774	-3.001200	3.665100	-10.999000	25.130462	0.000451	20.691668
940.233496	-3.009600	3.663900	-11.026000	25.159731	0.000453	20.693550
941.232962	-3.012400	3.664400	-11.038000	25.158329	0.000451	20.704945
942.233984	-2.978200	3.666100	-10.918000	25.121040	0.000450	20.704969
943.238407	-2.999600	3.663900	-10.989000	25.077392	0.000450	20.722321
944.233921	-2.980700	3.664100	-10.920000	25.057929	0.000448	20.697092
945.232278	-2.978000	3.664300	-10.911000	25.089528	0.000449	20.711744
946.235694	-3.002900	3.663500	-11.000000	25.118085	0.000449	20.682087
947.234988	-2.996900	3.664100	-10.980000	25.180349	0.000447	20.714724
948.234305	-2.994200	3.663700	-10.969000	25.224464	0.000450	20.713969
949.234156	-2.988900	3.662700	-10.946000	25.181934	0.000448	20.713945
950.234622	-2.994800	3.662300	-10.967000	25.170199	0.000448	20.708328
951.234494	-3.001800	3.662000	-10.991000	25.155244	0.000446	20.716074
952.235350	-3.018900	3.662000	-11.054000	25.106412	0.000446	20.704510
953.237686	-3.005600	3.661700	-11.004000	25.101096	0.000447	20.707234
954.243891	-2.999800	3.661000	-10.981000	25.135552	0.000445	20.706261
955.236016	-2.991900	3.661100	-10.953000	25.160864	0.000447	20.710336
956.233934	-2.997800	3.660800	-10.974000	25.210503	0.000445	20.708487
957.238787	-2.990400	3.660800	-10.947000	25.179019	0.000446	20.729037
958.235661	-2.991500	3.661200	-10.951000	25.153659	0.000445	20.721121
959.234202	-2.994100	3.660100	-10.958000	25.137480	0.000443	20.700136
960.235332	-2.993800	3.659800	-10.955000	25.176898	0.000445	20.695137
961.234567	-2.984100	3.661200	-10.925000	25.173255	0.000444	20.719457
962.236495	-3.012100	3.659500	-11.021000	25.196846	0.000444	20.704733
963.234887	-3.004000	3.657800	-10.987000	25.185862	0.000442	20.710776
964.233927	-2.970100	3.660600	-10.871000	25.160623	0.000444	20.726690
965.235295	-2.999200	3.658100	-10.969000	25.162590	0.000446	20.711594
966.243495	-3.009000	3.658500	-11.008000	25.107275	0.000443	20.726714
967.236603	-2.999100	3.658800	-10.972000	25.114919	0.000444	20.717318
968.239322	-3.008700	3.658300	-11.005000	25.097563	0.000446	20.727397
969.237216	-2.985600	3.658300	-10.921000	25.104928	0.000443	20.710133
970.237708	-3.011100	3.657700	-11.013000	25.135398	0.000442	20.723178
971.240077	-3.001500	3.658500	-10.980000	25.147972	0.000442	20.715886
972.239398	-2.972800	3.657500	-10.873000	25.191241	0.000442	20.721866
973.238699	-2.982100	3.658000	-10.907000	25.263533	0.000440	20.732806
974.238862	-3.024800	3.657000	-11.061000	25.258753	0.000442	20.725161
975.246196	-2.989200	3.656600	-10.930000	25.232498	0.000437	20.712078
976.239773	-2.977700	3.657200	-10.889000	25.206441	0.000439	20.742817
977.240896	-2.977800	3.656600	-10.888000	25.194426	0.000441	20.745454
978.240157	-2.992200	3.655300	-10.937000	25.217824	0.000441	20.740495
979.239882	-3.009200	3.653700	-10.994000	25.203087	0.000440	20.728070
980.242689	-3.015500	3.654300	-11.019000	25.193385	0.000439	20.742987
981.239673	-2.995400	3.654400	-10.945000	25.203680	0.000439	20.739571
982.243724	-2.980600	3.654700	-10.893000	25.180995	0.000438	20.722486
983.239686	-3.008700	3.654800	-10.995000	25.192393	0.000438	20.727765
984.242636	-3.006100	3.653700	-10.983000	25.188373	0.000436	20.719936
985.242946	-2.977800	3.653500	-10.879000	25.195578	0.000436	20.747559
986.241520	-2.986200	3.654000	-10.910000	25.134762	0.000437	20.739135
987.243768	-2.995900	3.652900	-10.943000	25.101467	0.000438	20.727997
988.243469	-2.987400	3.652800	-10.912000	25.139702	0.000440	20.739827
989.243903	-2.997100	3.653200	-10.947000	25.159115	0.000435	20.739876
990.246415	-3.019000	3.651800	-11.024000	25.157177	0.000437	20.719438
991.243963	-3.005300	3.653100	-10.978000	25.220041	0.000435	20.748885
992.245872	-3.023400	3.650300	-11.035000	25.208210	0.000437	20.732739
993.246802	-2.991200	3.650600	-10.918000	25.229622	0.000436	20.749021
994.246646	-3.001900	3.651200	-10.959000	25.248233	0.000436	20.742101
995.246125	-2.999800	3.650200	-10.949000	25.256502	0.000436	20.732386
996.246736	-2.986100	3.650700	-10.901000	25.287296	0.000435	20.750975
997.246335	-2.991800	3.650700	-10.921000	25.297044	0.000433	20.746538
998.245345	-3.013600	3.648800	-10.995000	25.301719	0.000434	20.734636
999.245087	-2.993100	3.649700	-10.924000	25.247953	0.000434	20.750830
1000.245194	-3.019300	3.648900	-11.016000	25.228542	0.000434	20.736082
1001.245335	-3.003100	3.648300	-10.956000	25.226021	0.000431	20.759157
1002.247732	-2.999600	3.650400	-10.948000	25.233689	0.000434	20.750733
1003.248694	-2.991400	3.648700	-10.914000	25.270367	0.000431	20.754841
1004.248123	-2.995300	3.647900	-10.926000	25.268381	0.000433	20.740993
1005.249936	-2.990100	3.648600	-10.909000	25.232609	0.000432	20.754391
1006.248570	-2.993900	3.648200	-10.921000	25.253375	0.000431	20.747264
1007.246883	-2.981900	3.648900	-10.880000	25.225607	0.000431	20.769172
1008.247415	-2.984000	3.646900	-10.881000	25.230889	0.000431	20.752190
1009.251977	-3.001500	3.645800	-10.942000	25.236701	0.000429	20.757551
1010.246673	-2.969500	3.646800	-10.828000	25.218730	0.000432	20.761794
1011.247989	-2.983200	3.647000	-10.879000	25.213824	0.000434	20.745014
1012.250175	-2.993000	3.646900	-10.915000	25.233674	0.000431	20.767315
1013.246626	-2.992300	3.645000	-10.905000	25.282264	0.000430	20.767261
1014.247079	-3.004100	3.646000	-10.952000	25.282631	0.000429	20.752930
1015.250082	-2.992700	3.645400	-10.909000	25.295102	0.000429	20.765926
1016.246631	-3.003300	3.646200	-10.949000	25.279166	0.000429	20.765573
1017.247457	-3.013300	3.643800	-10.979000	25.319259	0.000429	20.760783
1018.249966	-3.050700	3.642900	-11.112000	25.348899	0.000428	20.768732
1019.249605	-2.991200	3.643700	-10.899000	25.360246	0.000428	20.770169
1020.247949	-2.996200	3.644000	-10.918000	25.362559	0.000429	20.774862
1021.249796	-3.003500	3.644200	-10.944000	25.342215	0.000429	20.771030
1022.249466	-2.997800	3.642000	-10.917000	25.351115	0.000430	20.774751
1023.248487	-3.000800	3.642700	-10.930000	25.332419	0.000427	20.784902
1024.251700	-2.992000	3.642400	-10.897000	25.355847	0.000426	20.753897
1025.248068	-2.995200	3.642100	-10.908000	25.313288	0.000427	20.768064
1026.251145	-3.010800	3.641300	-10.963000	25.272916	0.000426	20.768780
1027.255255	-2.992300	3.640400	-10.892000	25.261957	0.000426	20.789547
1028.251462	-3.001600	3.641200	-10.929000	25.262767	0.000426	20.770919
1029.253732	-2.991200	3.641900	-10.893000	25.303492	0.000427	20.780988
1030.261423	-3.007300	3.640300	-10.947000	25.354662	0.000425	20.785899
1031.251871	-3.002000	3.641400	-10.930000	25.346234	0.000425	20.781704
1032.254961	-3.009200	3.640700	-10.955000	25.337165	0.000422	20.778762
1033.259299	-3.003900	3.639900	-10.933000	25.255114	0.000424	20.783150
1034.253668	-3.005000	3.640700	-10.940000	25.240266	0.000428	20.792899
1035.258064	-3.011800	3.639600	-10.960000	25.268675	0.000422	20.772583
1036.258043	-3.003100	3.637800	-10.924000	25.290399	0.000422	20.781592
1037.254539	-2.984100	3.639200	-10.858000	25.330852	0.000424	20.787597
1038.260591	-2.997800	3.638100	-10.905000	25.380147	0.000423	20.756486
1039.258047	-3.010200	3.636400	-10.946000	25.343260	0.000421	20.769235
1040.253742	-2.987200	3.638900	-10.870000	25.309842	0.000421	20.795899
1041.255578	-3.004900	3.637500	-10.929000	25.286982	0.000420	20.775317
1042.258749	-3.012600	3.637200	-10.956000	25.291001	0.000422	20.790258
1043.256855	-3.001000	3.637100	-10.914000	25.317582	0.000422	20.766685
1044.259609	-3.009900	3.636600	-10.945000	25.337208	0.000420	20.776434
1045.263740	-3.024800	3.636500	-10.999000	25.376933	0.000420	20.770328
1046.255555	-2.998400	3.636200	-10.902000	25.374196	0.000422	20.770425
1047.261513	-2.985800	3.636400	-10.856000	25.379173	0.000420	20.794864
1048.266539	-2.988300	3.636000	-10.865000	25.388314	0.000416	20.749039
1049.258465	-3.000500	3.636500	-10.911000	25.392467	0.000419	20.755581
1050.262990	-3.022500	3.635500	-10.987000	25.379742	0.000420	20.783581
1051.266628	-2.973500	3.635100	-10.807000	25.354425	0.000416	20.755789
1052.259022	-2.983200	3.634800	-10.843000	25.348166	0.000418	20.771790
1053.264450	-2.967400	3.635200	-10.786000	25.362718	0.000417	20.763642
1054.267223	-2.995400	3.633800	-10.884000	25.390603	0.000417	20.757027
1055.262590	-3.010700	3.633600	-10.939000	25.416781	0.000416	20.752494
1056.262764	-3.002100	3.633000	-10.906000	25.386618	0.000413	20.762035
1057.265364	-3.005200	3.631900	-10.913000	25.385490	0.000415	20.768489
1058.261935	-2.989500	3.633700	-10.862000	25.430470	0.000415	20.750118
1059.263265	-3.013300	3.632100	-10.944000	25.402745	0.000416	20.755469
1060.264455	-3.006800	3.632200	-10.919000	25.415783	0.000416	20.775200
1061.264332	-3.000500	3.631100	-10.895000	25.444442	0.000416	20.759408
1062.268737	-2.996600	3.633200	-10.886000	25.407780	0.000412	20.760525
1063.264156	-2.979100	3.631000	-10.816000	25.371107	0.000412	20.758314
1064.267479	-2.999400	3.631000	-10.890000	25.326814	0.000416	20.760308
1065.267166	-3.000300	3.631000	-10.893000	25.277989	0.000412	20.730725
1066.266683	-3.022800	3.630600	-10.974000	25.265590	0.000413	20.746252
1067.265043	-3.026200	3.628300	-10.979000	25.282905	0.000411	20.768378
1068.266556	-2.994200	3.630800	-10.870000	25.271561	0.000413	20.743712
1069.268175	-3.002300	3.629900	-10.897000	25.304170	0.000412	20.751797
1070.266256	-3.001700	3.629600	-10.894000	25.294142	0.000412	20.757376
1071.267112	-2.972400	3.630600	-10.790000	25.297376	0.000412	20.769157
1072.268178	-2.989200	3.629400	-10.848000	25.284856	0.000409	20.745207
1073.264865	-3.003900	3.627800	-10.897000	25.326727	0.000414	20.744573
1074.270277	-2.997800	3.627900	-10.874000	25.321316	0.000411	20.766167
1075.267525	-3.009700	3.629100	-10.921000	25.341270	0.000409	20.739734
1076.265287	-3.008300	3.626800	-10.910000	25.353803	0.000412	20.750423
1077.267271	-3.007900	3.627000	-10.908000	25.399729	0.000411	20.733947
1078.276451	-2.991900	3.626800	-10.850000	25.418250	0.000409	20.739270
1079.269895	-2.979000	3.627200	-10.804000	25.465541	0.000410	20.745507
1080.268706	-3.003100	3.626000	-10.887000	25.471101	0.000408	20.744452
1081.269690	-2.988500	3.627000	-10.839000	25.461210	0.000408	20.734993
1082.265829	-3.019900	3.625700	-10.949000	25.443035	0.000406	20.737605
1083.272665	-2.997900	3.625800	-10.869000	25.414824	0.000406	20.741520
1084.273662	-3.032500	3.624300	-10.989000	25.356718	0.000409	20.742918
1085.270098	-3.013600	3.624700	-10.923000	25.355726	0.000406	20.737180
1086.270936	-3.020100	3.624200	-10.945000	25.349818	0.000405	20.760646
1087.271459	-3.019500	3.623200	-10.940000	25.350425	0.000405	20.747031
1088.268439	-3.022600	3.624100	-10.953000	25.372316	0.000404	20.748623
1089.270513	-3.019800	3.623300	-10.940000	25.380551	0.000406	20.736976
1090.271433	-2.998200	3.623900	-10.864000	25.443219	0.000404	20.766240
1091.269057	-2.995300	3.624200	-10.854000	25.405843	0.000402	20.718275
1092.270814	-2.992600	3.623800	-10.843000	25.380464	0.000403	20.748744
1093.272233	-3.009700	3.622500	-10.901000	25.323267	0.000404	20.733512
1094.269476	-3.020000	3.621800	-10.936000	25.315687	0.000403	20.732540
1095.274081	-3.010500	3.621800	-10.902000	25.345400	0.000402	20.734872
1096.275895	-3.014900	3.621500	-10.918000	25.403897	0.000405	20.734340
1097.278116	-2.956000	3.623400	-10.710000	25.439697	0.000402	20.719553
1098.273372	-2.976900	3.620800	-10.778000	25.440072	0.000405	20.738897
1099.275884	-3.012600	3.620000	-10.904000	25.421777	0.000402	20.742812
1100.272820	-3.002200	3.620200	-10.867000	25.395821	0.000402	20.746146
1101.273267	-3.023600	3.618700	-10.940000	25.400543	0.000399	20.734291
1102.276788	-2.992800	3.620200	-10.834000	25.325205	0.000400	20.713645
1103.274052	-2.999100	3.620400	-10.857000	25.310724	0.000401	20.736565
1104.274561	-2.985700	3.620100	-10.806000	25.339858	0.000401	20.731204
1105.276374	-3.005000	3.618300	-10.872000	25.421151	0.000401	20.719422
1106.275266	-3.005200	3.618700	-10.874000	25.433462	0.000399	20.710446
1107.276801	-3.012700	3.618700	-10.901000	25.412020	0.000397	20.724004
1108.280378	-3.018000	3.616500	-10.914000	25.434637	0.000400	20.723008
1109.274295	-2.995500	3.617700	-10.836000	25.421320	0.000399	20.716746
1110.276834	-2.987600	3.617000	-10.805000	25.404610	0.000399	20.698543
1111.279001	-2.989900	3.618100	-10.816000	25.389234	0.000396	20.694958
1112.274763	-3.004700	3.618100	-10.870000	25.409939	0.000398	20.712430
1113.275091	-3.009500	3.615500	-10.879000	25.379062	0.000398	20.717462
1114.278179	-3.024400	3.616000	-10.935000	25.337690	0.000396	20.726656
1115.276216	-2.991100	3.615700	-10.814000	25.325291	0.000396	20.730328
1116.278476	-3.016000	3.615500	-10.903000	25.365623	0.000399	20.749963
1117.280465	-3.006500	3.616100	-10.871000	25.309972	0.000396	20.714472
1118.276853	-2.991200	3.614500	-10.811000	25.300927	0.000394	20.712029
1119.279603	-2.995600	3.614300	-10.825000	25.355620	0.000394	20.734702
1120.283516	-3.011100	3.613300	-10.880000	25.410445	0.000394	20.718629
1121.278651	-3.006600	3.614200	-10.865000	25.424601	0.000395	20.715300
1122.278673	-2.986400	3.614700	-10.794000	25.443016	0.000392	20.714825
1123.282462	-2.998600	3.613500	-10.834000	25.434652	0.000392	20.723022
1124.277819	-2.994200	3.613400	-10.819000	25.468394	0.000390	20.712334
1125.281241	-2.980400	3.612400	-10.765000	25.422881	0.000395	20.730169
1126.282977	-2.996700	3.612900	-10.826000	25.418824	0.000393	20.707127
1127.278206	-2.992500	3.611400	-10.806000	25.457847	0.000390	20.703638
1128.286155	-3.002200	3.612500	-10.844000	25.460184	0.000393	20.721633
1129.283908	-3.007400	3.612100	-10.862000	25.429164	0.000392	20.709924
1130.280611	-2.994600	3.610700	-10.812000	25.420424	0.000389	20.722011
1131.283693	-3.000300	3.611500	-10.835000	25.425305	0.000390	20.710316
1132.282597	-2.997600	3.611600	-10.825000	25.458488	0.000391	20.712817
1133.281783	-3.006500	3.610900	-10.855000	25.450749	0.000389	20.694614
1134.284740	-3.018100	3.610100	-10.894000	25.457215	0.000388	20.721498
1135.282918	-2.992200	3.610000	-10.801000	25.480993	0.000389	20.697484
1136.280869	-2.997900	3.608100	-10.816000	25.531080	0.000387	20.705109
1137.285500	-3.002800	3.609300	-10.837000	25.546661	0.000386	20.698945
1138.286988	-3.004200	3.609200	-10.842000	25.555496	0.000387	20.695490
1139.283540	-2.991500	3.609800	-10.798000	25.546006	0.000387	20.698761
1140.286163	-2.994400	3.608100	-10.803000	25.549046	0.000385	20.706082
1141.289476	-3.042400	3.606300	-10.970000	25.500607	0.000384	20.692050
1142.288562	-2.991700	3.608000	-10.794000	25.506225	0.000385	20.701959
1143.286219	-2.994700	3.606600	-10.798000	25.509881	0.000386	20.680500
1144.283898	-2.999300	3.607700	-10.820000	25.486355	0.000385	20.689117
1145.285375	-3.032200	3.604800	-10.930000	25.470316	0.000385	20.710945
1146.286410	-2.996700	3.606500	-10.807000	25.492542	0.000385	20.701021
1147.285907	-3.003400	3.606700	-10.832000	25.502760	0.000384	20.693738
1148.286227	-2.989800	3.605600	-10.779000	25.483826	0.000383	20.706967
1149.286992	-3.017900	3.605500	-10.880000	25.444307	0.000385	20.694783
1150.287284	-3.007900	3.606000	-10.846000	25.436439	0.000382	20.696366
1151.288444	-2.981100	3.605000	-10.746000	25.432455	0.000383	20.699477
1152.294686	-3.012700	3.604800	-10.859000	25.438945	0.000381	20.697934
1153.288878	-2.995000	3.604800	-10.796000	25.381264	0.000380	20.699284
1154.287396	-2.972700	3.605600	-10.717000	25.379640	0.000382	20.695756
1155.287836	-3.007800	3.603600	-10.838000	25.410575	0.000380	20.676082
1156.288941	-2.988800	3.604800	-10.773000	25.418930	0.000378	20.720036
1157.289603	-3.004100	3.603000	-10.823000	25.429838	0.000380	20.707756
1158.288810	-3.009700	3.602300	-10.841000	25.450614	0.000378	20.687366
1159.289009	-3.006600	3.603300	-10.833000	25.449063	0.000380	20.693869
1160.292964	-2.989500	3.601800	-10.766000	25.492310	0.000376	20.685140
1161.287624	-2.994700	3.603100	-10.789000	25.484910	0.000376	20.690511
1162.288963	-3.001700	3.600500	-10.807000	25.507357	0.000376	20.692664
1163.289367	-3.000400	3.600500	-10.802000	25.532222	0.000378	20.677330
1164.288704	-3.009300	3.600100	-10.832000	25.499002	0.000377	20.699922
1165.290936	-2.988300	3.602100	-10.763000	25.434218	0.000374	20.684177
1166.289109	-3.013000	3.599800	-10.846000	25.456131	0.000376	20.684370
1167.290543	-2.996900	3.601300	-10.792000	25.470537	0.000377	20.676077
1168.290145	-3.004500	3.599400	-10.814000	25.464958	0.000375	20.671422
1169.289727	-3.006500	3.600200	-10.824000	25.453091	0.000378	20.710717
1170.290946	-3.015700	3.598700	-10.851000	25.450489	0.000374	20.695301
1171.290179	-2.978700	3.599200	-10.720000	25.409577	0.000378	20.667018
1172.290714	-3.014900	3.597600	-10.845000	25.388617	0.000376	20.667783
1173.290132	-3.001700	3.598700	-10.802000	25.388072	0.000374	20.691420
1174.290854	-3.006600	3.597700	-10.816000	25.451395	0.000373	20.681510
1175.289801	-2.999100	3.597300	-10.788000	25.472850	0.000373	20.664647
1176.306010	-2.995500	3.596900	-10.774000	25.500149	0.000375	20.691115
1177.290098	-2.990200	3.598200	-10.758000	25.436916	0.000372	20.692103
1178.291130	-2.999800	3.596200	-10.787000	25.402407	0.000371	20.690641
1179.290743	-2.995800	3.596700	-10.774000	25.428393	0.000371	20.694924
1180.291198	-3.029600	3.595800	-10.893000	25.413133	0.000371	20.692402
1181.291780	-3.019600	3.595200	-10.855000	25.389320	0.000372	20.668015
1182.291793	-3.007900	3.596100	-10.816000	25.363517	0.000372	20.683359
1183.292502	-3.006400	3.595700	-10.809000	25.341443	0.000370	20.674944
1184.292210	-3.007900	3.595100	-10.813000	25.398654	0.000367	20.681656
1185.293979	-3.007200	3.593400	-10.806000	25.391050	0.000371	20.688720
1186.293155	-2.985200	3.594200	-10.729000	25.359715	0.000372	20.661521
1187.296128	-2.993700	3.594300	-10.759000	25.420958	0.000371	20.683664
1188.294966	-2.957100	3.594200	-10.628000	25.427626	0.000373	20.673289
1189.296887	-3.001100	3.594500	-10.786000	25.417662	0.000370	20.662808
1190.297643	-3.003000	3.593300	-10.790000	25.424114	0.000369	20.668813
1191.300400	-2.999500	3.593100	-10.776000	25.482047	0.000367	20.676730
1192.300134	-3.000600	3.592200	-10.778000	25.467217	0.000369	20.674165
1193.297605	-3.008500	3.592200	-10.806000	25.468682	0.000365	20.659987
1194.297513	-2.996200	3.591900	-10.761000	25.488769	0.000367	20.672099
1195.297637	-2.988100	3.592000	-10.733000	25.444322	0.000366	20.683417
1196.297467	-3.018000	3.592300	-10.839000	25.415079	0.000366	20.676812
1197.298234	-3.014500	3.589800	-10.820000	25.457528	0.000365	20.670125
1198.297918	-3.007900	3.590900	-10.800000	25.496477	0.000367	20.676047
1199.300115	-3.005000	3.590000	-10.787000	25.537251	0.000366	20.659619
1200.301848	-3.001500	3.590800	-10.776000	25.493389	0.000364	20.651606
1201.302390	-3.000100	3.590500	-10.771000	25.459961	0.000363	20.663558
1202.300475	-2.974500	3.591200	-10.681000	25.471862	0.000364	20.667449
1203.300602	-3.010300	3.589700	-10.805000	25.477408	0.000367	20.656421
1204.299927	-2.972700	3.589500	-10.670000	25.459634	0.000365	20.665600
1205.299445	-2.997600	3.588400	-10.756000	25.448557	0.000362	20.683876
1206.298664	-3.011600	3.588700	-10.807000	25.476762	0.000362	20.657669
1207.299652	-2.996400	3.587500	-10.749000	25.515007	0.000363	20.656247
1208.303198	-3.015300	3.587100	-10.815000	25.513798	0.000365	20.669733
1209.299562	-3.010900	3.587100	-10.800000	25.512111	0.000363	20.665194
1210.301198	-3.009900	3.586300	-10.794000	25.540040	0.000362	20.670008
1211.300818	-2.987200	3.586800	-10.713000	25.562168	0.000360	20.628689
1212.301773	-3.019600	3.586100	-10.827000	25.589821	0.000360	20.657887
1213.301942	-3.005200	3.586300	-10.777000	25.606635	0.000360	20.649167
1214.303409	-3.016500	3.585900	-10.816000	25.575195	0.000360	20.658371
1215.303095	-3.005000	3.585400	-10.773000	25.566875	0.000361	20.665189
1216.302163	-2.990800	3.584900	-10.721000	25.539925	0.000360	20.643336
1217.303760	-3.002200	3.585500	-10.764000	25.562009	0.000359	20.633745
1218.304376	-2.987500	3.583800	-10.706000	25.565324	0.000359	20.653672
1219.304978	-3.007900	3.584200	-10.781000	25.536509	0.000361	20.653658
1220.305070	-3.002100	3.583600	-10.756000	25.472319	0.000361	20.655579
1221.306438	-2.980800	3.584300	-10.684000	25.453360	0.000359	20.653609
1222.305254	-2.985600	3.582500	-10.695000	25.457875	0.000356	20.683750
1223.305586	-2.978000	3.583400	-10.670000	25.436612	0.000357	20.667613
1224.304701	-3.000800	3.582000	-10.748000	25.370576	0.000355	20.669582
1225.306333	-3.000400	3.581600	-10.745000	25.353928	0.000356	20.656183
1226.305151	-2.983800	3.582400	-10.688000	25.388602	0.000356	20.664448
1227.307954	-3.008100	3.581300	-10.772000	25.427891	0.000355	20.644628
1228.308541	-2.972600	3.581800	-10.646000	25.491028	0.000355	20.648286
1229.305503	-2.980400	3.581700	-10.674000	25.509297	0.000355	20.651935
1230.307481	-2.972000	3.581400	-10.643000	25.504393	0.000355	20.640370
1231.306861	-2.981800	3.580400	-10.674000	25.527114	0.000354	20.650386
1232.307391	-2.989700	3.579400	-10.700000	25.561228	0.000355	20.672321
1233.308795	-2.981500	3.579300	-10.671000	25.529764	0.000352	20.654944
1234.307846	-2.986100	3.580000	-10.689000	25.527061	0.000354	20.653178
1235.309279	-3.021700	3.578400	-10.811000	25.484759	0.000351	20.658114
1236.307533	-2.986000	3.579100	-10.687000	25.522990	0.000353	20.647667
1237.309026	-3.001800	3.578400	-10.742000	25.574125	0.000355	20.653028
1238.310132	-2.996100	3.578000	-10.719000	25.582599	0.000352	20.654427
1239.310290	-3.003200	3.577500	-10.743000	25.587658	0.000350	20.636745
1240.311477	-2.996200	3.578500	-10.721000	25.554233	0.000348	20.643955
1241.311569	-3.005100	3.576800	-10.748000	25.543374	0.000352	20.671459
1242.309640	-3.007700	3.577100	-10.758000	25.542950	0.000348	20.640684
1243.315328	-2.998400	3.576200	-10.722000	25.557162	0.000349	20.652114
1244.312279	-3.001800	3.575200	-10.731000	25.601576	0.000347	20.661157
1245.310303	-3.021300	3.574700	-10.799000	25.548986	0.000350	20.651015
1246.312032	-3.004500	3.575700	-10.742000	25.534822	0.000349	20.642005
1247.313459	-2.991500	3.574600	-10.693000	25.578331	0.000348	20.635913
1248.311802	-2.988900	3.574400	-10.682000	25.563488	0.000349	20.659415
1249.314513	-3.012000	3.573800	-10.763000	25.546867	0.000348	20.656948
1250.314526	-2.990000	3.574500	-10.687000	25.483767	0.000345	20.653323
1251.314248	-3.024000	3.573200	-10.804000	25.493706	0.000348	20.641492
1252.314765	-2.990500	3.575000	-10.690000	25.523789	0.000347	20.640408
1253.313829	-2.999300	3.573200	-10.715000	25.527494	0.000345	20.625635
1254.315345	-3.009300	3.573100	-10.751000	25.544299	0.000346	20.660059
1255.318487	-2.996900	3.572400	-10.705000	25.554960	0.000344	20.635676
1256.314795	-3.008300	3.573600	-10.749000	25.456862	0.000346	20.651910
1257.318232	-3.006500	3.571900	-10.737000	25.465588	0.000346	20.645499
1258.315503	-3.006600	3.571500	-10.737000	25.495821	0.000342	20.633184
1259.314768	-2.990800	3.572500	-10.684000	25.537212	0.000342	20.633972
1260.319182	-3.003200	3.571800	-10.726000	25.606600	0.000345	20.650081
1261.317395	-2.967000	3.571600	-10.596000	25.583625	0.000345	20.634592
1262.320846	-2.989100	3.570300	-10.670000	25.610897	0.000344	20.672892
1263.318992	-3.011100	3.570600	-10.751000	25.595438	0.000343	20.640766
1264.321625	-3.015100	3.569800	-10.763000	25.582570	0.000343	20.637800
1265.319719	-3.011700	3.569900	-10.751000	25.546346	0.000342	20.645518
1266.321322	-3.017600	3.568800	-10.768000	25.563560	0.000342	20.645262
1267.321489	-2.979400	3.569000	-10.633000	25.573571	0.000341	20.645358
1268.323784	-3.000500	3.568300	-10.706000	25.589951	0.000339	20.640471
1269.321458	-3.014400	3.567500	-10.753000	25.614405	0.000341	20.650807
1270.326398	-2.987100	3.568900	-10.660000	25.625008	0.000339	20.673313
1271.323233	-2.971500	3.568000	-10.602000	25.647081	0.000339	20.677464
1272.321693	-2.985900	3.567100	-10.650000	25.620850	0.000337	20.645426
1273.322093	-2.997400	3.566300	-10.688000	25.598623	0.000337	20.652975
1274.321993	-2.997800	3.567400	-10.693000	25.572439	0.000339	20.649912
1275.322770	-2.998000	3.566800	-10.693000	25.529108	0.000340	20.641008
1276.321638	-2.998000	3.566600	-10.692000	25.563734	0.000338	20.651127
1277.322395	-3.003900	3.566100	-10.711000	25.600858	0.000339	20.635303
1278.324807	-2.999000	3.565600	-10.693000	25.603459	0.000339	20.646452
1279.324152	-3.017300	3.565700	-10.758000	25.555953	0.000338	20.647106
1280.324174	-3.014900	3.564500	-10.745000	25.534610	0.000337	20.656019
1281.322989	-3.004500	3.564300	-10.708000	25.568783	0.000336	20.653353
1282.323607	-3.007300	3.565300	-10.721000	25.588525	0.000336	20.634297
1283.324099	-3.015300	3.562600	-10.742000	25.653021	0.000336	20.671102
1284.326141	-3.016700	3.563600	-10.749000	25.601051	0.000336	20.632652
1285.323977	-3.005800	3.563400	-10.710000	25.570050	0.000333	20.637079
1286.324306	-3.010000	3.562300	-10.722000	25.557408	0.000333	20.641928
1287.329391	-2.986800	3.562600	-10.640000	25.543813	0.000334	20.651983
1288.324999	-2.992100	3.562600	-10.659000	25.578409	0.000334	20.641207
1289.331375	-3.022200	3.560100	-10.759000	25.553954	0.000336	20.647943
1290.325091	-3.018500	3.561200	-10.749000	25.560550	0.000333	20.651248
1291.325644	-3.010000	3.561600	-10.719000	25.584773	0.000333	20.650919
1292.325914	-2.999900	3.562000	-10.685000	25.612565	0.000334	20.658918
1293.326478	-3.007800	3.560800	-10.708000	25.610701	0.000334	20.650881
1294.324667	-2.984300	3.560900	-10.625000	25.608254	0.000330	20.665020
1295.329785	-3.002400	3.559300	-10.685000	25.598132	0.000333	20.652482
1296.325889	-2.985900	3.561200	-10.632000	25.551305	0.000331	20.665673
1297.326281	-3.002400	3.559900	-10.687000	25.484755	0.000330	20.660955
1298.331822	-2.978800	3.559700	-10.603000	25.461012	0.000329	20.655604
1299.327777	-2.995900	3.559100	-10.662000	25.454315	0.000333	20.652197
1300.332347	-3.017200	3.558100	-10.735000	25.478285	0.000333	20.688125
1301.326868	-2.998800	3.559100	-10.672000	25.468900	0.000330	20.656412
1302.328881	-3.003500	3.557300	-10.684000	25.494276	0.000329	20.656291
1303.326787	-2.997500	3.557200	-10.662000	25.530314	0.000327	20.674466
1304.327326	-3.000300	3.556600	-10.670000	25.567782	0.000328	20.647605
1305.328599	-2.982500	3.557600	-10.610000	25.556571	0.000331	20.679024
1306.328875	-3.008800	3.556800	-10.701000	25.531885	0.000328	20.653756
1307.328491	-2.996300	3.556400	-10.656000	25.523810	0.000329	20.678366
1308.331082	-3.018400	3.555800	-10.732000	25.521691	0.000328	20.664382
1309.330780	-3.020200	3.556600	-10.741000	25.554013	0.000326	20.655590
1310.329538	-2.986300	3.555600	-10.617000	25.618270	0.000326	20.655164
1311.330996	-3.027800	3.555200	-10.763000	25.661785	0.000329	20.642443
1312.329787	-2.993300	3.555400	-10.641000	25.669787	0.000325	20.672294
1313.329793	-3.025200	3.553500	-10.750000	25.695992	0.000327	20.660206
1314.330556	-3.006600	3.554000	-10.684000	25.696281	0.000324	20.654332
1315.329930	-2.996600	3.553200	-10.647000	25.677070	0.000326	20.649261
1316.333858	-2.987500	3.553300	-10.615000	25.680727	0.000328	20.646769
1317.329799	-3.013200	3.553900	-10.708000	25.621291	0.000327	20.672899
1318.329736	-2.997900	3.553800	-10.653000	25.599559	0.000325	20.667194
1319.333645	-3.008500	3.552000	-10.685000	25.590310	0.000322	20.684933
1320.332063	-2.988500	3.552900	-10.617000	25.617379	0.000326	20.667073
1321.335307	-2.983300	3.553100	-10.599000	25.609994	0.000324	20.670562
1322.334235	-3.005800	3.552100	-10.676000	25.593542	0.000323	20.678696
1323.334019	-3.007900	3.550800	-10.680000	25.568057	0.000323	20.680602
1324.334160	-3.014000	3.549700	-10.698000	25.547187	0.000324	20.665805
1325.334401	-3.019400	3.550800	-10.720000	25.578334	0.000322	20.661997
1326.336213	-3.004600	3.551700	-10.670000	25.587921	0.000322	20.675420
1327.338212	-2.999500	3.549200	-10.646000	25.593076	0.000322	20.679649
1328.333987	-3.004500	3.549700	-10.665000	25.604358	0.000321	20.675333
1329.335732	-3.005500	3.549000	-10.665000	25.602373	0.000321	20.653897
1330.343112	-3.001100	3.548900	-10.650000	25.601897	0.000319	20.662428
1331.336696	-3.002900	3.548500	-10.655000	25.606546	0.000319	20.665201
1332.334987	-2.999500	3.548100	-10.641000	25.589294	0.000320	20.654986
1333.337573	-2.983700	3.548300	-10.586000	25.622790	0.000319	20.664446
1334.337348	-3.028500	3.547600	-10.742000	25.648645	0.000321	20.679035
1335.340483	-2.984100	3.548300	-10.587000	25.619095	0.000319	20.656467
1336.341899	-2.996400	3.547700	-10.629000	25.631115	0.000320	20.655262
1337.343218	-2.983300	3.546400	-10.579000	25.669788	0.000318	20.675140
1338.342546	-3.009500	3.546000	-10.671000	25.702058	0.000318	20.672939
1339.340610	-3.007900	3.546000	-10.664000	25.708629	0.000318	20.671952
1340.340406	-2.997800	3.544300	-10.625000	25.694563	0.000317	20.689594
1341.340692	-3.001900	3.545600	-10.643000	25.654566	0.000319	20.679293
1342.347260	-2.981100	3.545000	-10.567000	25.590114	0.000317	20.669088
1343.343817	-2.990100	3.544900	-10.597000	25.592123	0.000318	20.682961
1344.342695	-2.996900	3.544600	-10.622000	25.583601	0.000316	20.678195
1345.344275	-3.005900	3.544100	-10.652000	25.584204	0.000313	20.699664
1346.344421	-3.024500	3.543000	-10.715000	25.569943	0.000316	20.688187
1347.343962	-3.012500	3.543200	-10.672000	25.588790	0.000315	20.658748
1348.345318	-2.996800	3.543600	-10.618000	25.604317	0.000312	20.677189
1349.342119	-2.975300	3.543700	-10.543000	25.607959	0.000313	20.671363
1350.343345	-2.985100	3.542900	-10.575000	25.633039	0.000313	20.666680
1351.348505	-3.000900	3.542400	-10.629000	25.582581	0.000314	20.673851
1352.345363	-3.011700	3.540800	-10.663000	25.571939	0.000314	20.690666
1353.350551	-3.012300	3.542800	-10.671000	25.567594	0.000313	20.699579
1354.346165	-2.979800	3.541200	-10.551000	25.566004	0.000312	20.680911
1355.346650	-3.023400	3.538200	-10.696000	25.572773	0.000314	20.675854
1356.352363	-3.000300	3.541300	-10.623000	25.585482	0.000311	20.680084
1357.349300	-3.023600	3.540600	-10.704000	25.589052	0.000311	20.688886
1358.348081	-3.003900	3.539100	-10.631000	25.584678	0.000312	20.684967
1359.354590	-2.999700	3.539800	-10.617000	25.603018	0.000312	20.675884
1360.351606	-2.984800	3.539600	-10.565000	25.597955	0.000309	20.700674
1361.350132	-3.016600	3.537600	-10.671000	25.661497	0.000312	20.696212
1362.355752	-2.989000	3.539200	-10.578000	25.713724	0.000308	20.691771
1363.350390	-2.996100	3.538900	-10.602000	25.707925	0.000312	20.683574
1364.353792	-2.994200	3.538700	-10.595000	25.709909	0.000309	20.676084
1365.352623	-2.988700	3.537800	-10.572000	25.720897	0.000309	20.683802
1366.354299	-2.992700	3.537200	-10.585000	25.666402	0.000308	20.686439
1367.353297	-3.005200	3.537300	-10.629000	25.630474	0.000307	20.703936
1368.352540	-3.002500	3.537100	-10.619000	25.605197	0.000308	20.696092
1369.356540	-3.004800	3.536700	-10.626000	25.633148	0.000307	20.706622
1370.354342	-2.996000	3.535700	-10.592000	25.620821	0.000307	20.686178
1371.354850	-2.988000	3.536400	-10.566000	25.634598	0.000305	20.684369
1372.354564	-2.993700	3.536200	-10.586000	25.618268	0.000308	20.713488
1373.355087	-2.986000	3.534600	-10.553000	25.609514	0.000307	20.708016
1374.354690	-2.990600	3.535800	-10.573000	25.618942	0.000306	20.685714
1375.354979	-3.000100	3.534200	-10.602000	25.662785	0.000304	20.714577
1376.353835	-3.003800	3.535200	-10.618000	25.674101	0.000307	20.689905
1377.357719	-3.027700	3.533100	-10.696000	25.650400	0.000304	20.690283
1378.357096	-3.021100	3.532600	-10.672000	25.641185	0.000306	20.700943
1379.355538	-3.011500	3.533000	-10.638000	25.625712	0.000305	20.702946
1380.361198	-2.988000	3.532800	-10.555000	25.593936	0.000307	20.686204
1381.356958	-2.992700	3.533500	-10.574000	25.609078	0.000305	20.700464
1382.358391	-2.998800	3.532300	-10.592000	25.603109	0.000306	20.700634
1383.357209	-3.009200	3.531100	-10.624000	25.599222	0.000305	20.703368
1384.357787	-3.008500	3.531500	-10.624000	25.621580	0.000304	20.701641
1385.358757	-2.998700	3.532000	-10.590000	25.630574	0.000304	20.690758
1386.362625	-2.985500	3.532300	-10.545000	25.652204	0.000302	20.706320
1387.360255	-2.990400	3.530600	-10.557000	25.691021	0.000302	20.708798
1388.360309	-3.007500	3.529400	-10.614000	25.651728	0.000303	20.696358
1389.366719	-3.015400	3.530200	-10.644000	25.676772	0.000303	20.712504
1390.360662	-3.037500	3.528900	-10.718000	25.657330	0.000302	20.729962
1391.365311	-2.992000	3.528500	-10.556000	25.665501	0.000300	20.706398
1392.362715	-3.008800	3.528100	-10.614000	25.652282	0.000301	20.702131
1393.363889	-2.992500	3.528800	-10.560000	25.669639	0.000301	20.701071
1394.366891	-3.005700	3.526800	-10.600000	25.646348	0.000300	20.677202
1395.365871	-3.002100	3.527200	-10.589000	25.644315	0.000300	20.688437
1396.366703	-3.003600	3.527600	-10.594000	25.664697	0.000300	20.706065
1397.369043	-2.971600	3.528300	-10.484000	25.660786	0.000298	20.702611
1398.366774	-3.020200	3.524900	-10.646000	25.681230	0.000298	20.721249
1399.366203	-3.000600	3.527700	-10.585000	25.735046	0.000301	20.707498
1400.368200	-3.012600	3.524700	-10.617000	25.746265	0.000301	20.708809
1401.371974	-3.016400	3.524200	-10.630000	25.735249	0.000299	20.701537
1402.371349	-2.981100	3.526100	-10.511000	25.695181	0.000299	20.711554
1403.366745	-2.982500	3.525600	-10.515000	25.734059	0.000297	20.706981
1404.368318	-2.970200	3.525300	-10.470000	25.728622	0.000299	20.707209
1405.366502	-2.989800	3.525000	-10.538000	25.725486	0.000297	20.707379
1406.373171	-2.988300	3.524500	-10.531000	25.718901	0.000297	20.721154
1407.374134	-3.013200	3.523300	-10.615000	25.718087	0.000298	20.699947
1408.370006	-2.980200	3.525500	-10.506000	25.673019	0.000295	20.710157
1409.369783	-2.997700	3.524400	-10.564000	25.657913	0.000295	20.709209
1410.371545	-3.013300	3.522200	-10.612000	25.626764	0.000300	20.725341
1411.369173	-3.006900	3.522400	-10.591000	25.656603	0.000297	20.705048
1412.374935	-3.017500	3.521300	-10.625000	25.687515	0.000293	20.732779
1413.371720	-3.007200	3.520300	-10.585000	25.725026	0.000297	20.732997
1414.370329	-3.002100	3.520800	-10.569000	25.718499	0.000294	20.709844
1415.375381	-2.983100	3.520700	-10.502000	25.658483	0.000292	20.719266
1416.370827	-2.997100	3.519800	-10.549000	25.668783	0.000291	20.739095
1417.369918	-2.988200	3.521300	-10.522000	25.703703	0.000291	20.702094
1418.373783	-2.982200	3.519300	-10.494000	25.700253	0.000294	20.746522
1419.369879	-2.993600	3.520400	-10.537000	25.677614	0.000293	20.733739
1420.373391	-3.021700	3.518300	-10.630000	25.641697	0.000291	20.725166
1421.373262	-3.005500	3.518300	-10.573000	25.681642	0.000291	20.743001
1422.373236	-2.979700	3.518500	-10.483000	25.706730	0.000289	20.720309
1423.374826	-3.010700	3.518500	-10.593000	25.708980	0.000292	20.742485
1424.378876	-2.956300	3.518500	-10.401000	25.694308	0.000289	20.716366
1425.376192	-3.013100	3.517100	-10.597000	25.728451	0.000291	20.724109
1426.377859	-2.991300	3.516200	-10.517000	25.766408	0.000291	20.729519
1427.375001	-2.995300	3.516200	-10.531000	25.773826	0.000289	20.741238
1428.377529	-2.986500	3.516700	-10.501000	25.771163	0.000287	20.741882
1429.375778	-2.989400	3.516600	-10.513000	25.808184	0.000289	20.720273
1430.374583	-2.989300	3.515900	-10.509000	25.807106	0.000291	20.708758
1431.379247	-3.000300	3.515200	-10.546000	25.745944	0.000290	20.729826
1432.378680	-3.018400	3.513600	-10.605000	25.716397	0.000287	20.737606
1433.378059	-3.002800	3.515100	-10.555000	25.710935	0.000287	20.728327
1434.379744	-3.009900	3.514800	-10.578000	25.682731	0.000288	20.736035
1435.378820	-3.010100	3.513300	-10.575000	25.725035	0.000287	20.742015
1436.378754	-2.988400	3.513000	-10.498000	25.761986	0.000290	20.725076
1437.380170	-3.005100	3.513300	-10.557000	25.752882	0.000285	20.735847
1438.380407	-2.995100	3.513500	-10.523000	25.757372	0.000286	20.739883
1439.382504	-3.014400	3.513000	-10.589000	25.730610	0.000289	20.731019
1440.380527	-2.978700	3.513200	-10.463000	25.718457	0.000288	20.754374
1441.380991	-2.998100	3.511800	-10.528000	25.772608	0.000285	20.746178
1442.382626	-2.997600	3.513300	-10.530000	25.756617	0.000286	20.749082
1443.380437	-2.995100	3.512000	-10.517000	25.743193	0.000285	20.742236
1444.384638	-2.991800	3.511100	-10.503000	25.741497	0.000284	20.766612
1445.380213	-2.986000	3.511000	-10.483000	25.687644	0.000282	20.745711
1446.380941	-2.989000	3.512100	-10.496000	25.704056	0.000282	20.760299
1447.383388	-2.978800	3.511900	-10.461000	25.692991	0.000282	20.753927
1448.382794	-2.992400	3.510200	-10.503000	25.675125	0.000282	20.772018
1449.384462	-2.989200	3.510900	-10.494000	25.697977	0.000281	20.752771
1450.387766	-3.022600	3.509600	-10.607000	25.726215	0.000283	20.755529
1451.385142	-2.997700	3.508600	-10.517000	25.749043	0.000283	20.750957
1452.385331	-2.991100	3.508800	-10.494000	25.779894	0.000282	20.733582
1453.392239	-2.994300	3.507600	-10.502000	25.756413	0.000282	20.762154
1454.385120	-2.994800	3.508300	-10.506000	25.735667	0.000280	20.750798
1455.389996	-3.012300	3.506800	-10.563000	25.736525	0.000281	20.764936
1456.385572	-3.007300	3.506800	-10.545000	25.745094	0.000282	20.759793
1457.385524	-3.007000	3.506900	-10.545000	25.818125	0.000281	20.749226
1458.385325	-2.977200	3.507500	-10.441000	25.849967	0.000282	20.758928
1459.386859	-2.997700	3.506300	-10.510000	25.848806	0.000279	20.756339
1460.388659	-3.031400	3.506000	-10.627000	25.842935	0.000278	20.760399
1461.388625	-2.999800	3.506100	-10.515000	25.798079	0.000278	20.752324
1462.388784	-2.991600	3.504800	-10.483000	25.804640	0.000278	20.756543
1463.391754	-3.006900	3.505800	-10.540000	25.803912	0.000278	20.755813
1464.390598	-2.995100	3.505600	-10.499000	25.810931	0.000278	20.755750
1465.389386	-3.011300	3.505000	-10.553000	25.786433	0.000278	20.759118
1466.390013	-3.024600	3.502600	-10.593000	25.755664	0.000278	20.757609
1467.388506	-3.024700	3.502800	-10.594000	25.784507	0.000278	20.751493
1468.390103	-3.021200	3.502100	-10.580000	25.746816	0.000277	20.775274
1469.391750	-2.999800	3.501700	-10.503000	25.722862	0.000278	20.776818
1470.389519	-3.004200	3.502200	-10.520000	25.736793	0.000273	20.774215
1471.391664	-2.996400	3.502100	-10.493000	25.732337	0.000274	20.749825
1472.390317	-3.003900	3.502600	-10.521000	25.685396	0.000275	20.756255
1473.388570	-2.998500	3.502600	-10.501000	25.673097	0.000275	20.749593
1474.389504	-3.019400	3.501100	-10.571000	25.727978	0.000276	20.766310
1475.390174	-2.997400	3.499600	-10.488000	25.749135	0.000273	20.766223
1476.388495	-3.006900	3.501000	-10.526000	25.721549	0.000274	20.783559
1477.393316	-2.989900	3.501200	-10.467000	25.767627	0.000275	20.771048
1478.389109	-2.995000	3.500800	-10.484000	25.755426	0.000273	20.758792
1479.390306	-3.009600	3.499600	-10.532000	25.767396	0.000273	20.754220
1480.392735	-3.006800	3.500200	-10.523000	25.814114	0.000271	20.769379
1481.391419	-2.988900	3.498800	-10.457000	25.856826	0.000271	20.770560
1482.395193	-2.994500	3.498500	-10.475000	25.767396	0.000272	20.779351
1483.391844	-2.991400	3.498300	-10.464000	25.749093	0.000270	20.774242
1484.392291	-3.001100	3.497100	-10.493000	25.726107	0.000272	20.774862
1485.395858	-3.008700	3.497600	-10.522000	25.736324	0.000270	20.769476
1486.394138	-3.003800	3.497100	-10.503000	25.746319	0.000271	20.762921
1487.394609	-2.997000	3.496700	-10.478000	25.769946	0.000268	20.776222
1488.393743	-2.984500	3.498000	-10.439000	25.743294	0.000271	20.786435
1489.393469	-2.989300	3.496000	-10.450000	25.686088	0.000267	20.772124
1490.394006	-2.982400	3.496600	-10.427000	25.673910	0.000270	20.775540
1491.394233	-3.009800	3.495200	-10.518000	25.740362	0.000271	20.782541
1492.394788	-2.998500	3.495400	-10.481000	25.782133	0.000270	20.798420
1493.395659	-3.013500	3.494500	-10.530000	25.767813	0.000268	20.797313
1494.394044	-2.986700	3.494200	-10.435000	25.807863	0.000271	20.768316
1495.394379	-3.016300	3.493600	-10.537000	25.747029	0.000269	20.776910
1496.399535	-2.985500	3.495100	-10.434000	25.754620	0.000268	20.774578
1497.395513	-2.994800	3.493100	-10.460000	25.760295	0.000266	20.793554
1498.400904	-3.006600	3.493100	-10.501000	25.753493	0.000268	20.788145
1499.398496	-3.002400	3.492300	-10.484000	25.756701	0.000265	20.782358
1500.397925	-3.022000	3.490600	-10.548000	25.801362	0.000267	20.783123
1501.396888	-3.027300	3.491200	-10.568000	25.792586	0.000266	20.781894
1502.398619	-2.994900	3.492200	-10.457000	25.823147	0.000266	20.777980
1503.401512	-2.998400	3.493000	-10.472000	25.858875	0.000266	20.785895
1504.401289	-3.006100	3.491000	-10.494000	25.841204	0.000264	20.779049
1505.397088	-2.988700	3.490700	-10.432000	25.856212	0.000264	20.777530
1506.399907	-3.027400	3.490300	-10.564000	25.853780	0.000264	20.779828
1507.398932	-3.018300	3.488600	-10.529000	25.836557	0.000264	20.798562
1508.400098	-3.014600	3.490200	-10.520000	25.785723	0.000264	20.791595
1509.401231	-2.996700	3.488500	-10.453000	25.777626	0.000264	20.806221
1510.398443	-3.018200	3.489700	-10.532000	25.801021	0.000266	20.785151
1511.400091	-2.973000	3.489300	-10.373000	25.827719	0.000261	20.798694
1512.401402	-3.013600	3.488000	-10.510000	25.849614	0.000263	20.787972
1513.398859	-2.974700	3.489100	-10.378000	25.842934	0.000263	20.794063
1514.403035	-3.001000	3.487400	-10.465000	25.813293	0.000263	20.782306
1515.401180	-2.975800	3.488500	-10.379000	25.850944	0.000261	20.796894
1516.399941	-2.978800	3.487700	-10.388000	25.827609	0.000261	20.809014
1517.400790	-2.992200	3.486900	-10.433000	25.820480	0.000263	20.788103
1518.402125	-3.003900	3.485100	-10.468000	25.847289	0.000259	20.791799
1519.401307	-3.001200	3.486300	-10.461000	25.825008	0.000257	20.795496
1520.403224	-3.005200	3.484700	-10.471000	25.778215	0.000261	20.785002
1521.400310	-3.003700	3.485100	-10.468000	25.795728	0.000258	20.792163
1522.401302	-3.017500	3.484900	-10.515000	25.784809	0.000259	20.779772
1523.403209	-3.003000	3.485800	-10.467000	25.794784	0.000257	20.782205
1524.400590	-3.006600	3.485000	-10.478000	25.757166	0.000258	20.781402
1525.407475	-2.994200	3.485800	-10.435000	25.760711	0.000257	20.794447
1526.402004	-3.001900	3.484300	-10.459000	25.767575	0.000259	20.774314
1527.399674	-3.025900	3.483700	-10.540000	25.749261	0.000256	20.772514
1528.402853	-2.984500	3.484200	-10.398000	25.766800	0.000255	20.784441
1529.402977	-2.979100	3.484500	-10.379000	25.804163	0.000258	20.786885
1530.405550	-3.005000	3.482200	-10.463000	25.804866	0.000254	20.795651
1531.403237	-2.991800	3.483400	-10.421000	25.753389	0.000255	20.776661
1532.401369	-2.983900	3.483800	-10.394000	25.747518	0.000255	20.775979
1533.405363	-2.987100	3.482800	-10.402000	25.712827	0.000254	20.765790
1534.402460	-2.993300	3.481900	-10.421000	25.695784	0.000254	20.788975
1535.402459	-2.999000	3.482800	-10.443000	25.665137	0.000255	20.759615
1536.400774	-3.005200	3.481800	-10.462000	25.666370	0.000253	20.776027
1537.403220	-3.004000	3.480200	-10.453000	25.668186	0.000254	20.780222
1538.404263	-2.995700	3.480500	-10.426000	25.708616	0.000253	20.764405
1539.402506	-2.991200	3.479000	-10.405000	25.745995	0.000254	20.781562
1540.403139	-2.995100	3.478900	-10.418000	25.750364	0.000253	20.773148
1541.404891	-2.986400	3.479500	-10.390000	25.761597	0.000253	20.773051
1542.402843	-3.000600	3.478100	-10.436000	25.785064	0.000253	20.756794
1543.402710	-2.990700	3.479200	-10.405000	25.841914	0.000255	20.752734
1544.403435	-3.014700	3.478300	-10.484000	25.816801	0.000250	20.764966
1545.402053	-3.005000	3.477700	-10.449000	25.842265	0.000252	20.771580
1546.406123	-3.023800	3.476800	-10.512000	25.832729	0.000252	20.769112
1547.411200	-3.001100	3.477500	-10.436000	25.842689	0.000252	20.764419
1548.405144	-3.000800	3.477400	-10.434000	25.849297	0.000252	20.767738
1549.403880	-2.994000	3.476500	-10.407000	25.844153	0.000251	20.745975
1550.403974	-2.994700	3.475800	-10.408000	25.836153	0.000247	20.755008
1551.407873	-3.005800	3.474200	-10.443000	25.881114	0.000249	20.761768
1552.408767	-2.991000	3.476100	-10.396000	25.830971	0.000250	20.750751
1553.408145	-2.978100	3.476400	-10.352000	25.828443	0.000249	20.742521
1554.404511	-3.039000	3.473900	-10.556000	25.854479	0.000250	20.769625
1555.406242	-3.021200	3.474900	-10.497000	25.837545	0.000247	20.757355
1556.408732	-2.992500	3.474900	-10.398000	25.869607	0.000248	20.768700
1557.408683	-3.014500	3.472900	-10.469000	25.806378	0.000249	20.735529
1558.406579	-2.999700	3.473300	-10.418000	25.808824	0.000249	20.744151
1559.410299	-3.013200	3.472500	-10.462000	25.803002	0.000248	20.748259
1560.409586	-3.023100	3.472100	-10.495000	25.762772	0.000245	20.766645
1561.407965	-3.007200	3.471900	-10.440000	25.716000	0.000247	20.748588
1562.412504	-3.014300	3.471700	-10.464000	25.768071	0.000244	20.737827
1563.408377	-3.000000	3.471700	-10.414000	25.824946	0.000246	20.747069
1564.411465	-2.979000	3.471500	-10.341000	25.834882	0.000245	20.734764
1565.407785	-3.007100	3.469500	-10.432000	25.858276	0.000246	20.741669
1566.409841	-2.985600	3.470500	-10.361000	25.908717	0.000244	20.748245
1567.410436	-2.997200	3.470700	-10.402000	25.913778	0.000247	20.731992
1568.415551	-3.022700	3.469200	-10.485000	25.898299	0.000244	20.722131
1569.413990	-2.984400	3.470800	-10.356000	25.921098	0.000243	20.739347
1570.411422	-3.017200	3.468200	-10.464000	25.852115	0.000245	20.743068
1571.415029	-2.995000	3.469700	-10.390000	25.821314	0.000243	20.741998
1572.415060	-2.978500	3.468800	-10.331000	25.814330	0.000243	20.742095
1573.417775	-3.012300	3.469000	-10.449000	25.806041	0.000243	20.748467
1574.411433	-2.991000	3.470400	-10.379000	25.854186	0.000241	20.720016
1575.411527	-2.996100	3.468300	-10.391000	25.896435	0.000245	20.756770
1576.410770	-2.983400	3.467900	-10.345000	25.902436	0.000244	20.721546
1577.411988	-3.001200	3.467300	-10.405000	25.864835	0.000240	20.731189
1578.413347	-2.969100	3.469200	-10.299000	25.808304	0.000242	20.738886
1579.416121	-2.974700	3.466900	-10.312000	25.793561	0.000241	20.729766
1580.412905	-3.003900	3.466200	-10.411000	25.791866	0.000241	20.736124
1581.413601	-2.992400	3.466700	-10.373000	25.828067	0.000240	20.733134
1582.415661	-2.995900	3.465800	-10.383000	25.811026	0.000240	20.724550
1583.414506	-2.970100	3.465900	-10.293000	25.810795	0.000238	20.711515
1584.418515	-2.979900	3.466500	-10.328000	25.784399	0.000239	20.730995
1585.413068	-2.997400	3.464500	-10.383000	25.774208	0.000238	20.721231
1586.413026	-2.990100	3.464200	-10.357000	25.790050	0.000238	20.733826
1587.417461	-2.978200	3.464000	-10.315000	25.780585	0.000240	20.722896
1588.413844	-3.002400	3.464400	-10.400000	25.808387	0.000240	20.732805
1589.416046	-3.004300	3.463900	-10.406000	25.844911	0.000239	20.724450
1590.414375	-3.006000	3.463800	-10.411000	25.866093	0.000237	20.730555
1591.413961	-2.995400	3.462800	-10.372000	25.863006	0.000237	20.728403
1592.415455	-2.996700	3.462900	-10.376000	25.854665	0.000236	20.722868
1593.420592	-2.994800	3.461900	-10.367000	25.905630	0.000237	20.719538
1594.416998	-2.999500	3.462200	-10.384000	25.919824	0.000235	20.735221
1595.420279	-2.994200	3.461800	-10.364000	25.873352	0.000235	20.711768
1596.421590	-3.008500	3.461600	-10.413000	25.861404	0.000236	20.712567
1597.418835	-2.992400	3.461500	-10.356000	25.859285	0.000237	20.721819
1598.420459	-2.991300	3.462100	-10.355000	25.833845	0.000237	20.722816
1599.420974	-2.981900	3.461300	-10.319000	25.836277	0.000235	20.718621
1600.422683	-2.985600	3.460600	-10.331000	25.849214	0.000238	20.712650
1601.420786	-2.986800	3.460700	-10.336000	25.840256	0.000236	20.700806
1602.425629	-2.979400	3.460100	-10.308000	25.804455	0.000235	20.704198
1603.423978	-3.005300	3.459000	-10.394000	25.812576	0.000235	20.725159
1604.422485	-3.009200	3.458600	-10.406000	25.774231	0.000233	20.724574
1605.422879	-3.001000	3.458900	-10.379000	25.778769	0.000234	20.709217
1606.422686	-3.002300	3.459200	-10.385000	25.815550	0.000232	20.705859
1607.423624	-3.013300	3.457300	-10.417000	25.819663	0.000232	20.707621
1608.422647	-3.016400	3.457000	-10.427000	25.850103	0.000232	20.715914
1609.422052	-3.007200	3.457400	-10.397000	25.846520	0.000232	20.719427
1610.422400	-3.004700	3.457100	-10.387000	25.836618	0.000233	20.699996
1611.425084	-2.994000	3.455500	-10.345000	25.832804	0.000232	20.708968
1612.424482	-3.017800	3.456100	-10.429000	25.843974	0.000232	20.722560
1613.424343	-3.001900	3.455200	-10.371000	25.832790	0.000229	20.690460
1614.426361	-2.999900	3.455700	-10.366000	25.809127	0.000231	20.725014
1615.426108	-2.993700	3.455000	-10.342000	25.797158	0.000230	20.712515
1616.430637	-2.995300	3.455300	-10.348000	25.813823	0.000231	20.711712
1617.426514	-2.973300	3.454800	-10.271000	25.810943	0.000231	20.707396
1618.423964	-3.003900	3.453800	-10.374000	25.827378	0.000229	20.710155
1619.425040	-2.993100	3.454800	-10.339000	25.857018	0.000229	20.699626
1620.424850	-2.991100	3.454200	-10.331000	25.852539	0.000232	20.711723
1621.426526	-2.997400	3.454100	-10.353000	25.870413	0.000229	20.701228
1622.428812	-2.986300	3.453400	-10.312000	25.849583	0.000231	20.699743
1623.426374	-2.976300	3.453700	-10.278000	25.835433	0.000229	20.710186
1624.426778	-2.978600	3.452500	-10.283000	25.829600	0.000227	20.716181
1625.427372	-2.991400	3.452300	-10.327000	25.851154	0.000227	20.717444
1626.425026	-2.988000	3.452400	-10.315000	25.873300	0.000227	20.712664
1627.428782	-2.968200	3.451500	-10.244000	25.862940	0.000227	20.713637
1628.426559	-2.976800	3.451400	-10.273000	25.895677	0.000225	20.677294
1629.425413	-2.975100	3.450700	-10.265000	25.909774	0.000224	20.701890
1630.428886	-2.996100	3.450700	-10.338000	25.878792	0.000225	20.704904
1631.427011	-2.997800	3.450300	-10.342000	25.908345	0.000227	20.697134
1632.429698	-3.000800	3.450900	-10.353000	25.910208	0.000222	20.692368
1633.428009	-2.998000	3.450800	-10.345000	25.907315	0.000224	20.690883
1634.427895	-3.012000	3.449300	-10.388000	25.909781	0.000228	20.681980
1635.428513	-2.971800	3.450400	-10.253000	25.859134	0.000226	20.674722
1636.433037	-2.985600	3.447700	-10.293000	25.847781	0.000223	20.689872
1637.433980	-3.016400	3.448800	-10.402000	25.894568	0.000223	20.698941
1638.428638	-3.026900	3.448400	-10.437000	25.896249	0.000223	20.691620
1639.428921	-2.989200	3.449000	-10.308000	25.906922	0.000224	20.708982
1640.434171	-3.001400	3.447200	-10.345000	25.906643	0.000222	20.702063
1641.428022	-3.001000	3.446200	-10.341000	25.882475	0.000223	20.690585
1642.432287	-2.990300	3.445900	-10.304000	25.911204	0.000223	20.710913
1643.429255	-2.990000	3.446700	-10.304000	25.865022	0.000223	20.700554
1644.429639	-3.014200	3.445100	-10.383000	25.821535	0.000222	20.708079
1645.431625	-3.000000	3.446000	-10.338000	25.806744	0.000221	20.704126
1646.430455	-3.006300	3.445500	-10.357000	25.843792	0.000219	20.716687
1647.432113	-3.002200	3.444000	-10.339000	25.837266	0.000219	20.697802
1648.432254	-2.993300	3.444400	-10.309000	25.817769	0.000218	20.691492
1649.428623	-3.025100	3.443600	-10.415000	25.831299	0.000218	20.694653
1650.429646	-3.029000	3.443900	-10.430000	25.823299	0.000216	20.705109
1651.430332	-2.998700	3.443700	-10.325000	25.810361	0.000218	20.713925
1652.432887	-2.982800	3.442700	-10.268000	25.814996	0.000219	20.706251
1653.433060	-3.004900	3.443600	-10.347000	25.825973	0.000216	20.712537
1654.433117	-2.994200	3.442800	-10.307000	25.790547	0.000217	20.709193
1655.432529	-2.985700	3.441900	-10.276000	25.817028	0.000217	20.676048
1656.433091	-2.991900	3.441000	-10.294000	25.839937	0.000216	20.704753
1657.437153	-3.008400	3.440300	-10.348000	25.882455	0.000217	20.703368
1658.435222	-2.988300	3.440900	-10.281000	25.863561	0.000215	20.690077
1659.433390	-3.005600	3.441300	-10.342000	25.885576	0.000217	20.687536
1660.443019	-3.008900	3.441000	-10.353000	25.919291	0.000215	20.693431
1661.434019	-2.986300	3.440700	-10.274000	25.876195	0.000216	20.686647
1662.437020	-3.005900	3.439000	-10.337000	25.903474	0.000219	20.691766
1663.435930	-3.005600	3.439100	-10.336000	25.919036	0.000215	20.695072
1664.440884	-3.013800	3.439800	-10.366000	25.865859	0.000216	20.693808
1665.437119	-3.006400	3.439000	-10.337000	25.886806	0.000215	20.668382
1666.437969	-3.007100	3.439200	-10.341000	25.911253	0.000217	20.682985
1667.442157	-2.999000	3.439800	-10.315000	25.943310	0.000214	20.683895
1668.439643	-2.976800	3.439400	-10.238000	26.009831	0.000214	20.675810
1669.448554	-2.996600	3.438400	-10.303000	25.976250	0.000214	20.682850
1670.439712	-2.974100	3.439200	-10.227000	25.919129	0.000213	20.699433
1671.439902	-3.044500	3.437000	-10.463000	25.862187	0.000213	20.678264
1672.439577	-3.027400	3.436900	-10.404000	25.895785	0.000213	20.677402
1673.439778	-3.004900	3.435800	-10.323000	25.915932	0.000212	20.701437
1674.441270	-3.011200	3.436300	-10.346000	25.938504	0.000212	20.685232
1675.440876	-2.998500	3.435300	-10.299000	25.944467	0.000211	20.683636
1676.442691	-2.985600	3.436200	-10.257000	25.916380	0.000213	20.679126
1677.443467	-3.016300	3.433600	-10.356000	25.927284	0.000211	20.679649
1678.441187	-3.005000	3.434200	-10.319000	25.883303	0.000211	20.681933
1679.440525	-2.996600	3.433200	-10.286000	25.871851	0.000212	20.683706
1680.443731	-2.988000	3.434400	-10.261000	25.936961	0.000211	20.678465
1681.440701	-3.002200	3.434800	-10.311000	25.971814	0.000211	20.678867
1682.441715	-3.006900	3.433200	-10.322000	25.920866	0.000209	20.679839
1683.442626	-3.017300	3.432400	-10.356000	25.946762	0.000210	20.683096
1684.441745	-3.007400	3.432000	-10.320000	25.973095	0.000209	20.669722
1685.445671	-3.010200	3.431300	-10.328000	25.978807	0.000209	20.659812
1686.444542	-3.005600	3.432700	-10.315000	25.907926	0.000209	20.680591
1687.444426	-3.003700	3.431900	-10.307000	25.954638	0.000206	20.677732
1688.444507	-3.003800	3.432600	-10.311000	25.965589	0.000210	20.690158
1689.444869	-3.018200	3.431900	-10.358000	25.925121	0.000209	20.656610
1690.447090	-2.987600	3.431200	-10.250000	25.919202	0.000210	20.660148
1691.447871	-3.015100	3.430500	-10.343000	25.880330	0.000207	20.672308
1692.447217	-2.992000	3.430800	-10.264000	25.837981	0.000207	20.688088
1693.445933	-2.982900	3.430300	-10.230000	25.829775	0.000208	20.670834
1694.448402	-2.988900	3.430600	-10.253000	25.843704	0.000206	20.671550
1695.447660	-2.982300	3.430300	-10.229000	25.834443	0.000204	20.673627
1696.448746	-2.981400	3.430300	-10.226000	25.858891	0.000203	20.668788
1697.446918	-3.016300	3.428000	-10.339000	25.929276	0.000203	20.679280
1698.446631	-3.006000	3.428300	-10.304000	25.926203	0.000206	20.677615
1699.449408	-2.999100	3.427100	-10.277000	25.900424	0.000206	20.658352
1700.450759	-2.989300	3.428000	-10.246000	25.908265	0.000205	20.661963
1701.452691	-2.993500	3.428900	-10.263000	25.893003	0.000202	20.662278
1702.447504	-3.011200	3.427800	-10.321000	25.938857	0.000204	20.673257
1703.448036	-3.009100	3.427200	-10.312000	25.976759	0.000203	20.661548
1704.448563	-3.009100	3.426300	-10.309000	25.952155	0.000203	20.679505
1705.446693	-3.024100	3.425700	-10.359000	25.977761	0.000200	20.667297
1706.451406	-2.996500	3.425900	-10.265000	26.012878	0.000201	20.679346
1707.449363	-3.027500	3.424200	-10.366000	26.025269	0.000202	20.667138
1708.448478	-3.006700	3.424900	-10.296000	25.982746	0.000201	20.683212
1709.448107	-2.998300	3.425000	-10.268000	25.986942	0.000200	20.655183
1710.451038	-2.980700	3.425500	-10.210000	25.929133	0.000199	20.682929
1711.453053	-3.009900	3.424100	-10.304000	25.929084	0.000203	20.684303
1712.452977	-2.988800	3.424400	-10.234000	25.966139	0.000198	20.691184
1713.449667	-2.985500	3.425000	-10.224000	25.969115	0.000200	20.679475
1714.449338	-3.000100	3.421900	-10.265000	25.989650	0.000203	20.682562
1715.454144	-2.998000	3.424100	-10.264000	25.966876	0.000200	20.680544
1716.450855	-2.959700	3.424200	-10.132000	25.913772	0.000197	20.687412
1717.452370	-3.002900	3.421600	-10.274000	25.924978	0.000200	20.680178
1718.451226	-2.974400	3.422800	-10.179000	25.990712	0.000198	20.660867
1719.451383	-3.013000	3.422400	-10.310000	25.976505	0.000200	20.669829
1720.454789	-3.002500	3.421400	-10.271000	25.987009	0.000201	20.683702
1721.453223	-2.990400	3.421100	-10.230000	25.975414	0.000195	20.681535
1722.454820	-2.993900	3.421300	-10.241000	25.993589	0.000197	20.665655
1723.452161	-3.000800	3.420500	-10.263000	26.002228	0.000199	20.681449
1724.454184	-2.979700	3.420100	-10.190000	26.013614	0.000197	20.666333
1725.454774	-3.005700	3.419500	-10.278000	25.996056	0.000196	20.669556
1726.454288	-2.984500	3.419700	-10.205000	25.996672	0.000198	20.659269
1727.455249	-2.991800	3.418900	-10.227000	25.936417	0.000194	20.682661
1728.462052	-2.963500	3.418100	-10.129000	25.914283	0.000194	20.673225
1729.457379	-2.972300	3.418100	-10.159000	25.960729	0.000196	20.670100
1730.457090	-3.003900	3.416700	-10.263000	25.938267	0.000195	20.656542
1731.459994	-3.017000	3.417900	-10.311000	25.956988	0.000196	20.679619
1732.457130	-2.998900	3.417000	-10.246000	25.947452	0.000197	20.664821
1733.457973	-2.989500	3.417900	-10.216000	25.894601	0.000195	20.657719
1734.458334	-3.002600	3.416500	-10.256000	25.893971	0.000194	20.668467
1735.459278	-3.002300	3.416400	-10.256000	25.950546	0.000196	20.672672
1736.459779	-3.002600	3.415600	-10.254000	25.917474	0.000195	20.673112
1737.460955	-2.998600	3.415300	-10.241000	25.978075	0.000193	20.669509
1738.461218	-2.982200	3.415300	-10.184000	25.964633	0.000195	20.673074
1739.459537	-2.997800	3.415000	-10.236000	25.975994	0.000194	20.670738
1740.462667	-2.981400	3.415000	-10.181000	25.940039	0.000193	20.701948
1741.462005	-3.021200	3.414600	-10.315000	25.962852	0.000194	20.663697
1742.459531	-3.006300	3.414700	-10.265000	25.981668	0.000195	20.677861
1743.462311	-3.018800	3.413600	-10.304000	25.963782	0.000189	20.676013
1744.466924	-3.008600	3.414300	-10.272000	25.932753	0.000190	20.679928
1745.460408	-3.002100	3.413900	-10.248000	25.956689	0.000192	20.675051
1746.461290	-2.998500	3.412300	-10.231000	25.951353	0.000189	20.693874
1747.462747	-3.039800	3.412200	-10.372000	25.927234	0.000190	20.665847
1748.459937	-3.005200	3.411600	-10.251000	25.960317	0.000190	20.702880
1749.466151	-3.023900	3.411200	-10.314000	26.013117	0.000190	20.676266
1750.462852	-2.987300	3.412200	-10.192000	26.047795	0.000191	20.684082
1751.460669	-3.000200	3.411100	-10.233000	26.098665	0.000189	20.685408
1752.460655	-2.989500	3.412700	-10.201000	26.064784	0.000189	20.685505
1753.460639	-3.023800	3.410200	-10.310000	26.045942	0.000189	20.678427
1754.461743	-2.989500	3.410500	-10.195000	26.024681	0.000188	20.650898
1755.464274	-3.009700	3.409700	-10.260000	26.026738	0.000187	20.682366
1756.461472	-2.996600	3.410500	-10.218000	26.075646	0.000187	20.664173
1757.462631	-3.018900	3.410900	-10.296000	26.042260	0.000188	20.681366
1758.462959	-2.985500	3.409700	-10.179000	26.033125	0.000187	20.666496
1759.462939	-2.996400	3.409100	-10.214000	25.949687	0.000187	20.691251
1760.467151	-2.991600	3.408100	-10.195000	25.958520	0.000186	20.680210
1761.464178	-3.027300	3.407600	-10.315000	25.960746	0.000185	20.681972
1762.463277	-3.018700	3.407400	-10.285000	25.926365	0.000183	20.672087
1763.465720	-3.007800	3.408300	-10.251000	25.936555	0.000185	20.704612
1764.465952	-3.022900	3.406500	-10.297000	25.955565	0.000184	20.679612
1765.468755	-3.000100	3.406100	-10.218000	25.923737	0.000183	20.688414
1766.466882	-2.988900	3.407700	-10.183000	25.956726	0.000186	20.689788
1767.466129	-3.015200	3.406300	-10.270000	26.004851	0.000182	20.687404
1768.467367	-3.002800	3.406900	-10.230000	26.050084	0.000183	20.662672
1769.466757	-3.015300	3.404800	-10.266000	26.064521	0.000184	20.673859
1770.468120	-2.978500	3.404600	-10.140000	26.011676	0.000183	20.688096
1771.470000	-2.981100	3.405900	-10.153000	26.017036	0.000180	20.684946
1772.468979	-3.007300	3.404200	-10.237000	25.986287	0.000181	20.676812
1773.468474	-3.017000	3.404100	-10.269000	25.956868	0.000181	20.674282
1774.469951	-2.994400	3.404200	-10.193000	26.035624	0.000182	20.684655
1775.468290	-2.997000	3.403600	-10.199000	26.038393	0.000182	20.693603
1776.473342	-3.000800	3.402300	-10.209000	26.029075	0.000181	20.684715
1777.473513	-3.025200	3.403100	-10.294000	26.042617	0.000180	20.692631
1778.472217	-3.023400	3.402500	-10.286000	25.999671	0.000177	20.702114
1779.470959	-2.977400	3.403600	-10.133000	26.005479	0.000180	20.698466
1780.472316	-2.981800	3.402600	-10.145000	26.056932	0.000180	20.700851
1781.470976	-2.981100	3.402200	-10.142000	26.076946	0.000178	20.703416
1782.474270	-2.981900	3.403000	-10.146000	26.065885	0.000178	20.710795
1783.472253	-2.980100	3.402100	-10.138000	26.057621	0.000179	20.694904
1784.472403	-2.998900	3.400400	-10.197000	26.032803	0.000178	20.699366
1785.473961	-3.032500	3.400500	-10.311000	26.036203	0.000179	20.699463
1786.473372	-2.981900	3.401400	-10.141000	26.023268	0.000180	20.685043
1787.475800	-2.998400	3.401100	-10.196000	25.997879	0.000174	20.706479
1788.473076	-3.006500	3.399000	-10.219000	26.018090	0.000176	20.700231
1789.472658	-2.973200	3.400200	-10.108000	26.031738	0.000177	20.697348
1790.474422	-3.004300	3.399800	-10.213000	26.015995	0.000176	20.684375
1791.475643	-2.997000	3.400200	-10.190000	26.043161	0.000175	20.687013
1792.474848	-2.994600	3.399500	-10.179000	26.089518	0.000174	20.693762
1793.474387	-2.981700	3.399200	-10.135000	26.117408	0.000176	20.701872
1794.473254	-3.017500	3.397800	-10.253000	26.129519	0.000175	20.696497
1795.475818	-2.983500	3.396800	-10.133000	26.132230	0.000173	20.683098
1796.475644	-2.994200	3.396900	-10.169000	26.088381	0.000175	20.679342
1797.474241	-2.978500	3.397200	-10.117000	26.084679	0.000174	20.699805
1798.475854	-2.997400	3.395800	-10.177000	26.056412	0.000173	20.704122
1799.474492	-3.006100	3.396900	-10.210000	26.076039	0.000173	20.692073
1800.476947	-3.011000	3.396400	-10.225000	26.042775	0.000172	20.713654
1801.477488	-3.002900	3.395600	-10.196000	26.049395	0.000173	20.693277
1802.479563	-3.011800	3.395200	-10.225000	26.053811	0.000172	20.705302
1803.478305	-2.990900	3.396000	-10.157000	26.058665	0.000171	20.689314
1804.478302	-3.005800	3.394000	-10.201000	26.089821	0.000172	20.723466
1805.477066	-3.019300	3.394900	-10.248000	26.101487	0.000171	20.685399
1806.478019	-3.011300	3.394600	-10.221000	26.104922	0.000171	20.692170
1807.479010	-2.990500	3.394600	-10.150000	26.125819	0.000169	20.700840
1808.479732	-3.011800	3.392600	-10.217000	26.139273	0.000172	20.698712
1809.479948	-2.994700	3.394400	-10.164000	26.183508	0.000171	20.695745
1810.478190	-2.967000	3.392700	-10.065000	26.151287	0.000169	20.700352
1811.478304	-2.975800	3.393000	-10.096000	26.161148	0.000170	20.714055
1812.479168	-3.006200	3.391600	-10.195000	26.146314	0.000170	20.720012
1813.481002	-2.996800	3.391100	-10.161000	26.137313	0.000167	20.700536
1814.480358	-2.981300	3.391800	-10.111000	26.172728	0.000168	20.701982
1815.479444	-2.987600	3.390900	-10.130000	26.178063	0.000170	20.711138
1816.478935	-2.999400	3.391100	-10.170000	26.124849	0.000169	20.686113
1817.481734	-3.008300	3.390300	-10.199000	26.103190	0.000171	20.694697
1818.481332	-2.984500	3.392000	-10.122000	26.117188	0.000169	20.695012
1819.484999	-3.000400	3.389700	-10.170000	26.155277	0.000169	20.707206
1820.481663	-3.019300	3.389400	-10.233000	26.126189	0.000167	20.713541
1821.481477	-2.995300	3.389700	-10.152000	26.134525	0.000167	20.714804
1822.482033	-3.008300	3.388900	-10.194000	26.151065	0.000169	20.727157
1823.482227	-2.999800	3.389600	-10.167000	26.182511	0.000167	20.722720
1824.483649	-2.991100	3.389400	-10.137000	26.156266	0.000166	20.703933
1825.486761	-2.994100	3.387100	-10.140000	26.167167	0.000164	20.714888
1826.483706	-2.994900	3.389600	-10.150000	26.169768	0.000166	20.706595
1827.482724	-3.010800	3.387200	-10.197000	26.169792	0.000165	20.716103
1828.489363	-3.008500	3.386800	-10.188000	26.123717	0.000167	20.716747
1829.487365	-2.988800	3.386600	-10.121000	26.103498	0.000164	20.722510
1830.487865	-3.017200	3.386100	-10.216000	26.141455	0.000163	20.705646
1831.484793	-2.986700	3.386100	-10.112000	26.208433	0.000162	20.726483
1832.485926	-3.007400	3.386800	-10.183000	26.200715	0.000162	20.719675
1833.484698	-3.004700	3.385400	-10.171000	26.154097	0.000162	20.705072
1834.486846	-2.991200	3.386000	-10.127000	26.189704	0.000162	20.699126
1835.486622	-2.986900	3.384300	-10.108000	26.185602	0.000163	20.721558
1836.486137	-2.984100	3.385600	-10.102000	26.175996	0.000164	20.734192
1837.486586	-3.007000	3.383600	-10.173000	26.150938	0.000164	20.727979
1838.485365	-2.979700	3.385000	-10.085000	26.115451	0.000160	20.715553
1839.488120	-3.007300	3.382600	-10.171000	26.157762	0.000160	20.713023
1840.486307	-2.982200	3.384500	-10.092000	26.175317	0.000162	20.718336
1841.488655	-2.987800	3.382700	-10.106000	26.188058	0.000163	20.723552
1842.487878	-3.008800	3.383700	-10.180000	26.133937	0.000160	20.712791
1843.488108	-3.016800	3.382300	-10.202000	26.158874	0.000160	20.719831
1844.486702	-2.996300	3.382900	-10.135000	26.131674	0.000160	20.690127
1845.491636	-3.003500	3.381500	-10.155000	26.125395	0.000160	20.705630
1846.488257	-2.997000	3.382100	-10.134000	26.143351	0.000159	20.723199
1847.486583	-3.005700	3.382100	-10.165000	26.187369	0.000160	20.730447
1848.492641	-3.005900	3.381100	-10.162000	26.172486	0.000159	20.734458
1849.488296	-2.999400	3.381100	-10.141000	26.171966	0.000159	20.704536
1850.489547	-2.974700	3.380500	-10.055000	26.197422	0.000157	20.704038
1851.493274	-3.009600	3.379700	-10.170000	26.204438	0.000157	20.720572
1852.490175	-3.000900	3.379200	-10.140000	26.199296	0.000157	20.713034
1853.491496	-3.018200	3.379000	-10.198000	26.164027	0.000156	20.737338
1854.491927	-2.984200	3.380000	-10.086000	26.176030	0.000157	20.721898
1855.489998	-2.983100	3.378400	-10.077000	26.210766	0.000158	20.736414
1856.494647	-3.007400	3.378100	-10.159000	26.185516	0.000158	20.739491
1857.490708	-2.991400	3.377500	-10.103000	26.159587	0.000157	20.716280
1858.491470	-3.007600	3.377700	-10.158000	26.164486	0.000156	20.731160
1859.491019	-2.960200	3.378700	-10.001000	26.173355	0.000156	20.727744
1860.492660	-2.994400	3.377200	-10.112000	26.176089	0.000155	20.746140
1861.493650	-3.000500	3.376300	-10.130000	26.178776	0.000154	20.740305
1862.490699	-2.992100	3.376600	-10.102000	26.230184	0.000154	20.727478
1863.491990	-2.985700	3.375300	-10.077000	26.280267	0.000155	20.735134
1864.491096	-2.998400	3.376100	-10.122000	26.293791	0.000156	20.733079
1865.492156	-3.001800	3.375300	-10.131000	26.294119	0.000153	20.732933
1866.489651	-2.984700	3.375500	-10.074000	26.329212	0.000153	20.731691
1867.493584	-3.030500	3.374200	-10.225000	26.300215	0.000152	20.749017
1868.492953	-3.000600	3.374100	-10.123000	26.286374	0.000154	20.737004
1869.492361	-3.006100	3.373700	-10.141000	26.312795	0.000152	20.762135
1870.492662	-2.997300	3.373400	-10.110000	26.308573	0.000154	20.746038
1871.495897	-3.003900	3.374700	-10.136000	26.367196	0.000154	20.717234
1872.495397	-2.994000	3.373600	-10.100000	26.392369	0.000152	20.750596
1873.492218	-3.008600	3.372000	-10.145000	26.382714	0.000150	20.738047
1874.492575	-3.008100	3.372200	-10.143000	26.382159	0.000153	20.722315
1875.493733	-2.999000	3.373600	-10.116000	26.342577	0.000152	20.732322
1876.493700	-2.996500	3.373300	-10.107000	26.297743	0.000151	20.725670
1877.495453	-3.009000	3.372700	-10.147000	26.299799	0.000150	20.753816
1878.493193	-3.004000	3.370600	-10.125000	26.327962	0.000151	20.739445
1879.493042	-2.992500	3.371200	-10.087000	26.333115	0.000152	20.735614
1880.502221	-2.995900	3.371400	-10.100000	26.357176	0.000148	20.733717
1881.493030	-2.990500	3.369700	-10.076000	26.318864	0.000150	20.744526
1882.498092	-2.983500	3.370400	-10.055000	26.250303	0.000148	20.770457
1883.494278	-3.023000	3.368600	-10.182000	26.229738	0.000150	20.734143
1884.495035	-3.002500	3.370500	-10.119000	26.212339	0.000148	20.767394
1885.495335	-2.992200	3.369200	-10.081000	26.198921	0.000148	20.751539
1886.497292	-3.018300	3.367600	-10.164000	26.196634	0.000146	20.752560
1887.497195	-3.001900	3.369000	-10.112000	26.155812	0.000149	20.736670
1888.499633	-2.991200	3.368100	-10.073000	26.184583	0.000146	20.750408
1889.496289	-3.011100	3.368200	-10.141000	26.164606	0.000146	20.744559
1890.500225	-2.984200	3.369600	-10.055000	26.176609	0.000147	20.758517
1891.498619	-3.002100	3.367400	-10.108000	26.208623	0.000146	20.762712
1892.498004	-2.992700	3.367300	-10.076000	26.265375	0.000145	20.766163
1893.499707	-2.987200	3.368000	-10.060000	26.271461	0.000146	20.763269
1894.498847	-2.979000	3.366900	-10.028000	26.308080	0.000146	20.756448
1895.498291	-3.022100	3.365600	-10.169000	26.314430	0.000143	20.748605
1896.497836	-2.991800	3.366700	-10.071000	26.367585	0.000144	20.774526
1897.501929	-2.984400	3.365400	-10.043000	26.349416	0.000145	20.760532
1898.500448	-3.011300	3.364600	-10.131000	26.351579	0.000142	20.753697
1899.499924	-2.984000	3.366600	-10.046000	26.356382	0.000144	20.762319
1900.501682	-3.009000	3.363600	-10.119000	26.357482	0.000144	20.769587
1901.504313	-2.995800	3.365200	-10.081000	26.362368	0.000144	20.762645
1902.502698	-3.005400	3.363700	-10.108000	26.292529	0.000141	20.763105
1903.502854	-2.980500	3.362900	-10.022000	26.262853	0.000143	20.755567
1904.503758	-3.024000	3.361900	-10.166000	26.277273	0.000141	20.764369
1905.501871	-2.990900	3.364400	-10.062000	26.256730	0.000142	20.750362
1906.507105	-3.005900	3.362400	-10.107000	26.248006	0.000143	20.756295
1907.506770	-2.993500	3.362300	-10.063000	26.252446	0.000140	20.769291
1908.502896	-2.986100	3.362600	-10.040000	26.296566	0.000141	20.774749
1909.505568	-2.988700	3.362300	-10.048000	26.292379	0.000139	20.748255
1910.506409	-3.018800	3.361300	-10.146000	26.246140	0.000138	20.771964
1911.506182	-2.993100	3.361100	-10.059000	26.307185	0.000140	20.770248
1912.515277	-3.000300	3.359900	-10.080000	26.361647	0.000138	20.748643
1913.508435	-3.007900	3.360900	-10.109000	26.362977	0.000138	20.758515
1914.511271	-3.000400	3.360300	-10.081000	26.365360	0.000139	20.762806
1915.506961	-3.014900	3.359400	-10.128000	26.386759	0.000138	20.771511
1916.507730	-3.003900	3.359300	-10.090000	26.391911	0.000138	20.767680
1917.508391	-3.042600	3.358100	-10.217000	26.358015	0.000138	20.787194
1918.507468	-3.010700	3.358800	-10.111000	26.335538	0.000139	20.798269
1919.506934	-2.992700	3.359900	-10.055000	26.363894	0.000138	20.767971
1920.509473	-2.995300	3.359600	-10.062000	26.395187	0.000137	20.774292
1921.509706	-3.026000	3.358300	-10.161000	26.418206	0.000135	20.786049
1922.512213	-2.998200	3.358600	-10.069000	26.377125	0.000136	20.785063
1923.512426	-3.018700	3.356100	-10.129000	26.430070	0.000137	20.770946
1924.506163	-3.005600	3.357300	-10.089000	26.432962	0.000137	20.772904
1925.509712	-2.990300	3.356700	-10.036000	26.446581	0.000135	20.753876
1926.508862	-2.998400	3.356500	-10.063000	26.434423	0.000137	20.793813
1927.507927	-3.000900	3.355800	-10.069000	26.445783	0.000134	20.804756
1928.507410	-2.984000	3.355800	-10.012000	26.399200	0.000133	20.803455
1929.506766	-2.988800	3.356000	-10.030000	26.457697	0.000132	20.786386
1930.509191	-3.003000	3.354600	-10.073000	26.423088	0.000133	20.790481
1931.505766	-2.979500	3.355400	-9.996700	26.380350	0.000133	20.770286
1932.506340	-3.016700	3.353500	-10.116000	26.363656	0.000133	20.783854
1933.508440	-3.032600	3.353300	-10.168000	26.401108	0.000133	20.796365
1934.510322	-3.004900	3.354400	-10.079000	26.405437	0.000132	20.789810
1935.513027	-2.981800	3.352700	-9.995600	26.430427	0.000131	20.787900
1936.507593	-2.990700	3.353500	-10.029000	26.440503	0.000129	20.783328
1937.508238	-2.987500	3.355000	-10.022000	26.404674	0.000129	20.790465
1938.507169	-2.988400	3.352400	-10.017000	26.382560	0.000132	20.804275
1939.508296	-2.988000	3.353200	-10.019000	26.382849	0.000131	20.789393
1940.509065	-2.981000	3.352600	-9.993100	26.410442	0.000129	20.788202
1941.513659	-3.002500	3.351100	-10.061000	26.427956	0.000130	20.797745
1942.509779	-3.000200	3.349900	-10.050000	26.458293	0.000130	20.790778
1943.509727	-2.995900	3.351300	-10.039000	26.459405	0.000128	20.785732
1944.512734	-2.989100	3.350800	-10.014000	26.482555	0.000130	20.792879
1945.509591	-2.995500	3.350700	-10.036000	26.440715	0.000132	20.795396
1946.513923	-2.987900	3.350900	-10.011000	26.489993	0.000129	20.793717
1947.509246	-3.000100	3.349000	-10.047000	26.531322	0.000129	20.812026
1948.510666	-3.010600	3.349300	-10.083000	26.542340	0.000127	20.795126
1949.510371	-3.010300	3.348800	-10.080000	26.511545	0.000127	20.793569
1950.510327	-3.024700	3.348000	-10.125000	26.429233	0.000127	20.805192
1951.512843	-3.025600	3.347600	-10.127000	26.417463	0.000125	20.817544
1952.511615	-3.037000	3.347400	-10.165000	26.423111	0.000126	20.801883
1953.510028	-3.029300	3.347400	-10.139000	26.449237	0.000126	20.798745
1954.509815	-3.006900	3.347900	-10.065000	26.448971	0.000126	20.781409
1955.511679	-3.019000	3.347700	-10.106000	26.439462	0.000125	20.800774
1956.514769	-2.979000	3.347600	-9.971500	26.454244	0.000126	20.814683
1957.516219	-2.978800	3.346700	-9.967100	26.480865	0.000125	20.807302
1958.514661	-2.971300	3.346100	-9.941600	26.486512	0.000124	20.805392
1959.514243	-3.010000	3.345400	-10.069000	26.462140	0.000125	20.811240
1960.515517	-2.980900	3.345500	-9.971500	26.489439	0.000121	20.806911
1961.516010	-2.982400	3.346300	-9.978700	26.447889	0.000122	20.804503
1962.517128	-3.019100	3.343800	-10.095000	26.407016	0.000123	20.791396
1963.515983	-2.987200	3.345100	-9.991600	26.478624	0.000121	20.810740
1964.517698	-2.969100	3.345100	-9.930200	26.486909	0.000122	20.824282
1965.518972	-2.996400	3.344900	-10.022000	26.460661	0.000124	20.800271
1966.517150	-2.996900	3.344000	-10.021000	26.482082	0.000121	20.824646
1967.521901	-2.976600	3.344000	-9.952600	26.499051	0.000119	20.815624
1968.521584	-2.982600	3.343000	-9.969600	26.517727	0.000121	20.794093
1969.519065	-2.997200	3.343200	-10.019000	26.544963	0.000122	20.815307
1970.519098	-3.001200	3.341700	-10.027000	26.593330	0.000121	20.802760
1971.520324	-2.997000	3.342000	-10.015000	26.631873	0.000120	20.805945
1972.519806	-2.985600	3.341800	-9.976200	26.613912	0.000119	20.797847
1973.522228	-3.016400	3.341900	-10.078000	26.581160	0.000120	20.783889
1974.518621	-2.994300	3.341000	-10.003000	26.555568	0.000119	20.788035
1975.520358	-2.996800	3.341100	-10.012000	26.526527	0.000119	20.796301
1976.521819	-3.035700	3.339900	-10.138000	26.520357	0.000119	20.798160
1977.518719	-2.984800	3.340800	-9.970600	26.491668	0.000118	20.796823
1978.522814	-3.008100	3.340900	-10.049000	26.523611	0.000119	20.796215
1979.519581	-2.997800	3.338400	-10.006000	26.530976	0.000118	20.769479
1980.522371	-2.992700	3.340500	-9.996000	26.583600	0.000118	20.792979
1981.524028	-2.986500	3.340400	-9.975300	26.607085	0.000119	20.794303
1982.521299	-3.006300	3.338900	-10.037000	26.582485	0.000116	20.790911
1983.520033	-2.991700	3.339900	-9.991500	26.620303	0.000117	20.794314
1984.521828	-2.996900	3.337500	-10.001000	26.573775	0.000115	20.783104
1985.519641	-3.007900	3.336900	-10.035000	26.533172	0.000115	20.791127
1986.520584	-3.004400	3.339100	-10.030000	26.527088	0.000114	20.792124
1987.524670	-3.014500	3.337000	-10.058000	26.530994	0.000118	20.772341
1988.520921	-3.000900	3.337900	-10.016000	26.534210	0.000115	20.803550
1989.527521	-3.002900	3.335800	-10.016000	26.512680	0.000112	20.789495
1990.522871	-2.993500	3.336500	-9.986500	26.518279	0.000114	20.801287
1991.524006	-2.990900	3.335000	-9.973200	26.510901	0.000114	20.780120
1992.523812	-3.013100	3.335600	-10.049000	26.557042	0.000113	20.789043
1993.525807	-3.000800	3.335500	-10.009000	26.612870	0.000115	20.784471
1994.526232	-3.003600	3.335000	-10.016000	26.604246	0.000115	20.796190
1995.525585	-3.005600	3.333600	-10.018000	26.567393	0.000114	20.790439
1996.526144	-3.002000	3.333600	-10.007000	26.602129	0.000114	20.775570
1997.527915	-3.012700	3.333000	-10.041000	26.633560	0.000114	20.776821
1998.524130	-3.013900	3.332900	-10.044000	26.672635	0.000112	20.769161
1999.529014	-3.013200	3.332400	-10.040000	26.653876	0.000115	20.784442
2000.526420	-2.997900	3.332100	-9.988600	26.607109	0.000113	20.756868
2001.526158	-3.007700	3.333200	-10.024000	26.590927	0.000113	20.775689
2002.525296	-3.006300	3.332300	-10.017000	26.645748	0.000111	20.784806
2003.526984	-3.022700	3.331400	-10.069000	26.695210	0.000112	20.792331
2004.527253	-3.007200	3.331600	-10.018000	26.716179	0.000109	20.775954
2005.531801	-3.013700	3.330600	-10.037000	26.677663	0.000110	20.771371
2006.527014	-2.991400	3.331400	-9.965100	26.622527	0.000108	20.793231
2007.527629	-3.024400	3.329000	-10.066000	26.595230	0.000110	20.789497
2008.526612	-3.002000	3.329500	-9.994900	26.588505	0.000107	20.763771
2009.526301	-3.025100	3.328200	-10.067000	26.596076	0.000110	20.773279
2010.535615	-3.004400	3.329200	-10.002000	26.635997	0.000109	20.762675
2011.528234	-3.000300	3.328700	-9.986500	26.656351	0.000109	20.754213
2012.529462	-2.984900	3.328500	-9.934100	26.678457	0.000106	20.776437
2013.526880	-2.991800	3.328500	-9.957300	26.651683	0.000109	20.777021
2014.528264	-2.986900	3.328100	-9.939500	26.642127	0.000103	20.766941
2015.527787	-2.987400	3.326900	-9.937400	26.607223	0.000105	20.770260
2016.528944	-3.001700	3.327800	-9.987600	26.599615	0.000105	20.764508
2017.526947	-2.981600	3.328100	-9.921900	26.578885	0.000106	20.755523
2018.527695	-2.988200	3.327600	-9.942400	26.660133	0.000104	20.773189
2019.527451	-3.011100	3.326200	-10.014000	26.679530	0.000103	20.768981
2020.529070	-3.004300	3.326400	-9.993000	26.724263	0.000103	20.763692
2021.528927	-3.015100	3.324700	-10.024000	26.708094	0.000103	20.779205
2022.530124	-3.034200	3.324500	-10.086000	26.732557	0.000102	20.768238
2023.531484	-3.007400	3.325500	-10.000000	26.713547	0.000101	20.763350
2024.529915	-2.970800	3.325500	-9.877000	26.702528	0.000101	20.768868
2025.534929	-2.987700	3.326500	-9.937200	26.713159	0.000103	20.764857
2026.532550	-2.977200	3.325300	-9.899500	26.675342	9.796768E-5	20.772357
2027.529991	-3.012100	3.324700	-10.013000	26.640223	0.000101	20.756017
2028.533846	-2.968300	3.324200	-9.866000	26.686868	9.955180E-5	20.750279
2029.536254	-2.973800	3.324800	-9.886000	26.675948	9.968381E-5	20.754948
2030.533293	-2.999800	3.323200	-9.968000	26.664530	9.611955E-5	20.769074
2031.537208	-3.011400	3.323300	-10.006000	26.704885	9.803369E-5	20.757486
2032.535128	-2.976000	3.322900	-9.887800	26.698729	9.945279E-5	20.739444
2033.535443	-2.991500	3.322000	-9.936800	26.698415	9.816570E-5	20.749086
2034.536684	-2.964400	3.322500	-9.848400	26.697556	9.895776E-5	20.753911
2035.534608	-2.988500	3.322200	-9.927100	26.645602	9.757165E-5	20.761900
2036.540535	-2.994700	3.321200	-9.945500	26.648309	9.717563E-5	20.762725
2037.535126	-3.012200	3.319700	-9.999200	26.673272	9.826471E-5	20.752257
2038.535651	-3.002500	3.319400	-9.965500	26.691797	9.658158E-5	20.764718
2039.538483	-2.980800	3.320600	-9.896500	26.772675	9.463444E-5	20.732706
2040.535970	-2.984100	3.319700	-9.906100	26.768152	9.727463E-5	20.767041
2041.538156	-2.980800	3.319700	-9.895000	26.742854	9.806669E-5	20.739234
2042.537297	-2.990700	3.319000	-9.925400	26.708509	9.691161E-5	20.752595
2043.538359	-3.020700	3.317800	-10.021000	26.690889	9.743965E-5	20.754322
2044.538444	-2.987100	3.317700	-9.909300	26.719780	9.641657E-5	20.746382
2045.538407	-3.017600	3.317200	-10.009000	26.725136	9.628456E-5	20.760777
2046.538507	-3.004200	3.318000	-9.967200	26.731849	9.598754E-5	20.734334
2047.540894	-2.996700	3.317400	-9.940900	26.777558	9.512948E-5	20.747099
2048.540583	-3.017200	3.317000	-10.007000	26.836988	9.446943E-5	20.742843
2049.544252	-3.012100	3.316200	-9.987200	26.892005	9.552551E-5	20.744109
2050.549146	-3.020900	3.315900	-10.016000	26.876817	9.440342E-5	20.746380
2051.541351	-3.016100	3.315100	-9.997600	26.791861	9.341335E-5	20.748204
2052.544758	-3.002200	3.315600	-9.953300	26.759937	9.103718E-5	20.738392
2053.541050	-3.010700	3.315500	-9.981300	26.744955	9.420541E-5	20.756047
2054.541909	-2.996300	3.315400	-9.933200	26.752464	9.493146E-5	20.750793
2055.541676	-2.977100	3.314800	-9.867300	26.754013	9.248928E-5	20.757566
2056.541386	-2.998800	3.314600	-9.939300	26.785222	9.361137E-5	20.760021
2057.545607	-3.013200	3.313800	-9.984200	26.867445	9.397439E-5	20.751656
2058.543254	-2.980600	3.314800	-9.879400	26.807955	9.159822E-5	20.742100
2059.545434	-3.006000	3.312400	-9.955600	26.869549	8.951907E-5	20.731959
2060.544007	-2.989100	3.312100	-9.899100	26.863067	9.087217E-5	20.730658
2061.544886	-2.990600	3.313000	-9.906500	26.852500	8.928805E-5	20.759388
2062.543764	-2.995700	3.312400	-9.922000	26.815983	8.740691E-5	20.728834
2063.546840	-2.997800	3.312100	-9.928400	26.858497	8.892502E-5	20.741235
2064.546800	-3.000200	3.311000	-9.932400	26.802355	8.932105E-5	20.745004
2065.545804	-2.992800	3.311300	-9.909300	26.823346	8.724190E-5	20.713003
2066.548058	-2.991100	3.310100	-9.899100	26.796597	8.869401E-5	20.748225
2067.545545	-3.058300	3.308600	-10.117000	26.831339	8.740691E-5	20.739059
2068.548323	-2.987200	3.311500	-9.891500	26.835449	8.813297E-5	20.732286
2069.547324	-2.995900	3.311400	-9.920200	26.855097	8.760493E-5	20.741136
2070.551626	-3.001500	3.310100	-9.934800	26.837432	8.582280E-5	20.732857
2071.546536	-3.005900	3.309500	-9.946000	26.778059	8.608682E-5	20.736697
2072.547028	-3.024600	3.308400	-10.005000	26.764395	8.575679E-5	20.738607
2073.547434	-3.002300	3.308300	-9.931700	26.724780	8.347963E-5	20.724855
2074.551754	-3.024900	3.308700	-10.007000	26.714766	8.674686E-5	20.720003
2075.547964	-3.032600	3.308400	-10.031000	26.730849	8.407367E-5	20.741390
2076.548975	-3.005500	3.306800	-9.938200	26.760489	8.559178E-5	20.728040
2077.554616	-2.976700	3.307400	-9.844700	26.804226	8.542677E-5	20.722229
2078.549700	-2.993600	3.305800	-9.894800	26.877452	8.331461E-5	20.721887
2079.553576	-2.989500	3.306600	-9.884300	26.955981	8.377665E-5	20.732101
2080.550720	-2.977900	3.306300	-9.845100	26.980221	8.413967E-5	20.722811
2081.552538	-3.012800	3.305200	-9.956900	26.992250	8.235754E-5	20.730641
2082.551617	-2.984700	3.305600	-9.864900	26.996119	8.229154E-5	20.728367
2083.551275	-2.999500	3.305900	-9.915000	26.959365	8.120246E-5	20.734081
2084.552034	-3.019400	3.303100	-9.972600	26.927942	8.050941E-5	20.726190
2085.549639	-3.010900	3.304800	-9.949600	26.903845	8.123546E-5	20.724719
2086.551259	-2.983700	3.305100	-9.860500	26.831624	7.958534E-5	20.739820
2087.554440	-2.997900	3.304500	-9.906000	26.863123	8.120246E-5	20.733084
2088.552410	-2.981300	3.303400	-9.847800	26.892092	7.882628E-5	20.724755
2089.561294	-2.984300	3.303000	-9.856200	26.916564	8.311660E-5	20.723283
2090.552441	-3.005700	3.301400	-9.921200	26.904449	8.054241E-5	20.736232
2091.553826	-2.987400	3.302400	-9.864500	26.892974	8.057541E-5	20.728012
2092.552158	-3.014600	3.301800	-9.952600	26.898439	7.872728E-5	20.703635
2093.556103	-2.981500	3.301100	-9.841300	26.916974	8.103745E-5	20.718480
2094.552835	-3.016200	3.301300	-9.956100	26.932305	7.968435E-5	20.728206
2095.558431	-2.996700	3.299700	-9.887300	26.955760	7.783621E-5	20.714808
2096.555559	-2.998400	3.299500	-9.892200	27.031817	7.922231E-5	20.726334
2097.553256	-2.995900	3.299400	-9.883200	27.047049	7.618609E-5	20.716996
2098.557783	-2.989200	3.300300	-9.864100	27.024563	7.829825E-5	20.710503
2099.553901	-3.011100	3.301000	-9.939000	27.030874	7.638411E-5	20.723963
2100.559249	-3.018300	3.298100	-9.953800	27.033376	7.734118E-5	20.715099
2101.559081	-3.015500	3.298300	-9.945500	27.033775	7.522902E-5	20.723087
2102.554660	-3.008300	3.297600	-9.919300	27.074020	7.674713E-5	20.695280
2103.555718	-3.006200	3.298100	-9.913800	27.041984	7.380992E-5	20.732291
2104.554489	-3.003100	3.297400	-9.900700	27.076509	7.499800E-5	20.713906
2105.557618	-2.996600	3.297000	-9.878800	27.128707	7.460198E-5	20.719462
2106.553989	-3.003900	3.296200	-9.900500	27.145896	7.612009E-5	20.722525
2107.553983	-3.012100	3.296300	-9.927200	27.122699	7.588907E-5	20.718635
2108.557581	-3.012800	3.296100	-9.929900	27.117925	7.466798E-5	20.709566
2109.554917	-3.029700	3.295300	-9.982700	27.086434	7.225880E-5	20.718672
2110.556890	-3.021900	3.294100	-9.953200	27.032153	7.390893E-5	20.719559
2111.557679	-2.989800	3.295600	-9.852200	27.030291	7.083970E-5	20.713419
2112.554557	-2.996300	3.295200	-9.872800	26.991990	7.229181E-5	20.732276
2113.557351	-3.003200	3.293400	-9.889900	26.982271	7.113672E-5	20.714440
2114.557611	-3.020100	3.293600	-9.945900	27.047385	7.371091E-5	20.705479
2115.557783	-3.015300	3.294100	-9.931400	27.076375	7.077370E-5	20.722307
2116.560547	-3.024900	3.292400	-9.958500	27.143297	7.083970E-5	20.728447
2117.558256	-2.980300	3.293700	-9.815000	27.118818	6.928859E-5	20.708093
2118.561015	-2.983800	3.291500	-9.820400	27.055582	7.014665E-5	20.703765
2119.559555	-3.005700	3.291700	-9.892100	27.058677	7.173077E-5	20.700239
2120.557982	-2.974600	3.293100	-9.794500	27.062558	7.034466E-5	20.701771
2121.561012	-2.998700	3.290500	-9.865500	27.056030	7.077370E-5	20.711802
2122.562144	-3.021100	3.291100	-9.942000	27.068650	6.968462E-5	20.696518
2123.559145	-3.007600	3.290700	-9.896300	27.030714	6.773747E-5	20.716690
2124.561452	-2.990100	3.291000	-9.839500	27.051411	6.935459E-5	20.690561
2125.562232	-2.986400	3.291500	-9.829000	27.034316	6.892556E-5	20.693283
2126.561306	-2.994100	3.290500	-9.851500	26.987407	6.882655E-5	20.687835
2127.565281	-3.020100	3.288300	-9.929900	27.013583	6.866154E-5	20.707996
2128.561206	-2.993100	3.290000	-9.846300	26.998447	6.724244E-5	20.693721
2129.562211	-3.001800	3.288400	-9.870600	27.031583	6.816650E-5	20.707131
2130.561677	-2.995700	3.288100	-9.848400	27.044929	6.631837E-5	20.694474
2131.561391	-3.006800	3.289000	-9.888400	27.079746	6.918958E-5	20.689659
2132.563327	-3.013700	3.287000	-9.905100	27.117765	6.869454E-5	20.693757
2133.563212	-3.019200	3.286400	-9.921400	27.154935	6.526229E-5	20.700795
2134.562221	-3.004600	3.287400	-9.876900	27.170698	6.427222E-5	20.699105
2135.565817	-2.989100	3.286800	-9.823700	27.192999	6.466825E-5	20.703045
2136.565262	-3.001500	3.285800	-9.861700	27.219109	6.661539E-5	20.676673
2137.566643	-2.988400	3.286300	-9.819500	27.197435	6.635137E-5	20.677158
2138.562362	-2.989600	3.285300	-9.821200	27.157123	6.301813E-5	20.694461
2139.564498	-2.991400	3.285200	-9.826000	27.069324	6.503128E-5	20.692454
2140.568353	-3.007300	3.285200	-9.877700	27.035388	6.503128E-5	20.689146
2141.565869	-2.980800	3.285300	-9.791200	27.004827	6.390919E-5	20.705828
2142.568383	-2.977900	3.284400	-9.779700	27.020858	6.239108E-5	20.704880
2143.567140	-2.977900	3.284300	-9.779300	27.057706	6.344716E-5	20.693572
2144.563527	-2.982500	3.284600	-9.795500	27.106979	6.295212E-5	20.700453
2145.567776	-2.992000	3.284000	-9.824200	27.081858	6.351316E-5	20.687516
2146.569390	-2.979500	3.283400	-9.782300	27.144392	6.351316E-5	20.692562
2147.566272	-3.011800	3.281600	-9.882800	27.144006	6.212706E-5	20.675102
2148.571201	-2.997900	3.280500	-9.833700	27.120204	6.278711E-5	20.665861
2149.596527	-3.010000	3.281700	-9.877000	27.141987	6.225907E-5	20.674494
2150.566758	-2.992800	3.280800	-9.817100	27.149929	5.984990E-5	20.700976
2151.569298	-2.982400	3.281100	-9.785400	27.107861	5.935486E-5	20.697547
2152.568496	-2.986400	3.280900	-9.796700	27.148054	6.050994E-5	20.677752
2153.571291	-2.976200	3.281100	-9.763900	27.213183	6.014692E-5	20.688257
2154.567654	-2.974000	3.281900	-9.758900	27.209436	6.146701E-5	20.692549
2155.567747	-3.003700	3.278400	-9.847200	27.181973	6.060895E-5	20.696695
2156.568260	-2.989300	3.279800	-9.802900	27.221826	5.879382E-5	20.685570
2157.568642	-2.983000	3.279400	-9.781300	27.191377	6.077396E-5	20.687661
2158.568709	-2.993700	3.278700	-9.813800	27.157882	5.773774E-5	20.694750
2159.575214	-2.998600	3.276900	-9.824600	27.152418	6.103798E-5	20.687831
2160.569395	-3.000700	3.277100	-9.831800	27.123371	5.810077E-5	20.687540
2161.568422	-3.007300	3.275900	-9.850600	27.159128	5.856280E-5	20.699796
2162.577790	-3.029900	3.274600	-9.920500	27.162500	5.744072E-5	20.681850
2163.569840	-2.992400	3.276900	-9.804700	27.095820	5.707769E-5	20.690178
2164.572949	-3.007000	3.275500	-9.848500	27.105250	5.965188E-5	20.683539
2165.567416	-3.018800	3.275200	-9.885300	27.129861	5.694568E-5	20.705449
2166.569153	-3.016000	3.273900	-9.873300	27.139871	5.674767E-5	20.677108
2167.568759	-2.988000	3.274800	-9.784800	27.162112	5.443750E-5	20.684305
2168.569823	-3.015400	3.275700	-9.877100	27.145612	5.592261E-5	20.687624
2169.572639	-3.007500	3.275400	-9.850000	27.111668	5.509755E-5	20.694737
2170.570584	-3.014600	3.271700	-9.861400	27.135964	5.519655E-5	20.674600
2171.570289	-2.986700	3.272900	-9.773800	27.131745	5.420648E-5	20.679841
2172.569026	-2.980400	3.272900	-9.753700	27.118376	5.384346E-5	20.675877
2173.571425	-2.991600	3.272400	-9.789200	27.149007	5.433849E-5	20.681081
2174.571014	-2.996400	3.271300	-9.801800	27.153818	5.414048E-5	20.693507
2175.571556	-3.002300	3.271600	-9.820700	27.142635	5.318341E-5	20.673249
2176.571924	-2.999400	3.271600	-9.811700	27.196027	5.192932E-5	20.675267
2177.574027	-2.997500	3.270700	-9.802200	27.204464	5.212733E-5	20.696557
2178.575012	-3.003400	3.269900	-9.819900	27.222498	5.308440E-5	20.686721
2179.574555	-3.010400	3.269300	-9.841400	27.263255	5.291939E-5	20.691681
2180.575178	-3.029000	3.270000	-9.903500	27.223693	5.084024E-5	20.673697
2181.572942	-3.007700	3.269600	-9.833400	27.203701	4.932212E-5	20.672080
2182.572895	-2.995300	3.269500	-9.792400	27.229966	5.067522E-5	20.688543
2183.573551	-2.991400	3.268200	-9.775700	27.239298	4.902510E-5	20.659045
2184.575474	-2.983700	3.268500	-9.751600	27.251287	4.902510E-5	20.683435
2185.577949	-3.005300	3.267500	-9.819100	27.286689	5.117026E-5	20.688700
2186.575727	-2.993500	3.267000	-9.778700	27.260605	4.767200E-5	20.677635
2187.575636	-2.981300	3.266800	-9.737800	27.181179	5.077423E-5	20.671238
2188.580586	-3.012700	3.267100	-9.842000	27.180309	4.948714E-5	20.702134
2189.577111	-2.999000	3.266100	-9.793400	27.238739	4.724297E-5	20.696420
2190.582161	-2.991300	3.266300	-9.769400	27.257860	4.948714E-5	20.676296
2191.576798	-2.989300	3.266100	-9.761600	27.266187	4.691295E-5	20.695580
2192.580139	-2.991300	3.264500	-9.764000	27.268581	4.945413E-5	20.690401
2193.577989	-3.020600	3.264000	-9.858400	27.268279	4.853007E-5	20.682509
2194.583220	-2.999900	3.262900	-9.787800	27.269246	4.886009E-5	20.686327
2195.581207	-3.006400	3.262800	-9.808400	27.297987	4.783702E-5	20.699592
2196.579786	-3.004800	3.262400	-9.802400	27.370562	4.704496E-5	20.676817
2197.580871	-3.008700	3.261800	-9.813000	27.317227	4.760600E-5	20.709464
2198.580379	-3.007000	3.262900	-9.810800	27.332890	4.608789E-5	20.672111
2199.581463	-3.012700	3.260600	-9.822400	27.284352	4.516382E-5	20.690143
2200.580387	-3.002200	3.261200	-9.789200	27.271891	4.612089E-5	20.704636
2201.583654	-2.988600	3.261900	-9.747000	27.276072	4.687994E-5	20.697936
2202.581662	-2.994900	3.260600	-9.764500	27.311751	4.628590E-5	20.695893
2203.580611	-2.987600	3.259800	-9.738400	27.316695	4.711096E-5	20.684270
2204.581689	-2.984800	3.262200	-9.734900	27.369642	4.588987E-5	20.687272
2205.584440	-2.989800	3.259600	-9.744400	27.433681	4.800203E-5	20.680572
2206.585814	-2.980200	3.259500	-9.713500	27.421571	4.598888E-5	20.678821
2207.583694	-3.007900	3.259300	-9.802400	27.376408	4.588987E-5	20.691234
2208.586559	-3.008400	3.259500	-9.805200	27.374619	4.470179E-5	20.697021
2209.584723	-3.006400	3.256700	-9.790300	27.280940	4.397573E-5	20.697617
2210.585064	-3.019500	3.256600	-9.831500	27.224711	4.328268E-5	20.685153
2211.588202	-3.003300	3.258100	-9.784500	27.293764	4.582387E-5	20.701508
2212.588749	-2.993600	3.257800	-9.751600	27.351050	4.414074E-5	20.688484
2213.586305	-3.018900	3.255700	-9.827800	27.361130	4.400873E-5	20.696728
2214.585741	-3.010500	3.254500	-9.796400	27.337296	4.298566E-5	20.688398
2215.584748	-3.013900	3.253900	-9.805900	27.300035	4.423975E-5	20.688374
2216.583249	-2.997400	3.254200	-9.752500	27.270761	4.186358E-5	20.690222
2217.587582	-3.007200	3.254400	-9.785400	27.305110	4.163256E-5	20.693480
2218.588017	-2.985400	3.254700	-9.715500	27.376538	4.381072E-5	20.706539
2219.584924	-2.970000	3.254100	-9.663700	27.455634	4.077450E-5	20.695073
2220.588089	-2.978100	3.253600	-9.688900	27.440855	3.971842E-5	20.702016
2221.585173	-3.018800	3.252800	-9.819000	27.404248	4.117053E-5	20.714976
2222.592737	-3.003900	3.252100	-9.768200	27.317728	3.928939E-5	20.685309
2223.586393	-3.001600	3.252200	-9.760500	27.304082	4.159956E-5	20.698611
2224.587414	-2.993200	3.251600	-9.732300	27.331518	4.192958E-5	20.716253
2225.586117	-3.011900	3.251900	-9.793500	27.301809	4.021346E-5	20.713869
2226.587996	-2.995900	3.251000	-9.738200	27.325886	4.183057E-5	20.705371
2227.587563	-2.978600	3.250800	-9.681600	27.334394	3.892636E-5	20.711559
2228.591903	-3.006700	3.250800	-9.772700	27.370966	4.150055E-5	20.692398
2229.588946	-3.011300	3.249700	-9.785700	27.381287	3.988343E-5	20.689504
2230.589560	-3.004100	3.249800	-9.761900	27.399608	3.869534E-5	20.705091
2231.593861	-2.988000	3.248800	-9.706800	27.371933	3.787028E-5	20.705225
2232.587592	-3.009500	3.247000	-9.771100	27.410207	3.998244E-5	20.710064
2233.590481	-3.024500	3.246900	-9.819300	27.462715	3.810130E-5	20.703145
2234.588298	-3.029800	3.246400	-9.834700	27.475211	3.618716E-5	20.714296
2235.594274	-3.027700	3.246100	-9.827400	27.451561	3.641818E-5	20.700933
2236.591322	-3.001900	3.247200	-9.746700	27.494122	3.707823E-5	20.701553
2237.589279	-3.002900	3.244800	-9.743400	27.462921	3.816731E-5	20.700033
2238.592189	-3.003400	3.246000	-9.748000	27.423186	3.744125E-5	20.700836
2239.592284	-2.994900	3.244700	-9.717200	27.440044	3.734225E-5	20.717797
2240.591702	-2.984700	3.245600	-9.686300	27.509843	3.678120E-5	20.707887
2241.592399	-2.982600	3.246700	-9.682500	27.511450	3.750726E-5	20.669672
2242.593314	-2.989400	3.244800	-9.699400	27.536802	3.727624E-5	20.734065
2243.592745	-2.983700	3.243900	-9.677800	27.574877	3.615416E-5	20.711681
2244.594436	-3.004400	3.243200	-9.742500	27.553792	3.707823E-5	20.733140
2245.593516	-2.996900	3.242000	-9.715100	27.535062	3.381099E-5	20.726623
2246.593991	-3.011200	3.243100	-9.764500	27.530229	3.734225E-5	20.716544
2247.600438	-3.007800	3.241500	-9.747900	27.579976	3.579113E-5	20.701637
2248.594872	-2.991000	3.242300	-9.697100	27.638360	3.829932E-5	20.706330
2249.600941	-2.999200	3.241500	-9.721400	27.590803	3.602215E-5	20.707790
2250.597640	-3.005100	3.241800	-9.741300	27.557586	3.433902E-5	20.710878
2251.601587	-3.003900	3.242600	-9.740100	27.564014	3.410801E-5	20.714976
2252.597294	-2.997600	3.241200	-9.714400	27.519703	3.351396E-5	20.706902
2253.598531	-3.017100	3.239600	-9.773800	27.543231	3.572513E-5	20.688373
2254.596925	-2.990100	3.238300	-9.681600	27.577849	3.328295E-5	20.691910
2255.600100	-3.002400	3.238300	-9.722200	27.538505	3.532910E-5	20.716337
2256.599388	-2.992500	3.238600	-9.690900	27.501698	3.427302E-5	20.702063
2257.598965	-3.010500	3.237300	-9.744700	27.508261	3.219387E-5	20.702027
2258.602682	-2.997900	3.238300	-9.706200	27.518326	3.447103E-5	20.704094
2259.601108	-3.006000	3.239100	-9.736600	27.517020	3.400900E-5	20.717479
2260.603979	-3.006000	3.235000	-9.723900	27.526290	3.361297E-5	20.714952
2261.601895	-3.004300	3.235800	-9.719900	27.585777	3.084077E-5	20.705578
2262.602416	-3.015900	3.235700	-9.757100	27.620237	3.186384E-5	20.705164
2263.602363	-3.004900	3.235400	-9.720800	27.603575	3.206186E-5	20.714477
2264.604997	-2.990900	3.234900	-9.674600	27.656799	3.130280E-5	20.674621
2265.609366	-3.000800	3.233300	-9.701600	27.551242	3.047774E-5	20.712556
2266.605413	-2.985900	3.233000	-9.652900	27.529854	3.245789E-5	20.699096
2267.604742	-3.005000	3.232900	-9.714000	27.554892	3.159982E-5	20.719548
2268.607352	-2.989700	3.233800	-9.666900	27.547545	3.130280E-5	20.704568
2269.607589	-2.973000	3.233200	-9.611000	27.533117	3.004871E-5	20.707596
2270.606423	-2.981800	3.233800	-9.641800	27.547944	3.074176E-5	20.731998
2271.605040	-2.999200	3.233000	-9.696100	27.603079	3.156682E-5	20.725359
2272.605898	-2.990300	3.231000	-9.660900	27.629867	2.994970E-5	20.727183
2273.608547	-2.989000	3.230400	-9.655100	27.607176	3.057675E-5	20.706246
2274.608993	-2.997200	3.229900	-9.679300	27.592929	3.037873E-5	20.715620
2275.607474	-3.007100	3.229900	-9.711200	27.590091	2.763953E-5	20.724618
2276.612376	-3.001700	3.229500	-9.692500	27.550856	2.925665E-5	20.719281
2277.609166	-2.992700	3.229000	-9.662400	27.526713	2.803556E-5	20.724861
2278.609158	-2.979900	3.230900	-9.627200	27.540923	2.800256E-5	20.726356
2279.608463	-2.996600	3.227600	-9.670200	27.602367	2.872861E-5	20.714210
2280.609386	-2.972800	3.228200	-9.596000	27.668651	2.806856E-5	20.726855
2281.611612	-2.992000	3.227900	-9.657100	27.734304	2.810157E-5	20.718004
2282.611669	-2.997400	3.226900	-9.671600	27.753561	2.806856E-5	20.745445
2283.611083	-3.006000	3.226900	-9.699100	27.753802	2.803556E-5	20.720556
2284.608471	-2.984900	3.225300	-9.626300	27.712097	2.899263E-5	20.736435
2285.610458	-2.991000	3.224800	-9.643700	27.662850	2.701249E-5	20.731449
2286.607691	-3.007700	3.227100	-9.704300	27.619801	2.559338E-5	20.722270
2287.615026	-2.969200	3.224300	-9.572500	27.577148	2.598941E-5	20.729614
2288.607899	-3.023800	3.223600	-9.745800	27.607150	2.618743E-5	20.734671
2289.608507	-3.009100	3.225000	-9.703800	27.649065	2.490033E-5	20.738441
2290.607642	-2.972000	3.224600	-9.582500	27.702999	2.823358E-5	20.741030
2291.608636	-3.005900	3.223800	-9.689400	27.719974	2.460331E-5	20.731085
2292.608502	-3.001100	3.222800	-9.671000	27.722076	2.308520E-5	20.736045
2293.611396	-2.968500	3.222500	-9.565100	27.642117	2.275517E-5	20.730027
2294.610474	-2.981000	3.223000	-9.606400	27.625057	2.552738E-5	20.720446
2295.612411	-2.999000	3.223200	-9.665500	27.609627	2.394326E-5	20.728154
2296.611969	-2.996700	3.220400	-9.648400	27.646515	2.671546E-5	20.743936
2297.613846	-3.023500	3.221600	-9.739400	27.647616	2.358023E-5	20.741724
2298.613573	-2.978600	3.220700	-9.592100	27.601604	2.460331E-5	20.744739
2299.612189	-2.987700	3.220100	-9.619900	27.630446	2.400927E-5	20.752423
2300.615134	-2.992700	3.219100	-9.633000	27.675187	2.503234E-5	20.706877
2301.618786	-3.004500	3.217500	-9.666500	27.724951	2.410827E-5	20.742258
2302.617890	-2.994100	3.219200	-9.637300	27.759323	2.202912E-5	20.762149
2303.620707	-2.990500	3.217100	-9.619900	27.786674	2.361324E-5	20.745103
2304.618024	-2.983400	3.217100	-9.597600	27.785986	2.331622E-5	20.747256
2305.615150	-3.024400	3.215000	-9.722400	27.700932	2.301919E-5	20.738950
2306.615713	-2.985700	3.217900	-9.606900	27.701333	2.417428E-5	20.736982
2307.616501	-3.006300	3.216800	-9.670000	27.679101	2.315120E-5	20.723145
2308.623299	-3.021700	3.214300	-9.711800	27.711324	2.371224E-5	20.727122
2309.619407	-3.016400	3.214600	-9.695500	27.737250	2.239215E-5	20.766964
2310.616930	-2.973600	3.214200	-9.556900	27.733662	2.206212E-5	20.733006
2311.617379	-2.979700	3.216500	-9.583400	27.718331	2.232614E-5	20.732276
2312.620023	-2.997200	3.213800	-9.632000	27.690482	2.153408E-5	20.736021
2313.618233	-2.988000	3.214100	-9.602900	27.695448	2.107205E-5	20.742915
2314.620363	-3.003400	3.212500	-9.647500	27.734388	2.064302E-5	20.756022
2315.618760	-2.976400	3.212500	-9.560200	27.729700	2.202912E-5	20.759366
2316.619020	-2.994800	3.211100	-9.616200	27.722812	2.021399E-5	20.745796
2317.621809	-2.992600	3.211800	-9.610600	27.730255	1.988396E-5	20.774623
2318.618342	-2.986000	3.211300	-9.588600	27.770655	2.051101E-5	20.742732
2319.624282	-3.004900	3.209000	-9.641200	27.687449	1.859687E-5	20.743401
2320.619648	-2.964200	3.209700	-9.513500	27.651179	1.846486E-5	20.740569
2321.618996	-2.988700	3.211200	-9.596500	27.654163	1.925692E-5	20.745467
2322.619285	-3.018100	3.209000	-9.683900	27.613651	1.859687E-5	20.738368
2323.621298	-3.004600	3.207300	-9.636200	27.687449	1.862987E-5	20.747668
2324.620656	-2.997200	3.207900	-9.613800	27.737467	1.912491E-5	20.747741
2325.622674	-2.973500	3.207900	-9.537600	27.787906	2.024699E-5	20.748714
2326.622391	-2.995300	3.206700	-9.604400	27.794925	1.958694E-5	20.741079
2327.620558	-2.996100	3.205900	-9.604600	27.705100	1.938893E-5	20.757844
2328.621755	-2.997700	3.205300	-9.607300	27.633502	1.856387E-5	20.749334
2329.620937	-2.991600	3.205000	-9.586700	27.678109	1.734278E-5	20.772883
2330.620015	-3.001100	3.203100	-9.610300	27.656289	1.793682E-5	20.745710
2331.620470	-3.028100	3.203400	-9.698700	27.662294	1.671573E-5	20.762185
2332.619016	-3.006300	3.204100	-9.632300	27.687303	1.849786E-5	20.755108
2333.619686	-3.018300	3.203300	-9.667900	27.707154	1.846486E-5	20.758963
2334.619329	-3.006700	3.202900	-9.629600	27.785730	1.734278E-5	20.743679
2335.621046	-2.980700	3.201800	-9.542100	27.813988	1.856387E-5	20.757893
2336.620859	-3.013100	3.201300	-9.644800	27.814796	1.820084E-5	20.750172
2337.621631	-3.008100	3.199800	-9.624700	27.771464	1.763980E-5	20.747340
2338.621529	-3.000500	3.200500	-9.602800	27.742287	1.532963E-5	20.755436
2339.621627	-3.020800	3.199100	-9.662600	27.785428	1.565965E-5	20.760445
2340.620773	-3.014600	3.203100	-9.655000	27.690167	1.536263E-5	20.770318
2341.622041	-3.022200	3.198900	-9.667100	27.729975	1.664973E-5	20.758220
2342.621820	-3.010800	3.197500	-9.626600	27.795480	1.688074E-5	20.764397
2343.620396	-2.992500	3.196800	-9.564300	27.801206	1.618769E-5	20.771108
2344.623067	-3.019600	3.197100	-9.653000	27.855531	1.869588E-5	20.782160
2345.620222	-2.981400	3.196900	-9.529900	27.939797	1.506561E-5	20.756967
2346.622991	-3.026900	3.194900	-9.669500	28.004116	1.579166E-5	20.761016
2347.621797	-3.000500	3.194300	-9.583900	27.954606	1.325048E-5	20.745794
2348.622293	-2.993400	3.195500	-9.564000	27.880669	1.668273E-5	20.753405
2349.621698	-2.981300	3.193900	-9.520700	27.873372	1.334948E-5	20.777831
2350.624227	-2.984400	3.193700	-9.530600	27.853272	1.364650E-5	20.766135
2351.623038	-2.977200	3.192700	-9.504300	27.786515	1.288745E-5	20.761539
2352.625158	-2.992800	3.193100	-9.555800	27.802376	1.694675E-5	20.760432
2353.628428	-2.995800	3.192700	-9.563600	27.759768	1.622069E-5	20.765443
2354.635174	-2.988900	3.192600	-9.541800	27.803294	1.523062E-5	20.771314
2355.626022	-2.989400	3.191800	-9.540200	27.821198	1.328348E-5	20.760882
2356.626913	-2.974500	3.190800	-9.489900	27.881731	1.351449E-5	20.783873
2357.628075	-2.992100	3.189000	-9.541100	27.905685	1.473558E-5	20.763412
2358.626282	-2.986900	3.191500	-9.531600	27.874895	1.410854E-5	20.775570
2359.628181	-2.977200	3.190000	-9.496400	27.871356	1.348149E-5	20.781017
2360.626412	-2.996000	3.188300	-9.551000	27.928962	1.328348E-5	20.756967
2361.628659	-3.010200	3.188200	-9.595800	27.958774	1.529663E-5	20.771327
2362.630803	-3.005800	3.186800	-9.577800	28.020881	1.275544E-5	20.767461
2363.632114	-3.014000	3.186700	-9.604300	28.047187	1.325048E-5	20.777345
2364.629111	-2.987500	3.186700	-9.519400	27.982097	1.249142E-5	20.766828
2365.629441	-2.985300	3.185300	-9.507800	28.026304	1.255742E-5	20.778135
2366.632047	-2.976100	3.186500	-9.481400	28.044035	1.265643E-5	20.787922
2367.629129	-2.984500	3.184600	-9.503300	28.014359	1.265643E-5	20.778913
2368.633506	-3.005700	3.183800	-9.568900	28.002317	1.387752E-5	20.782440
2369.631688	-2.997900	3.184000	-9.544500	28.035797	1.325048E-5	20.767302
2370.629450	-2.996700	3.183100	-9.537800	28.090413	1.328348E-5	20.781503
2371.631025	-2.983500	3.183400	-9.496700	28.094036	1.163336E-5	20.793685
2372.631200	-3.012000	3.180100	-9.576700	28.023176	1.130333E-5	20.787314
2373.633950	-2.986800	3.180400	-9.497900	27.976843	1.077529E-5	20.783351
2374.629316	-2.999800	3.180100	-9.539100	27.970417	9.422193E-6	20.777831
2375.629275	-2.982000	3.179300	-9.479900	27.988112	9.950232E-6	20.786158
2376.631135	-2.974400	3.179600	-9.457000	27.947321	9.785220E-6	20.784930
2377.629473	-2.999300	3.177800	-9.530100	27.902217	7.937084E-6	20.802595
2378.630219	-2.983600	3.179000	-9.483400	27.905116	9.356189E-6	20.786547
2379.631556	-2.991800	3.176900	-9.503500	28.014068	1.061028E-5	20.786681
2380.629759	-2.993200	3.176500	-9.506400	28.087598	8.531128E-6	20.774402
2381.628841	-2.984100	3.175200	-9.473900	28.067173	9.257181E-6	20.804102
2382.633554	-2.991300	3.175400	-9.497700	28.048623	9.158174E-6	20.806766
2383.630016	-3.006800	3.173700	-9.541000	27.996554	8.432121E-6	20.800820
2384.635473	-2.988500	3.174100	-9.485500	27.943781	9.851225E-6	20.791324
2385.631606	-3.022000	3.172100	-9.585000	27.895633	7.574058E-6	20.799288
2386.631288	-3.002100	3.173500	-9.526100	27.894196	8.861152E-6	20.800686
2387.632726	-2.989300	3.171700	-9.480700	27.958264	6.319965E-6	20.791203
2388.634162	-3.009500	3.170000	-9.539100	28.029056	5.692919E-6	20.797975
2389.636446	-2.993000	3.172000	-9.492900	28.073478	9.059167E-6	20.810449
2390.636123	-2.995400	3.169400	-9.492300	28.092560	8.729143E-6	20.768966
2391.635914	-2.995100	3.169800	-9.493300	28.143188	8.102096E-6	20.805233
2392.636632	-2.980300	3.169900	-9.446400	28.181796	5.791926E-6	20.813755
2393.638120	-2.998800	3.168800	-9.502100	28.193027	7.574058E-6	20.807518
2394.636919	-3.002700	3.167000	-9.508600	28.195563	8.960159E-6	20.798218
2395.639413	-3.013700	3.166500	-9.541800	28.232890	3.151732E-6	20.795968
2396.636264	-2.983300	3.167100	-9.447500	28.209620	6.088948E-6	20.813318
2397.636907	-2.992600	3.164000	-9.468300	28.202120	6.715994E-6	20.789646
2398.638759	-2.996400	3.164000	-9.479600	28.238686	6.484977E-6	20.799433
2399.637456	-3.012100	3.164000	-9.529700	28.136956	6.682992E-6	20.798959
2400.638700	-2.960400	3.164400	-9.367100	28.134250	3.283742E-6	20.813779
2401.637806	-2.972200	3.163800	-9.402800	28.123211	5.659917E-6	20.799822
2402.641652	-3.003800	3.162800	-9.499700	28.162558	4.603839E-6	20.811457
2403.642189	-2.966000	3.161400	-9.375700	28.186747	5.791926E-6	20.804040
2404.639618	-3.014900	3.159700	-9.525200	28.107451	4.306817E-6	20.803396
2405.640394	-2.990600	3.161300	-9.453400	28.124648	5.461902E-6	20.815019
2406.642781	-3.016300	3.157100	-9.521800	28.168668	6.418973E-6	20.789633
2407.639655	-2.994900	3.159500	-9.462000	28.227539	7.112024E-6	20.783943
2408.640226	-3.009100	3.156600	-9.497500	28.260276	4.108802E-6	20.796040
2409.642732	-2.997000	3.157500	-9.462500	28.275659	6.583985E-6	20.800623
2410.640010	-3.012600	3.155000	-9.504100	28.294822	4.174807E-6	20.800477
2411.644152	-2.977600	3.155800	-9.396200	28.247620	4.042798E-6	20.813169
2412.639832	-2.999500	3.155400	-9.463600	28.191056	4.603839E-6	20.783249
2413.641483	-3.002600	3.154000	-9.469200	28.177179	2.425679E-6	20.805788
2414.639918	-2.979700	3.153800	-9.396200	28.200209	2.293669E-6	20.796257
2415.641196	-2.995100	3.151100	-9.436800	28.248790	2.392676E-6	20.817192
2416.642380	-2.987700	3.152800	-9.418600	28.189243	3.217737E-6	20.790433
2417.641587	-3.008300	3.152200	-9.480800	28.206643	1.930642E-6	20.811270
2418.641045	-3.015700	3.149300	-9.496500	28.264824	3.151732E-6	20.789240
2419.640661	-3.000300	3.149200	-9.447900	28.287151	4.702846E-6	20.794176
2420.641465	-3.003500	3.149800	-9.460000	28.308910	2.458681E-6	20.799963
2421.646918	-2.993400	3.148500	-9.423700	28.296871	2.755703E-6	20.775038
2422.642223	-2.999600	3.146900	-9.439000	28.338782	2.161659E-6	20.796375
2423.642684	-3.012600	3.145800	-9.476500	28.284565	9.735717E-7	20.798685
2424.642787	-2.999500	3.146200	-9.436400	28.270547	1.336598E-6	20.792631
2425.643420	-3.014300	3.145500	-9.480200	28.181788	4.785352E-7	20.792411
2426.642865	-3.020800	3.144200	-9.497000	28.213174	-8.415620E-7	20.776593
2427.648046	-2.998100	3.143400	-9.423400	28.246926	-5.445401E-7	20.792082
2428.645978	-3.018400	3.140500	-9.478600	28.285832	8.415620E-7	20.781468
2429.650215	-2.995900	3.142600	-9.413800	28.258807	1.699625E-6	20.784604
2430.650450	-3.003500	3.140100	-9.430500	28.259484	1.155085E-7	20.796191
2431.649141	-2.975700	3.141600	-9.347600	28.268322	-8.085595E-7	20.798926
2432.651647	-2.985100	3.139000	-9.369500	28.252926	-3.795279E-7	20.771570
2433.650069	-2.989000	3.138400	-9.379400	28.270158	-2.095654E-6	20.767109
2434.650924	-2.982800	3.138100	-9.359400	28.275640	-5.445401E-7	20.794914
2435.651383	-2.983500	3.135800	-9.354600	28.286097	4.950364E-8	20.761820
2436.650403	-3.002600	3.135200	-9.412500	28.320365	-5.445401E-7	20.789686
2437.653858	-3.002400	3.134500	-9.410000	28.283163	-1.963645E-6	20.791582
2438.651548	-2.981700	3.135000	-9.346300	28.272935	-1.237591E-6	20.777492
2439.652662	-2.994500	3.133000	-9.381100	28.235839	-3.135231E-7	20.789454
2440.651868	-2.987300	3.131300	-9.352300	28.207038	-1.650122E-8	20.763302
2441.653546	-3.008000	3.130700	-9.416200	28.188114	-1.039577E-6	20.785977
2442.656264	-3.001800	3.129800	-9.393900	28.177837	-3.250739E-6	20.768044
2443.654055	-3.013100	3.129500	-9.428800	28.157343	-3.052725E-6	20.770645
2444.653186	-3.032600	3.128400	-9.486400	28.189925	-3.943790E-6	20.770256
2445.652375	-2.985400	3.128800	-9.339800	28.318130	-2.557688E-6	20.782219
2446.654204	-2.987200	3.127500	-9.341600	28.352338	-2.128657E-6	20.766876
2447.653299	-3.008400	3.124800	-9.399500	28.419155	-3.943790E-6	20.763508
2448.656643	-3.009700	3.125200	-9.405200	28.330446	-5.428900E-6	20.771386
2449.653861	-3.004000	3.123600	-9.382400	28.352977	-4.009795E-6	20.765149
2450.653377	-2.991700	3.122700	-9.341400	28.288063	-5.890934E-6	20.759532
2451.654698	-2.981500	3.123800	-9.312500	28.235958	-5.428900E-6	20.775349
2452.655444	-3.004500	3.120900	-9.375600	28.211118	-6.815002E-6	20.759823
2453.656632	-3.025900	3.119300	-9.437200	28.223145	-3.943790E-6	20.762450
2454.665429	-3.003800	3.119600	-9.369100	28.206697	-4.339820E-6	20.764856
2455.655892	-3.006200	3.119200	-9.375600	28.231369	-5.362895E-6	20.770729
2456.660214	-3.011500	3.117200	-9.386600	28.179201	-6.319965E-6	20.763253
2457.657655	-3.000000	3.117100	-9.350400	28.257573	-5.527907E-6	20.767240
2458.656314	-2.993400	3.116800	-9.328000	28.264142	-7.475051E-6	20.774802
2459.659000	-3.009100	3.115100	-9.372300	28.291601	-7.376043E-6	20.752662
2460.655875	-3.000000	3.115200	-9.344400	28.363241	-3.778778E-6	20.774061
2461.661991	-2.995000	3.113600	-9.324200	28.366307	-6.286963E-6	20.754389
2462.660728	-2.993000	3.112200	-9.314000	28.414736	-6.715995E-6	20.762377
2463.659927	-2.990300	3.110900	-9.301400	28.407202	-5.989941E-6	20.766645
2464.659727	-2.987000	3.111200	-9.292500	28.355682	-6.352968E-6	20.757915
2465.655996	-2.982700	3.110300	-9.276400	28.288643	-7.673065E-6	20.769599
2466.661775	-2.989800	3.109500	-9.295300	28.253649	-7.475051E-6	20.750961
2467.655889	-3.012700	3.107600	-9.361500	28.285130	-7.310038E-6	20.733344
2468.657189	-2.988000	3.106700	-9.281000	28.327839	-6.848004E-6	20.761649
2469.657699	-2.996000	3.107000	-9.307900	28.393837	-5.857931E-6	20.752712
2470.660302	-2.989800	3.105300	-9.283400	28.387498	-7.739070E-6	20.775254
2471.657621	-3.000900	3.103800	-9.312600	28.386013	-5.329893E-6	20.751473
2472.657298	-3.012700	3.102900	-9.346900	28.349647	-6.286963E-6	20.743303
2473.659388	-3.013700	3.101000	-9.345100	28.338731	-4.603839E-6	20.729466
2474.657596	-3.014900	3.099600	-9.344600	28.366889	-6.914009E-6	20.759242
2475.660856	-3.013200	3.099700	-9.338800	28.387934	-8.069094E-6	20.751510
2476.657967	-2.991500	3.098600	-9.268600	28.370741	-6.616987E-6	20.737042
2477.657853	-2.996400	3.098200	-9.282800	28.416042	-4.900861E-6	20.741881
2478.657304	-2.981200	3.097600	-9.233300	28.447180	-7.310038E-6	20.724871
2479.657716	-2.986100	3.094900	-9.240400	28.397014	-7.706068E-6	20.739315
2480.661266	-2.987200	3.095600	-9.246300	28.460605	-7.970087E-6	20.750720
2481.662516	-2.989900	3.093800	-9.249400	28.506229	-8.234107E-6	20.737394
2482.662561	-2.991300	3.093000	-9.251800	28.487951	-7.046019E-6	20.748386
2483.659025	-2.990600	3.091800	-9.244500	28.488784	-6.980014E-6	20.741164
2484.663856	-2.996300	3.090400	-9.258600	28.440310	-6.815002E-6	20.749723
2485.658942	-2.995700	3.089000	-9.251700	28.470143	-9.059167E-6	20.739461
2486.661063	-2.980100	3.088700	-9.203100	28.491077	-7.046019E-6	20.747741
2487.660370	-2.983200	3.087900	-9.210800	28.455570	-9.323187E-6	20.745650
2488.665476	-2.997600	3.085700	-9.248500	28.475418	-7.541055E-6	20.745248
2489.662853	-2.997300	3.084800	-9.245100	28.449872	-4.999868E-6	20.751765
2490.662539	-2.979300	3.083900	-9.187100	28.425254	-6.682992E-6	20.746415
2491.664700	-2.991700	3.083000	-9.222200	28.361685	-7.574058E-6	20.751157
2492.662655	-2.986800	3.081000	-9.201500	28.345952	-8.630136E-6	20.739108
2493.664678	-3.014900	3.080400	-9.285600	28.401770	-1.094031E-5	20.728456
2494.662040	-2.991500	3.079400	-9.211800	28.448072	-7.079021E-6	20.737150
2495.661425	-3.012600	3.079200	-9.275200	28.493841	-9.356189E-6	20.733928
2496.663280	-3.010300	3.076700	-9.261400	28.502835	-9.950233E-6	20.745357
2497.664018	-3.000500	3.075600	-9.227200	28.535793	-9.554204E-6	20.732080
2498.664295	-3.023900	3.075200	-9.298400	28.561324	-7.739070E-6	20.720808
2499.664253	-3.017800	3.074700	-9.277000	28.529418	-8.597133E-6	20.719495
2500.666258	-3.026700	3.071000	-9.294600	28.513566	-1.041227E-5	20.748578
2501.666238	-2.998100	3.071800	-9.208400	28.487574	-9.983235E-6	20.722401
2502.666580	-3.024900	3.070200	-9.285900	28.477662	-9.884228E-6	20.720954
2503.666094	-3.000300	3.068700	-9.206200	28.517236	-7.772072E-6	20.723349
2504.664882	-3.007500	3.068500	-9.227300	28.501964	-9.752218E-6	20.706071
2505.666990	-3.018900	3.066500	-9.256400	28.463476	-1.021425E-5	20.739385
2506.665792	-2.975300	3.066900	-9.123700	28.508217	-1.041227E-5	20.719481
2507.667635	-3.011100	3.064500	-9.226900	28.571801	-8.762145E-6	20.710496
2508.665585	-2.995200	3.063600	-9.175000	28.525456	-1.031326E-5	20.732576
2509.665820	-3.008900	3.062800	-9.214700	28.459563	-9.389192E-6	20.731651
2510.670996	-3.029700	3.061400	-9.273700	28.433085	-7.937085E-6	20.729171
2511.666696	-3.008500	3.060100	-9.205100	28.438760	-1.054428E-5	20.752430
2512.672760	-2.998800	3.058700	-9.171600	28.374938	-1.064328E-5	20.734629
2513.667696	-3.015700	3.057800	-9.220400	28.412849	-1.014825E-5	20.739140
2514.665551	-3.007900	3.057300	-9.195700	28.473807	-1.100631E-5	20.729401
2515.666721	-2.996600	3.055300	-9.153700	28.515084	-8.399119E-6	20.729716
2516.669239	-2.996100	3.052700	-9.144500	28.578595	-9.488199E-6	20.712123
2517.668600	-3.020800	3.050900	-9.215500	28.681249	-1.021425E-5	20.726373
2518.671708	-2.997700	3.052500	-9.149200	28.739645	-1.037926E-5	20.728294
2519.668729	-2.991300	3.050100	-9.123200	28.744690	-9.917231E-6	20.725314
2520.669742	-3.007000	3.049500	-9.169600	28.658869	-8.861153E-6	20.725169
2521.673099	-2.987400	3.048000	-9.105100	28.701792	-9.653211E-6	20.725727
2522.669642	-2.980000	3.047900	-9.081700	28.766619	-1.136934E-5	20.715161
2523.674983	-3.007100	3.044700	-9.154400	28.780898	-9.983235E-6	20.730019
2524.671433	-3.004300	3.042900	-9.140100	28.789117	-1.186437E-5	20.726918
2525.672420	-3.004900	3.041800	-9.138700	28.742685	-1.014825E-5	20.725192
2526.674730	-2.979500	3.042700	-9.064300	28.665978	-1.226040E-5	20.719526
2527.673946	-3.014700	3.040300	-9.164800	28.616100	-1.008224E-5	20.722869
2528.674862	-3.027100	3.038300	-9.196000	28.649694	-1.054428E-5	20.732523
2529.674907	-3.028900	3.037400	-9.199500	28.610836	-1.117132E-5	20.720413
2530.677022	-3.034400	3.035800	-9.209700	28.583627	-1.080830E-5	20.702965
2531.677287	-3.016300	3.035100	-9.154100	28.547110	-1.232641E-5	20.700801
2532.675447	-3.005200	3.034000	-9.117300	28.512703	-9.257182E-6	20.723525
2533.678168	-3.005800	3.032300	-9.113400	28.497394	-1.004924E-5	20.735610
2534.679765	-3.002600	3.031000	-9.100000	28.419039	-1.143534E-5	20.729251
2535.678510	-2.995800	3.029800	-9.075700	28.436183	-1.374551E-5	20.714271
2536.676657	-2.979400	3.029700	-9.025300	28.530713	-1.311847E-5	20.709420
2537.678604	-2.989500	3.026500	-9.046600	28.615760	-9.455196E-6	20.717785
2538.677411	-2.963300	3.027000	-8.969200	28.641846	-1.001624E-5	20.738369
2539.680760	-2.991600	3.023700	-9.045000	28.604304	-1.183137E-5	20.719049
2540.677615	-3.005100	3.022600	-9.082000	28.558407	-1.394353E-5	20.716447
2541.676005	-3.025200	3.021900	-9.141200	28.536145	-1.410854E-5	20.718209
2542.677632	-3.020600	3.020000	-9.121700	28.601502	-1.292045E-5	20.729504
2543.677327	-2.999300	3.020200	-9.057700	28.665841	-1.054428E-5	20.705636
2544.680428	-2.962400	3.019600	-8.944300	28.620936	-1.275544E-5	20.713515
2545.680350	-2.982100	3.017600	-8.997500	28.645585	-1.288745E-5	20.705149
2546.677286	-3.003000	3.015200	-9.053100	28.635373	-1.067629E-5	20.714305
2547.677860	-2.970800	3.014200	-8.954100	28.619402	-1.077529E-5	20.708176
2548.679111	-3.031900	3.012100	-9.131400	28.653116	-1.295345E-5	20.714632
2549.677803	-2.994500	3.012200	-9.018800	28.669472	-1.278844E-5	20.719726
2550.683975	-2.991300	3.010000	-9.003000	28.700336	-1.371251E-5	20.721416
2551.678699	-3.003600	3.007200	-9.031300	28.738804	-1.189738E-5	20.713695
2552.679063	-3.009200	3.008100	-9.050800	28.756582	-1.407554E-5	20.708843
2553.678546	-2.978900	3.006700	-8.955700	28.793237	-1.239241E-5	20.714472
2554.679707	-3.030400	3.003400	-9.100800	28.772706	-1.437256E-5	20.717973
2555.681049	-3.015900	3.004000	-9.058800	28.838218	-1.206239E-5	20.706204
2556.680385	-3.025700	3.002200	-9.083100	28.869427	-1.301946E-5	20.704927
2557.679455	-2.996300	3.000800	-8.990300	28.843781	-1.275544E-5	20.697109
2558.677940	-2.997700	2.999800	-8.991900	28.846629	-1.384452E-5	20.701875
2559.680167	-3.002400	2.998100	-9.001100	28.890028	-1.252442E-5	20.699127
2560.681182	-2.999000	2.996100	-8.984100	28.933218	-1.259043E-5	20.699491
2561.681712	-2.983300	2.995400	-8.934900	28.992783	-1.341549E-5	20.710190
2562.681381	-3.027400	2.993900	-9.062700	29.007275	-1.437256E-5	20.714835
2563.682371	-3.006800	2.993000	-8.998500	28.957944	-1.301946E-5	20.713497
2564.685111	-2.976600	2.990800	-8.901300	28.952863	-1.490060E-5	20.706481
2565.680998	-3.008000	2.989800	-8.992400	28.953406	-1.407554E-5	20.702761
2566.683046	-2.978200	2.987400	-8.896200	28.887214	-1.463658E-5	20.701508
2567.681329	-2.983800	2.987400	-8.912700	28.877776	-1.374551E-5	20.697216
2568.682019	-2.962100	2.986100	-8.843600	28.912303	-1.529663E-5	20.722518
2569.681736	-2.976500	2.984600	-8.882100	28.857538	-1.334948E-5	20.699587
2570.682245	-3.002300	2.981800	-8.950500	28.760706	-1.433956E-5	20.690710
2571.685583	-3.006000	2.980600	-8.959100	28.690627	-1.579166E-5	20.698359
2572.684870	-2.962000	2.980700	-8.827400	28.710966	-1.433956E-5	20.708414
2573.683113	-3.020300	2.977600	-8.992600	28.743821	-1.371251E-5	20.688875
2574.682724	-3.024100	2.976000	-8.999200	28.807343	-1.331648E-5	20.708767
2575.681584	-3.017700	2.975200	-8.977300	28.897448	-1.282144E-5	20.689532
2576.687482	-2.999800	2.972700	-8.916800	28.920534	-1.466958E-5	20.716585
2577.684004	-3.013200	2.971200	-8.952200	28.882398	-1.209539E-5	20.706140
2578.684482	-2.994200	2.970300	-8.892700	28.896325	-1.509861E-5	20.687452
2579.688661	-3.015100	2.967700	-8.947000	28.914777	-1.443856E-5	20.698456
2580.683558	-3.016600	2.965800	-8.945800	28.881783	-1.638571E-5	20.691769
2581.691166	-2.991100	2.965200	-8.868800	28.860023	-1.536263E-5	20.684546
2582.686775	-2.977800	2.963600	-8.824400	28.803903	-1.605568E-5	20.687756
2583.687974	-3.007100	2.962200	-8.906700	28.803637	-1.301946E-5	20.698395
2584.686526	-2.999400	2.960900	-8.879900	28.756143	-1.523062E-5	20.688011
2585.689629	-2.983600	2.960600	-8.831900	28.779366	-1.338249E-5	20.680108
2586.687592	-2.998000	2.958700	-8.869100	28.787561	-1.331648E-5	20.688364
2587.691295	-2.988700	2.957900	-8.840000	28.792244	-1.579166E-5	20.678855
2588.688850	-2.997200	2.954500	-8.854500	28.820534	-1.466958E-5	20.692182
2589.688060	-2.984200	2.953600	-8.813100	28.848751	-1.450457E-5	20.697373
2590.694985	-3.007100	2.952200	-8.876800	28.867179	-1.341549E-5	20.682272
2591.687506	-3.020200	2.949900	-8.908500	28.953537	-1.202939E-5	20.676812
2592.691046	-3.039800	2.948100	-8.960800	29.020896	-1.381152E-5	20.682563
2593.688714	-2.963600	2.948500	-8.736400	29.052523	-1.288745E-5	20.675548
2594.687996	-3.022600	2.945500	-8.901900	29.020980	-1.608869E-5	20.678380
2595.687501	-2.982300	2.943800	-8.778500	28.941264	-1.450457E-5	20.699062
2596.690702	-3.013500	2.942500	-8.866100	28.929353	-1.638571E-5	20.678052
2597.690537	-2.995800	2.942600	-8.815000	28.857318	-1.473559E-5	20.690831
2598.690241	-3.000700	2.940800	-8.823600	28.814727	-1.414154E-5	20.682538
2599.689724	-3.020300	2.936900	-8.870000	28.860009	-1.348149E-5	20.666986
2600.690011	-3.007600	2.937500	-8.833900	28.917490	-1.493360E-5	20.690757
2601.688956	-2.995100	2.934500	-8.787900	28.961911	-1.526362E-5	20.668652
2602.691504	-3.000500	2.931200	-8.794600	28.996652	-1.480159E-5	20.694647
2603.692146	-2.987100	2.931900	-8.757100	28.981013	-1.358050E-5	20.686476
2604.690897	-2.983500	2.929600	-8.739500	28.971733	-1.371251E-5	20.687085
2605.690746	-3.006500	2.927900	-8.802000	29.004423	-1.476859E-5	20.690148
2606.693539	-2.989200	2.926700	-8.747800	28.958591	-1.697975E-5	20.695182
2607.691465	-2.992200	2.924400	-8.749400	28.981580	-1.288745E-5	20.689419
2608.696322	-2.976500	2.924300	-8.703400	28.968547	-1.717777E-5	20.684348
2609.694817	-3.033100	2.920300	-8.856000	28.900534	-1.704576E-5	20.696908
2610.693963	-3.027400	2.919000	-8.835700	28.875974	-1.562665E-5	20.690658
2611.696258	-3.019600	2.917800	-8.809700	28.966689	-1.476859E-5	20.694805
2612.694624	-3.012100	2.916400	-8.783500	28.994177	-1.480159E-5	20.694525
2613.697407	-2.999700	2.915400	-8.744500	29.044810	-1.526362E-5	20.690537
2614.699243	-3.019300	2.912600	-8.793200	29.007705	-1.371251E-5	20.668322
2615.701911	-2.981100	2.911700	-8.679500	28.952546	-1.506561E-5	20.677235
2616.702913	-2.996800	2.909100	-8.717500	28.878919	-1.671573E-5	20.696470
2617.698010	-2.996200	2.907400	-8.710300	28.912662	-1.704576E-5	20.690160
2618.697560	-3.013800	2.905100	-8.754800	29.006667	-1.341549E-5	20.677235
2619.700521	-2.975100	2.904300	-8.639600	28.994938	-1.711176E-5	20.659252
2620.700233	-3.000300	2.900600	-8.701800	28.963720	-1.757379E-5	20.678062
2621.699127	-3.002300	2.900900	-8.708000	28.940828	-1.598968E-5	20.685345
2622.700075	-3.016700	2.897800	-8.740700	28.856351	-1.338249E-5	20.680372
2623.707947	-3.000800	2.896700	-8.690900	28.899194	-1.734278E-5	20.702197
2624.703454	-3.018500	2.895700	-8.738900	28.924537	-1.288745E-5	20.675570
2625.700694	-2.991200	2.893700	-8.655300	29.007114	-1.463658E-5	20.680530
2626.701190	-3.009000	2.890700	-8.697000	29.077437	-1.417454E-5	20.682160
2627.699775	-3.033800	2.887400	-8.759100	29.119222	-1.565965E-5	20.681588
2628.702369	-2.994800	2.888600	-8.649900	29.068050	-1.668273E-5	20.695936
2629.700775	-2.991400	2.886100	-8.632700	29.018010	-1.622070E-5	20.679655
2630.705440	-3.017900	2.884000	-8.702600	29.032092	-1.367951E-5	20.686732
2631.701481	-2.980100	2.882000	-8.587500	29.096816	-1.671573E-5	20.672761
2632.710302	-3.001100	2.880100	-8.642100	29.157010	-1.443856E-5	20.683631
2633.705780	-2.966600	2.878200	-8.537700	29.142714	-1.668273E-5	20.691511
2634.702635	-2.999400	2.877100	-8.628900	29.207587	-1.529663E-5	20.698088
2635.703933	-2.995300	2.875200	-8.611100	29.238290	-1.513161E-5	20.684458
2636.700835	-2.982700	2.873100	-8.568400	29.171826	-1.562665E-5	20.675801
2637.703372	-2.997700	2.868700	-8.598100	29.108037	-1.579166E-5	20.661782
2638.702534	-3.002600	2.868200	-8.611100	29.125050	-1.641871E-5	20.684142
2639.704558	-3.035700	2.866000	-8.699600	29.072950	-1.476859E-5	20.691389
2640.704727	-2.992200	2.865300	-8.572900	29.068678	-1.638571E-5	20.691826
2641.704074	-3.003000	2.862700	-8.596400	29.084629	-1.437256E-5	20.697942
2642.702292	-3.041100	2.859400	-8.694500	29.079212	-1.496660E-5	20.678732
2643.703003	-3.007100	2.858000	-8.593700	29.018300	-1.424055E-5	20.707451
2644.701891	-2.987600	2.855900	-8.531900	29.020533	-1.546164E-5	20.690732
2645.703542	-3.004600	2.854500	-8.575200	28.982087	-1.387752E-5	20.693723
2646.704700	-2.991000	2.852900	-8.532600	29.020835	-1.391052E-5	20.678707
2647.703189	-2.988000	2.850700	-8.516800	29.060268	-1.348149E-5	20.700423
2648.703159	-2.985500	2.848500	-8.502900	29.133097	-1.377852E-5	20.681346
2649.705222	-3.015000	2.843900	-8.572900	29.117280	-1.585767E-5	20.682477
2650.705239	-2.998800	2.844200	-8.528500	29.131541	-1.450457E-5	20.684993
2651.709129	-2.985500	2.842300	-8.484400	29.118088	-1.476859E-5	20.684239
2652.704974	-3.006400	2.839600	-8.536700	29.147805	-1.509861E-5	20.684786
2653.705485	-2.993900	2.838100	-8.495600	29.135378	-1.532963E-5	20.689334
2654.706097	-3.008700	2.834200	-8.526400	29.126232	-1.608869E-5	20.680117
2655.707080	-2.980800	2.834600	-8.448100	29.175591	-1.490060E-5	20.694295
2656.710469	-3.025800	2.830600	-8.564500	29.173455	-1.288745E-5	20.674597
2657.707063	-2.999500	2.829100	-8.484900	29.185122	-1.503261E-5	20.717651
2658.706897	-2.994900	2.826600	-8.464600	29.121357	-1.430655E-5	20.688957
2659.713693	-3.006500	2.823400	-8.487400	29.116736	-1.453757E-5	20.691412
2660.706813	-2.998500	2.822300	-8.461900	29.221895	-1.361350E-5	20.703973
2661.706012	-3.013700	2.819000	-8.494900	29.273819	-1.473559E-5	20.676165
2662.709783	-3.004700	2.816600	-8.462400	29.231824	-1.318447E-5	20.684579
2663.708623	-2.981500	2.814300	-8.390100	29.211603	-1.490060E-5	20.688859
2664.708583	-3.002600	2.810600	-8.438200	29.207779	-1.493360E-5	20.683582
2665.712663	-2.978900	2.809100	-8.367500	29.207369	-1.490060E-5	20.698817
2666.708213	-2.994800	2.807700	-8.407300	29.282396	-1.394353E-5	20.694768
2667.713446	-2.997000	2.804400	-8.403800	29.374535	-1.559365E-5	20.697540
2668.710425	-3.026800	2.801100	-8.477200	29.425873	-1.232641E-5	20.658717
2669.710538	-3.003600	2.798700	-8.405200	29.405921	-1.526362E-5	20.685551
2670.711426	-3.013000	2.795200	-8.420900	29.338695	-1.384452E-5	20.689867
2671.712386	-3.017600	2.793900	-8.429800	29.284350	-1.476859E-5	20.680615
2672.713154	-2.969600	2.790600	-8.285900	29.201408	-1.226040E-5	20.685697
2673.713936	-2.967700	2.789000	-8.276000	29.245757	-1.483459E-5	20.691034
2674.714457	-3.003000	2.785800	-8.364500	29.292541	-1.496660E-5	20.698354
2675.713664	-2.967000	2.783200	-8.256800	29.324195	-1.364651E-5	20.706549
2676.713892	-3.016300	2.778300	-8.379400	29.325015	-1.318447E-5	20.668017
2677.715782	-2.998500	2.777000	-8.326500	29.319683	-1.338249E-5	20.679714
2678.715559	-3.036600	2.773300	-8.420600	29.341107	-1.318447E-5	20.688979
2679.714516	-3.015500	2.769000	-8.348800	29.334665	-1.351450E-5	20.715680
2680.715208	-2.990400	2.768400	-8.277700	29.375884	-1.493360E-5	20.712178
2681.715818	-3.002600	2.764800	-8.300200	29.341565	-1.437256E-5	20.697502
2682.714017	-2.985900	2.762400	-8.246800	29.450803	-1.387752E-5	20.704712
2683.717761	-2.984100	2.758800	-8.231900	29.470619	-1.430655E-5	20.705721
2684.716206	-2.995600	2.754800	-8.251300	29.464010	-1.318447E-5	20.706645
2685.716947	-3.000100	2.752300	-8.256300	29.466313	-1.476859E-5	20.704225
2686.719423	-3.025800	2.748400	-8.315300	29.526053	-1.602268E-5	20.708019
2687.716865	-3.028200	2.744300	-8.309100	29.541020	-1.480159E-5	20.704614
2688.720149	-3.024000	2.742300	-8.291700	29.570327	-1.853087E-5	20.697172
2689.718935	-3.009500	2.738800	-8.241500	29.564333	-1.433956E-5	20.695871
2690.717359	-2.979500	2.736300	-8.151900	29.487601	-1.499961E-5	20.713829
2691.719265	-2.966700	2.734200	-8.110200	29.483814	-1.681474E-5	20.714753
2692.718773	-3.006800	2.728400	-8.203300	29.469255	-1.282144E-5	20.700078
2693.719579	-2.996100	2.724400	-8.162000	29.431333	-1.490060E-5	20.708796
2694.720487	-2.976500	2.723400	-8.105200	29.387148	-1.532963E-5	20.701719
2695.721966	-3.001600	2.717400	-8.155900	29.454540	-1.374551E-5	20.728869
2696.719772	-3.023800	2.714300	-8.206100	29.521565	-1.427355E-5	20.706814
2697.718053	-2.982100	2.711600	-8.085400	29.536967	-1.589067E-5	20.711434
2698.720722	-2.984400	2.707300	-8.078500	29.500217	-1.575866E-5	20.701889
2699.723140	-3.022300	2.702900	-8.168200	29.502182	-1.526362E-5	20.713828
2700.723232	-3.016800	2.698800	-8.140900	29.560871	-1.506561E-5	20.705658
2701.720324	-2.987600	2.694500	-8.049400	29.581313	-1.325048E-5	20.707299
2702.724751	-2.966800	2.692400	-7.987400	29.611030	-1.457057E-5	20.710230
2703.731998	-2.961800	2.688200	-7.961000	29.650212	-1.440556E-5	20.712273
2704.729039	-3.026300	2.682900	-8.117300	29.632303	-1.394353E-5	20.713184
2705.720902	-2.974400	2.679300	-7.968800	29.669121	-1.391052E-5	20.715215
2706.722034	-2.992900	2.673900	-8.001800	29.751905	-1.219440E-5	20.713330
2707.722073	-3.010400	2.669100	-8.034200	29.706649	-1.506561E-5	20.719385
2708.722509	-2.995000	2.665300	-7.981500	29.659992	-1.463658E-5	20.708856
2709.726540	-2.989300	2.661200	-7.954000	29.562295	-1.341549E-5	20.718948
2710.725556	-3.001400	2.656700	-7.972800	29.552827	-1.523062E-5	20.689961
2711.724395	-3.006400	2.651300	-7.970000	29.667988	-1.490060E-5	20.713598
2712.722399	-3.013300	2.645600	-7.971400	29.723809	-1.394353E-5	20.708710
2713.729602	-2.957300	2.643000	-7.813900	29.615226	-1.433956E-5	20.722996
2714.723183	-2.989400	2.637100	-7.881700	29.569410	-1.381152E-5	20.736079
2715.730003	-3.027500	2.632100	-7.968100	29.681240	-1.292045E-5	20.726960
2716.725609	-2.995300	2.628100	-7.871400	29.808168	-1.189738E-5	20.709366
2717.726967	-3.008300	2.621700	-7.886100	29.877691	-1.374551E-5	20.697913
2718.730687	-3.027500	2.615900	-7.918100	29.872566	-1.622070E-5	20.713135
2719.728747	-2.958300	2.612600	-7.728100	29.903540	-1.196338E-5	20.722084
2720.730299	-2.975000	2.606600	-7.754000	29.886817	-1.499961E-5	20.710910
2721.732102	-2.982000	2.602100	-7.758200	29.762841	-1.420755E-5	20.722461
2722.728258	-2.991300	2.596500	-7.765400	29.739809	-1.592367E-5	20.731956
2723.729320	-3.018300	2.589000	-7.813800	29.704622	-1.526362E-5	20.729671
2724.729502	-3.004400	2.584800	-7.763700	29.697761	-1.272244E-5	20.736029
2725.731633	-3.014500	2.578400	-7.771600	29.733744	-1.486760E-5	20.722047
2726.731064	-3.041100	2.572100	-7.821300	29.765301	-1.153435E-5	20.713560
2727.731539	-3.033200	2.566200	-7.782200	29.882344	-1.249142E-5	20.717779
2728.731943	-3.052400	2.559800	-7.812600	29.967594	-1.179837E-5	20.725986
2729.733698	-2.988600	2.554200	-7.632700	30.004449	-1.222740E-5	20.736127
2730.731119	-2.998300	2.548400	-7.640600	29.984665	-1.367951E-5	20.713329
2731.736528	-3.000500	2.542400	-7.627500	29.917839	-1.523062E-5	20.731762
2732.732743	-2.987900	2.536900	-7.579000	29.954586	-1.301946E-5	20.728515
2733.735363	-3.014100	2.531000	-7.627800	29.944049	-1.282144E-5	20.719312
2734.735390	-3.004500	2.523500	-7.581000	29.962820	-1.417454E-5	20.719749
2735.735575	-2.991400	2.518600	-7.533800	29.907313	-1.232641E-5	20.731579
2736.737036	-2.996900	2.511600	-7.526300	29.961036	-1.150135E-5	20.727433
2737.738132	-3.019600	2.506100	-7.566200	30.032972	-1.315147E-5	20.726485
2738.738019	-3.027500	2.498800	-7.564400	30.003846	-1.259043E-5	20.736467
