LabVIEW Measurement	
Writer_Version	2
Reader_Version	2
Separator	Tab
Decimal_Separator	.
Multi_Headings	No
X_Columns	One
Time_Pref	Absolute
Operator	admin
Description	Clolumns are: time, Current, Voltage, Power, Battery Temp, and Chamber Temp
Date	2024/08/16
Time	13:07:17.8513970375061035156
***End_of_Header***	
	
Channels	6						
Samples	1	1	1	1	1	1	
Date	2024/09/06	2024/09/06	2024/09/06	2024/09/06	2024/09/06	2024/09/06	
Time	17:37:57.886463165283203125	17:37:57.8918814659118652344	17:37:57.8958802223205566406	17:37:57.8713297843933105469	17:37:57.8713297843933105469	17:37:57.8713297843933105469	
X_Dimension	Time	Time	Time	Time	Time	Time	
X0	0.0000000000000000E+0	0.0000000000000000E+0	0.0000000000000000E+0	0.0000000000000000E+0	0.0000000000000000E+0	0.0000000000000000E+0	
Delta_X	1.000000	1.000000	1.000000	1.000000	1.000000	1.000000	
***End_of_Header***							
X_Value	Untitled	Untitled 1	Untitled 2	Untitled 3	Untitled 4	Untitled 5	Comment
0.000000	0.019597	4.086600	0.080128	20.923833	0.000465	20.917670
1.005098	-3.007600	3.920500	-11.791000	20.924605	0.000463	20.910382
2.002465	-2.997800	3.916300	-11.739000	20.928248	0.000463	20.911181
3.000035	-2.985200	3.912100	-11.678000	20.927299	0.000463	20.914498
4.000966	-3.014300	3.908200	-11.779000	20.919914	0.000462	20.925603
5.000191	-3.003500	3.905900	-11.731000	20.921259	0.000462	20.930741
6.005671	-2.987500	3.902900	-11.659000	20.926748	0.000462	20.913473
7.000362	-2.987100	3.900900	-11.651000	20.928320	0.000462	20.907933
8.001204	-2.984300	3.900200	-11.638000	20.951451	0.000460	20.908308
8.999321	-2.971800	3.898600	-11.585000	20.942268	0.000459	20.901021
10.001319	-3.001300	3.894600	-11.688000	20.964100	0.000459	20.898200
11.001529	-2.995400	3.894900	-11.666000	20.972334	0.000457	20.888893
12.004105	-2.989100	3.893300	-11.636000	20.970736	0.000460	20.911948
13.004003	-3.008100	3.891100	-11.703000	20.991471	0.000458	20.911823
14.004263	-2.981400	3.891800	-11.602000	20.983609	0.000458	20.887368
15.007646	-2.997600	3.888800	-11.657000	20.988750	0.000456	20.911473
16.003817	-2.979700	3.888600	-11.586000	21.003594	0.000456	20.901665
17.006653	-3.015700	3.887600	-11.723000	21.034633	0.000458	20.910424
18.005631	-3.012600	3.886100	-11.706000	21.028145	0.000454	20.915787
19.003312	-3.016300	3.885500	-11.719000	21.018239	0.000454	20.903984
20.004739	-2.992700	3.884500	-11.624000	21.032511	0.000455	20.889337
21.005159	-2.997900	3.884000	-11.644000	21.032460	0.000453	20.907776
22.005547	-3.014300	3.883400	-11.705000	21.040569	0.000453	20.911145
23.003745	-3.017000	3.882300	-11.712000	21.047106	0.000453	20.887339
24.005551	-3.016400	3.881800	-11.708000	21.063073	0.000452	20.888137
25.006004	-2.977300	3.882600	-11.559000	21.069809	0.000452	20.902460
26.008170	-2.987400	3.880900	-11.592000	21.074998	0.000451	20.901960
27.010881	-2.993900	3.880600	-11.617000	21.100620	0.000453	20.913838
28.008285	-2.990200	3.879900	-11.600000	21.093136	0.000452	20.903507
29.008049	-3.005000	3.879600	-11.657000	21.110250	0.000452	20.891230
30.009362	-2.974400	3.879300	-11.538000	21.106258	0.000449	20.889607
31.012503	-2.998200	3.877100	-11.623000	21.111197	0.000449	20.917779
32.009876	-2.993600	3.879400	-11.612000	21.116536	0.000450	20.884242
33.012646	-2.983000	3.877200	-11.564000	21.148768	0.000450	20.878551
34.009715	-3.020900	3.876000	-11.707000	21.133925	0.000451	20.892152
35.008730	-3.014900	3.876100	-11.685000	21.151538	0.000448	20.895545
36.009229	-3.008400	3.876900	-11.662000	21.159520	0.000449	20.895943
37.010962	-2.988100	3.876200	-11.582000	21.169723	0.000446	20.882443
38.012644	-2.977100	3.875500	-11.537000	21.181299	0.000446	20.906823
39.013959	-3.003300	3.874600	-11.636000	21.191775	0.000447	20.880794
40.016988	-2.989100	3.874900	-11.582000	21.202228	0.000449	20.898362
41.011534	-2.986500	3.874600	-11.571000	21.197486	0.000449	20.875128
42.018638	-3.017500	3.872600	-11.684000	21.221860	0.000449	20.890975
43.014250	-3.008200	3.873700	-11.652000	21.219714	0.000447	20.888828
44.015030	-2.995200	3.872100	-11.598000	21.232586	0.000447	20.879420
45.013155	-2.989200	3.872800	-11.576000	21.250221	0.000450	20.897535
46.014935	-3.009700	3.871000	-11.650000	21.237325	0.000448	20.883212
47.016105	-3.001800	3.871700	-11.620000	21.248600	0.000448	20.882639
48.015862	-3.007100	3.872800	-11.645000	21.278758	0.000447	20.877721
49.016321	-3.011800	3.872600	-11.662000	21.270000	0.000449	20.882236
50.015328	-3.005600	3.870700	-11.632000	21.267257	0.000449	20.893241
51.015026	-2.997300	3.872300	-11.604000	21.284345	0.000447	20.877620
52.014838	-3.002100	3.870800	-11.620000	21.299810	0.000449	20.869859
53.015543	-3.016900	3.869800	-11.674000	21.302178	0.000447	20.872703
54.015270	-3.004400	3.869700	-11.624000	21.292599	0.000447	20.865964
55.016333	-3.009900	3.870900	-11.650000	21.324878	0.000446	20.876446
56.017702	-3.006600	3.869300	-11.632000	21.349770	0.000447	20.880487
57.015820	-3.003800	3.869100	-11.620000	21.340466	0.000448	20.889669
58.017693	-2.988700	3.868800	-11.561000	21.353162	0.000445	20.888148
59.017020	-2.992600	3.868700	-11.575000	21.359648	0.000446	20.878042
60.021664	-3.010300	3.869700	-11.647000	21.351815	0.000444	20.866887
61.018455	-2.996900	3.868600	-11.592000	21.361393	0.000446	20.866986
62.019197	-2.990200	3.868400	-11.566000	21.363563	0.000445	20.894759
63.021121	-2.996900	3.868000	-11.591000	21.384364	0.000447	20.876218
64.020070	-3.012300	3.867000	-11.648000	21.406988	0.000445	20.890317
65.022553	-3.002900	3.867400	-11.613000	21.413098	0.000447	20.876991
66.022702	-3.007300	3.867100	-11.629000	21.420731	0.000446	20.873249
67.021077	-3.007300	3.868300	-11.632000	21.426193	0.000447	20.889144
68.020001	-2.989100	3.867100	-11.558000	21.417685	0.000446	20.875891
69.023771	-3.002800	3.866300	-11.608000	21.431454	0.000449	20.873072
70.022117	-3.031200	3.866200	-11.718000	21.443650	0.000447	20.866309
71.023053	-2.998200	3.867800	-11.595000	21.463003	0.000449	20.871923
72.021707	-3.024300	3.865100	-11.689000	21.458987	0.000448	20.874068
73.023142	-3.012400	3.865400	-11.644000	21.448237	0.000447	20.865209
74.021595	-3.013000	3.865200	-11.645000	21.472654	0.000447	20.881579
75.022496	-3.000800	3.865300	-11.598000	21.470833	0.000447	20.871223
76.025811	-3.018400	3.864900	-11.665000	21.490361	0.000447	20.868002
77.022755	-3.011200	3.865700	-11.639000	21.508393	0.000448	20.880354
78.021659	-3.027700	3.865200	-11.701000	21.516548	0.000446	20.872868
79.023614	-3.020300	3.865900	-11.675000	21.518417	0.000449	20.876635
80.021487	-3.010600	3.865600	-11.637000	21.527869	0.000450	20.883721
81.022706	-2.997900	3.864800	-11.586000	21.548968	0.000448	20.855998
82.024261	-3.018100	3.864400	-11.662000	21.559117	0.000449	20.852403
83.022836	-3.004600	3.865000	-11.612000	21.564029	0.000448	20.860164
84.022033	-3.025400	3.864000	-11.690000	21.575126	0.000449	20.867474
85.025909	-2.984000	3.864200	-11.531000	21.572707	0.000448	20.863631
86.023377	-2.967500	3.865400	-11.469000	21.566647	0.000448	20.858041
87.025218	-2.990000	3.864100	-11.551000	21.588292	0.000447	20.872588
88.023517	-3.007500	3.863100	-11.618000	21.618043	0.000450	20.866798
89.023363	-2.992100	3.863900	-11.561000	21.596046	0.000448	20.856641
90.022952	-2.993900	3.862800	-11.564000	21.612879	0.000447	20.850726
91.024699	-3.006000	3.863000	-11.611000	21.636669	0.000450	20.839446
92.026264	-3.019400	3.862800	-11.663000	21.622031	0.000448	20.865099
93.027458	-3.007000	3.861700	-11.611000	21.638838	0.000449	20.855841
94.024647	-2.993500	3.863100	-11.564000	21.651007	0.000448	20.853320
95.024295	-2.996200	3.862100	-11.571000	21.653351	0.000449	20.837649
96.028551	-3.007300	3.862400	-11.615000	21.672226	0.000449	20.862227
97.026048	-2.993500	3.862600	-11.562000	21.676066	0.000449	20.856587
98.027133	-3.009300	3.862100	-11.621000	21.681777	0.000446	20.865146
99.024859	-2.986400	3.861300	-11.530000	21.711276	0.000452	20.863848
100.027061	-3.015600	3.860900	-11.642000	21.725663	0.000452	20.864023
101.025976	-3.009700	3.862000	-11.623000	21.709754	0.000449	20.870386
102.025370	-3.013600	3.859900	-11.632000	21.721222	0.000451	20.870009
103.028193	-3.001100	3.862300	-11.590000	21.716261	0.000450	20.861251
104.027943	-3.003700	3.860200	-11.594000	21.733267	0.000451	20.855986
105.027202	-2.994500	3.860700	-11.560000	21.760744	0.000452	20.852666
106.028610	-3.008900	3.862100	-11.619000	21.736956	0.000452	20.859678
107.028192	-2.996700	3.861300	-11.570000	21.750097	0.000452	20.872354
108.028681	-3.016600	3.859200	-11.641000	21.759995	0.000451	20.858554
109.028900	-2.999100	3.860700	-11.578000	21.758125	0.000452	20.853837
110.026567	-3.021500	3.859900	-11.662000	21.774008	0.000451	20.855509
111.027515	-3.000800	3.859800	-11.582000	21.765604	0.000452	20.834297
112.028434	-2.972300	3.860100	-11.472000	21.794951	0.000450	20.855608
113.026183	-3.009000	3.859000	-11.611000	21.793380	0.000455	20.860673
114.033667	-3.033300	3.858300	-11.702000	21.803004	0.000452	20.842805
115.030525	-3.014800	3.859200	-11.634000	21.822103	0.000455	20.849593
116.029609	-3.016100	3.857600	-11.634000	21.823175	0.000452	20.833596
117.030791	-2.997700	3.859400	-11.568000	21.841699	0.000454	20.837439
118.031646	-2.988700	3.858200	-11.530000	21.856758	0.000452	20.837813
119.032299	-2.989000	3.859500	-11.536000	21.849403	0.000452	20.857951
120.033725	-3.010600	3.859000	-11.617000	21.847932	0.000453	20.846996
121.030894	-2.994500	3.857900	-11.551000	21.855311	0.000453	20.855330
122.032100	-2.986500	3.859100	-11.524000	21.877301	0.000455	20.853633
123.031842	-3.011800	3.856800	-11.615000	21.874608	0.000454	20.848093
124.032009	-3.014200	3.857400	-11.626000	21.896698	0.000455	20.849341
125.038083	-3.002800	3.856800	-11.579000	21.907868	0.000453	20.853409
126.033734	-3.012800	3.857200	-11.620000	21.905349	0.000454	20.845671
127.033295	-3.004500	3.857800	-11.590000	21.895725	0.000454	20.833194
128.036249	-3.002300	3.856200	-11.577000	21.920906	0.000454	20.856502
129.033895	-2.986300	3.857400	-11.519000	21.921330	0.000455	20.851236
130.039192	-3.002100	3.857100	-11.579000	21.950424	0.000455	20.843850
131.033976	-2.992600	3.856000	-11.539000	21.966553	0.000456	20.844823
132.033134	-3.023600	3.855900	-11.658000	21.971265	0.000454	20.842427
133.035984	-2.996600	3.855900	-11.553000	21.964883	0.000456	20.830823
134.034948	-2.988500	3.856500	-11.524000	21.964583	0.000455	20.851385
135.034949	-2.990100	3.855400	-11.526000	21.984977	0.000455	20.836713
136.039249	-2.996800	3.854700	-11.551000	22.011252	0.000453	20.841678
137.036665	-2.984300	3.856300	-11.508000	21.976251	0.000456	20.843150
138.037309	-3.002900	3.855100	-11.575000	22.004795	0.000456	20.845172
139.037072	-2.987600	3.854700	-11.516000	21.988741	0.000458	20.828153
140.037524	-3.034100	3.853700	-11.692000	22.004371	0.000457	20.828627
141.040442	-2.991700	3.855000	-11.531000	22.016835	0.000457	20.829250
142.037672	-3.016100	3.853000	-11.620000	22.025735	0.000458	20.816349
143.036639	-2.993500	3.853400	-11.534000	22.017059	0.000458	20.828526
144.038388	-3.002500	3.853600	-11.568000	22.051761	0.000457	20.849513
145.039559	-3.009200	3.854700	-11.598000	22.039346	0.000458	20.825706
146.039664	-3.015200	3.854400	-11.621000	22.020749	0.000457	20.842176
147.040856	-3.027900	3.852700	-11.664000	22.031343	0.000458	20.819592
148.037819	-3.005900	3.852800	-11.581000	22.060510	0.000459	20.834091
149.039021	-2.989600	3.854100	-11.521000	22.076887	0.000459	20.830098
150.040273	-3.009300	3.853700	-11.596000	22.086958	0.000457	20.822636
151.039113	-3.003200	3.853300	-11.572000	22.100867	0.000459	20.819492
152.040228	-2.996600	3.853800	-11.548000	22.106426	0.000459	20.841652
153.040286	-2.996400	3.853200	-11.544000	22.114203	0.000460	20.819566
154.041427	-2.979400	3.853400	-11.480000	22.140574	0.000460	20.840752
155.041324	-3.001900	3.852000	-11.562000	22.137657	0.000462	20.828349
156.041574	-3.001500	3.853100	-11.564000	22.132547	0.000461	20.836983
157.045901	-2.982300	3.853000	-11.490000	22.169238	0.000461	20.828673
158.043001	-2.991700	3.851100	-11.520000	22.161960	0.000463	20.835137
159.042060	-2.993700	3.852200	-11.531000	22.171282	0.000463	20.827400
160.043115	-2.990800	3.851000	-11.516000	22.166645	0.000462	20.821336
161.043887	-3.000000	3.851000	-11.552000	22.163504	0.000461	20.820088
162.049200	-3.008900	3.851500	-11.588000	22.166794	0.000464	20.837131
163.050266	-3.004400	3.851200	-11.570000	22.178882	0.000463	20.829320
164.044288	-3.030400	3.849100	-11.663000	22.206200	0.000462	20.819213
165.044033	-3.010900	3.850600	-11.593000	22.192939	0.000463	20.837704
166.045834	-3.018500	3.850000	-11.621000	22.207171	0.000464	20.811650
167.045503	-3.020900	3.851200	-11.633000	22.224220	0.000463	20.809280
168.053855	-3.013000	3.849200	-11.596000	22.231871	0.000465	20.824527
169.049137	-3.000300	3.850300	-11.552000	22.252085	0.000466	20.818688
170.046660	-3.029300	3.848300	-11.656000	22.254826	0.000466	20.821906
171.046834	-3.001000	3.850400	-11.555000	22.238874	0.000465	20.826323
172.048003	-2.993600	3.849100	-11.522000	22.258364	0.000465	20.807905
173.048049	-2.999800	3.850100	-11.549000	22.298814	0.000468	20.799097
174.047069	-3.002200	3.848900	-11.555000	22.285006	0.000465	20.824151
175.045714	-3.030100	3.847900	-11.658000	22.314390	0.000467	20.830814
176.045912	-3.020300	3.847700	-11.620000	22.287348	0.000468	20.812271
177.051927	-3.010400	3.848000	-11.583000	22.301754	0.000466	20.821955
178.045923	-3.004500	3.846500	-11.556000	22.300582	0.000469	20.829315
179.050345	-2.994100	3.847600	-11.519000	22.328993	0.000467	20.831685
180.051247	-3.002700	3.847600	-11.553000	22.336644	0.000469	20.821329
181.048491	-2.993600	3.847800	-11.518000	22.327298	0.000471	20.834729
182.052969	-3.011600	3.847300	-11.586000	22.341777	0.000471	20.831684
183.050979	-2.964400	3.848300	-11.407000	22.358175	0.000470	20.814914
184.053893	-2.986700	3.847000	-11.489000	22.358897	0.000471	20.816586
185.051515	-2.990400	3.845700	-11.500000	22.374796	0.000472	20.817334
186.053719	-3.008100	3.846200	-11.569000	22.403181	0.000474	20.826318
187.051067	-2.993100	3.846100	-11.511000	22.407468	0.000473	20.812592
188.052354	-2.992800	3.846700	-11.511000	22.398745	0.000472	20.802435
189.055550	-2.989700	3.847200	-11.501000	22.400588	0.000472	20.818980
190.055332	-2.992800	3.845900	-11.509000	22.410954	0.000471	20.810394
191.054147	-2.991400	3.846300	-11.504000	22.446141	0.000474	20.848001
192.054074	-3.017400	3.844400	-11.600000	22.420025	0.000470	20.814262
193.058718	-2.978200	3.845100	-11.451000	22.423090	0.000471	20.805951
194.054334	-2.993400	3.845200	-11.510000	22.423214	0.000473	20.815559
195.059951	-2.974800	3.845600	-11.439000	22.459895	0.000474	20.825265
196.056042	-2.997700	3.845700	-11.528000	22.447210	0.000473	20.813985
197.054616	-2.990700	3.844900	-11.497000	22.471929	0.000475	20.800808
198.059417	-2.987900	3.843700	-11.483000	22.480551	0.000473	20.804701
199.057453	-3.000500	3.844800	-11.536000	22.468366	0.000477	20.831852
200.061574	-2.998800	3.844500	-11.528000	22.473274	0.000474	20.829655
201.055458	-3.003900	3.844200	-11.546000	22.491863	0.000475	20.839736
202.057755	-3.000200	3.842800	-11.528000	22.494554	0.000474	20.823466
203.055899	-2.977300	3.843800	-11.443000	22.505592	0.000476	20.807020
204.058075	-3.000200	3.843100	-11.529000	22.524130	0.000472	20.836965
205.058818	-2.998300	3.842600	-11.520000	22.500832	0.000473	20.812210
206.060116	-3.012500	3.841600	-11.572000	22.500533	0.000476	20.836091
207.058458	-3.015400	3.841400	-11.582000	22.510849	0.000475	20.836940
208.058490	-3.000900	3.842400	-11.530000	22.517850	0.000476	20.805545
209.062532	-2.995700	3.842100	-11.508000	22.561681	0.000476	20.827157
210.060635	-2.998600	3.840700	-11.516000	22.557296	0.000480	20.820395
211.062791	-3.016900	3.841100	-11.587000	22.562054	0.000478	20.825634
212.059276	-3.013100	3.841000	-11.572000	22.572668	0.000478	20.814928
213.061265	-3.001800	3.841400	-11.530000	22.558640	0.000479	20.825535
214.059021	-2.990700	3.841000	-11.486000	22.573316	0.000478	20.828853
215.061979	-2.972000	3.840600	-11.413000	22.589561	0.000478	20.811459
216.062305	-3.007300	3.839200	-11.544000	22.616595	0.000480	20.812457
217.062454	-3.021500	3.840900	-11.604000	22.605907	0.000479	20.833994
218.061682	-3.026400	3.840000	-11.620000	22.582783	0.000478	20.835964
219.064414	-2.992000	3.840500	-11.490000	22.586547	0.000480	20.830725
220.068859	-2.997300	3.839400	-11.507000	22.599253	0.000481	20.824011
221.061930	-3.007600	3.840200	-11.549000	22.616222	0.000481	20.820618
222.064870	-2.998900	3.840000	-11.515000	22.631569	0.000480	20.844998
223.062983	-2.989100	3.839000	-11.473000	22.625590	0.000482	20.812931
224.066551	-2.990100	3.838400	-11.477000	22.649209	0.000481	20.823312
225.065167	-3.010400	3.838100	-11.552000	22.646868	0.000480	20.828554
226.067024	-2.999800	3.837300	-11.510000	22.637998	0.000483	20.810187
227.072451	-2.999400	3.838500	-11.513000	22.632418	0.000482	20.834469
228.067276	-3.002400	3.837800	-11.522000	22.637101	0.000484	20.834418
229.067675	-2.994200	3.837400	-11.489000	22.622725	0.000484	20.810537
230.068832	-2.996700	3.838000	-11.500000	22.657283	0.000482	20.832347
231.066343	-3.003800	3.837700	-11.527000	22.661294	0.000485	20.838736
232.068500	-3.001300	3.837400	-11.516000	22.664184	0.000486	20.817449
233.071168	-2.990400	3.837500	-11.475000	22.685661	0.000486	20.838487
234.068259	-2.990800	3.837500	-11.476000	22.687505	0.000486	20.832747
235.067523	-2.988700	3.837000	-11.467000	22.683818	0.000486	20.813882
236.072654	-3.009600	3.836400	-11.545000	22.711996	0.000486	20.826934
237.070087	-3.023700	3.834800	-11.594000	22.733371	0.000487	20.810413
238.072492	-3.015800	3.836600	-11.570000	22.712444	0.000485	20.825960
239.071625	-3.014400	3.835400	-11.560000	22.744583	0.000487	20.858626
240.072343	-3.010500	3.834900	-11.544000	22.762520	0.000488	20.835344
241.073933	-3.017400	3.834600	-11.570000	22.757687	0.000486	20.839037
242.075747	-3.010800	3.835900	-11.548000	22.751235	0.000489	20.839686
243.074327	-2.987300	3.835000	-11.455000	22.768550	0.000488	20.816254
244.074787	-3.004300	3.834000	-11.517000	22.757937	0.000487	20.815106
245.074227	-3.007100	3.834100	-11.529000	22.750190	0.000489	20.837217
246.075739	-3.018700	3.833700	-11.572000	22.750937	0.000488	20.829431
247.076322	-2.975000	3.837100	-11.415000	22.753104	0.000489	20.833024
248.078465	-3.010100	3.834100	-11.540000	22.784495	0.000489	20.840761
249.076790	-3.007600	3.832700	-11.527000	22.793862	0.000490	20.821696
250.077353	-3.007900	3.833300	-11.529000	22.826173	0.000491	20.825140
251.076762	-3.005600	3.832000	-11.516000	22.848170	0.000491	20.824417
252.078512	-3.027500	3.832300	-11.601000	22.859379	0.000492	20.830431
253.075134	-3.025900	3.832600	-11.596000	22.829386	0.000491	20.825040
254.081940	-2.990900	3.832600	-11.462000	22.819846	0.000491	20.848199
255.078751	-3.009400	3.832400	-11.531000	22.821142	0.000494	20.834798
256.078066	-3.023300	3.830700	-11.581000	22.840348	0.000493	20.836496
257.079202	-2.992500	3.831800	-11.466000	22.867724	0.000492	20.847799
258.079911	-2.990000	3.832000	-11.457000	22.893656	0.000495	20.821623
259.084429	-2.986100	3.830800	-11.438000	22.898265	0.000494	20.822921
260.087565	-3.005400	3.831500	-11.514000	22.899958	0.000493	20.862548
261.087302	-2.978400	3.831800	-11.411000	22.913410	0.000495	20.836197
262.083711	-2.996400	3.830800	-11.476000	22.882049	0.000495	20.845555
263.089397	-3.014700	3.831900	-11.552000	22.904941	0.000497	20.846203
264.085180	-3.004600	3.831400	-11.511000	22.927334	0.000495	20.842561
265.087891	-3.003200	3.830100	-11.502000	22.930971	0.000497	20.851419
266.086231	-3.004500	3.830700	-11.508000	22.955381	0.000499	20.836521
267.086138	-2.989300	3.831600	-11.451000	22.941607	0.000497	20.847851
268.088176	-3.009200	3.829300	-11.522000	22.942603	0.000498	20.823720
269.089378	-2.984500	3.829500	-11.428000	22.934159	0.000497	20.840863
270.086613	-2.993500	3.829200	-11.462000	22.934682	0.000495	20.834275
271.085550	-2.996800	3.830000	-11.477000	22.932066	0.000497	20.874800
272.086211	-2.999200	3.827900	-11.480000	22.936874	0.000499	20.845480
273.086935	-3.005700	3.828200	-11.506000	22.948730	0.000500	20.850246
274.088492	-2.993200	3.830500	-11.464000	22.977997	0.000497	20.859653
275.085684	-2.991600	3.829100	-11.454000	22.971919	0.000501	20.840288
276.088277	-2.980700	3.829400	-11.413000	22.999517	0.000500	20.839016
277.086850	-2.987100	3.827900	-11.433000	23.000613	0.000500	20.844381
278.085263	-2.992900	3.827900	-11.455000	22.989005	0.000501	20.845553
279.088365	-2.982200	3.828100	-11.415000	22.978968	0.000501	20.842609
280.086390	-2.981600	3.826900	-11.410000	22.976102	0.000501	20.851117
281.087712	-2.986100	3.827700	-11.429000	22.994609	0.000502	20.858279
282.086951	-2.977200	3.827600	-11.394000	23.011570	0.000500	20.855833
283.086746	-2.988800	3.825800	-11.434000	23.031520	0.000504	20.852114
284.086128	-2.996000	3.826400	-11.463000	23.061433	0.000502	20.844154
285.086374	-2.992300	3.826300	-11.448000	23.069003	0.000503	20.867386
286.089407	-3.001300	3.824500	-11.478000	23.078641	0.000502	20.861870
287.091670	-2.999700	3.825600	-11.475000	23.068554	0.000506	20.871677
288.088206	-2.985200	3.825700	-11.419000	23.062452	0.000504	20.849917
289.088274	-2.983900	3.823800	-11.408000	23.076474	0.000503	20.872974
290.086481	-3.002800	3.824600	-11.483000	23.070670	0.000505	20.862418
291.087742	-2.973000	3.825200	-11.370000	23.080707	0.000505	20.836915
292.090629	-3.014200	3.823400	-11.524000	23.110468	0.000505	20.858201
293.087523	-2.991900	3.825100	-11.443000	23.103171	0.000507	20.857527
294.088792	-3.023800	3.824300	-11.563000	23.102274	0.000507	20.866110
295.089206	-3.017200	3.824300	-11.538000	23.139406	0.000506	20.857800
296.090130	-3.016900	3.824100	-11.535000	23.138907	0.000505	20.850663
297.089255	-2.981500	3.824900	-11.402000	23.111712	0.000508	20.867507
298.088731	-3.003300	3.821900	-11.478000	23.116393	0.000507	20.863663
299.093041	-2.993900	3.824200	-11.448000	23.125509	0.000508	20.849565
300.089143	-2.990400	3.822200	-11.429000	23.158407	0.000505	20.847443
301.090756	-2.990900	3.822700	-11.432000	23.125733	0.000505	20.842203
302.093379	-3.010300	3.823300	-11.508000	23.128347	0.000507	20.867106
303.093273	-3.015100	3.820900	-11.519000	23.134125	0.000508	20.857724
304.091846	-3.005000	3.821300	-11.482000	23.135345	0.000508	20.871748
305.092660	-2.998700	3.820500	-11.454000	23.153026	0.000508	20.853431
306.091825	-3.016700	3.820100	-11.523000	23.149964	0.000507	20.864112
307.093929	-2.973900	3.822400	-11.367000	23.186198	0.000508	20.873394
308.093464	-3.006500	3.820600	-11.486000	23.176286	0.000510	20.891910
309.094103	-2.996300	3.819700	-11.444000	23.184031	0.000510	20.874542
310.094958	-3.005000	3.819700	-11.477000	23.199769	0.000512	20.879882
311.093471	-2.991000	3.820900	-11.427000	23.196433	0.000509	20.896451
312.095028	-3.014100	3.819400	-11.511000	23.185151	0.000512	20.870923
313.092406	-2.995800	3.819900	-11.443000	23.183582	0.000510	20.866506
314.097244	-3.002700	3.819800	-11.469000	23.198574	0.000511	20.861141
315.092618	-3.002200	3.820000	-11.468000	23.250794	0.000512	20.867954
316.094787	-2.990800	3.820200	-11.424000	23.255450	0.000512	20.869775
317.093479	-2.992300	3.817600	-11.423000	23.235031	0.000512	20.875864
318.094164	-2.967200	3.820100	-11.334000	23.256497	0.000512	20.872720
319.098008	-2.981900	3.819200	-11.388000	23.235927	0.000510	20.885771
320.096741	-3.008100	3.817200	-11.481000	23.264116	0.000512	20.896949
321.095417	-2.999500	3.816700	-11.447000	23.290211	0.000514	20.869525
322.094918	-2.995600	3.817300	-11.435000	23.263170	0.000512	20.879881
323.099839	-3.004400	3.816200	-11.464000	23.247829	0.000514	20.875413
324.094348	-2.987900	3.818100	-11.407000	23.268547	0.000513	20.877210
325.098672	-2.977200	3.816800	-11.362000	23.286576	0.000514	20.885320
326.095643	-3.006700	3.816700	-11.474000	23.310505	0.000512	20.888440
327.093916	-3.020400	3.815500	-11.523000	23.347133	0.000515	20.878682
328.094317	-3.000200	3.817000	-11.451000	23.324947	0.000514	20.899593
329.097931	-3.005300	3.815600	-11.466000	23.331446	0.000515	20.893305
330.096507	-3.037700	3.814500	-11.586000	23.294594	0.000517	20.887192
331.093617	-3.019000	3.815900	-11.518000	23.279479	0.000517	20.876786
332.095565	-3.009000	3.815400	-11.479000	23.323926	0.000517	20.900467
333.094994	-3.004400	3.813300	-11.456000	23.362397	0.000517	20.893032
334.096115	-2.994300	3.814400	-11.420000	23.333812	0.000517	20.896624
335.095948	-3.013900	3.814000	-11.495000	23.325370	0.000517	20.890535
336.102762	-2.986400	3.814200	-11.390000	23.329255	0.000517	20.885894
337.098334	-3.005400	3.812900	-11.458000	23.382465	0.000519	20.904609
338.095894	-2.990400	3.814900	-11.407000	23.379452	0.000520	20.898745
339.097088	-3.013100	3.813000	-11.488000	23.405669	0.000517	20.890884
340.095330	-3.008400	3.813100	-11.470000	23.411272	0.000518	20.888914
341.096947	-2.979500	3.813700	-11.362000	23.447074	0.000521	20.915787
342.097673	-3.016100	3.811800	-11.495000	23.436792	0.000520	20.890784
343.096498	-3.007200	3.811900	-11.462000	23.460145	0.000520	20.914190
344.096364	-3.006100	3.812500	-11.460000	23.440277	0.000519	20.913716
345.100767	-2.993500	3.812800	-11.413000	23.439057	0.000519	20.912967
346.100022	-3.013400	3.811300	-11.485000	23.426707	0.000520	20.886841
347.100788	-3.001400	3.812800	-11.443000	23.390256	0.000518	20.896298
348.099421	-3.006700	3.811200	-11.458000	23.410698	0.000521	20.922000
349.099922	-3.008400	3.811800	-11.467000	23.447819	0.000520	20.889510
350.100993	-3.003500	3.810400	-11.443000	23.454840	0.000521	20.902710
351.099462	-3.005700	3.811500	-11.456000	23.478467	0.000521	20.911219
352.102579	-2.996900	3.811600	-11.422000	23.465919	0.000522	20.923770
353.100282	-2.978500	3.811700	-11.352000	23.447968	0.000522	20.903408
354.099030	-2.993000	3.810000	-11.402000	23.464898	0.000519	20.899989
355.100364	-2.982100	3.809000	-11.358000	23.445080	0.000520	20.920426
356.099452	-2.998400	3.808200	-11.417000	23.454665	0.000523	20.912016
357.107399	-2.990800	3.810500	-11.396000	23.464026	0.000523	20.910968
358.101480	-3.005200	3.808000	-11.443000	23.478267	0.000523	20.916233
359.103676	-3.007500	3.808600	-11.454000	23.509860	0.000523	20.927512
360.111934	-2.998500	3.808000	-11.418000	23.499030	0.000523	20.932302
361.100891	-3.004500	3.807600	-11.439000	23.517999	0.000525	20.944203
362.104806	-2.998900	3.809500	-11.423000	23.544065	0.000525	20.897792
363.104860	-2.998200	3.807700	-11.414000	23.544637	0.000523	20.907372
364.101835	-2.998000	3.808400	-11.417000	23.516057	0.000524	20.918552
365.103837	-3.015200	3.807200	-11.479000	23.535550	0.000524	20.921970
366.103493	-3.019400	3.806900	-11.493000	23.542321	0.000522	20.923542
367.105165	-2.998100	3.806100	-11.410000	23.572419	0.000524	20.930952
368.106565	-3.009000	3.805700	-11.451000	23.609063	0.000524	20.931651
369.102823	-2.993300	3.806600	-11.393000	23.608366	0.000524	20.930952
370.104384	-3.002200	3.806100	-11.425000	23.622554	0.000523	20.930478
371.103593	-2.991700	3.804900	-11.383000	23.627086	0.000524	20.929805
372.106413	-2.999500	3.805200	-11.413000	23.633184	0.000524	20.920272
373.104999	-2.980200	3.805400	-11.340000	23.617974	0.000525	20.914034
374.103097	-2.983800	3.805500	-11.353000	23.619069	0.000526	20.921295
375.104647	-3.002200	3.803800	-11.418000	23.611601	0.000524	20.913809
376.103745	-2.997800	3.804700	-11.404000	23.650310	0.000526	20.944077
377.103327	-3.016500	3.803500	-11.472000	23.613892	0.000525	20.924640
378.106654	-2.986100	3.804700	-11.360000	23.621186	0.000528	20.919624
379.107223	-3.010300	3.803000	-11.448000	23.619766	0.000527	20.914882
380.105697	-3.000700	3.802800	-11.410000	23.620936	0.000527	20.921270
381.107611	-3.007900	3.802100	-11.435000	23.617203	0.000526	20.945025
382.110376	-2.981200	3.803300	-11.338000	23.635847	0.000527	20.952810
383.108971	-2.991000	3.802700	-11.373000	23.659545	0.000525	20.936741
384.111372	-3.012000	3.801400	-11.449000	23.653447	0.000526	20.939162
385.110944	-2.993700	3.801500	-11.380000	23.631691	0.000525	20.966185
386.109299	-2.998500	3.802100	-11.399000	23.648817	0.000529	20.933098
387.108896	-2.982800	3.801400	-11.338000	23.681575	0.000528	20.942230
388.108870	-2.993100	3.800200	-11.373000	23.703977	0.000529	20.950464
389.112583	-3.003200	3.801500	-11.416000	23.690312	0.000528	20.929180
390.108582	-2.989800	3.800200	-11.360000	23.684288	0.000530	20.916978
391.108372	-3.002300	3.800500	-11.409000	23.706267	0.000528	20.929530
392.110564	-2.998600	3.800100	-11.394000	23.738999	0.000529	20.932000
393.111721	-3.004500	3.800000	-11.417000	23.720779	0.000526	20.954032
394.115294	-3.001400	3.799700	-11.403000	23.728519	0.000533	20.936665
395.113397	-2.977100	3.800700	-11.314000	23.744798	0.000534	20.940658
396.115467	-2.991000	3.799300	-11.363000	23.692502	0.000531	20.958399
397.111639	-3.014100	3.799300	-11.451000	23.742334	0.000531	20.945299
398.112864	-3.006100	3.797800	-11.415000	23.767448	0.000530	20.947719
399.112855	-3.010500	3.798300	-11.434000	23.788480	0.000530	20.938936
400.113917	-2.991700	3.798200	-11.362000	23.791367	0.000532	20.942779
401.113679	-2.988700	3.799500	-11.355000	23.775313	0.000530	20.951811
402.112831	-2.993200	3.798100	-11.368000	23.763988	0.000530	20.945673
403.115053	-2.985100	3.799100	-11.340000	23.763988	0.000531	20.958473
404.116757	-3.005600	3.797600	-11.413000	23.776781	0.000531	20.963713
405.119967	-2.982300	3.797000	-11.322000	23.768219	0.000533	20.946122
406.116237	-3.001300	3.797200	-11.395000	23.737604	0.000532	20.974217
407.116095	-3.001000	3.797300	-11.395000	23.772798	0.000534	20.950712
408.114754	-2.999100	3.796600	-11.386000	23.764187	0.000534	20.961517
409.115603	-3.001900	3.796000	-11.395000	23.753658	0.000532	20.940057
410.121638	-2.992300	3.795500	-11.356000	23.792859	0.000533	20.949963
411.117695	-3.016100	3.796500	-11.450000	23.793830	0.000532	20.956152
412.118133	-3.002400	3.795800	-11.395000	23.784645	0.000532	20.943151
413.118025	-2.995500	3.795600	-11.368000	23.814014	0.000535	20.951260
414.119778	-3.020200	3.794900	-11.460000	23.826583	0.000534	20.954853
415.121516	-3.001400	3.794500	-11.386000	23.808315	0.000533	20.947916
416.121395	-3.006500	3.795000	-11.409000	23.822476	0.000532	20.960692
417.119428	-3.016000	3.793900	-11.442000	23.817026	0.000533	20.962813
418.121099	-3.015200	3.795100	-11.442000	23.809559	0.000532	20.963386
419.122319	-3.004400	3.792700	-11.394000	23.821804	0.000533	20.953380
420.124587	-3.016400	3.793600	-11.443000	23.808935	0.000532	20.951858
421.124833	-3.018500	3.792300	-11.446000	23.818543	0.000536	20.957223
422.133320	-3.019700	3.793500	-11.454000	23.858041	0.000535	20.976909
423.128622	-3.022700	3.792300	-11.463000	23.890893	0.000534	20.967178
424.124391	-2.986500	3.792300	-11.325000	23.912121	0.000534	20.954328
425.124857	-3.002600	3.790400	-11.380000	23.876583	0.000534	20.940505
426.127836	-2.989800	3.791800	-11.335000	23.900748	0.000533	20.964259
427.127294	-2.994200	3.791000	-11.351000	23.917945	0.000535	20.940729
428.125638	-3.009200	3.791300	-11.407000	23.927377	0.000534	20.955401
429.125441	-2.997600	3.789700	-11.359000	23.897413	0.000534	20.970871
430.129748	-2.986700	3.792400	-11.326000	23.881261	0.000536	20.969848
431.127695	-2.988000	3.791100	-11.327000	23.886736	0.000533	20.953530
432.129842	-3.015700	3.790100	-11.429000	23.860106	0.000534	20.946742
433.128815	-2.993300	3.790000	-11.344000	23.861749	0.000536	20.944597
434.129606	-3.009200	3.788000	-11.398000	23.857742	0.000537	20.933942
435.129590	-3.012200	3.789500	-11.414000	23.893381	0.000539	20.931272
436.130327	-3.004800	3.787700	-11.381000	23.932204	0.000538	20.951233
437.134910	-3.005000	3.788300	-11.383000	23.961172	0.000539	20.940454
438.131388	-2.981800	3.787700	-11.294000	23.986703	0.000537	20.935713
439.133070	-2.994400	3.788400	-11.343000	24.002431	0.000536	20.929201
440.131890	-2.996000	3.787900	-11.348000	24.009026	0.000538	20.926331
441.133319	-2.970800	3.788400	-11.254000	23.954701	0.000537	20.947715
442.134416	-2.993100	3.788800	-11.339000	23.976277	0.000537	20.921466
443.139650	-2.979400	3.788100	-11.286000	23.965502	0.000537	20.941477
444.135064	-3.009000	3.788200	-11.397000	23.982324	0.000539	20.944597
445.135113	-3.013500	3.786400	-11.410000	23.978193	0.000539	20.938084
446.134922	-3.031700	3.785100	-11.475000	23.978940	0.000538	20.946418
447.135436	-2.974200	3.787100	-11.263000	23.970329	0.000538	20.939681
448.141030	-3.007900	3.785600	-11.386000	23.965551	0.000538	20.932045
449.137941	-2.993400	3.786700	-11.334000	23.964257	0.000538	20.942600
450.138627	-2.985900	3.786000	-11.304000	23.947086	0.000536	20.913056
451.137886	-2.998100	3.786000	-11.350000	23.943727	0.000537	20.943349
452.136913	-3.002500	3.784800	-11.364000	23.955273	0.000539	20.930273
453.138819	-3.018700	3.784400	-11.423000	23.953208	0.000538	20.927729
454.138354	-3.016100	3.784900	-11.415000	23.970777	0.000539	20.914528
455.139845	-2.996700	3.784800	-11.340000	23.996832	0.000538	20.912208
456.139136	-2.994500	3.785000	-11.334000	24.020597	0.000537	20.916600
457.139625	-3.002700	3.782700	-11.358000	24.047745	0.000540	20.919644
458.139076	-2.987800	3.782700	-11.300000	24.096616	0.000535	20.913181
459.141751	-2.992400	3.782800	-11.319000	24.067503	0.000536	20.920368
460.140988	-3.010800	3.781200	-11.383000	24.049115	0.000536	20.924336
461.142233	-2.991300	3.781900	-11.311000	24.059965	0.000535	20.919096
462.143458	-3.013500	3.781900	-11.396000	24.058571	0.000536	20.916277
463.142742	-3.002500	3.782700	-11.357000	24.049937	0.000536	20.921841
464.148829	-3.003300	3.781700	-11.356000	24.061533	0.000538	20.905024
465.140851	-3.002200	3.782100	-11.354000	24.079897	0.000537	20.930551
466.142581	-3.006100	3.780500	-11.363000	24.061484	0.000537	20.922516
467.142646	-2.994700	3.782400	-11.326000	24.074449	0.000537	20.924613
468.144214	-3.003200	3.780900	-11.353000	24.054045	0.000536	20.915531
469.146322	-2.986800	3.780000	-11.289000	24.102145	0.000537	20.910666
470.147786	-2.985700	3.780700	-11.286000	24.100403	0.000537	20.913660
471.142742	-2.980500	3.780900	-11.268000	24.080548	0.000537	20.915083
472.144213	-3.002100	3.778900	-11.344000	24.054471	0.000537	20.914535
473.143983	-3.008300	3.779600	-11.369000	24.097220	0.000540	20.904305
474.145275	-3.007100	3.779500	-11.365000	24.125736	0.000540	20.905878
475.148381	-3.010200	3.779500	-11.376000	24.132182	0.000539	20.888163
476.143899	-2.995500	3.779500	-11.320000	24.116532	0.000538	20.903759
477.145327	-3.014100	3.777600	-11.386000	24.110336	0.000542	20.905131
478.144402	-3.007100	3.779100	-11.363000	24.126436	0.000540	20.912743
479.147362	-2.977900	3.779100	-11.253000	24.116808	0.000539	20.892657
480.145678	-2.979300	3.778600	-11.255000	24.055472	0.000537	20.909376
481.145425	-2.989900	3.777000	-11.292000	24.067144	0.000540	20.901168
482.151650	-3.016200	3.776500	-11.389000	24.051841	0.000538	20.894356
483.146849	-2.985700	3.778000	-11.279000	24.035816	0.000540	20.901992
484.148278	-2.988100	3.777300	-11.286000	24.079388	0.000538	20.893534
485.145908	-3.007100	3.777100	-11.357000	24.094492	0.000540	20.894932
486.146443	-3.013000	3.776200	-11.376000	24.084341	0.000536	20.898500
487.148275	-2.990500	3.776800	-11.293000	24.088497	0.000540	20.889867
488.148020	-2.999700	3.775700	-11.325000	24.058364	0.000542	20.882881
489.149805	-3.004600	3.776200	-11.346000	24.050850	0.000541	20.869656
490.148858	-2.995000	3.776200	-11.309000	24.043335	0.000541	20.876344
491.151642	-3.004400	3.774800	-11.340000	24.082701	0.000542	20.860823
492.150304	-3.001200	3.774000	-11.326000	24.100069	0.000541	20.885353
493.149976	-3.004900	3.773900	-11.339000	24.132416	0.000542	20.877493
494.152052	-2.988100	3.774400	-11.277000	24.159288	0.000540	20.885952
495.153473	-3.015000	3.772300	-11.372000	24.180487	0.000542	20.870231
496.154671	-3.007500	3.774100	-11.350000	24.194421	0.000540	20.879465
497.156663	-3.022500	3.772800	-11.402000	24.161454	0.000540	20.873901
498.153171	-3.010400	3.771500	-11.353000	24.186037	0.000542	20.867738
499.155986	-2.994800	3.772700	-11.298000	24.185912	0.000541	20.858603
500.158494	-2.980400	3.773200	-11.245000	24.226268	0.000541	20.874425
501.152276	-2.983900	3.774100	-11.260000	24.198477	0.000543	20.861249
502.156981	-2.992000	3.771700	-11.284000	24.216515	0.000543	20.859428
503.155591	-2.982100	3.771300	-11.246000	24.197557	0.000544	20.876921
504.156112	-2.989000	3.772100	-11.274000	24.202733	0.000540	20.858406
505.157198	-2.997900	3.771000	-11.304000	24.216367	0.000542	20.872554
506.156060	-2.997200	3.772500	-11.306000	24.163422	0.000539	20.874452
507.160001	-3.022800	3.770500	-11.396000	24.142546	0.000538	20.880066
508.156346	-2.999600	3.770900	-11.311000	24.146652	0.000541	20.876124
509.157340	-2.992900	3.769400	-11.280000	24.161009	0.000540	20.863972
510.160745	-3.004900	3.771100	-11.331000	24.168374	0.000539	20.858082
511.155544	-2.990300	3.770400	-11.274000	24.204924	0.000539	20.866768
512.158926	-2.995200	3.768900	-11.288000	24.227540	0.000540	20.865745
513.161985	-2.994800	3.769900	-11.289000	24.242692	0.000540	20.881416
514.159067	-3.004800	3.768200	-11.322000	24.222515	0.000539	20.871135
515.159975	-3.019600	3.767600	-11.375000	24.221297	0.000540	20.873232
516.160950	-2.978900	3.769100	-11.227000	24.226472	0.000539	20.875104
517.159814	-3.014100	3.767700	-11.356000	24.202438	0.000541	20.873756
518.161651	-2.997400	3.767600	-11.292000	24.206047	0.000541	20.869790
519.160133	-3.004900	3.767100	-11.318000	24.206122	0.000538	20.863702
520.160577	-2.983200	3.767700	-11.239000	24.212441	0.000541	20.868617
521.161763	-3.000800	3.766000	-11.300000	24.242073	0.000541	20.857089
522.162006	-3.010200	3.766400	-11.336000	24.265884	0.000542	20.855368
523.162521	-3.010300	3.767100	-11.339000	24.261430	0.000538	20.879823
524.161139	-2.997500	3.766500	-11.289000	24.295738	0.000538	20.864926
525.162486	-2.979300	3.766500	-11.221000	24.270089	0.000540	20.852949
526.160839	-3.003200	3.765700	-11.307000	24.294769	0.000540	20.863006
527.166089	-2.975600	3.766500	-11.206000	24.290292	0.000540	20.865626
528.162526	-2.988500	3.766400	-11.255000	24.314548	0.000541	20.866725
529.162843	-2.979500	3.764400	-11.215000	24.295566	0.000539	20.873288
530.164442	-2.988300	3.766400	-11.254000	24.268848	0.000539	20.877307
531.166025	-3.002200	3.765500	-11.304000	24.298876	0.000540	20.854324
532.168093	-3.011000	3.764600	-11.334000	24.279969	0.000540	20.863332
533.167027	-3.006700	3.763900	-11.315000	24.300444	0.000539	20.853052
534.168949	-2.999600	3.763000	-11.287000	24.265266	0.000540	20.862335
535.166715	-2.987100	3.763200	-11.239000	24.274570	0.000540	20.859814
536.166945	-2.999900	3.763000	-11.288000	24.287459	0.000538	20.840027
537.166827	-2.983500	3.762800	-11.226000	24.282036	0.000542	20.858294
538.167386	-2.995700	3.762200	-11.270000	24.299102	0.000539	20.861188
539.170452	-3.012200	3.762500	-11.332000	24.296540	0.000540	20.873790
540.170054	-2.995500	3.762000	-11.268000	24.291763	0.000540	20.848137
541.166761	-3.001400	3.762000	-11.291000	24.329777	0.000540	20.870622
542.165855	-3.000700	3.761500	-11.286000	24.360400	0.000538	20.863409
543.166974	-3.028300	3.761000	-11.387000	24.372615	0.000542	20.862387
544.169058	-2.986400	3.760400	-11.229000	24.397291	0.000540	20.842572
545.171118	-3.016900	3.760600	-11.345000	24.364978	0.000541	20.847614
546.167798	-2.998400	3.760800	-11.275000	24.346520	0.000539	20.867029
547.168227	-2.991800	3.761500	-11.253000	24.373511	0.000541	20.831993
548.168407	-2.993100	3.759800	-11.253000	24.348237	0.000542	20.847415
549.168962	-3.012700	3.759800	-11.326000	24.376969	0.000540	20.853953
550.171933	-2.999500	3.759400	-11.276000	24.333832	0.000540	20.850983
551.174935	-3.004500	3.759800	-11.295000	24.348362	0.000541	20.841851
552.170195	-2.986200	3.758800	-11.224000	24.324679	0.000541	20.838482
553.171197	-2.994100	3.759900	-11.257000	24.353760	0.000541	20.860541
554.175238	-3.009100	3.758000	-11.308000	24.363735	0.000539	20.837833
555.172768	-3.018600	3.757300	-11.341000	24.335202	0.000540	20.842875
556.174599	-2.992100	3.759000	-11.247000	24.342317	0.000541	20.841003
557.173852	-3.013300	3.756600	-11.319000	24.353711	0.000542	20.858122
558.175018	-2.985200	3.757300	-11.215000	24.370229	0.000542	20.825381
559.177217	-3.007500	3.757200	-11.298000	24.387369	0.000541	20.838309
560.174788	-2.967800	3.757900	-11.151000	24.372543	0.000540	20.833867
561.179588	-3.004300	3.755900	-11.283000	24.406126	0.000539	20.850013
562.177566	-2.998100	3.756800	-11.263000	24.414260	0.000540	20.852009
563.177814	-3.013700	3.756000	-11.317000	24.397570	0.000541	20.821989
564.177420	-2.989000	3.756000	-11.226000	24.380728	0.000540	20.845871
565.180305	-3.015500	3.754700	-11.321000	24.380232	0.000539	20.849640
566.180734	-3.009100	3.755100	-11.298000	24.363291	0.000542	20.838336
567.181530	-3.006500	3.755000	-11.288000	24.389237	0.000540	20.835916
568.179914	-2.992600	3.754900	-11.235000	24.434710	0.000541	20.838386
569.179827	-3.006900	3.754600	-11.288000	24.473266	0.000541	20.815903
570.180193	-3.003100	3.753300	-11.270000	24.478464	0.000541	20.834394
571.179708	-3.016800	3.754000	-11.324000	24.517690	0.000540	20.840558
572.183329	-3.006600	3.754000	-11.286000	24.550771	0.000540	20.827282
573.181067	-2.982700	3.754600	-11.198000	24.545100	0.000542	20.814480
574.180779	-2.980600	3.754700	-11.191000	24.496897	0.000541	20.827757
575.181135	-2.998000	3.753400	-11.252000	24.489535	0.000541	20.828906
576.181220	-2.979700	3.752600	-11.181000	24.503366	0.000543	20.847048
577.185287	-2.979500	3.753500	-11.182000	24.513166	0.000539	20.828907
578.182861	-2.995700	3.753200	-11.243000	24.541993	0.000540	20.838389
579.183036	-3.016400	3.751000	-11.314000	24.561916	0.000542	20.824240
580.184510	-2.993900	3.751100	-11.229000	24.601761	0.000542	20.837192
581.184210	-2.992900	3.751000	-11.226000	24.585595	0.000539	20.817179
582.183583	-3.010800	3.750000	-11.289000	24.568110	0.000541	20.832825
583.186019	-3.008700	3.750000	-11.281000	24.590444	0.000542	20.832476
584.184579	-2.997500	3.750900	-11.242000	24.554132	0.000542	20.826387
585.186985	-2.990800	3.749900	-11.214000	24.560326	0.000539	20.831654
586.187351	-3.006800	3.749700	-11.274000	24.564902	0.000541	20.842883
587.185609	-2.998300	3.749900	-11.243000	24.553114	0.000541	20.838641
588.189226	-3.003100	3.749300	-11.259000	24.515953	0.000542	20.816057
589.187004	-2.996000	3.748800	-11.231000	24.547492	0.000539	20.816406
590.189893	-2.993800	3.750000	-11.226000	24.565301	0.000539	20.823843
591.187840	-3.004300	3.749700	-11.264000	24.569653	0.000540	20.828684
592.189259	-2.987800	3.748500	-11.198000	24.516874	0.000540	20.807971
593.190346	-2.980200	3.747900	-11.168000	24.504214	0.000540	20.803805
594.189003	-2.995600	3.748900	-11.229000	24.485882	0.000541	20.814810
595.190299	-2.997900	3.746300	-11.230000	24.468172	0.000541	20.816008
596.189729	-2.979400	3.748800	-11.168000	24.484614	0.000539	20.814960
597.195010	-2.987900	3.746700	-11.193000	24.487624	0.000539	20.813239
598.190856	-2.981800	3.747700	-11.174000	24.459468	0.000539	20.816284
599.190938	-3.000500	3.745900	-11.239000	24.450911	0.000537	20.825243
600.190483	-2.989600	3.746700	-11.200000	24.471806	0.000538	20.824869
601.192747	-2.993800	3.746500	-11.216000	24.503520	0.000537	20.810694
602.189254	-2.983900	3.746500	-11.178000	24.532423	0.000538	20.800339
603.192270	-3.007300	3.745900	-11.263000	24.574507	0.000539	20.822174
604.195708	-2.986700	3.746100	-11.186000	24.594529	0.000539	20.818082
605.195117	-3.002800	3.746000	-11.247000	24.606045	0.000539	20.797869
606.192375	-2.985100	3.746500	-11.183000	24.613208	0.000539	20.808850
607.194259	-3.008100	3.745000	-11.264000	24.541130	0.000537	20.816661
608.195522	-3.002200	3.744700	-11.241000	24.536106	0.000538	20.824897
609.195354	-3.022300	3.743800	-11.314000	24.526481	0.000538	20.801963
610.198680	-3.006700	3.743000	-11.254000	24.559786	0.000537	20.812621
611.197321	-3.003000	3.742900	-11.239000	24.602865	0.000538	20.810800
612.196967	-2.994300	3.743500	-11.209000	24.624055	0.000539	20.811199
613.196575	-3.014400	3.742700	-11.282000	24.600851	0.000539	20.822055
614.195881	-3.035500	3.741400	-11.356000	24.605726	0.000536	20.819834
615.200933	-3.011800	3.743000	-11.272000	24.599459	0.000538	20.808804
616.197848	-3.010700	3.742700	-11.267000	24.596002	0.000538	20.816241
617.197948	-3.003300	3.742000	-11.237000	24.580980	0.000536	20.794057
618.197688	-3.013100	3.742000	-11.274000	24.591502	0.000535	20.807933
619.201953	-2.999900	3.741700	-11.224000	24.626123	0.000537	20.802368
620.200685	-3.003100	3.741500	-11.236000	24.615155	0.000535	20.811752
621.201233	-3.012800	3.741000	-11.270000	24.645647	0.000536	20.802045
622.200332	-3.002400	3.740900	-11.232000	24.649676	0.000537	20.778113
623.200348	-3.017200	3.739900	-11.283000	24.628363	0.000536	20.793711
624.202888	-2.997000	3.740900	-11.211000	24.632243	0.000534	20.813725
625.199560	-3.013400	3.739200	-11.267000	24.653632	0.000535	20.795359
626.201149	-2.999600	3.740800	-11.219000	24.615879	0.000537	20.781185
627.200444	-3.019600	3.739100	-11.290000	24.630951	0.000534	20.781609
628.202272	-2.984200	3.739800	-11.159000	24.648535	0.000536	20.788348
629.201598	-3.009000	3.739000	-11.250000	24.660747	0.000536	20.792540
630.201630	-3.017400	3.737200	-11.276000	24.677881	0.000534	20.781285
631.204699	-2.991100	3.738700	-11.182000	24.672411	0.000535	20.797607
632.202670	-3.011500	3.737900	-11.255000	24.667163	0.000535	20.792341
633.202123	-2.988200	3.738400	-11.170000	24.619462	0.000533	20.777667
634.204688	-2.984500	3.737400	-11.153000	24.596905	0.000534	20.775422
635.205920	-3.006500	3.737600	-11.236000	24.556015	0.000536	20.781810
636.203539	-2.995300	3.737000	-11.191000	24.554425	0.000532	20.793965
637.208489	-2.999000	3.738200	-11.209000	24.516196	0.000534	20.763668
638.206042	-2.988200	3.737900	-11.169000	24.515972	0.000532	20.795213
639.205164	-2.992100	3.736800	-11.180000	24.547909	0.000535	20.773677
640.209395	-2.999600	3.736900	-11.208000	24.563852	0.000534	20.783034
641.206177	-2.999200	3.735500	-11.203000	24.592056	0.000535	20.786204
642.209194	-2.988600	3.736200	-11.165000	24.620534	0.000533	20.785855
643.206408	-3.000100	3.736300	-11.208000	24.646176	0.000534	20.792618
644.205722	-2.997800	3.734300	-11.194000	24.641500	0.000536	20.768960
645.207507	-2.979400	3.736200	-11.130000	24.593549	0.000532	20.768736
646.204753	-2.992000	3.734400	-11.173000	24.634935	0.000535	20.787977
647.210454	-3.007600	3.735400	-11.233000	24.640829	0.000536	20.792943
648.206090	-3.003200	3.732800	-11.210000	24.644485	0.000535	20.778119
649.206846	-3.011000	3.733700	-11.242000	24.615660	0.000534	20.761524
650.205769	-3.013700	3.732600	-11.248000	24.645578	0.000533	20.771630
651.210596	-3.013100	3.733200	-11.248000	24.659632	0.000535	20.778145
652.206217	-2.998900	3.732800	-11.193000	24.684301	0.000534	20.786305
653.206906	-3.001800	3.732600	-11.203000	24.698726	0.000534	20.774701
654.207703	-2.972100	3.733000	-11.094000	24.718794	0.000536	20.770657
655.209647	-2.989300	3.732400	-11.156000	24.712974	0.000534	20.785206
656.209654	-3.006600	3.730700	-11.216000	24.690667	0.000535	20.783684
657.209487	-2.995200	3.732100	-11.178000	24.670124	0.000536	20.763544
658.210279	-2.998200	3.730600	-11.185000	24.694297	0.000535	20.778792
659.212726	-3.019400	3.730300	-11.263000	24.685070	0.000536	20.779490
660.210349	-3.020900	3.730400	-11.268000	24.705961	0.000533	20.771530
661.211351	-3.010700	3.730200	-11.228000	24.678579	0.000535	20.783882
662.208282	-3.034700	3.729800	-11.318000	24.681589	0.000534	20.775048
663.209908	-3.023800	3.729400	-11.277000	24.656817	0.000534	20.774847
664.211272	-3.011000	3.729400	-11.229000	24.665994	0.000533	20.805867
665.207381	-3.012900	3.729800	-11.237000	24.709391	0.000534	20.788722
666.211262	-2.984000	3.729500	-11.128000	24.695489	0.000532	20.778091
667.211242	-3.000000	3.728100	-11.184000	24.638686	0.000534	20.779888
668.209080	-2.987100	3.730700	-11.143000	24.620032	0.000534	20.797205
669.211414	-3.016800	3.728300	-11.246000	24.648858	0.000533	20.758799
670.210218	-2.997300	3.729600	-11.178000	24.672384	0.000532	20.778139
671.210132	-2.999400	3.727100	-11.178000	24.721549	0.000532	20.784802
672.209673	-3.018500	3.728300	-11.253000	24.732516	0.000533	20.779685
673.215261	-2.967800	3.728600	-11.065000	24.743755	0.000532	20.776740
674.214454	-3.008600	3.728800	-11.217000	24.738234	0.000531	20.774044
675.212991	-2.996300	3.728000	-11.170000	24.755317	0.000531	20.789291
676.211497	-3.007700	3.727500	-11.211000	24.720253	0.000531	20.784924
677.212407	-2.988600	3.728000	-11.141000	24.697423	0.000531	20.799947
678.217229	-3.007700	3.725200	-11.203000	24.711101	0.000528	20.789965
679.212361	-3.001400	3.726700	-11.185000	24.761956	0.000531	20.770349
680.216849	-2.992100	3.726600	-11.149000	24.800996	0.000529	20.793407
681.212390	-2.999900	3.725800	-11.175000	24.804974	0.000531	20.787442
682.210659	-3.009300	3.725300	-11.209000	24.819273	0.000531	20.776661
683.213655	-2.988600	3.725900	-11.134000	24.784011	0.000530	20.791535
684.210446	-3.014900	3.724500	-11.227000	24.762923	0.000530	20.793131
685.214619	-2.983900	3.724500	-11.113000	24.785850	0.000529	20.793380
686.221861	-2.998300	3.724000	-11.165000	24.794678	0.000530	20.779480
687.212990	-3.005300	3.724000	-11.189000	24.789380	0.000530	20.809725
688.234986	-3.019300	3.724500	-11.245000	24.787889	0.000530	20.769821
689.212506	-3.012600	3.723400	-11.217000	24.792364	0.000530	20.775735
690.213113	-3.000300	3.724100	-11.172000	24.746906	0.000529	20.793653
691.214530	-2.984600	3.723700	-11.113000	24.706197	0.000529	20.781250
692.212787	-2.992500	3.722800	-11.140000	24.693936	0.000528	20.800240
693.214986	-3.011900	3.723100	-11.213000	24.682620	0.000529	20.791730
694.215959	-2.984400	3.723000	-11.110000	24.710548	0.000530	20.805056
695.214831	-2.990600	3.722600	-11.132000	24.684808	0.000529	20.780649
696.217149	-3.027100	3.721300	-11.264000	24.719102	0.000530	20.797045
697.214602	-3.009400	3.721800	-11.199000	24.718430	0.000529	20.799216
698.218741	-2.997000	3.722500	-11.155000	24.705399	0.000528	20.797519
699.214822	-3.011200	3.722100	-11.207000	24.730392	0.000528	20.803633
700.215241	-3.025300	3.720400	-11.255000	24.733972	0.000528	20.790631
701.218143	-3.007300	3.719700	-11.186000	24.730242	0.000526	20.811069
702.218643	-3.003300	3.721700	-11.177000	24.765305	0.000527	20.794573
703.219217	-3.007600	3.720200	-11.188000	24.798902	0.000527	20.804107
704.214923	-2.999600	3.720700	-11.159000	24.770503	0.000527	20.786513
705.218597	-2.990900	3.721200	-11.129000	24.769956	0.000525	20.822473
706.214421	-2.991600	3.719900	-11.127000	24.803700	0.000527	20.795646
707.217219	-2.994500	3.720600	-11.140000	24.814618	0.000526	20.795224
708.215116	-2.980600	3.719300	-11.084000	24.802980	0.000527	20.812942
709.215102	-3.005000	3.719400	-11.176000	24.822948	0.000525	20.787937
710.214766	-3.024500	3.718200	-11.245000	24.839385	0.000523	20.814390
711.220429	-3.008200	3.718300	-11.184000	24.883122	0.000526	20.800913
712.221311	-2.973300	3.718900	-11.056000	24.868055	0.000525	20.807602
713.213947	-3.007700	3.718700	-11.183000	24.894512	0.000525	20.809974
714.216866	-2.991700	3.717600	-11.121000	24.885187	0.000524	20.820530
715.215863	-3.006300	3.717800	-11.176000	24.887426	0.000524	20.802388
716.217083	-3.019900	3.716600	-11.222000	24.862288	0.000523	20.809401
717.217303	-2.992300	3.716100	-11.118000	24.844312	0.000524	20.816015
718.221343	-3.011500	3.717200	-11.193000	24.835460	0.000524	20.825624
719.217632	-3.026900	3.714400	-11.242000	24.821883	0.000524	20.809153
720.217935	-3.024700	3.716400	-11.240000	24.798560	0.000520	20.799971
721.219439	-2.981200	3.716000	-11.077000	24.783416	0.000521	20.811800
722.216702	-3.003400	3.715200	-11.157000	24.808483	0.000520	20.809456
723.221306	-2.998700	3.714600	-11.138000	24.748381	0.000523	20.818366
724.216981	-3.023800	3.715100	-11.233000	24.744974	0.000521	20.828223
725.218018	-3.011900	3.714800	-11.188000	24.761114	0.000521	20.822135
726.215378	-3.005300	3.714400	-11.162000	24.760743	0.000522	20.836461
727.218279	-3.006500	3.713700	-11.165000	24.761489	0.000521	20.798330
728.221582	-3.011300	3.714100	-11.182000	24.776610	0.000521	20.800228
729.220188	-3.024000	3.714400	-11.232000	24.734833	0.000520	20.804297
730.218586	-3.001800	3.714500	-11.148000	24.735207	0.000518	20.811784
731.219426	-3.002700	3.714000	-11.152000	24.730633	0.000520	20.813832
732.224404	-2.993000	3.714600	-11.117000	24.793747	0.000518	20.806995
733.220494	-2.985800	3.714400	-11.089000	24.797455	0.000520	20.808819
734.222102	-3.033700	3.710800	-11.257000	24.817995	0.000519	20.802880
735.221076	-3.003000	3.713500	-11.151000	24.798401	0.000519	20.813562
736.223163	-3.017500	3.712500	-11.202000	24.803575	0.000519	20.799314
737.224663	-2.982700	3.712300	-11.071000	24.804969	0.000519	20.801661
738.227089	-2.977700	3.713200	-11.055000	24.835058	0.000520	20.798194
739.230871	-2.996100	3.712400	-11.122000	24.837920	0.000518	20.813868
740.226272	-2.981200	3.711400	-11.063000	24.791420	0.000519	20.806556
741.225399	-3.002200	3.712600	-11.145000	24.775010	0.000516	20.811898
742.225304	-2.984700	3.711100	-11.075000	24.770435	0.000519	20.793557
743.227959	-3.004900	3.711900	-11.153000	24.813953	0.000517	20.792185
744.226321	-3.018800	3.711400	-11.203000	24.840760	0.000518	20.802967
745.229136	-2.993700	3.709700	-11.103000	24.835240	0.000518	20.805489
746.225809	-3.008100	3.710400	-11.160000	24.856701	0.000519	20.800949
747.226670	-2.994300	3.709400	-11.105000	24.853048	0.000519	20.811981
748.234023	-3.008000	3.710500	-11.161000	24.867993	0.000517	20.804221
749.227348	-2.963300	3.710100	-10.993000	24.861180	0.000515	20.787427
750.230861	-2.991200	3.709700	-11.095000	24.892834	0.000519	20.823937
751.227170	-2.984600	3.709000	-11.069000	24.923393	0.000516	20.802451
752.226777	-2.984300	3.709000	-11.067000	24.906388	0.000517	20.807195
753.228503	-3.020900	3.708400	-11.202000	24.899477	0.000514	20.812112
754.228388	-2.988500	3.709500	-11.084000	24.866259	0.000517	20.802006
755.231277	-2.996000	3.708400	-11.110000	24.896147	0.000517	20.790752
756.229859	-2.993100	3.706400	-11.093000	24.877575	0.000514	20.820950
757.231868	-2.998000	3.708900	-11.118000	24.868550	0.000516	20.808099
758.230324	-2.995000	3.708000	-11.104000	24.868974	0.000512	20.785765
759.232238	-3.021000	3.707400	-11.199000	24.876684	0.000514	20.804409
760.235756	-3.009200	3.707000	-11.154000	24.868230	0.000514	20.820580
761.239467	-3.000500	3.706700	-11.121000	24.839463	0.000515	20.823003
762.235474	-3.018400	3.705900	-11.185000	24.874175	0.000513	20.810426
763.235651	-3.007500	3.706700	-11.146000	24.884148	0.000514	20.810952
764.237860	-3.000700	3.706000	-11.120000	24.889148	0.000515	20.800797
765.236862	-3.003700	3.706100	-11.131000	24.883181	0.000517	20.821361
766.239033	-2.993600	3.705500	-11.091000	24.910584	0.000514	20.808561
767.236870	-3.015000	3.705400	-11.171000	24.897458	0.000510	20.828103
768.237294	-2.995600	3.706100	-11.101000	24.892833	0.000515	20.804970
769.240450	-2.991600	3.704200	-11.080000	24.887812	0.000513	20.812733
770.237330	-2.991800	3.704900	-11.082000	24.922699	0.000512	20.815505
771.242083	-3.006300	3.703400	-11.132000	24.918472	0.000513	20.818375
772.236947	-3.029500	3.703400	-11.218000	24.913700	0.000512	20.813585
773.237640	-3.012800	3.704500	-11.160000	24.927651	0.000511	20.799139
774.237634	-3.009100	3.702900	-11.141000	24.958111	0.000510	20.808374
775.238100	-2.999100	3.703800	-11.107000	24.966639	0.000511	20.807451
776.238539	-3.009000	3.702200	-11.139000	24.993916	0.000510	20.826295
777.237834	-3.008100	3.703600	-11.140000	25.035659	0.000512	20.843539
778.238045	-2.996000	3.703200	-11.094000	24.972015	0.000510	20.834184
779.236762	-3.024300	3.701400	-11.193000	24.950760	0.000507	20.828022
780.238308	-2.993700	3.701700	-11.081000	24.958792	0.000510	20.804790
781.239294	-2.998900	3.701600	-11.100000	24.952230	0.000508	20.804369
782.239831	-3.003300	3.701800	-11.117000	24.906036	0.000512	20.834816
783.241091	-3.006400	3.702700	-11.131000	24.908076	0.000509	20.832596
784.241319	-3.014900	3.701000	-11.158000	24.937667	0.000509	20.794018
785.242294	-3.028300	3.701400	-11.209000	24.908651	0.000509	20.827010
786.243220	-2.980800	3.702100	-11.034000	24.897516	0.000508	20.835747
787.245204	-3.022000	3.700800	-11.183000	24.909227	0.000512	20.827587
788.244053	-2.974300	3.700700	-11.007000	24.942323	0.000506	20.812442
789.245374	-2.998600	3.699900	-11.093000	24.920742	0.000507	20.805955
790.244470	-2.989500	3.700100	-11.061000	24.972485	0.000507	20.822802
791.244867	-2.988600	3.700500	-11.058000	24.981387	0.000508	20.832685
792.248231	-2.993200	3.699900	-11.074000	25.003318	0.000507	20.842370
793.248158	-3.017500	3.698500	-11.160000	24.993624	0.000507	20.816045
794.247867	-2.999200	3.699400	-11.095000	24.943056	0.000507	20.824557
795.248857	-3.004600	3.699900	-11.116000	24.955861	0.000507	20.815125
796.247500	-3.023100	3.698700	-11.181000	24.974659	0.000508	20.816450
797.249260	-2.997900	3.698600	-11.087000	24.980032	0.000506	20.824687
798.250594	-3.006800	3.697400	-11.116000	24.954549	0.000506	20.809541
799.250587	-3.004300	3.698100	-11.110000	24.948011	0.000506	20.833324
800.249163	-2.995200	3.697900	-11.076000	24.960719	0.000506	20.828536
801.251056	-2.987900	3.697500	-11.047000	24.979418	0.000505	20.835924
802.248894	-3.015500	3.696600	-11.145000	24.971313	0.000506	20.838694
803.257943	-3.044300	3.695600	-11.249000	24.985461	0.000503	20.808326
804.250408	-3.008200	3.697400	-11.122000	24.954062	0.000504	20.823750
805.251536	-3.003200	3.696400	-11.100000	24.965427	0.000504	20.829942
806.250906	-3.018400	3.695400	-11.153000	24.945538	0.000505	20.804764
807.250472	-3.005000	3.697200	-11.109000	24.950959	0.000502	20.849084
808.250457	-2.993300	3.697000	-11.065000	24.945937	0.000505	20.837881
809.253154	-2.985300	3.696600	-11.035000	24.958771	0.000502	20.841279
810.251399	-2.998300	3.696200	-11.081000	25.028261	0.000502	20.816673
811.250166	-3.001800	3.695400	-11.092000	25.039549	0.000504	20.827056
812.255053	-2.983800	3.694900	-11.024000	25.052357	0.000501	20.816205
813.254442	-3.014500	3.694500	-11.137000	25.044127	0.000504	20.833548
814.252836	-2.991500	3.694600	-11.052000	24.995426	0.000504	20.823544
815.251894	-2.985600	3.694500	-11.030000	24.990902	0.000503	20.846977
816.251726	-3.034600	3.693600	-11.207000	24.984266	0.000501	20.837945
817.252428	-3.014900	3.695100	-11.139000	24.972484	0.000500	20.828490
818.252846	-3.018800	3.693600	-11.150000	24.996229	0.000501	20.824349
819.254723	-2.992400	3.693300	-11.052000	24.956799	0.000501	20.826023
820.255871	-2.980500	3.694000	-11.009000	24.954389	0.000502	20.838303
821.254856	-2.971500	3.692900	-10.973000	24.952577	0.000499	20.819889
822.254869	-3.005300	3.691800	-11.094000	24.962449	0.000502	20.835487
823.254967	-2.979200	3.693500	-11.003000	24.923588	0.000498	20.837259
824.257135	-3.004500	3.691800	-11.091000	24.918394	0.000500	20.824461
825.260732	-3.001400	3.692300	-11.082000	24.914716	0.000499	20.841631
826.259320	-3.005900	3.692300	-11.098000	24.954276	0.000499	20.840560
827.256206	-3.010600	3.691100	-11.112000	25.005247	0.000500	20.810642
828.262264	-2.996800	3.691800	-11.063000	25.031551	0.000498	20.839890
829.256033	-3.019600	3.689700	-11.140000	25.026855	0.000501	20.830435
830.259591	-2.971500	3.692900	-10.971000	25.068150	0.000498	20.842015
831.257371	-2.980800	3.691300	-11.002000	25.009804	0.000498	20.819009
832.257674	-2.981300	3.690400	-11.001000	24.992999	0.000500	20.854298
833.257012	-2.997100	3.690300	-11.059000	24.980670	0.000498	20.852827
834.257382	-2.993600	3.691000	-11.047000	24.988503	0.000499	20.814699
835.261482	-2.990300	3.689700	-11.031000	25.005559	0.000497	20.840352
836.263718	-3.000100	3.690200	-11.070000	24.992806	0.000499	20.839405
837.258768	-2.989900	3.689300	-11.030000	25.011579	0.000496	20.841653
838.257741	-3.006000	3.688700	-11.086000	24.967150	0.000499	20.841628
839.261599	-3.002800	3.689100	-11.077000	24.943010	0.000497	20.867657
840.268158	-2.982800	3.689100	-11.003000	24.951092	0.000496	20.841158
841.260329	-3.022600	3.687900	-11.147000	24.981525	0.000496	20.849418
842.272374	-3.009700	3.688100	-11.099000	25.008254	0.000498	20.843531
843.259035	-2.990900	3.688500	-11.031000	25.027597	0.000495	20.828334
844.261437	-3.012300	3.688500	-11.109000	25.002414	0.000493	20.830083
845.259788	-3.040400	3.686100	-11.206000	25.022379	0.000495	20.860554
846.261114	-3.012400	3.688300	-11.110000	25.041473	0.000496	20.849375
847.262033	-2.974800	3.686700	-10.967000	25.037970	0.000492	20.852971
848.260036	-3.000900	3.686300	-11.060000	25.056021	0.000496	20.857813
849.265268	-2.974900	3.687600	-10.969000	25.063033	0.000495	20.856318
850.262651	-2.992500	3.686300	-11.030000	25.060473	0.000493	20.875558
851.268826	-3.008600	3.686700	-11.091000	25.053291	0.000491	20.839427
852.262090	-2.988900	3.686500	-11.017000	25.004439	0.000493	20.844917
853.262714	-3.010000	3.686100	-11.094000	25.047028	0.000492	20.857321
854.263452	-3.018800	3.684100	-11.120000	25.100603	0.000493	20.839505
855.265932	-2.985000	3.685700	-11.002000	25.091805	0.000492	20.857225
856.265081	-2.985100	3.685300	-11.000000	25.122604	0.000491	20.863487
857.269079	-2.999200	3.684400	-11.050000	25.137151	0.000494	20.859123
858.265038	-2.993900	3.685800	-11.034000	25.188436	0.000489	20.853711
859.267994	-2.990400	3.684600	-11.018000	25.178593	0.000491	20.848572
860.266547	-2.983700	3.683900	-10.991000	25.148465	0.000491	20.854361
861.265206	-2.999300	3.682900	-11.045000	25.116126	0.000490	20.870259
862.267439	-3.012200	3.684200	-11.097000	25.077396	0.000490	20.851296
863.266771	-3.013100	3.682200	-11.093000	25.129230	0.000488	20.855440
864.265751	-3.003300	3.682100	-11.058000	25.081376	0.000489	20.858136
865.265799	-3.006500	3.682400	-11.070000	25.057290	0.000490	20.860510
866.268115	-3.015200	3.681100	-11.098000	25.060025	0.000488	20.859462
867.267993	-2.998000	3.682000	-11.038000	25.107013	0.000488	20.860164
868.268697	-3.014100	3.681900	-11.097000	25.160661	0.000490	20.851906
869.276509	-2.985200	3.682400	-10.992000	25.175428	0.000488	20.862937
870.270368	-2.995200	3.681100	-11.024000	25.174760	0.000487	20.861318
871.270890	-2.995200	3.681000	-11.025000	25.175508	0.000487	20.866810
872.271883	-3.004600	3.682100	-11.063000	25.175287	0.000489	20.867062
873.273906	-3.025500	3.679900	-11.132000	25.163506	0.000489	20.854288
874.274874	-2.995900	3.680800	-11.026000	25.128606	0.000489	20.875675
875.272538	-3.013300	3.678700	-11.085000	25.115360	0.000489	20.855266
876.273868	-2.983900	3.681100	-10.983000	25.148325	0.000486	20.839996
877.273364	-2.993300	3.680200	-11.014000	25.130653	0.000487	20.876781
878.277015	-2.998800	3.679500	-11.033000	25.163442	0.000486	20.874137
879.273427	-3.016500	3.678400	-11.095000	25.159245	0.000486	20.881776
880.273974	-3.037100	3.679300	-11.174000	25.142072	0.000485	20.866434
881.274961	-2.990400	3.678800	-11.000000	25.128797	0.000484	20.880134
882.275359	-2.996000	3.679200	-11.021000	25.121914	0.000484	20.876069
883.277596	-2.999600	3.676500	-11.028000	25.144664	0.000484	20.896061
884.276978	-2.999000	3.678300	-11.030000	25.154460	0.000485	20.860379
885.276790	-2.995400	3.678300	-11.017000	25.129256	0.000486	20.881543
886.276433	-3.012900	3.677600	-11.079000	25.099353	0.000485	20.870491
887.275674	-2.997700	3.676600	-11.020000	25.100027	0.000483	20.886339
888.277740	-3.003200	3.677700	-11.044000	25.096547	0.000483	20.865304
889.278682	-2.980000	3.677500	-10.958000	25.114225	0.000482	20.880678
890.278101	-3.018500	3.674400	-11.090000	25.145922	0.000483	20.878359
891.278414	-3.012100	3.675400	-11.070000	25.167005	0.000484	20.863964
892.281147	-3.025600	3.677100	-11.124000	25.198352	0.000482	20.869829
893.278493	-2.995000	3.677000	-11.012000	25.155252	0.000483	20.866390
894.281838	-2.998400	3.676000	-11.022000	25.126965	0.000483	20.910060
895.282473	-3.006700	3.675100	-11.049000	25.131812	0.000483	20.866566
896.281727	-3.000800	3.674500	-11.026000	25.148072	0.000482	20.909913
897.283144	-3.010700	3.674000	-11.060000	25.156873	0.000481	20.897412
898.279323	-2.983000	3.674200	-10.959000	25.117749	0.000483	20.889430
899.279713	-3.012500	3.674100	-11.068000	25.152278	0.000481	20.890428
900.282933	-3.016200	3.674400	-11.081000	25.179475	0.000482	20.874586
901.280889	-3.004700	3.673900	-11.038000	25.190462	0.000482	20.884666
902.297307	-2.997200	3.673400	-11.009000	25.198866	0.000481	20.876983
903.286757	-2.973200	3.674600	-10.925000	25.192132	0.000481	20.872120
904.282629	-2.997500	3.673000	-11.009000	25.151145	0.000480	20.873171
905.286915	-2.986600	3.673300	-10.970000	25.151392	0.000480	20.884324
906.283592	-3.017300	3.672700	-11.081000	25.169466	0.000478	20.894407
907.281126	-3.007000	3.672300	-11.041000	25.205634	0.000479	20.864813
908.281607	-3.010700	3.672700	-11.056000	25.180854	0.000479	20.872651
909.279595	-3.005000	3.671300	-11.031000	25.172452	0.000480	20.879388
910.281518	-3.010000	3.671300	-11.050000	25.164674	0.000477	20.875374
911.284269	-3.019500	3.671100	-11.084000	25.141135	0.000480	20.877347
912.282202	-2.997600	3.670900	-11.003000	25.127040	0.000479	20.867465
913.281154	-3.011100	3.670900	-11.052000	25.150556	0.000479	20.874477
914.283635	-3.027000	3.669500	-11.108000	25.116104	0.000479	20.883038
915.288567	-2.994200	3.669600	-10.986000	25.091643	0.000479	20.872709
916.283660	-2.979300	3.670900	-10.936000	25.135098	0.000477	20.886932
917.283750	-2.977500	3.670800	-10.929000	25.148772	0.000478	20.863678
918.286847	-3.013200	3.669400	-11.056000	25.188918	0.000476	20.873634
919.284794	-3.020400	3.669300	-11.082000	25.170997	0.000474	20.864179
920.282870	-3.007400	3.669500	-11.034000	25.180419	0.000475	20.856094
921.285796	-3.002300	3.667900	-11.012000	25.153623	0.000474	20.857642
922.284449	-3.000400	3.669700	-11.009000	25.154044	0.000473	20.865651
923.284014	-2.995000	3.669200	-10.988000	25.149745	0.000477	20.851853
924.287073	-2.970500	3.668600	-10.896000	25.148479	0.000476	20.847737
925.285886	-3.011700	3.666900	-11.042000	25.207393	0.000474	20.868475
926.290444	-3.011000	3.667100	-11.041000	25.185344	0.000474	20.858667
927.286076	-3.001400	3.667100	-11.006000	25.160163	0.000473	20.864207
928.286722	-2.987500	3.666800	-10.953000	25.158523	0.000475	20.856872
929.286944	-3.003500	3.667000	-11.012000	25.158350	0.000472	20.853379
930.288601	-2.991300	3.666800	-10.968000	25.131403	0.000474	20.846242
931.286225	-2.998200	3.666000	-10.990000	25.171624	0.000475	20.847265
932.291059	-3.024500	3.665000	-11.084000	25.201381	0.000473	20.850112
933.288094	-2.999600	3.666600	-10.998000	25.234142	0.000474	20.855501
934.287269	-3.005700	3.665400	-11.016000	25.228549	0.000473	20.871222
935.290560	-3.016300	3.664400	-11.052000	25.224348	0.000472	20.857522
936.288486	-2.981700	3.666400	-10.931000	25.205605	0.000473	20.854826
937.294919	-2.990300	3.665100	-10.959000	25.231954	0.000472	20.867054
938.292815	-3.008100	3.664500	-11.022000	25.189349	0.000473	20.841352
939.290507	-3.012100	3.664600	-11.037000	25.179156	0.000470	20.846292
940.290422	-3.011100	3.663100	-11.029000	25.159916	0.000472	20.852106
941.289907	-3.000600	3.664000	-10.993000	25.177566	0.000470	20.834739
942.299294	-3.002200	3.663800	-10.998000	25.193969	0.000471	20.850731
943.292538	-3.007300	3.663000	-11.015000	25.213108	0.000470	20.827747
944.292091	-3.002000	3.662300	-10.992000	25.246491	0.000469	20.831391
945.291811	-3.004300	3.663300	-11.005000	25.264936	0.000470	20.846116
946.292986	-3.000900	3.662900	-10.991000	25.232224	0.000470	20.850731
947.290955	-2.992100	3.662000	-10.955000	25.193371	0.000467	20.825476
948.293239	-3.013200	3.661800	-11.033000	25.175001	0.000468	20.828844
949.293375	-3.002400	3.662000	-10.994000	25.143257	0.000468	20.843917
950.294093	-2.993500	3.661300	-10.960000	25.136869	0.000466	20.811901
951.294187	-2.992300	3.661500	-10.955000	25.108802	0.000467	20.848209
952.293414	-3.026700	3.660800	-11.080000	25.097317	0.000466	20.849483
953.294851	-2.998900	3.660300	-10.976000	25.128343	0.000466	20.819463
954.292919	-2.988300	3.661000	-10.940000	25.139876	0.000467	20.823929
955.293942	-3.004600	3.659900	-10.996000	25.176618	0.000464	20.836157
956.292065	-3.022800	3.659500	-11.061000	25.202022	0.000467	20.821834
957.291958	-3.001000	3.659700	-10.982000	25.205254	0.000466	20.829345
958.293952	-3.025100	3.658900	-11.068000	25.241894	0.000464	20.814448
959.296063	-2.981700	3.659400	-10.910000	25.271573	0.000465	20.834287
960.293314	-2.989600	3.659400	-10.939000	25.287852	0.000464	20.833089
961.292756	-2.990800	3.658600	-10.941000	25.305701	0.000466	20.834888
962.300096	-2.998900	3.658000	-10.969000	25.320365	0.000465	20.814050
963.293017	-2.996000	3.658800	-10.960000	25.331550	0.000464	20.830496
964.297718	-3.009700	3.658100	-11.008000	25.304731	0.000464	20.827277
965.294119	-3.001100	3.657200	-10.974000	25.292929	0.000464	20.826807
966.296071	-2.980100	3.659100	-10.904000	25.248114	0.000463	20.819744
967.301807	-2.995000	3.656900	-10.951000	25.281721	0.000463	20.842105
968.294307	-2.998300	3.656400	-10.961000	25.248665	0.000460	20.811762
969.296779	-2.995400	3.658200	-10.957000	25.260743	0.000461	20.820570
970.293514	-3.012400	3.656400	-11.014000	25.218066	0.000460	20.837940
971.296669	-2.999300	3.656200	-10.966000	25.209467	0.000460	20.822670
972.294413	-2.987800	3.656300	-10.923000	25.179265	0.000462	20.836445
973.294107	-2.997400	3.654900	-10.954000	25.223114	0.000461	20.826887
974.295562	-3.015400	3.654000	-11.018000	25.194705	0.000458	20.825392
975.297852	-3.009800	3.654100	-10.997000	25.223094	0.000461	20.823073
976.297310	-2.969300	3.655800	-10.854000	25.246262	0.000460	20.823574
977.297637	-2.972900	3.655700	-10.866000	25.209350	0.000458	20.800741
978.306504	-2.992400	3.654600	-10.935000	25.202987	0.000459	20.834182
979.299415	-3.006600	3.652800	-10.982000	25.230530	0.000456	20.816789
980.302073	-3.003700	3.653100	-10.972000	25.201201	0.000458	20.792086
981.298140	-2.999000	3.652600	-10.954000	25.186414	0.000458	20.820862
982.299510	-2.998100	3.654400	-10.955000	25.194965	0.000456	20.808110
983.300549	-2.998800	3.653300	-10.955000	25.180624	0.000455	20.827378
984.299913	-2.989500	3.654200	-10.923000	25.228625	0.000456	20.825307
985.302969	-2.988800	3.653300	-10.918000	25.243764	0.000457	20.819645
986.306852	-2.996000	3.652500	-10.942000	25.252292	0.000455	20.817301
987.301306	-3.019500	3.649700	-11.020000	25.245458	0.000456	20.841733
988.302283	-2.992600	3.652400	-10.928000	25.255676	0.000455	20.806000
989.309202	-3.009200	3.651400	-10.986000	25.328554	0.000453	20.806151
990.303761	-3.040000	3.650700	-11.097000	25.344412	0.000455	20.805004
991.306875	-2.981800	3.651400	-10.886000	25.352765	0.000453	20.806754
992.305904	-2.974600	3.650700	-10.858000	25.312279	0.000451	20.807354
993.304408	-2.998500	3.650400	-10.944000	25.344964	0.000453	20.797499
994.308829	-3.012900	3.649200	-10.994000	25.320732	0.000454	20.807307
995.303978	-2.997600	3.650100	-10.941000	25.337735	0.000452	20.823430
996.307490	-2.979600	3.649600	-10.873000	25.324762	0.000451	20.812301
997.305248	-2.990800	3.649300	-10.913000	25.308408	0.000450	20.825753
998.307950	-3.008600	3.648800	-10.977000	25.338710	0.000451	20.800702
999.308519	-3.008700	3.648900	-10.978000	25.296780	0.000452	20.803646
1000.306294	-3.007700	3.647600	-10.969000	25.256069	0.000451	20.802601
1001.307425	-3.024200	3.648000	-11.032000	25.259177	0.000450	20.812833
1002.309034	-3.029700	3.646200	-11.046000	25.268028	0.000450	20.812711
1003.306443	-3.010800	3.648300	-10.983000	25.266537	0.000450	20.811214
1004.306937	-3.007500	3.646500	-10.966000	25.294724	0.000450	20.799211
1005.306433	-3.015600	3.645100	-10.991000	25.326092	0.000451	20.818378
1006.307762	-2.991700	3.646500	-10.909000	25.300542	0.000449	20.778500
1007.310615	-3.009800	3.645600	-10.971000	25.299923	0.000450	20.798267
1008.309204	-2.985700	3.646900	-10.887000	25.343295	0.000448	20.797245
1009.308433	-3.000600	3.646100	-10.940000	25.295299	0.000448	20.797419
1010.309331	-3.008700	3.644200	-10.963000	25.248995	0.000447	20.794551
1011.309214	-3.015900	3.646000	-10.994000	25.274176	0.000448	20.801814
1012.311001	-2.975300	3.645600	-10.845000	25.289338	0.000447	20.774837
1013.310692	-3.031500	3.642800	-11.042000	25.324335	0.000446	20.800494
1014.307843	-2.999800	3.643900	-10.929000	25.298859	0.000445	20.805734
1015.310263	-2.992400	3.644100	-10.903000	25.267546	0.000446	20.784252
1016.308750	-3.001500	3.643800	-10.935000	25.251763	0.000443	20.811555
1017.306798	-3.005900	3.643200	-10.951000	25.298342	0.000447	20.813275
1018.311345	-3.020100	3.641900	-10.998000	25.297426	0.000445	20.777743
1019.310536	-2.986700	3.642800	-10.879000	25.309331	0.000446	20.777368
1020.312043	-2.987300	3.641400	-10.877000	25.273467	0.000443	20.790671
1021.316094	-2.997600	3.642800	-10.918000	25.267056	0.000446	20.794191
1022.314179	-2.985000	3.643200	-10.874000	25.301930	0.000444	20.787007
1023.316826	-3.002800	3.643200	-10.939000	25.301559	0.000444	20.773832
1024.312747	-3.000300	3.642000	-10.925000	25.334493	0.000444	20.789829
1025.312228	-2.999200	3.642200	-10.923000	25.357807	0.000442	20.781944
1026.315443	-3.017100	3.640700	-10.984000	25.359100	0.000444	20.776605
1027.314471	-2.985300	3.641600	-10.870000	25.340413	0.000440	20.783446
1028.313689	-2.999900	3.640100	-10.919000	25.332088	0.000441	20.777932
1029.320578	-3.003300	3.639700	-10.930000	25.314269	0.000441	20.789912
1030.315781	-2.983000	3.640300	-10.858000	25.341014	0.000439	20.779307
1031.313539	-2.990000	3.639100	-10.880000	25.319093	0.000441	20.790488
1032.316869	-3.003800	3.639400	-10.930000	25.330328	0.000440	20.780906
1033.312561	-2.968300	3.641100	-10.807000	25.329561	0.000441	20.770652
1034.318912	-2.981300	3.638600	-10.847000	25.334708	0.000441	20.758277
1035.312035	-2.990100	3.639200	-10.881000	25.323498	0.000441	20.778790
1036.315672	-2.985100	3.638500	-10.860000	25.365106	0.000439	20.776471
1037.315625	-2.998900	3.638600	-10.910000	25.396845	0.000438	20.780366
1038.317388	-3.022400	3.636900	-10.991000	25.391255	0.000438	20.765270
1039.317569	-3.008500	3.635900	-10.938000	25.348484	0.000440	20.785385
1040.316573	-2.987700	3.637000	-10.865000	25.315205	0.000439	20.751022
1041.315287	-2.986900	3.636000	-10.860000	25.351693	0.000438	20.770589
1042.319795	-3.030700	3.635500	-11.017000	25.335691	0.000437	20.782498
1043.318254	-3.017900	3.637200	-10.976000	25.345632	0.000436	20.768297
1044.319278	-2.996100	3.636600	-10.894000	25.332338	0.000437	20.781502
1045.321020	-2.987200	3.635400	-10.858000	25.360350	0.000437	20.775015
1046.320423	-2.981300	3.636700	-10.842000	25.353096	0.000433	20.773421
1047.320937	-2.993800	3.636700	-10.887000	25.317357	0.000433	20.777365
1048.321827	-3.001700	3.635200	-10.911000	25.320267	0.000436	20.768433
1049.321121	-2.997300	3.634500	-10.893000	25.353078	0.000434	20.773403
1050.322655	-3.008100	3.634300	-10.932000	25.354645	0.000434	20.780192
1051.321231	-3.022800	3.632500	-10.980000	25.377638	0.000436	20.761553
1052.319090	-3.020600	3.632700	-10.972000	25.411587	0.000433	20.768616
1053.321363	-2.978600	3.634500	-10.825000	25.419469	0.000433	20.756615
1054.320052	-3.006400	3.633000	-10.921000	25.426603	0.000434	20.760461
1055.320870	-2.988700	3.632400	-10.855000	25.359824	0.000430	20.768797
1056.323360	-2.987300	3.632600	-10.851000	25.328561	0.000430	20.772019
1057.320380	-2.987100	3.633000	-10.852000	25.287752	0.000431	20.760443
1058.320857	-3.036000	3.630600	-11.021000	25.264189	0.000433	20.768079
1059.324123	-2.997300	3.629800	-10.879000	25.231132	0.000433	20.763814
1060.321515	-3.019200	3.631900	-10.964000	25.263968	0.000429	20.773074
1061.328332	-2.972600	3.632000	-10.795000	25.302350	0.000430	20.735743
1062.323050	-2.981800	3.630500	-10.824000	25.319004	0.000432	20.761475
1063.321691	-2.990200	3.630900	-10.857000	25.343933	0.000428	20.766592
1064.322678	-3.014600	3.629700	-10.941000	25.338618	0.000430	20.751771
1065.323088	-3.013400	3.628700	-10.934000	25.352935	0.000428	20.787958
1066.325364	-3.001500	3.630500	-10.896000	25.339965	0.000427	20.754546
1067.324329	-2.971000	3.629700	-10.783000	25.316603	0.000428	20.740097
1068.324711	-2.994300	3.629800	-10.868000	25.334674	0.000429	20.742595
1069.322598	-3.002700	3.627000	-10.889000	25.295853	0.000429	20.763835
1070.325504	-3.005500	3.628500	-10.904000	25.268539	0.000427	20.760119
1071.325289	-2.987300	3.629500	-10.842000	25.259022	0.000427	20.757676
1072.325965	-3.006500	3.628400	-10.908000	25.270631	0.000426	20.755581
1073.323833	-2.980000	3.627800	-10.810000	25.304811	0.000425	20.767613
1074.326496	-2.999800	3.625600	-10.875000	25.290695	0.000426	20.761501
1075.330060	-3.007600	3.627200	-10.909000	25.316943	0.000426	20.757035
1076.326278	-3.005600	3.625500	-10.896000	25.277996	0.000425	20.775304
1077.328883	-2.999200	3.626400	-10.875000	25.299376	0.000426	20.750776
1078.326608	-3.024500	3.624700	-10.962000	25.306685	0.000424	20.725397
1079.327908	-3.006800	3.625300	-10.899000	25.329258	0.000423	20.746166
1080.326833	-2.984000	3.626000	-10.820000	25.353043	0.000423	20.753927
1081.327506	-3.005200	3.624400	-10.891000	25.329162	0.000423	20.748914
1082.329690	-2.984100	3.623900	-10.813000	25.337640	0.000422	20.743202
1083.331022	-3.020700	3.623800	-10.945000	25.343855	0.000421	20.763668
1084.326518	-2.991400	3.624600	-10.841000	25.351638	0.000422	20.748723
1085.327860	-2.974700	3.624900	-10.782000	25.387381	0.000421	20.757112
1086.331361	-2.997200	3.622600	-10.857000	25.422351	0.000421	20.745285
1087.329147	-2.965300	3.624000	-10.745000	25.413829	0.000418	20.732460
1088.331798	-2.988400	3.623300	-10.827000	25.407896	0.000419	20.739778
1089.330353	-2.993900	3.622300	-10.843000	25.373675	0.000419	20.718217
1090.332819	-2.998700	3.623500	-10.865000	25.379813	0.000419	20.719639
1091.334274	-3.013300	3.621600	-10.913000	25.364408	0.000418	20.728353
1092.332842	-2.984700	3.623600	-10.815000	25.303814	0.000420	20.729627
1093.335916	-2.992600	3.621500	-10.837000	25.328848	0.000419	20.741961
1094.331324	-3.007500	3.619700	-10.885000	25.356588	0.000418	20.720027
1095.333285	-3.008900	3.619800	-10.891000	25.375554	0.000417	20.738122
1096.335473	-2.981000	3.622100	-10.796000	25.395686	0.000418	20.731310
1097.333134	-2.997100	3.620700	-10.851000	25.424171	0.000417	20.721981
1098.333409	-2.999900	3.619600	-10.858000	25.429145	0.000419	20.738356
1099.339058	-3.001900	3.620400	-10.867000	25.439533	0.000417	20.737408
1100.334968	-3.000500	3.618600	-10.857000	25.446594	0.000417	20.725057
1101.335754	-2.996500	3.620100	-10.846000	25.470727	0.000415	20.735067
1102.339634	-3.006700	3.619300	-10.882000	25.463523	0.000416	20.724987
1103.335051	-2.989900	3.618300	-10.818000	25.519960	0.000416	20.731402
1104.338305	-2.991300	3.617800	-10.821000	25.495411	0.000414	20.733776
1105.335130	-2.991400	3.617800	-10.821000	25.458186	0.000413	20.722947
1106.336076	-2.999100	3.617700	-10.848000	25.410994	0.000415	20.725345
1107.339579	-2.994700	3.616900	-10.831000	25.393624	0.000412	20.742043
1108.337246	-3.010600	3.616700	-10.888000	25.411744	0.000413	20.718510
1109.340657	-3.009600	3.616600	-10.883000	25.396438	0.000411	20.719263
1110.338247	-2.990700	3.616700	-10.816000	25.375836	0.000411	20.737458
1111.336401	-3.030100	3.615000	-10.953000	25.396045	0.000414	20.729300
1112.336668	-2.990800	3.616100	-10.814000	25.392915	0.000411	20.731848
1113.337358	-3.012100	3.614000	-10.885000	25.341770	0.000412	20.720321
1114.338561	-2.999900	3.614400	-10.842000	25.349254	0.000412	20.705549
1115.339082	-3.004000	3.615100	-10.859000	25.375075	0.000412	20.703975
1116.339682	-2.995900	3.613800	-10.825000	25.369263	0.000409	20.704777
1117.338565	-3.014500	3.614000	-10.893000	25.385420	0.000410	20.723372
1118.338727	-2.999700	3.613400	-10.838000	25.369417	0.000412	20.729589
1119.339672	-2.994700	3.613500	-10.821000	25.359802	0.000409	20.715667
1120.345638	-3.010100	3.613100	-10.875000	25.300251	0.000410	20.718936
1121.340143	-3.014500	3.613000	-10.891000	25.319964	0.000409	20.702692
1122.339782	-3.015000	3.612100	-10.889000	25.319840	0.000411	20.715371
1123.342556	-2.989500	3.612700	-10.799000	25.342013	0.000406	20.703020
1124.338729	-2.999300	3.611500	-10.830000	25.382800	0.000406	20.697506
1125.341886	-2.986500	3.611400	-10.784000	25.414762	0.000407	20.731025
1126.341395	-2.982400	3.611300	-10.769000	25.394828	0.000407	20.746096
1127.348066	-2.986300	3.611000	-10.783000	25.406435	0.000409	20.729776
1128.340003	-2.996800	3.610500	-10.819000	25.438547	0.000408	20.701801
1129.339809	-3.015600	3.609700	-10.885000	25.450900	0.000407	20.710414
1130.342374	-3.021200	3.609000	-10.903000	25.494219	0.000408	20.737795
1131.342275	-3.000800	3.608700	-10.827000	25.479928	0.000407	20.694992
1132.343676	-2.979100	3.609800	-10.753000	25.427793	0.000407	20.719928
1133.341813	-2.995600	3.609000	-10.810000	25.465864	0.000406	20.707423
1134.341512	-3.002600	3.608300	-10.834000	25.472502	0.000404	20.700811
1135.352509	-2.990000	3.609600	-10.791000	25.442928	0.000406	20.703356
1136.381508	-2.993600	3.608800	-10.802000	25.370162	0.000406	20.706628
1137.341889	-3.016200	3.607300	-10.879000	25.378091	0.000403	20.711745
1138.341063	-3.007100	3.607900	-10.848000	25.369440	0.000405	20.714913
1139.343662	-3.010600	3.605200	-10.853000	25.383258	0.000403	20.722150
1140.340951	-2.979600	3.607700	-10.748000	25.385943	0.000403	20.716785
1141.348250	-2.993600	3.607200	-10.797000	25.373641	0.000403	20.721976
1142.343738	-3.002700	3.606500	-10.828000	25.395340	0.000403	20.711048
1143.343111	-3.016500	3.606300	-10.878000	25.424864	0.000404	20.711770
1144.342647	-3.014100	3.605700	-10.867000	25.467435	0.000402	20.714690
1145.354123	-3.003200	3.606000	-10.828000	25.434555	0.000400	20.732408
1146.355531	-2.990000	3.605600	-10.780000	25.410599	0.000403	20.715939
1147.347974	-3.007500	3.604300	-10.839000	25.400137	0.000401	20.715864
1148.343727	-2.983700	3.604700	-10.755000	25.365519	0.000400	20.712399
1149.353633	-3.008000	3.604700	-10.842000	25.334350	0.000403	20.703860
1150.347405	-3.021500	3.603600	-10.887000	25.317451	0.000400	20.709178
1151.348955	-3.015400	3.604100	-10.866000	25.390072	0.000400	20.709551
1152.347883	-3.016100	3.603000	-10.866000	25.387365	0.000398	20.739551
1153.346966	-3.003100	3.604000	-10.822000	25.394621	0.000400	20.722180
1154.347316	-2.982300	3.602800	-10.744000	25.393182	0.000399	20.720735
1155.347814	-3.006000	3.603400	-10.831000	25.382096	0.000398	20.720983
1156.348022	-3.020600	3.602300	-10.880000	25.427853	0.000399	20.709556
1157.349088	-3.005400	3.600800	-10.821000	25.406157	0.000399	20.733764
1158.347828	-3.005600	3.600600	-10.821000	25.382121	0.000396	20.715318
1159.347776	-3.023200	3.601600	-10.888000	25.386025	0.000396	20.730619
1160.349658	-3.017500	3.600300	-10.862000	25.368402	0.000396	20.735683
1161.353172	-2.989800	3.601300	-10.766000	25.384930	0.000399	20.707232
1162.347297	-2.984100	3.601000	-10.744000	25.430187	0.000398	20.730393
1163.348618	-2.991700	3.600300	-10.770000	25.461104	0.000397	20.723032
1164.348872	-3.005500	3.600600	-10.821000	25.437967	0.000395	20.721609
1165.349191	-3.008900	3.598800	-10.828000	25.447932	0.000395	20.734462
1166.350883	-2.990100	3.600500	-10.765000	25.483793	0.000396	20.710254
1167.350199	-2.982500	3.598000	-10.729000	25.468807	0.000395	20.715594
1168.356007	-3.005300	3.598600	-10.813000	25.513638	0.000395	20.725053
1169.351296	-2.978300	3.597900	-10.714000	25.457576	0.000393	20.736560
1170.351243	-3.012700	3.597100	-10.835000	25.427606	0.000394	20.737285
1171.355574	-2.993300	3.597800	-10.768000	25.410308	0.000393	20.733665
1172.350253	-2.998300	3.598200	-10.788000	25.395000	0.000391	20.742950
1173.353147	-3.001700	3.597000	-10.796000	25.385059	0.000391	20.723958
1174.353753	-2.991100	3.597600	-10.760000	25.395796	0.000389	20.711031
1175.353075	-2.986200	3.596800	-10.740000	25.430365	0.000391	20.714450
1176.353715	-3.002600	3.596100	-10.796000	25.470377	0.000392	20.721912
1177.359410	-2.997300	3.595400	-10.776000	25.471796	0.000391	20.747047
1178.353458	-3.005000	3.595300	-10.803000	25.448832	0.000389	20.740582
1179.356406	-3.008700	3.594400	-10.813000	25.397141	0.000390	20.722814
1180.352026	-3.028200	3.593900	-10.882000	25.432311	0.000389	20.730629
1181.352044	-2.991600	3.594200	-10.751000	25.428657	0.000388	20.754936
1182.353606	-2.997400	3.595000	-10.775000	25.439817	0.000388	20.734373
1183.352006	-2.990900	3.594100	-10.748000	25.445458	0.000388	20.734823
1184.352323	-2.982300	3.593900	-10.717000	25.446578	0.000387	20.742586
1185.352801	-3.003300	3.593100	-10.790000	25.446828	0.000387	20.721024
1186.355065	-3.006700	3.593700	-10.804000	25.420213	0.000387	20.719428
1187.415695	-2.995700	3.592300	-10.760000	25.399016	0.000385	20.704306
1188.352205	-2.992600	3.593300	-10.753000	25.429906	0.000388	20.755242
1189.355994	-2.985400	3.592800	-10.725000	25.434032	0.000386	20.737574
1190.354640	-3.002900	3.590500	-10.781000	25.427175	0.000386	20.733058
1191.353934	-3.003800	3.591000	-10.784000	25.487965	0.000385	20.722031
1192.354537	-2.998400	3.592300	-10.769000	25.489107	0.000386	20.742619
1193.356519	-3.022900	3.591500	-10.856000	25.494751	0.000384	20.744493
1194.355611	-2.986600	3.590700	-10.723000	25.503645	0.000384	20.742520
1195.356676	-2.996000	3.589500	-10.753000	25.496640	0.000385	20.748287
1196.357754	-2.991400	3.590000	-10.738000	25.508095	0.000384	20.723279
1197.360627	-2.997300	3.589600	-10.758000	25.531977	0.000384	20.726874
1198.357934	-3.006300	3.588400	-10.787000	25.576608	0.000382	20.731393
1199.357236	-3.002100	3.589500	-10.776000	25.570544	0.000382	20.742848
1200.360058	-3.008800	3.587700	-10.794000	25.605459	0.000383	20.733816
1201.361986	-3.000400	3.588300	-10.765000	25.619298	0.000383	20.746294
1202.358083	-3.000100	3.588200	-10.764000	25.523681	0.000382	20.733717
1203.356602	-2.965900	3.590100	-10.647000	25.494929	0.000382	20.739457
1204.359145	-3.008700	3.587900	-10.794000	25.470898	0.000379	20.757999
1205.356330	-3.001100	3.587000	-10.764000	25.484646	0.000379	20.736242
1206.367126	-2.982800	3.588300	-10.702000	25.476397	0.000381	20.744554
1207.358578	-3.007400	3.586400	-10.784000	25.438771	0.000380	20.736642
1208.357287	-3.012400	3.586600	-10.804000	25.446180	0.000378	20.740763
1209.361170	-2.993800	3.585600	-10.734000	25.464815	0.000379	20.745726
1210.359443	-2.999500	3.585600	-10.753000	25.450850	0.000377	20.723640
1211.364370	-2.997000	3.585900	-10.746000	25.479930	0.000379	20.742886
1212.361750	-3.016600	3.585700	-10.815000	25.488129	0.000376	20.744482
1213.360456	-2.995600	3.585700	-10.739000	25.482142	0.000375	20.754591
1214.361470	-2.979300	3.585300	-10.681000	25.483685	0.000375	20.749502
1215.363819	-3.002600	3.583800	-10.759000	25.444472	0.000377	20.763231
1216.367142	-3.003900	3.582500	-10.760000	25.402922	0.000377	20.754699
1217.365005	-3.023400	3.582300	-10.829000	25.380704	0.000375	20.754674
1218.364494	-2.998200	3.583100	-10.743000	25.414628	0.000373	20.749858
1219.364540	-2.982000	3.582900	-10.683000	25.489409	0.000372	20.750034
1220.364625	-3.017900	3.582100	-10.809000	25.525444	0.000376	20.746393
1221.363991	-3.017100	3.581200	-10.804000	25.527706	0.000373	20.746768
1222.366170	-3.005000	3.582700	-10.766000	25.505119	0.000372	20.758225
1223.364658	-3.017700	3.582500	-10.810000	25.521474	0.000372	20.758054
1224.365277	-3.011500	3.581800	-10.786000	25.524483	0.000373	20.748273
1225.364573	-3.002200	3.582000	-10.753000	25.498764	0.000373	20.751843
1226.367627	-2.957900	3.581300	-10.593000	25.496653	0.000371	20.749249
1227.369076	-3.021400	3.580200	-10.816000	25.543124	0.000371	20.739492
1228.368464	-2.983000	3.580600	-10.680000	25.566462	0.000370	20.747283
1229.365207	-2.977400	3.580800	-10.661000	25.549740	0.000369	20.756568
1230.365683	-2.997300	3.580000	-10.729000	25.524173	0.000369	20.747487
1231.366685	-3.002300	3.579200	-10.745000	25.510159	0.000369	20.765657
1232.369438	-2.993500	3.579100	-10.713000	25.553945	0.000371	20.752731
1233.369722	-2.990900	3.579100	-10.704000	25.575246	0.000370	20.756105
1234.367699	-2.996800	3.577900	-10.720000	25.530122	0.000370	20.768635
1235.370572	-3.011200	3.579300	-10.777000	25.501718	0.000367	20.750068
1236.368215	-3.008100	3.577600	-10.761000	25.511263	0.000370	20.760602
1237.369134	-3.006500	3.577200	-10.754000	25.519841	0.000367	20.781545
1238.371153	-2.993900	3.576200	-10.706000	25.522976	0.000368	20.771891
1239.369979	-2.979900	3.578300	-10.662000	25.536721	0.000368	20.751554
1240.372337	-2.986300	3.576100	-10.679000	25.576707	0.000369	20.768478
1241.370742	-2.996700	3.575600	-10.714000	25.524821	0.000368	20.753829
1242.369977	-3.000700	3.574700	-10.726000	25.516551	0.000366	20.778714
1243.376430	-3.012200	3.575000	-10.768000	25.548110	0.000366	20.759199
1244.371461	-2.997400	3.574800	-10.715000	25.507011	0.000366	20.757755
1245.375111	-3.032000	3.572200	-10.829000	25.519463	0.000366	20.760776
1246.374188	-3.005200	3.573700	-10.738000	25.527443	0.000366	20.776851
1247.374346	-3.002000	3.574600	-10.730000	25.532714	0.000365	20.763652
1248.379916	-2.991400	3.574300	-10.691000	25.515371	0.000363	20.766149
1249.379863	-2.999500	3.572700	-10.715000	25.533565	0.000366	20.782999
1250.376079	-2.980800	3.574000	-10.652000	25.534611	0.000363	20.780256
1251.381267	-3.006300	3.573800	-10.743000	25.549250	0.000364	20.776466
1252.377095	-3.009800	3.572000	-10.750000	25.569132	0.000363	20.763241
1253.374778	-2.991000	3.572900	-10.686000	25.574875	0.000364	20.766164
1254.376825	-3.002100	3.571500	-10.722000	25.524087	0.000362	20.775377
1255.376350	-3.015200	3.571400	-10.767000	25.512283	0.000361	20.773480
1256.375611	-3.018200	3.570500	-10.775000	25.563231	0.000361	20.771066
1257.375150	-2.992900	3.571400	-10.688000	25.550684	0.000361	20.767000
1258.375150	-3.003100	3.570700	-10.722000	25.505537	0.000359	20.777137
1259.376260	-3.008000	3.570800	-10.739000	25.540479	0.000360	20.766234
1260.375074	-2.988400	3.570200	-10.668000	25.574225	0.000360	20.775469
1261.375391	-2.997700	3.569500	-10.699000	25.616867	0.000357	20.754757
1262.374192	-3.013000	3.569000	-10.752000	25.609613	0.000358	20.772602
1263.372847	-2.989800	3.568800	-10.669000	25.596097	0.000358	20.784633
1264.376930	-3.008400	3.568700	-10.735000	25.575999	0.000356	20.779147
1265.377018	-3.002800	3.569100	-10.717000	25.535796	0.000358	20.788085
1266.374306	-2.976700	3.570100	-10.626000	25.483387	0.000356	20.779550
1267.374314	-2.994200	3.568400	-10.683000	25.507344	0.000358	20.778478
1268.376695	-3.008600	3.567700	-10.733000	25.479440	0.000357	20.784595
1269.374177	-2.979800	3.566300	-10.626000	25.498450	0.000355	20.789935
1270.379631	-3.007400	3.567500	-10.728000	25.493635	0.000355	20.792686
1271.374153	-2.992900	3.565700	-10.671000	25.494777	0.000355	20.775815
1272.373702	-3.023900	3.567100	-10.786000	25.512796	0.000355	20.783005
1273.375539	-3.001300	3.566800	-10.705000	25.559440	0.000354	20.788121
1274.376410	-2.980700	3.565800	-10.627000	25.607822	0.000353	20.775071
1275.380826	-2.982400	3.565900	-10.634000	25.626931	0.000356	20.789996
1276.377873	-2.982500	3.565700	-10.634000	25.611404	0.000354	20.792420
1277.377263	-2.995200	3.565500	-10.678000	25.594433	0.000355	20.786754
1278.376174	-3.007200	3.564800	-10.719000	25.579451	0.000354	20.783562
1279.379667	-3.013100	3.564600	-10.740000	25.609818	0.000354	20.779447
1280.379537	-3.008800	3.564400	-10.723000	25.588523	0.000352	20.792673
1281.379687	-3.004000	3.563900	-10.705000	25.600082	0.000353	20.776307
1282.378081	-2.997700	3.562800	-10.679000	25.556924	0.000353	20.789388
1283.378587	-2.996900	3.563400	-10.678000	25.538286	0.000350	20.786791
1284.376370	-3.000100	3.562300	-10.686000	25.512320	0.000349	20.804338
1285.376055	-2.982100	3.563700	-10.627000	25.526118	0.000350	20.798279
1286.378303	-2.985900	3.562300	-10.635000	25.561778	0.000351	20.805642
1287.377898	-2.987600	3.562700	-10.643000	25.563071	0.000349	20.782759
1288.377313	-3.011100	3.561500	-10.724000	25.544861	0.000348	20.811413
1289.377658	-2.999900	3.561200	-10.682000	25.546750	0.000348	20.798611
1290.377242	-2.996800	3.560900	-10.671000	25.606167	0.000347	20.795694
1291.378504	-3.008100	3.560400	-10.709000	25.631216	0.000348	20.805679
1292.381390	-3.003600	3.560500	-10.694000	25.654223	0.000349	20.789905
1293.380352	-2.999400	3.558800	-10.673000	25.626202	0.000347	20.804911
1294.380799	-2.990500	3.560600	-10.647000	25.554344	0.000346	20.803392
1295.382696	-3.013000	3.558900	-10.722000	25.517442	0.000345	20.807585
1296.381977	-2.991900	3.559700	-10.649000	25.518365	0.000346	20.804718
1297.384474	-2.998100	3.557900	-10.666000	25.583298	0.000346	20.788848
1298.381579	-2.991500	3.558700	-10.645000	25.606833	0.000345	20.796837
1299.380326	-3.006100	3.558300	-10.696000	25.620604	0.000345	20.804504
1300.380641	-2.998900	3.559400	-10.673000	25.648980	0.000345	20.797442
1301.381701	-2.973600	3.557400	-10.578000	25.671372	0.000343	20.776309
1302.383961	-2.980100	3.557600	-10.601000	25.647221	0.000344	20.793779
1303.385090	-2.978900	3.557900	-10.598000	25.651004	0.000345	20.811328
1304.381541	-2.979100	3.557400	-10.598000	25.608687	0.000344	20.825252
1305.384056	-2.981100	3.557400	-10.604000	25.613961	0.000343	20.803522
1306.385161	-3.020100	3.556300	-10.739000	25.612223	0.000344	20.803200
1307.383403	-3.003600	3.556000	-10.681000	25.601393	0.000343	20.809392
1308.386246	-3.017100	3.555100	-10.725000	25.573516	0.000344	20.818379
1309.385461	-2.979700	3.555200	-10.592000	25.603883	0.000341	20.802884
1310.382409	-3.002600	3.554800	-10.673000	25.632885	0.000342	20.796450
1311.386227	-3.002300	3.553600	-10.668000	25.654108	0.000342	20.803541
1312.382649	-2.999800	3.554400	-10.662000	25.673044	0.000343	20.826826
1313.384630	-2.990900	3.552700	-10.625000	25.686167	0.000340	20.812980
1314.385314	-2.998700	3.553800	-10.656000	25.645718	0.000340	20.824037
1315.384260	-3.004100	3.552200	-10.670000	25.635885	0.000340	20.810842
1316.383886	-3.019500	3.551900	-10.724000	25.619811	0.000338	20.828838
1317.385463	-2.985500	3.554100	-10.609000	25.659965	0.000339	20.819380
1318.386172	-3.012500	3.551200	-10.697000	25.690135	0.000338	20.803216
1319.383476	-2.998100	3.552500	-10.650000	25.681141	0.000338	20.816467
1320.385272	-2.995300	3.550700	-10.634000	25.639029	0.000340	20.824431
1321.385624	-3.021000	3.550800	-10.726000	25.645666	0.000339	20.818770
1322.385395	-2.995000	3.551300	-10.636000	25.565135	0.000338	20.811859
1323.388227	-3.039200	3.549300	-10.786000	25.571174	0.000340	20.828829
1324.388093	-2.997400	3.550100	-10.640000	25.581888	0.000336	20.816356
1325.387728	-3.009000	3.549000	-10.678000	25.555202	0.000337	20.816582
1326.386721	-3.007300	3.549000	-10.672000	25.547997	0.000337	20.815510
1327.387628	-3.004600	3.550100	-10.665000	25.525386	0.000337	20.834528
1328.389946	-3.000500	3.548600	-10.646000	25.535900	0.000336	20.824224
1329.388065	-3.030000	3.547000	-10.747000	25.516144	0.000337	20.834730
1330.386286	-2.999400	3.549100	-10.644000	25.502158	0.000336	20.821159
1331.390290	-2.985900	3.548200	-10.593000	25.570771	0.000335	20.848337
1332.390532	-3.003400	3.547400	-10.653000	25.569058	0.000336	20.837609
1333.391905	-2.984500	3.547000	-10.585000	25.578899	0.000335	20.814776
1334.388255	-2.985000	3.547300	-10.587000	25.563346	0.000335	20.842304
1335.400373	-3.003300	3.544800	-10.645000	25.590511	0.000332	20.821222
1336.388958	-2.983800	3.546200	-10.580000	25.578856	0.000335	20.828483
1337.389104	-2.984500	3.547200	-10.586000	25.628258	0.000333	20.851545
1338.390496	-3.004800	3.545900	-10.654000	25.652589	0.000334	20.839472
1339.392868	-2.988300	3.545900	-10.594000	25.682876	0.000335	20.841443
1340.387606	-2.970700	3.545300	-10.530000	25.658652	0.000335	20.823277
1341.388039	-3.017300	3.544100	-10.692000	25.656069	0.000334	20.833959
1342.394493	-3.020400	3.543600	-10.702000	25.678486	0.000331	20.828973
1343.390931	-2.985800	3.544200	-10.581000	25.647673	0.000333	20.819363
1344.396560	-3.012300	3.543000	-10.671000	25.692130	0.000331	20.829401
1345.390513	-3.004200	3.542700	-10.641000	25.710146	0.000333	20.841332
1346.390682	-2.994700	3.542700	-10.609000	25.752236	0.000335	20.842358
1347.391399	-3.007800	3.540700	-10.649000	25.694768	0.000333	20.836792
1348.391030	-2.994100	3.541700	-10.603000	25.688261	0.000331	20.828360
1349.393018	-3.002900	3.540600	-10.631000	25.674969	0.000329	20.845355
1350.391850	-3.008800	3.540100	-10.650000	25.662247	0.000330	20.850121
1351.391406	-2.992800	3.541700	-10.598000	25.686999	0.000329	20.852222
1352.391980	-3.013800	3.541300	-10.671000	25.683275	0.000329	20.844689
1353.392802	-3.033900	3.538900	-10.736000	25.654000	0.000331	20.861751
1354.393549	-2.993300	3.540300	-10.597000	25.715799	0.000330	20.849380
1355.395138	-2.997700	3.540200	-10.612000	25.703029	0.000327	20.846511
1356.394962	-2.970800	3.540300	-10.516000	25.707996	0.000328	20.842017
1357.394866	-3.016000	3.538200	-10.670000	25.680320	0.000329	20.852151
1358.396291	-2.989300	3.538700	-10.577000	25.739057	0.000326	20.875585
1359.395833	-3.005100	3.539300	-10.635000	25.735308	0.000328	20.856648
1360.401825	-3.002300	3.537600	-10.620000	25.714510	0.000328	20.856145
1361.395908	-2.998600	3.537600	-10.607000	25.731180	0.000328	20.852975
1362.399854	-2.987900	3.538100	-10.571000	25.707280	0.000325	20.846514
1363.397724	-2.991100	3.537100	-10.579000	25.749442	0.000326	20.862309
1364.398298	-3.000600	3.537900	-10.615000	25.689120	0.000328	20.866679
1365.400382	-2.999400	3.535100	-10.602000	25.715482	0.000326	20.854751
1366.400527	-3.001900	3.535800	-10.613000	25.716274	0.000326	20.860763
1367.398273	-2.989500	3.535700	-10.569000	25.699456	0.000325	20.857621
1368.399675	-2.976800	3.536100	-10.525000	25.682881	0.000323	20.850456
1369.399693	-3.019600	3.534600	-10.672000	25.698040	0.000322	20.853828
1370.398362	-3.015700	3.535900	-10.662000	25.690736	0.000322	20.860717
1371.401555	-2.990600	3.534900	-10.570000	25.708823	0.000324	20.869399
1372.398554	-3.010400	3.533400	-10.636000	25.731162	0.000323	20.853431
1373.399471	-3.006100	3.533700	-10.622000	25.705596	0.000321	20.867106
1374.402117	-2.976300	3.533800	-10.517000	25.677049	0.000322	20.868306
1375.401103	-3.001900	3.533100	-10.605000	25.651183	0.000321	20.872198
1376.403159	-2.997500	3.533700	-10.590000	25.673375	0.000320	20.850865
1377.399486	-3.010600	3.532000	-10.632000	25.681499	0.000320	20.891265
1378.401027	-3.016800	3.532100	-10.655000	25.693501	0.000320	20.872502
1379.402819	-2.998000	3.532200	-10.588000	25.657176	0.000320	20.872527
1380.401228	-3.013200	3.532100	-10.642000	25.704584	0.000318	20.877944
1381.401103	-2.982000	3.531600	-10.530000	25.725954	0.000321	20.862899
1382.403446	-2.980100	3.531400	-10.523000	25.733264	0.000317	20.865499
1383.403869	-3.002800	3.530600	-10.600000	25.738182	0.000318	20.872335
1384.404262	-2.999400	3.530200	-10.588000	25.716815	0.000320	20.865099
1385.405822	-3.003000	3.530600	-10.602000	25.671348	0.000315	20.854046
1386.404158	-2.992500	3.529700	-10.562000	25.683802	0.000316	20.862286
1387.406475	-3.014300	3.530300	-10.641000	25.685320	0.000316	20.866181
1388.404479	-2.994600	3.529300	-10.568000	25.685718	0.000315	20.854728
1389.402957	-3.017700	3.529100	-10.649000	25.642388	0.000316	20.860046
1390.404188	-3.001700	3.528300	-10.590000	25.571824	0.000315	20.873102
1391.403959	-2.985000	3.528500	-10.531000	25.573691	0.000317	20.849374
1392.405087	-3.032300	3.526600	-10.692000	25.628954	0.000315	20.845605
1393.412671	-2.996800	3.527000	-10.569000	25.599887	0.000314	20.850078
1394.404742	-2.988300	3.527800	-10.542000	25.633554	0.000314	20.860183
1395.405524	-2.994800	3.525900	-10.558000	25.637113	0.000314	20.842895
1396.408365	-3.008200	3.527000	-10.609000	25.660865	0.000313	20.846836
1397.407138	-2.993800	3.526200	-10.556000	25.696821	0.000313	20.836009
1398.410483	-3.008200	3.525300	-10.603000	25.723436	0.000316	20.852310
1399.406585	-3.008900	3.524900	-10.604000	25.690539	0.000312	20.852458
1400.406565	-3.010900	3.525000	-10.612000	25.640177	0.000311	20.846447
1401.410183	-2.992500	3.524800	-10.547000	25.602239	0.000314	20.858604
1402.407640	-2.993500	3.525000	-10.551000	25.605149	0.000313	20.842087
1403.407917	-3.009900	3.524200	-10.606000	25.653082	0.000311	20.829062
1404.407887	-3.007600	3.524100	-10.598000	25.652264	0.000310	20.834405
1405.409158	-2.997900	3.523500	-10.562000	25.651401	0.000310	20.834486
1406.409062	-2.996100	3.523500	-10.555000	25.602228	0.000309	20.835834
1407.408417	-2.992100	3.522500	-10.538000	25.603123	0.000312	20.840526
1408.410265	-3.030000	3.521900	-10.671000	25.614010	0.000309	20.849563
1409.412567	-2.987000	3.523400	-10.524000	25.600371	0.000308	20.845823
1410.408788	-3.002600	3.522300	-10.575000	25.578657	0.000309	20.839188
1411.409666	-3.001300	3.522400	-10.570000	25.635613	0.000308	20.842337
1412.412264	-2.989300	3.521500	-10.526000	25.672909	0.000307	20.841389
1413.416639	-2.983100	3.521500	-10.503000	25.705683	0.000307	20.849177
1414.413682	-2.985900	3.521300	-10.513000	25.738956	0.000308	20.842294
1415.413041	-3.017100	3.519800	-10.619000	25.772774	0.000308	20.828848
1416.412502	-2.995900	3.520900	-10.548000	25.758116	0.000305	20.850634
1417.414042	-3.004400	3.520500	-10.576000	25.787784	0.000308	20.826382
1418.414503	-3.005700	3.519400	-10.577000	25.809624	0.000309	20.834570
1419.415698	-3.007500	3.519200	-10.583000	25.789852	0.000306	20.831778
1420.414993	-2.992300	3.517400	-10.524000	25.765753	0.000306	20.807098
1421.413924	-2.986600	3.517600	-10.505000	25.714426	0.000305	20.838518
1422.416556	-2.987200	3.518100	-10.507000	25.699196	0.000307	20.823222
1423.414931	-3.011000	3.517600	-10.590000	25.684569	0.000307	20.820858
1424.428610	-3.003400	3.518200	-10.566000	25.627171	0.000305	20.828169
1425.419895	-3.000200	3.516800	-10.550000	25.612514	0.000303	20.827673
1426.414072	-2.971600	3.518800	-10.455000	25.631797	0.000305	20.832814
1427.418046	-2.989000	3.517400	-10.512000	25.675335	0.000303	20.831024
1428.416007	-3.007900	3.515200	-10.573000	25.696254	0.000304	20.825009
1429.419075	-3.003600	3.516000	-10.560000	25.692132	0.000306	20.812334
1430.421267	-3.005500	3.514400	-10.562000	25.661873	0.000306	20.805650
1431.417463	-2.982200	3.514000	-10.479000	25.603434	0.000303	20.802907
1432.417773	-2.982700	3.514500	-10.482000	25.618669	0.000304	20.840018
1433.421920	-2.998400	3.514900	-10.538000	25.585547	0.000301	20.807702
1434.418790	-3.014400	3.514200	-10.592000	25.621783	0.000302	20.824180
1435.420575	-2.996300	3.514400	-10.529000	25.671632	0.000302	20.830623
1436.421228	-2.972500	3.513300	-10.442000	25.706763	0.000301	20.813278
1437.420631	-2.997300	3.513300	-10.529000	25.770071	0.000302	20.832297
1438.426674	-2.987500	3.512800	-10.494000	25.778694	0.000301	20.795441
1439.422285	-2.983700	3.512400	-10.479000	25.760436	0.000301	20.814559
1440.424852	-3.001700	3.511500	-10.540000	25.776021	0.000301	20.781850
1441.425404	-3.000300	3.511000	-10.534000	25.741639	0.000300	20.800894
1442.422381	-3.026500	3.510800	-10.624000	25.699826	0.000300	20.818639
1443.424763	-2.988800	3.510700	-10.492000	25.653886	0.000299	20.814223
1444.423225	-3.009600	3.510400	-10.564000	25.658286	0.000300	20.812004
1445.422543	-3.002700	3.510000	-10.539000	25.657497	0.000300	20.805522
1446.425300	-3.006000	3.510000	-10.550000	25.704659	0.000297	20.817330
1447.425959	-2.991300	3.510400	-10.500000	25.725229	0.000299	20.797214
1448.423283	-2.987600	3.509300	-10.483000	25.741431	0.000297	20.788357
1449.425748	-3.005000	3.507800	-10.540000	25.727273	0.000297	20.783619
1450.424131	-2.988400	3.507900	-10.482000	25.770708	0.000295	20.818239
1451.430657	-3.000000	3.508100	-10.523000	25.764794	0.000299	20.805186
1452.424762	-2.989300	3.508800	-10.487000	25.778884	0.000300	20.812701
1453.426323	-3.006500	3.507400	-10.544000	25.768228	0.000296	20.799627
1454.425635	-3.028400	3.506000	-10.616000	25.779684	0.000297	20.794064
1455.426314	-2.994500	3.506900	-10.500000	25.740807	0.000297	20.794843
1456.431993	-2.993300	3.506200	-10.494000	25.697849	0.000297	20.790101
1457.427210	-2.990400	3.506600	-10.485000	25.719491	0.000296	20.796665
1458.427183	-2.997100	3.505300	-10.505000	25.758573	0.000296	20.815058
1459.426634	-3.001100	3.505500	-10.519000	25.781484	0.000293	20.795873
1460.430052	-2.975600	3.506300	-10.432000	25.793010	0.000296	20.809821
1461.425828	-2.996300	3.505300	-10.502000	25.745285	0.000291	20.805504
1462.427965	-3.004000	3.503600	-10.524000	25.730454	0.000294	20.797720
1463.425321	-3.005900	3.504300	-10.533000	25.722182	0.000292	20.803636
1464.426576	-3.023200	3.504000	-10.593000	25.689588	0.000293	20.795554
1465.425790	-2.990600	3.504800	-10.480000	25.676793	0.000292	20.790289
1466.425838	-2.986900	3.503600	-10.465000	25.698110	0.000293	20.789415
1467.427281	-2.975200	3.503200	-10.421000	25.698385	0.000292	20.798700
1468.426470	-2.986000	3.501600	-10.455000	25.660323	0.000291	20.787023
1469.428902	-2.987200	3.501600	-10.458000	25.635675	0.000291	20.779337
1470.428360	-2.976400	3.502300	-10.423000	25.619874	0.000290	20.786701
1471.427600	-2.998400	3.502800	-10.502000	25.639054	0.000293	20.792214
1472.427895	-3.004300	3.500800	-10.516000	25.703183	0.000291	20.797830
1473.430601	-2.998800	3.500300	-10.496000	25.721996	0.000291	20.783060
1474.429540	-3.006700	3.500500	-10.525000	25.729179	0.000289	20.785059
1475.431486	-3.007800	3.499300	-10.525000	25.742396	0.000289	20.799758
1476.429935	-2.997500	3.499500	-10.489000	25.709824	0.000288	20.801181
1477.431819	-3.005600	3.499400	-10.517000	25.754451	0.000287	20.788159
1478.431931	-3.001600	3.500300	-10.506000	25.759418	0.000288	20.805476
1479.431138	-2.986800	3.500100	-10.453000	25.730352	0.000286	20.808997
1480.430042	-2.975400	3.498400	-10.408000	25.753338	0.000288	20.774239
1481.432076	-3.003400	3.499300	-10.509000	25.767352	0.000287	20.782625
1482.430990	-2.977300	3.499100	-10.416000	25.775574	0.000287	20.787565
1483.430354	-3.006000	3.497900	-10.514000	25.710779	0.000287	20.769423
1484.435285	-3.020000	3.495800	-10.557000	25.672816	0.000283	20.788191
1485.431376	-3.021000	3.495600	-10.560000	25.727978	0.000285	20.791440
1486.431723	-3.012600	3.496300	-10.532000	25.718984	0.000286	20.769129
1487.432606	-3.021100	3.495200	-10.558000	25.671206	0.000287	20.766659
1488.430308	-3.015700	3.495300	-10.539000	25.669346	0.000285	20.788973
1489.433663	-3.016500	3.495200	-10.542000	25.688627	0.000285	20.790321
1490.433218	-3.002900	3.494600	-10.493000	25.732336	0.000287	20.783963
1491.432654	-2.976500	3.495400	-10.403000	25.732833	0.000285	20.783514
1492.433785	-2.977300	3.494900	-10.404000	25.762568	0.000286	20.777346
1493.433468	-3.005800	3.493700	-10.500000	25.734992	0.000284	20.751543
1494.434683	-3.023100	3.493300	-10.559000	25.658741	0.000286	20.777374
1495.431867	-2.984900	3.493700	-10.427000	25.642866	0.000284	20.795569
1496.432534	-2.972300	3.494000	-10.385000	25.650445	0.000285	20.772360
1497.431931	-3.005100	3.493100	-10.496000	25.711421	0.000282	20.775757
1498.433422	-2.991700	3.493000	-10.449000	25.760215	0.000283	20.766447
1499.435823	-2.966700	3.492300	-10.358000	25.765186	0.000281	20.773811
1500.434937	-2.999300	3.491200	-10.471000	25.755368	0.000282	20.769639
1501.433666	-2.993000	3.491400	-10.449000	25.741657	0.000281	20.766299
1502.433639	-3.016700	3.490100	-10.528000	25.752736	0.000283	20.792126
1503.432250	-2.972600	3.490300	-10.373000	25.776018	0.000283	20.783744
1504.434560	-2.999500	3.490300	-10.469000	25.795696	0.000281	20.778379
1505.436602	-3.007700	3.489800	-10.495000	25.785032	0.000281	20.778574
1506.434483	-3.026100	3.489400	-10.559000	25.770551	0.000282	20.759285
1507.433569	-3.002900	3.490800	-10.482000	25.713355	0.000280	20.782916
1508.435335	-3.013200	3.490100	-10.515000	25.704139	0.000279	20.776978
1509.434947	-3.021900	3.487800	-10.539000	25.684858	0.000279	20.759508
1510.438154	-3.015200	3.488300	-10.517000	25.717628	0.000279	20.763974
1511.435603	-3.003600	3.487700	-10.475000	25.716955	0.000278	20.777049
1512.437236	-2.982400	3.488200	-10.402000	25.729204	0.000277	20.775127
1513.437253	-2.995000	3.487700	-10.444000	25.787882	0.000277	20.783333
1514.436447	-2.978300	3.488100	-10.387000	25.725547	0.000277	20.796585
1515.437181	-2.980600	3.487800	-10.395000	25.680647	0.000276	20.759547
1516.439631	-2.990200	3.487200	-10.427000	25.686936	0.000277	20.758751
1517.438277	-2.969100	3.487000	-10.352000	25.670660	0.000274	20.773223
1518.436124	-3.008000	3.485200	-10.483000	25.676945	0.000274	20.789019
1519.442654	-3.025500	3.484700	-10.542000	25.677868	0.000274	20.786153
1520.436895	-3.011500	3.484100	-10.491000	25.685590	0.000274	20.781581
1521.437804	-3.006500	3.483800	-10.472000	25.667204	0.000275	20.765959
1522.437874	-3.001700	3.484900	-10.460000	25.697864	0.000276	20.770676
1523.437846	-2.993700	3.485000	-10.432000	25.710536	0.000273	20.779610
1524.438427	-3.022400	3.483800	-10.528000	25.757914	0.000274	20.764136
1525.438018	-2.982400	3.483900	-10.389000	25.810113	0.000274	20.766309
1526.438043	-3.001000	3.484600	-10.457000	25.803283	0.000275	20.772724
1527.437135	-3.033100	3.482100	-10.560000	25.757118	0.000274	20.769501
1528.440549	-2.995300	3.484300	-10.436000	25.759827	0.000273	20.758945
1529.438214	-3.022000	3.480900	-10.518000	25.693045	0.000272	20.762516
1530.437755	-2.996300	3.481600	-10.431000	25.696744	0.000273	20.761015
1531.439056	-3.011000	3.481400	-10.481000	25.672397	0.000273	20.745569
1532.441210	-2.981100	3.480700	-10.376000	25.666805	0.000271	20.755127
1533.441212	-3.002600	3.481300	-10.452000	25.669141	0.000270	20.771698
1534.441650	-2.991400	3.480800	-10.412000	25.695405	0.000272	20.754929
1535.442035	-2.991700	3.481300	-10.413000	25.720823	0.000271	20.763390
1536.441436	-3.008300	3.480100	-10.468000	25.724476	0.000273	20.766111
1537.445286	-3.004000	3.479500	-10.452000	25.662380	0.000270	20.760166
1538.441257	-3.006600	3.479600	-10.461000	25.665787	0.000270	20.731818
1539.444618	-3.037000	3.477200	-10.559000	25.669638	0.000268	20.770300
1540.443171	-3.014900	3.476800	-10.481000	25.637236	0.000271	20.752455
1541.440264	-3.012100	3.478900	-10.478000	25.640594	0.000269	20.756302
1542.445474	-3.007700	3.478600	-10.462000	25.709789	0.000269	20.761790
1543.441783	-3.005500	3.478400	-10.453000	25.766239	0.000269	20.768230
1544.443198	-3.008800	3.477000	-10.460000	25.803780	0.000268	20.761843
1545.444868	-3.004200	3.477300	-10.446000	25.807056	0.000269	20.749012
1546.443787	-2.984900	3.476600	-10.377000	25.809965	0.000268	20.762367
1547.443736	-2.981000	3.477300	-10.364000	25.771657	0.000266	20.771776
1548.445650	-2.997000	3.474900	-10.413000	25.789545	0.000268	20.751812
1549.443484	-2.997600	3.475600	-10.418000	25.779858	0.000268	20.769108
1550.446565	-2.990100	3.475600	-10.392000	25.793321	0.000265	20.745647
1551.446691	-2.994000	3.475100	-10.404000	25.821146	0.000267	20.731871
1552.445417	-3.004200	3.475200	-10.440000	25.806862	0.000267	20.750240
1553.448146	-2.994200	3.474700	-10.403000	25.827659	0.000265	20.738889
1554.444783	-2.994700	3.475100	-10.406000	25.831706	0.000266	20.775198
1555.445209	-3.004200	3.473300	-10.434000	25.835757	0.000265	20.769310
1556.446057	-3.002800	3.475200	-10.434000	25.854536	0.000264	20.749292
1557.447918	-3.026400	3.471700	-10.506000	25.857519	0.000266	20.746599
1558.449265	-2.984800	3.473800	-10.368000	25.853669	0.000266	20.742732
1559.448733	-2.973200	3.473300	-10.326000	25.853800	0.000263	20.747604
1560.446257	-2.982000	3.473800	-10.357000	25.860978	0.000263	20.758135
1561.449881	-2.993500	3.472100	-10.393000	25.802670	0.000265	20.760255
1562.448708	-2.981700	3.471700	-10.351000	25.794223	0.000264	20.742286
1563.450407	-2.989800	3.471100	-10.377000	25.796411	0.000264	20.751596
1564.450340	-3.005600	3.471200	-10.432000	25.778896	0.000260	20.733528
1565.448028	-2.992200	3.471300	-10.386000	25.726104	0.000263	20.738822
1566.452380	-2.998400	3.470800	-10.406000	25.791940	0.000262	20.721026
1567.453153	-2.978600	3.470700	-10.337000	25.856734	0.000262	20.740594
1568.450422	-3.009000	3.469000	-10.437000	25.825979	0.000263	20.745262
1569.453771	-2.999100	3.469500	-10.404000	25.723546	0.000260	20.753797
1570.448167	-2.970900	3.470200	-10.310000	25.692714	0.000259	20.742268
1571.449103	-2.994400	3.468400	-10.385000	25.697308	0.000261	20.758263
1572.451312	-2.995400	3.469100	-10.390000	25.733086	0.000260	20.758164
1573.449749	-3.014600	3.467300	-10.451000	25.810378	0.000262	20.745711
1574.452467	-2.989200	3.467700	-10.364000	25.809684	0.000261	20.739324
1575.449524	-2.996900	3.467900	-10.391000	25.847618	0.000257	20.739972
1576.451005	-3.016700	3.466600	-10.457000	25.823676	0.000258	20.723507
1577.450211	-2.999200	3.467700	-10.399000	25.863916	0.000256	20.735007
1578.451441	-2.993400	3.467200	-10.377000	25.887667	0.000256	20.742746
1579.454357	-3.001900	3.465000	-10.401000	25.902077	0.000257	20.753903
1580.451444	-3.012700	3.466000	-10.441000	25.930273	0.000254	20.736235
1581.451813	-3.004900	3.466700	-10.416000	25.928117	0.000253	20.721267
1582.452550	-3.012500	3.464300	-10.436000	25.906477	0.000255	20.755952
1583.454228	-3.014700	3.464400	-10.443000	25.871599	0.000254	20.731819
1584.456781	-3.003400	3.464900	-10.406000	25.863997	0.000254	20.732244
1585.458215	-3.016500	3.463500	-10.448000	25.800082	0.000252	20.736317
1586.454922	-3.009200	3.463800	-10.423000	25.758912	0.000253	20.727205
1587.453966	-2.996300	3.464700	-10.380000	25.706144	0.000252	20.738688
1588.456214	-2.993100	3.464300	-10.368000	25.743860	0.000252	20.736741
1589.453051	-2.991800	3.463300	-10.361000	25.767938	0.000250	20.726313
1590.457112	-3.001900	3.462700	-10.394000	25.789479	0.000253	20.735623
1591.454758	-3.015000	3.462500	-10.438000	25.835811	0.000254	20.712463
1592.456558	-3.008800	3.461800	-10.415000	25.856731	0.000252	20.725418
1593.459951	-3.020700	3.462000	-10.457000	25.876904	0.000251	20.739519
1594.455988	-3.004100	3.461600	-10.397000	25.873653	0.000253	20.722976
1595.459425	-3.014800	3.461500	-10.435000	25.855417	0.000249	20.737375
1596.456236	-3.010100	3.461000	-10.416000	25.839024	0.000251	20.735606
1597.455920	-3.010100	3.459500	-10.412000	25.804845	0.000251	20.725928
1598.456052	-2.999200	3.460100	-10.377000	25.798511	0.000250	20.735688
1599.457372	-3.006500	3.458500	-10.397000	25.780275	0.000251	20.735861
1600.458058	-2.999400	3.459600	-10.376000	25.773148	0.000248	20.738186
1601.461376	-2.977800	3.460400	-10.305000	25.762841	0.000250	20.720719
1602.458058	-2.972000	3.460400	-10.284000	25.717971	0.000250	20.726859
1603.458353	-2.989300	3.458400	-10.337000	25.715660	0.000247	20.724063
1604.459553	-3.003000	3.458800	-10.385000	25.749057	0.000246	20.710192
1605.459862	-2.963000	3.459300	-10.249000	25.755665	0.000248	20.737220
1606.462476	-2.964300	3.458800	-10.251000	25.745210	0.000245	20.718182
1607.458043	-3.008500	3.458300	-10.403000	25.756043	0.000245	20.741392
1608.458709	-2.996200	3.456300	-10.355000	25.752298	0.000245	20.721983
1609.457757	-3.000700	3.456500	-10.371000	25.755229	0.000245	20.723505
1610.456917	-3.000700	3.456200	-10.369000	25.772945	0.000246	20.718540
1611.461723	-3.005400	3.455300	-10.383000	25.779927	0.000245	20.718441
1612.464718	-2.998400	3.456800	-10.364000	25.740328	0.000246	20.732720
1613.461334	-2.991500	3.455700	-10.337000	25.771610	0.000244	20.720993
1614.458507	-2.979000	3.454800	-10.291000	25.753947	0.000246	20.724588
1615.460467	-2.995700	3.454100	-10.346000	25.788636	0.000245	20.715335
1616.463819	-3.006000	3.453500	-10.380000	25.809852	0.000244	20.706300
1617.467115	-3.001500	3.453500	-10.364000	25.781756	0.000243	20.726443
1618.463663	-3.000900	3.452500	-10.360000	25.827053	0.000243	20.742548
1619.468351	-2.988100	3.453500	-10.319000	25.818159	0.000242	20.726974
1620.465612	-3.021800	3.452900	-10.433000	25.803632	0.000242	20.732771
1621.464613	-3.014200	3.451700	-10.402000	25.814661	0.000240	20.699277
1622.468681	-2.989600	3.451800	-10.318000	25.831408	0.000241	20.738387
1623.463410	-3.003300	3.453300	-10.370000	25.844976	0.000239	20.715980
1624.463847	-3.001000	3.451300	-10.356000	25.880775	0.000240	20.729183
1625.463114	-3.009600	3.451300	-10.386000	25.850993	0.000240	20.716808
1626.464024	-3.025000	3.450500	-10.437000	25.848785	0.000241	20.710796
1627.462201	-3.009900	3.450700	-10.385000	25.874227	0.000237	20.739201
1628.466501	-3.019400	3.449400	-10.414000	25.888288	0.000238	20.725351
1629.464084	-3.012700	3.449500	-10.392000	25.903868	0.000241	20.737684
1630.464539	-2.989700	3.450100	-10.314000	25.906774	0.000240	20.718317
1631.470422	-2.997700	3.449600	-10.340000	25.925283	0.000239	20.712255
1632.465125	-3.003400	3.448700	-10.357000	25.920666	0.000236	20.717574
1633.466374	-3.006100	3.447700	-10.363000	25.902311	0.000236	20.722843
1634.465219	-3.007200	3.447700	-10.367000	25.911878	0.000237	20.728187
1635.465673	-2.991400	3.448300	-10.314000	25.886416	0.000236	20.711141
1636.465266	-3.009100	3.447200	-10.371000	25.857529	0.000235	20.728590
1637.464950	-3.006700	3.447800	-10.366000	25.864067	0.000234	20.706233
1638.469249	-2.990000	3.447900	-10.309000	25.888861	0.000237	20.721184
1639.472659	-3.024000	3.445300	-10.418000	25.887420	0.000236	20.711202
1640.465067	-2.988200	3.446300	-10.298000	25.880943	0.000236	20.717972
1641.463667	-2.981700	3.446400	-10.275000	25.875078	0.000235	20.715873
1642.464658	-2.991600	3.446200	-10.309000	25.876350	0.000235	20.729954
1643.466610	-2.998800	3.446000	-10.333000	25.877072	0.000234	20.704599
1644.467078	-3.028400	3.444700	-10.431000	25.842665	0.000235	20.710339
1645.469054	-3.008600	3.446200	-10.367000	25.878147	0.000237	20.711844
1646.466490	-3.008000	3.443700	-10.358000	25.885621	0.000236	20.705127
1647.468876	-3.001100	3.445200	-10.339000	25.897076	0.000234	20.736076
1648.467263	-2.990900	3.444000	-10.299000	25.856263	0.000236	20.703135
1649.473013	-3.006000	3.443900	-10.352000	25.850426	0.000233	20.715765
1650.469210	-3.013800	3.442800	-10.374000	25.841191	0.000235	20.715970
1651.470474	-2.990800	3.443600	-10.298000	25.847479	0.000234	20.713752
1652.473600	-2.995600	3.442400	-10.311000	25.874457	0.000234	20.718094
1653.469934	-2.968500	3.443100	-10.220000	25.870582	0.000233	20.715624
1654.474946	-2.998600	3.442300	-10.321000	25.902283	0.000232	20.733247
1655.472426	-2.978100	3.443400	-10.253000	25.872675	0.000232	20.719149
1656.472250	-2.997700	3.441500	-10.315000	25.867758	0.000231	20.726064
1657.473225	-3.005300	3.441500	-10.342000	25.867782	0.000231	20.710914
1658.472659	-2.993200	3.440400	-10.296000	25.858050	0.000233	20.726269
1659.477358	-3.005500	3.441000	-10.341000	25.858399	0.000233	20.734207
1660.475162	-2.998100	3.440600	-10.315000	25.860238	0.000231	20.734631
1661.473164	-3.009000	3.440600	-10.351000	25.874574	0.000233	20.740024
1662.475050	-2.994700	3.440000	-10.301000	25.840044	0.000232	20.723828
1663.473162	-3.005100	3.440400	-10.338000	25.819698	0.000232	20.725201
1664.475703	-2.997900	3.438800	-10.309000	25.787650	0.000231	20.727621
1665.476662	-2.975300	3.438000	-10.228000	25.754167	0.000230	20.723386
1666.475504	-3.008100	3.437900	-10.340000	25.766740	0.000230	20.745974
1667.476927	-3.005500	3.437100	-10.329000	25.794118	0.000230	20.731748
1668.477452	-2.981000	3.437100	-10.246000	25.793248	0.000231	20.719968
1669.478429	-3.020000	3.436600	-10.378000	25.777822	0.000229	20.738613
1670.479915	-2.982700	3.437500	-10.252000	25.807289	0.000231	20.731228
1671.478450	-3.013400	3.437000	-10.355000	25.840528	0.000230	20.735220
1672.488778	-3.008600	3.435400	-10.335000	25.862839	0.000229	20.713061
1673.480690	-2.971700	3.436700	-10.211000	25.882089	0.000229	20.727658
1674.481026	-2.951400	3.436800	-10.142000	25.871709	0.000228	20.734300
1675.480436	-2.990800	3.434600	-10.271000	25.906086	0.000227	20.735645
1676.481510	-2.970700	3.436400	-10.207000	25.901345	0.000227	20.724718
1677.485489	-3.025100	3.433700	-10.386000	25.854868	0.000227	20.750575
1678.481675	-3.003900	3.434800	-10.317000	25.861205	0.000226	20.736077
1679.481818	-3.011600	3.434300	-10.342000	25.861772	0.000228	20.762252
1680.481305	-3.007700	3.432600	-10.324000	25.863660	0.000229	20.748501
1681.481709	-3.001400	3.433600	-10.304000	25.861825	0.000225	20.731010
1682.482875	-2.996600	3.433300	-10.287000	25.860803	0.000225	20.731406
1683.484770	-3.020800	3.431900	-10.367000	25.847045	0.000226	20.752199
1684.484156	-3.001800	3.431400	-10.300000	25.814374	0.000225	20.753993
1685.488862	-2.973600	3.432900	-10.208000	25.810425	0.000225	20.730585
1686.482658	-2.986200	3.432400	-10.248000	25.835811	0.000227	20.737121
1687.481046	-2.993500	3.431800	-10.273000	25.912078	0.000224	20.731707
1688.482854	-2.987800	3.431300	-10.251000	25.911335	0.000225	20.754669
1689.482641	-2.998800	3.430800	-10.288000	25.832437	0.000223	20.728041
1690.482778	-2.984600	3.431000	-10.239000	25.823469	0.000223	20.745111
1691.485851	-2.976900	3.430400	-10.212000	25.806427	0.000220	20.759761
1692.485457	-3.004400	3.429400	-10.303000	25.834449	0.000222	20.753296
1693.484777	-2.972400	3.429100	-10.192000	25.833882	0.000221	20.745140
1694.489388	-2.997200	3.429000	-10.277000	25.806751	0.000223	20.756767
1695.486008	-2.961300	3.429000	-10.153000	25.821860	0.000221	20.752030
1696.487036	-2.977300	3.428900	-10.207000	25.841188	0.000221	20.759117
1697.485281	-2.978200	3.429800	-10.214000	25.845411	0.000222	20.753877
1698.485449	-2.981500	3.428400	-10.221000	25.854929	0.000219	20.757748
1699.486816	-3.005300	3.426900	-10.298000	25.813786	0.000221	20.744868
1700.486339	-2.982700	3.427000	-10.221000	25.866056	0.000221	20.754227
1701.486599	-3.026200	3.425200	-10.365000	25.890431	0.000220	20.769705
1702.487549	-2.994800	3.427500	-10.265000	25.875307	0.000220	20.747873
1703.489300	-2.999200	3.426600	-10.276000	25.872594	0.000220	20.738983
1704.489981	-2.996900	3.426800	-10.269000	25.931296	0.000217	20.754808
1705.494563	-2.993300	3.426400	-10.255000	25.944364	0.000218	20.733322
1706.492765	-2.991600	3.426900	-10.251000	26.000481	0.000220	20.751295
1707.492797	-3.001000	3.425400	-10.279000	25.978004	0.000219	20.734876
1708.489594	-3.004900	3.424300	-10.289000	25.924520	0.000217	20.754639
1709.491653	-3.022200	3.423900	-10.347000	25.886540	0.000214	20.766745
1710.494826	-3.002600	3.423400	-10.278000	25.919981	0.000216	20.771890
1711.491030	-3.026400	3.423300	-10.359000	25.956224	0.000216	20.768472
1712.497026	-2.992900	3.423500	-10.245000	25.975673	0.000216	20.758613
1713.489984	-2.972800	3.424300	-10.180000	25.945791	0.000215	20.767948
1714.492209	-3.007100	3.423500	-10.294000	25.914916	0.000214	20.749732
1715.495518	-2.989700	3.422500	-10.231000	25.872466	0.000214	20.754976
1716.495674	-3.022500	3.419900	-10.334000	25.858031	0.000215	20.751855
1717.499647	-2.984600	3.421500	-10.211000	25.889388	0.000213	20.758699
1718.504958	-3.004900	3.422600	-10.283000	25.947416	0.000214	20.774322
1719.493796	-2.960000	3.421200	-10.126000	25.928439	0.000212	20.754308
1720.497030	-2.994400	3.420900	-10.242000	25.934603	0.000213	20.764768
1721.502392	-3.022200	3.419900	-10.334000	25.941284	0.000212	20.780964
1722.496844	-2.998900	3.419200	-10.253000	25.904675	0.000210	20.765997
1723.500951	-3.019300	3.418100	-10.319000	25.902118	0.000211	20.767696
1724.497899	-2.991100	3.419700	-10.228000	25.903559	0.000210	20.747805
1725.496755	-2.998700	3.418600	-10.251000	25.931233	0.000207	20.771815
1726.500232	-2.975400	3.420000	-10.175000	25.961443	0.000208	20.762809
1727.496755	-2.992600	3.419100	-10.231000	25.947858	0.000210	20.777137
1728.507483	-2.985200	3.419600	-10.207000	25.928906	0.000209	20.770899
1729.497126	-3.009900	3.417800	-10.286000	25.963737	0.000209	20.767959
1730.499541	-2.981000	3.417700	-10.188000	25.940040	0.000209	20.765015
1731.499992	-2.995200	3.417800	-10.236000	25.930079	0.000208	20.771130
1732.498780	-2.985700	3.417300	-10.202000	25.972782	0.000209	20.769460
1733.499303	-2.991500	3.416800	-10.220000	25.994840	0.000208	20.783087
1734.501263	-3.018700	3.416300	-10.311000	26.042985	0.000206	20.763654
1735.499730	-2.982200	3.415500	-10.185000	26.000113	0.000207	20.757090
1736.499895	-3.013300	3.413600	-10.284000	25.986057	0.000207	20.765254
1737.505331	-3.012700	3.415500	-10.289000	26.008119	0.000208	20.771772
1738.500910	-2.980400	3.415500	-10.178000	25.992915	0.000206	20.789213
1739.503670	-2.994900	3.415400	-10.228000	25.997470	0.000208	20.770556
1740.507093	-3.006600	3.415100	-10.267000	25.973179	0.000206	20.771281
1741.502427	-2.996500	3.414000	-10.229000	26.008776	0.000206	20.772906
1742.504549	-3.016900	3.413400	-10.297000	26.001922	0.000205	20.772658
1743.504007	-3.008100	3.412700	-10.264000	25.981231	0.000205	20.777000
1744.507276	-3.006600	3.413200	-10.261000	25.977533	0.000205	20.773285
1745.505480	-3.002300	3.411600	-10.241000	25.995844	0.000202	20.795475
1746.505655	-3.002600	3.411800	-10.243000	26.047092	0.000205	20.782953
1747.505911	-2.999900	3.411900	-10.234000	26.064902	0.000206	20.790890
1748.507245	-3.004900	3.410200	-10.247000	26.061754	0.000204	20.775874
1749.507400	-3.014600	3.410500	-10.281000	26.012949	0.000203	20.782314
1750.508488	-2.985700	3.410700	-10.183000	26.025568	0.000204	20.781716
1751.509607	-3.016600	3.410400	-10.287000	26.021624	0.000203	20.791504
1752.508377	-3.004400	3.411000	-10.247000	25.936673	0.000202	20.779176
1753.509868	-3.011300	3.409100	-10.265000	25.924233	0.000201	20.782800
1754.511410	-3.011300	3.409300	-10.266000	25.904459	0.000201	20.770996
1755.514119	-3.002100	3.409400	-10.235000	25.936455	0.000203	20.797924
1756.511772	-2.998300	3.408700	-10.219000	25.879099	0.000203	20.782503
1757.510926	-2.993700	3.409400	-10.206000	25.877933	0.000203	20.786074
1758.515230	-3.028100	3.408900	-10.322000	25.870143	0.000202	20.801956
1759.511497	-2.989000	3.408700	-10.187000	25.850196	0.000202	20.785237
1760.525954	-3.003200	3.408700	-10.236000	25.822224	0.000200	20.772311
1761.512648	-2.972300	3.408800	-10.131000	25.839319	0.000203	20.803234
1762.510035	-2.997400	3.407300	-10.211000	25.819667	0.000202	20.819528
1763.514033	-2.989000	3.406900	-10.183000	25.815074	0.000201	20.796897
1764.512895	-3.022200	3.406600	-10.294000	25.864762	0.000202	20.780903
1765.512439	-3.030600	3.404800	-10.317000	25.853410	0.000201	20.810750
1766.515321	-2.987900	3.406300	-10.176000	25.857091	0.000200	20.804966
1767.511724	-3.008000	3.405500	-10.243000	25.887845	0.000201	20.799824
1768.513846	-3.022900	3.405000	-10.293000	25.894752	0.000200	20.778788
1769.512721	-3.007600	3.405100	-10.240000	25.913706	0.000200	20.787397
1770.512699	-2.999000	3.404800	-10.210000	25.933459	0.000201	20.802026
1771.516120	-2.985700	3.405900	-10.168000	25.967686	0.000198	20.796583
1772.511666	-2.993200	3.404700	-10.190000	25.924762	0.000199	20.799927
1773.513067	-3.003400	3.403300	-10.220000	25.923449	0.000198	20.785806
1774.514131	-3.011200	3.404400	-10.250000	25.902632	0.000199	20.789075
1775.512772	-3.000500	3.402800	-10.209000	25.945455	0.000197	20.788947
1776.514584	-3.002500	3.404700	-10.221000	25.957952	0.000197	20.793442
1777.514084	-3.017900	3.402000	-10.267000	26.037242	0.000197	20.807670
1778.519261	-2.985000	3.402900	-10.157000	26.042109	0.000197	20.801655
1779.514188	-2.991100	3.402700	-10.177000	26.008380	0.000197	20.821346
1780.514627	-3.000600	3.401100	-10.205000	25.978032	0.000198	20.794650
1781.513891	-2.965400	3.402700	-10.089000	26.025001	0.000194	20.808647
1782.518475	-3.010900	3.400800	-10.239000	26.012927	0.000197	20.801733
1783.516236	-2.990300	3.402100	-10.173000	25.966656	0.000195	20.813566
1784.513648	-2.978800	3.401700	-10.132000	25.949046	0.000196	20.802512
1785.524145	-2.973200	3.401600	-10.112000	25.993282	0.000194	20.821350
1786.514565	-2.989900	3.398600	-10.161000	26.012537	0.000193	20.800867
1787.518619	-2.983300	3.399400	-10.140000	25.988349	0.000192	20.809282
1788.516819	-2.983400	3.399700	-10.142000	25.911588	0.000195	20.805658
1789.516638	-2.996600	3.398400	-10.182000	25.940407	0.000193	20.820385
1790.514806	-2.983800	3.400000	-10.144000	25.946198	0.000191	20.823358
1791.517852	-2.983600	3.398500	-10.139000	25.950478	0.000192	20.809167
1792.519236	-3.015500	3.399600	-10.250000	25.925435	0.000192	20.786379
1793.517097	-3.012400	3.398200	-10.236000	25.928821	0.000192	20.805901
1794.517680	-3.003000	3.397800	-10.203000	25.921393	0.000192	20.823568
1795.518848	-3.017600	3.395700	-10.246000	25.930709	0.000193	20.819177
1796.519375	-2.999300	3.396900	-10.188000	25.920674	0.000188	20.810993
1797.520341	-2.990500	3.396700	-10.157000	25.986851	0.000190	20.821528
1798.522360	-3.001800	3.396400	-10.194000	26.046040	0.000189	20.831208
1799.522459	-2.982800	3.396200	-10.130000	26.049623	0.000191	20.821532
1800.540388	-2.992900	3.395000	-10.160000	26.036159	0.000189	20.821754
1801.523226	-2.994200	3.395600	-10.165000	26.039097	0.000190	20.825655
1802.522784	-3.000300	3.395200	-10.185000	26.074220	0.000192	20.825857
1803.527397	-3.009000	3.393100	-10.209000	26.079234	0.000188	20.819041
1804.523125	-2.998400	3.394100	-10.176000	26.147314	0.000189	20.822014
1805.522313	-3.010500	3.394400	-10.218000	26.136067	0.000187	20.814980
1806.525562	-2.999200	3.394800	-10.181000	26.175782	0.000188	20.808421
1807.523292	-2.997100	3.392900	-10.168000	26.129789	0.000187	20.837121
1808.527932	-2.991000	3.393100	-10.148000	26.143674	0.000189	20.841116
1809.526238	-3.007000	3.392900	-10.201000	26.083719	0.000188	20.818806
1810.525835	-3.007100	3.390900	-10.195000	26.121077	0.000188	20.826945
1811.525915	-2.998100	3.392600	-10.170000	26.122046	0.000187	20.846410
1812.528203	-2.975100	3.392400	-10.092000	26.146136	0.000184	20.833159
1813.526629	-2.995200	3.390700	-10.154000	26.147679	0.000186	20.822381
1814.533984	-2.987700	3.391400	-10.132000	26.121455	0.000183	20.837282
1815.527243	-2.996500	3.389800	-10.157000	26.124980	0.000185	20.836556
1816.527081	-2.992600	3.389900	-10.144000	26.130302	0.000184	20.832895
1817.532508	-2.989200	3.391100	-10.135000	26.141052	0.000184	20.841326
1818.527235	-3.013000	3.388900	-10.210000	26.145180	0.000184	20.833620
1819.529159	-3.009100	3.388400	-10.194000	26.127967	0.000185	20.838609
1820.526609	-3.001300	3.388900	-10.170000	26.099535	0.000186	20.834697
1821.530257	-3.005000	3.389100	-10.183000	26.083913	0.000184	20.828483
1822.529796	-2.990200	3.389700	-10.135000	26.051228	0.000184	20.844006
1823.527916	-2.990700	3.389500	-10.136000	26.007014	0.000183	20.837991
1824.529266	-2.987900	3.388400	-10.123000	25.980511	0.000184	20.855934
1825.533713	-3.012900	3.386400	-10.201000	25.967079	0.000185	20.823948
1826.527620	-3.010100	3.386400	-10.193000	25.962606	0.000184	20.836997
1827.527663	-3.008200	3.387000	-10.188000	26.040899	0.000181	20.854491
1828.532766	-2.977500	3.386500	-10.082000	26.080839	0.000183	20.853843
1829.529762	-2.964000	3.387500	-10.039000	26.099912	0.000183	20.858783
1830.530229	-3.004900	3.385400	-10.171000	26.111783	0.000182	20.847478
1831.543046	-2.984700	3.384800	-10.102000	26.121270	0.000183	20.857010
1832.529804	-3.007300	3.385200	-10.179000	26.145960	0.000181	20.848628
1833.529876	-3.006900	3.385500	-10.179000	26.149858	0.000182	20.834054
1834.529163	-2.994500	3.384200	-10.133000	26.163473	0.000180	20.874285
1835.530210	-2.996900	3.383900	-10.140000	26.175417	0.000180	20.862106
1836.532463	-2.996300	3.382800	-10.134000	26.196109	0.000181	20.844967
1837.530166	-2.987500	3.384300	-10.110000	26.197570	0.000179	20.866822
1838.528444	-3.008900	3.383000	-10.178000	26.193073	0.000179	20.854243
1839.530818	-2.995800	3.383100	-10.134000	26.148250	0.000179	20.862782
1840.533302	-3.006200	3.382400	-10.167000	26.107019	0.000175	20.842691
1841.531509	-3.011500	3.382600	-10.186000	26.137548	0.000178	20.868624
1842.529158	-3.004800	3.381500	-10.160000	26.163793	0.000178	20.848529
1843.530716	-2.995000	3.381600	-10.126000	26.145644	0.000177	20.843569
1844.531909	-2.992600	3.381200	-10.118000	26.097163	0.000177	20.873089
1845.530325	-3.019200	3.381200	-10.207000	26.034300	0.000175	20.846913
1846.535518	-3.005900	3.381100	-10.162000	26.009862	0.000175	20.856973
1847.530631	-2.998500	3.380500	-10.135000	26.041654	0.000175	20.852405
1848.531068	-2.992800	3.380400	-10.116000	26.080901	0.000175	20.859595
1849.531740	-2.999200	3.381000	-10.138000	26.138870	0.000175	20.875167
1850.532195	-3.010900	3.379300	-10.174000	26.159132	0.000176	20.872293
1851.530842	-3.009100	3.378000	-10.164000	26.142321	0.000176	20.868204
1852.537807	-3.017600	3.378500	-10.194000	26.141775	0.000174	20.884249
1853.532773	-2.994100	3.380000	-10.118000	26.125834	0.000175	20.849741
1854.531266	-3.015500	3.377500	-10.184000	26.095731	0.000173	20.862642
1855.536512	-3.008500	3.376800	-10.157000	26.094286	0.000174	20.868302
1856.532872	-3.023400	3.377700	-10.212000	26.089325	0.000171	20.891765
1857.537538	-3.000600	3.377600	-10.134000	26.091931	0.000172	20.868307
1858.532210	-3.011500	3.376700	-10.168000	26.057831	0.000172	20.849692
1859.533047	-3.019500	3.376100	-10.193000	26.099280	0.000173	20.863837
1860.532135	-3.001800	3.376300	-10.134000	26.132735	0.000171	20.876115
1861.535499	-2.966700	3.377500	-10.020000	26.167605	0.000171	20.871325
1862.539690	-2.972700	3.375800	-10.034000	26.180148	0.000173	20.881557
1863.538754	-2.997900	3.375500	-10.119000	26.185885	0.000170	20.864089
1864.532679	-2.979400	3.375500	-10.056000	26.162644	0.000170	20.877245
1865.534342	-2.992000	3.374500	-10.095000	26.142624	0.000174	20.885577
1866.539021	-2.965400	3.376000	-10.010000	26.103527	0.000170	20.857200
1867.534609	-2.979100	3.375500	-10.055000	26.093199	0.000172	20.877641
1868.538733	-2.998900	3.373300	-10.115000	26.117742	0.000169	20.863895
1869.535955	-2.993900	3.373600	-10.099000	26.157819	0.000171	20.864336
1870.542337	-3.002300	3.374300	-10.130000	26.221745	0.000170	20.876890
1871.539033	-3.018600	3.372400	-10.179000	26.168676	0.000169	20.888047
1872.538743	-3.017900	3.372100	-10.176000	26.165020	0.000169	20.878210
1873.544673	-3.007800	3.373400	-10.146000	26.135764	0.000170	20.907605
1874.538701	-2.975900	3.372000	-10.034000	26.118480	0.000170	20.876965
1875.539954	-3.002200	3.371500	-10.121000	26.155008	0.000167	20.877632
1876.544786	-3.000800	3.370700	-10.114000	26.186701	0.000168	20.860168
1877.538721	-2.988900	3.372200	-10.079000	26.189282	0.000168	20.848063
1878.544409	-2.990100	3.370700	-10.078000	26.192355	0.000169	20.872013
1879.543937	-2.995800	3.371300	-10.099000	26.140253	0.000168	20.870867
1880.544965	-2.993300	3.370300	-10.088000	26.169632	0.000167	20.860086
1881.543147	-2.983800	3.370400	-10.056000	26.163719	0.000165	20.869791
1882.544314	-2.980600	3.370000	-10.044000	26.157905	0.000165	20.870112
1883.542209	-2.990700	3.369400	-10.076000	26.145583	0.000165	20.863421
1884.542510	-2.998200	3.369200	-10.100000	26.177891	0.000167	20.880238
1885.542340	-2.991600	3.369500	-10.079000	26.125985	0.000165	20.867436
1886.543330	-2.978700	3.368800	-10.034000	26.136617	0.000164	20.861524
1887.543478	-2.994100	3.367100	-10.080000	26.185712	0.000164	20.868657
1888.543867	-3.006900	3.366800	-10.123000	26.234587	0.000163	20.876045
1889.545062	-2.989000	3.367800	-10.066000	26.220551	0.000164	20.840605
1890.544254	-3.003000	3.367100	-10.111000	26.267587	0.000167	20.862266
1891.544121	-2.996900	3.366600	-10.088000	26.294899	0.000162	20.853204
1892.543606	-2.999500	3.365900	-10.095000	26.260185	0.000163	20.868104
1893.544987	-2.996900	3.366400	-10.088000	26.223977	0.000161	20.872969
1894.543639	-2.994600	3.367600	-10.084000	26.213449	0.000161	20.851959
1895.544403	-2.990600	3.366100	-10.066000	26.252287	0.000161	20.850211
1896.543918	-2.990600	3.365700	-10.065000	26.269224	0.000162	20.839731
1897.544400	-2.999100	3.364600	-10.090000	26.299695	0.000160	20.848067
1898.544754	-3.000600	3.364400	-10.093000	26.313377	0.000159	20.866558
1899.543999	-2.989000	3.364900	-10.057000	26.305804	0.000161	20.857051
1900.548991	-2.994800	3.365100	-10.077000	26.234259	0.000161	20.865758
1901.546182	-3.002800	3.364100	-10.101000	26.296987	0.000159	20.838708
1902.546197	-3.003300	3.362400	-10.099000	26.283210	0.000156	20.851415
1903.548093	-3.015300	3.363500	-10.141000	26.201829	0.000156	20.854033
1904.543406	-2.976800	3.362700	-10.010000	26.159406	0.000158	20.858345
1905.548280	-2.983400	3.362400	-10.030000	26.142924	0.000157	20.849844
1906.545652	-2.979700	3.362100	-10.018000	26.173768	0.000158	20.848121
1907.545344	-3.013200	3.361400	-10.128000	26.142550	0.000156	20.839986
1908.545492	-2.992700	3.361500	-10.059000	26.168528	0.000155	20.853287
1909.547984	-2.999000	3.360700	-10.078000	26.219119	0.000158	20.844856
1910.547099	-2.998000	3.361400	-10.076000	26.243925	0.000157	20.830903
1911.546931	-3.030900	3.358700	-10.179000	26.255602	0.000155	20.834103
1912.546638	-2.993500	3.359400	-10.056000	26.244352	0.000156	20.843186
1913.547779	-2.997100	3.361200	-10.073000	26.246588	0.000155	20.829312
1914.545798	-3.001300	3.358700	-10.080000	26.287637	0.000155	20.847329
1915.545884	-2.996100	3.359200	-10.064000	26.361463	0.000155	20.837599
1916.548477	-2.980600	3.359400	-10.012000	26.394487	0.000152	20.862254
1917.546794	-2.988100	3.358600	-10.034000	26.367404	0.000154	20.830768
1918.546178	-3.001400	3.358100	-10.078000	26.358916	0.000152	20.831720
1919.546751	-3.015700	3.357400	-10.124000	26.338924	0.000155	20.833439
1920.546431	-3.005600	3.356700	-10.088000	26.309599	0.000151	20.820089
1921.549175	-3.018300	3.356800	-10.131000	26.268551	0.000151	20.833365
1922.547146	-3.023800	3.356100	-10.148000	26.295871	0.000157	20.836639
1923.546530	-2.989400	3.356100	-10.032000	26.314493	0.000153	20.831172
1924.546550	-3.011700	3.357100	-10.110000	26.307101	0.000151	20.829906
1925.548512	-3.024500	3.355000	-10.146000	26.302682	0.000152	20.809819
1926.558537	-3.006700	3.354700	-10.086000	26.312836	0.000152	20.828084
1927.551626	-3.004600	3.355900	-10.082000	26.325923	0.000151	20.837917
1928.548010	-3.016800	3.355100	-10.121000	26.323922	0.000150	20.845388
1929.549288	-2.985800	3.354700	-10.015000	26.304422	0.000149	20.814886
1930.551181	-3.025300	3.354300	-10.147000	26.287412	0.000151	20.829560
1931.548650	-3.017500	3.355100	-10.122000	26.308496	0.000150	20.821351
1932.550200	-3.024100	3.354000	-10.141000	26.302662	0.000150	20.831609
1933.550056	-2.978900	3.354300	-9.990700	26.311527	0.000150	20.824398
1934.549378	-3.005900	3.352500	-10.076000	26.288807	0.000149	20.819108
1935.549042	-3.009100	3.353000	-10.088000	26.269339	0.000149	20.818510
1936.549962	-2.986900	3.352600	-10.013000	26.293028	0.000145	20.823825
1937.551911	-2.970400	3.352100	-9.956100	26.277906	0.000149	20.823800
1938.552910	-2.997400	3.351700	-10.046000	26.232939	0.000147	20.830768
1939.549341	-2.982000	3.352600	-9.997100	26.305570	0.000146	20.823153
1940.551778	-2.982500	3.351000	-9.993500	26.353846	0.000147	20.816668
1941.551271	-2.989200	3.351400	-10.016000	26.413338	0.000146	20.822881
1942.551932	-2.993200	3.351300	-10.030000	26.450184	0.000145	20.818189
1943.554421	-2.997500	3.350700	-10.043000	26.459028	0.000146	20.814276
1944.550827	-3.002700	3.349800	-10.057000	26.444129	0.000145	20.826802
1945.552361	-2.990200	3.351300	-10.020000	26.402266	0.000144	20.832615
1946.553347	-3.008100	3.348400	-10.071000	26.346080	0.000147	20.806492
1947.555732	-3.002800	3.349700	-10.058000	26.374112	0.000143	20.843199
1948.561371	-3.000100	3.348600	-10.045000	26.354174	0.000143	20.829799
1949.554283	-2.998700	3.348700	-10.041000	26.315314	0.000144	20.824885
1950.558310	-2.983200	3.350100	-9.992800	26.336939	0.000145	20.808685
1951.556905	-3.011900	3.346700	-10.079000	26.353727	0.000142	20.839307
1952.555675	-2.996000	3.348500	-10.031000	26.356763	0.000143	20.813435
1953.555210	-3.001000	3.347500	-10.045000	26.361452	0.000142	20.817200
1954.559045	-2.992200	3.346700	-10.013000	26.380229	0.000141	20.801458
1955.555248	-2.984900	3.347000	-9.989900	26.407222	0.000143	20.821475
1956.555887	-3.029600	3.344600	-10.131000	26.453696	0.000142	20.823141
1957.561851	-3.008300	3.345000	-10.062000	26.495261	0.000141	20.813712
1958.555568	-2.994600	3.345100	-10.017000	26.518056	0.000144	20.808649
1959.559676	-2.973500	3.346500	-9.948900	26.502784	0.000142	20.797566
1960.557446	-3.004600	3.345000	-10.050000	26.466215	0.000142	20.827190
1961.558249	-2.999100	3.344800	-10.030000	26.412112	0.000141	20.806002
1962.557719	-2.997300	3.345000	-10.025000	26.444171	0.000141	20.808826
1963.559359	-2.952400	3.345500	-9.876800	26.447296	0.000142	20.821451
1964.558686	-2.999100	3.343100	-10.025000	26.386435	0.000140	20.816705
1965.556610	-2.991300	3.343100	-10.000000	26.356266	0.000140	20.812937
1966.557720	-2.990400	3.344100	-9.999700	26.300565	0.000139	20.808640
1967.556884	-3.004400	3.343300	-10.044000	26.336078	0.000138	20.815406
1968.556139	-3.008800	3.343400	-10.058000	26.379753	0.000139	20.801928
1969.555983	-2.997700	3.343000	-10.020000	26.411016	0.000140	20.792099
1970.558088	-3.010700	3.341000	-10.058000	26.402447	0.000137	20.815254
1971.557350	-3.022500	3.341000	-10.097000	26.396683	0.000140	20.808512
1972.557050	-3.009000	3.341300	-10.053000	26.421957	0.000138	20.821112
1973.558396	-3.015200	3.340100	-10.070000	26.417383	0.000136	20.798023
1974.559338	-3.019500	3.341200	-10.088000	26.437344	0.000136	20.801016
1975.561162	-3.009200	3.340200	-10.050000	26.454475	0.000138	20.804958
1976.559818	-2.991900	3.340300	-9.993100	26.443374	0.000136	20.819405
1977.559858	-2.969300	3.341100	-9.919600	26.372733	0.000136	20.801985
1978.560446	-2.987800	3.340000	-9.978000	26.348565	0.000135	20.804723
1979.559843	-2.986100	3.339900	-9.971900	26.338338	0.000134	20.802505
1980.561253	-2.998500	3.338600	-10.009000	26.423351	0.000137	20.795487
1981.564674	-3.007700	3.337200	-10.036000	26.407180	0.000135	20.808631
1982.561502	-3.001100	3.337300	-10.015000	26.432060	0.000134	20.801869
1983.562578	-2.999700	3.336800	-10.008000	26.481663	0.000132	20.798620
1984.564312	-2.984400	3.336700	-9.957800	26.536677	0.000133	20.790857
1985.562298	-3.000000	3.337800	-10.013000	26.495338	0.000134	20.814263
1986.566822	-2.997100	3.336500	-9.999200	26.550725	0.000134	20.793124
1987.564825	-3.001700	3.337300	-10.017000	26.532743	0.000131	20.819619
1988.564021	-3.025300	3.335200	-10.089000	26.507320	0.000131	20.797383
1989.566865	-2.999000	3.335400	-10.002000	26.549720	0.000132	20.792114
1990.564207	-2.995400	3.336300	-9.991600	26.481986	0.000131	20.808429
1991.568061	-3.009100	3.334700	-10.033000	26.446881	0.000130	20.808705
1992.565098	-2.961600	3.336300	-9.878900	26.437142	0.000130	20.800814
1993.565527	-3.012300	3.333900	-10.041000	26.402532	0.000131	20.784519
1994.566509	-3.001400	3.333800	-10.005000	26.404164	0.000130	20.802756
1995.566051	-3.000200	3.334800	-10.004000	26.443316	0.000129	20.817924
1996.566880	-3.005200	3.333900	-10.018000	26.516853	0.000131	20.801275
1997.568377	-2.998900	3.334000	-9.997600	26.535421	0.000127	20.787224
1998.567930	-3.022200	3.332900	-10.072000	26.579978	0.000129	20.796451
1999.567803	-3.019800	3.331800	-10.061000	26.545984	0.000129	20.804005
2000.569224	-3.029500	3.332500	-10.095000	26.533592	0.000129	20.802929
2001.569067	-3.019100	3.331600	-10.057000	26.623532	0.000130	20.818897
2002.573381	-3.006700	3.331900	-10.016000	26.596196	0.000128	20.784305
2003.573463	-2.979600	3.332400	-9.928200	26.504407	0.000129	20.802516
2004.568121	-2.986800	3.332100	-9.951500	26.498817	0.000128	20.798793
2005.575117	-3.007400	3.330200	-10.013000	26.566066	0.000129	20.795742
2006.570669	-3.000900	3.329400	-9.990100	26.606700	0.000130	20.805295
2007.576119	-3.017600	3.329200	-10.045000	26.632785	0.000127	20.805440
2008.575279	-3.005200	3.329700	-10.006000	26.645963	0.000128	20.794980
2009.572627	-3.000000	3.329800	-9.988600	26.669792	0.000126	20.815141
2010.572062	-3.001100	3.329500	-9.990700	26.631330	0.000126	20.804450
2011.573808	-3.018200	3.328600	-10.045000	26.632269	0.000127	20.794489
2012.575771	-2.998900	3.329500	-9.984000	26.659547	0.000126	20.782557
2013.573964	-3.005600	3.328300	-10.002000	26.673717	0.000125	20.792061
2014.574543	-2.985300	3.327800	-9.933900	26.594868	0.000124	20.788185
2015.575145	-2.998600	3.327000	-9.975500	26.568700	0.000126	20.822097
2016.578390	-3.002200	3.326200	-9.985000	26.551862	0.000122	20.803276
2017.575593	-3.011100	3.325300	-10.012000	26.523457	0.000123	20.799854
2018.580263	-2.983500	3.327400	-9.926600	26.493309	0.000123	20.806059
2019.577581	-2.989100	3.326900	-9.943800	26.516468	0.000124	20.795199
2020.578504	-3.014600	3.325900	-10.025000	26.597916	0.000122	20.791724
2021.581871	-2.976200	3.325100	-9.895600	26.597215	0.000123	20.791493
2022.578538	-3.014500	3.324900	-10.022000	26.632836	0.000125	20.786999
2023.582351	-3.016200	3.324100	-10.025000	26.623350	0.000121	20.790264
2024.579311	-3.048500	3.323600	-10.131000	26.606784	0.000121	20.791155
2025.580501	-3.022700	3.324500	-10.048000	26.589008	0.000121	20.788933
2026.578424	-3.014900	3.323100	-10.018000	26.613552	0.000121	20.792743
2027.578751	-2.997400	3.323800	-9.962000	26.640084	0.000121	20.791914
2028.582230	-3.007800	3.323000	-9.994400	26.604385	0.000119	20.807710
2029.581541	-3.007000	3.322800	-9.990800	26.603483	0.000121	20.774086
2030.579669	-3.000700	3.321900	-9.966900	26.564530	0.000120	20.799415
2031.580572	-2.990400	3.322900	-9.936100	26.534482	0.000122	20.792917
2032.581273	-2.990500	3.323700	-9.937800	26.530532	0.000120	20.773774
2033.582314	-3.012200	3.320600	-10.001000	26.567890	0.000119	20.786197
2034.580245	-2.987100	3.321700	-9.921200	26.605445	0.000119	20.783645
2035.581554	-3.012100	3.319600	-9.997400	26.603878	0.000120	20.791079
2036.580858	-2.993800	3.320200	-9.938900	26.564372	0.000118	20.793566
2037.587851	-2.966400	3.320700	-9.849500	26.562875	0.000118	20.792535
2038.585501	-2.979300	3.320500	-9.892000	26.622680	0.000120	20.780108
2039.584897	-2.989200	3.319200	-9.921500	26.665946	0.000118	20.793731
2040.580834	-3.010100	3.318800	-9.988800	26.616738	0.000116	20.770815
2041.581556	-2.988400	3.318900	-9.917400	26.608318	0.000116	20.791749
2042.582655	-3.009500	3.317800	-9.984000	26.595005	0.000114	20.780262
2043.585413	-2.998800	3.317500	-9.948200	26.566700	0.000115	20.799699
2044.589911	-3.018500	3.317400	-10.013000	26.555326	0.000116	20.796800
2045.590171	-2.999600	3.318200	-9.951100	26.575383	0.000113	20.806531
2046.581706	-2.996900	3.317900	-9.943100	26.647295	0.000114	20.777352
2047.584297	-3.015200	3.315600	-9.995800	26.696859	0.000113	20.784981
2048.589764	-3.008600	3.314900	-9.972900	26.733319	0.000114	20.782280
2049.585460	-3.020200	3.315000	-10.010000	26.772979	0.000113	20.786119
2050.589243	-2.978700	3.316700	-9.879100	26.735370	0.000112	20.803783
2051.586471	-3.010000	3.316000	-9.980700	26.718761	0.000111	20.789930
2052.587024	-3.006900	3.314700	-9.966700	26.718901	0.000110	20.793864
2053.587918	-3.000200	3.314800	-9.943500	26.732599	0.000112	20.784402
2054.590474	-2.983200	3.314600	-9.886400	26.764193	0.000112	20.783449
2055.589848	-2.985400	3.314900	-9.895600	26.750488	0.000110	20.796223
2056.586865	-2.995900	3.314200	-9.928100	26.784415	0.000108	20.780547
2057.586251	-2.987700	3.313200	-9.898000	26.753204	0.000111	20.781884
2058.587309	-3.004600	3.314000	-9.955800	26.804457	0.000110	20.775094
2059.587078	-2.992600	3.313300	-9.914700	26.763399	0.000109	20.782652
2060.585976	-2.975500	3.314100	-9.860100	26.702405	0.000108	20.780599
2061.586606	-3.003100	3.312600	-9.946600	26.687883	0.000109	20.792552
2062.586230	-2.984300	3.313000	-9.886100	26.700635	0.000107	20.766016
2063.587526	-2.985400	3.313000	-9.888500	26.676950	0.000109	20.776345
2064.587873	-2.996000	3.312200	-9.922000	26.692458	0.000108	20.781030
2065.588633	-3.008800	3.311100	-9.961600	26.688857	0.000107	20.789264
2066.590529	-2.991000	3.311500	-9.903200	26.733904	0.000107	20.766273
2067.587981	-3.011500	3.310100	-9.967900	26.789743	0.000106	20.790646
2068.594208	-3.005600	3.310000	-9.947500	26.801480	0.000109	20.787748
2069.589479	-3.036700	3.310500	-10.052000	26.788050	0.000107	20.783254
2070.588233	-3.023700	3.307900	-10.001000	26.795789	0.000108	20.790561
2071.590797	-2.999900	3.309400	-9.927300	26.756864	0.000106	20.796944
2072.591927	-3.008400	3.309000	-9.953500	26.744353	0.000107	20.757811
2073.588397	-3.023600	3.306700	-9.996800	26.773486	0.000105	20.780939
2074.588246	-2.996100	3.307700	-9.909700	26.751937	0.000104	20.784403
2075.592114	-3.009500	3.307200	-9.952400	26.788521	0.000106	20.771873
2076.592583	-3.007900	3.305900	-9.942700	26.851463	0.000103	20.783950
2077.589895	-3.017300	3.306500	-9.975800	26.850811	0.000102	20.777131
2078.593453	-2.989400	3.306600	-9.883700	26.856642	0.000104	20.769718
2079.594958	-2.993200	3.306500	-9.896000	26.843111	0.000104	20.780294
2080.592001	-2.993300	3.306200	-9.895600	26.857680	0.000105	20.779296
2081.595174	-3.018700	3.304700	-9.973700	26.866112	0.000101	20.767386
2082.594776	-3.002200	3.305600	-9.922700	26.916346	0.000102	20.792293
2083.593938	-2.999900	3.303300	-9.908700	26.922497	0.000103	20.773348
2084.595035	-3.005200	3.304700	-9.930400	26.871468	0.000104	20.775616
2085.595225	-3.000300	3.304700	-9.913500	26.825824	0.000102	20.777138
2086.593842	-3.033300	3.303200	-10.019000	26.855079	0.000101	20.786164
2087.600900	-3.000600	3.305000	-9.916600	26.858929	0.000100	20.778181
2088.594700	-3.011800	3.303200	-9.947900	26.889503	0.000100	20.756766
2089.595430	-3.022600	3.302500	-9.980100	26.948367	9.899076E-5	20.776129
2090.598026	-2.989500	3.302100	-9.871000	26.937621	9.866073E-5	20.773857
2091.596695	-2.996000	3.301900	-9.892000	26.973108	9.780267E-5	20.756437
2092.599458	-2.983300	3.303000	-9.852500	26.971989	9.889175E-5	20.754363
2093.597306	-2.992600	3.300300	-9.875400	26.889070	9.846272E-5	20.774823
2094.598442	-3.001600	3.301500	-9.908900	26.856258	9.730764E-5	20.771702
2095.601071	-2.990600	3.300500	-9.869400	26.829850	9.658158E-5	20.759848
2096.599652	-2.991800	3.300700	-9.874200	26.792644	9.958480E-5	20.770329
2097.600338	-2.992600	3.299000	-9.871300	26.801506	9.621856E-5	20.766436
2098.600085	-3.012900	3.298000	-9.935700	26.871520	9.519548E-5	20.769030
2099.600713	-3.025800	3.297500	-9.976500	26.871795	9.559151E-5	20.763142
2100.600677	-2.994500	3.298100	-9.875800	26.885364	9.397439E-5	20.771571
2101.601226	-3.002400	3.297700	-9.900500	26.891272	9.526149E-5	20.780831
2102.599999	-2.996900	3.298300	-9.883800	26.819697	9.470045E-5	20.764812
2103.602021	-2.976400	3.298600	-9.816900	26.865809	9.331434E-5	20.766606
2104.601257	-2.993100	3.297300	-9.868300	26.946717	9.433742E-5	20.768305
2105.599823	-2.982000	3.296600	-9.829700	26.986099	9.367737E-5	20.766182
2106.602241	-2.973700	3.297800	-9.806000	26.940415	9.202725E-5	20.768131
2107.600355	-2.978800	3.297100	-9.820600	26.864996	9.552551E-5	20.763418
2108.603245	-2.993200	3.296800	-9.867200	26.876732	9.285231E-5	20.754356
2109.602896	-3.008900	3.295700	-9.915500	26.846826	9.126819E-5	20.750838
2110.602075	-3.023000	3.293700	-9.956400	26.853523	9.215926E-5	20.767056
2111.601882	-3.014200	3.294800	-9.930000	26.847995	9.262129E-5	20.761971
2112.603060	-3.015700	3.293700	-9.932300	26.805504	9.103718E-5	20.754809
2113.603317	-3.001200	3.293500	-9.882900	26.833102	9.173023E-5	20.762169
2114.608546	-3.004800	3.292300	-9.891500	26.904036	9.064115E-5	20.739610
2115.606550	-3.004100	3.292000	-9.888700	26.907383	9.146621E-5	20.762891
2116.610317	-2.982700	3.292700	-9.820000	26.898156	8.975008E-5	20.761674
2117.611462	-2.994900	3.293800	-9.863900	26.934538	8.876001E-5	20.748471
2118.607615	-3.001600	3.292800	-9.883000	26.966454	8.882602E-5	20.752590
2119.610468	-3.012600	3.291900	-9.916100	26.961218	8.760493E-5	20.768188
2120.606702	-2.984000	3.293000	-9.824900	26.968938	8.776994E-5	20.754140
2121.606753	-2.992900	3.291500	-9.849500	26.882799	8.813297E-5	20.759508
2122.609170	-3.035300	3.288600	-9.980800	26.844676	8.836398E-5	20.751522
2123.614657	-2.999000	3.290800	-9.867300	26.797522	8.710989E-5	20.752474
2124.609363	-2.994100	3.289600	-9.848800	26.811469	8.677987E-5	20.770290
2125.608085	-3.013300	3.289400	-9.910700	26.849699	8.859500E-5	20.754201
2126.608488	-3.016000	3.289200	-9.919800	26.884270	8.588880E-5	20.754823
2127.610147	-2.984200	3.292600	-9.824300	26.840813	8.694488E-5	20.750956
2128.609606	-3.007900	3.288300	-9.890700	26.803287	8.704389E-5	20.760641
2129.609287	-3.007700	3.289500	-9.893000	26.824881	8.450270E-5	20.780931
2130.607823	-2.999400	3.287600	-9.860200	26.861171	8.641684E-5	20.759098
2131.609437	-3.001400	3.286700	-9.863600	26.866636	8.562478E-5	20.778819
2132.612631	-2.994200	3.287100	-9.841600	26.922951	8.717590E-5	20.755312
2133.610069	-3.008200	3.286300	-9.885200	26.967771	8.463471E-5	20.761975
2134.616195	-2.984700	3.286600	-9.808100	26.948738	8.440369E-5	20.751370
2135.616547	-3.015800	3.285800	-9.908600	26.967574	8.529476E-5	20.757984
2136.614515	-2.980700	3.286000	-9.793800	26.949758	8.529476E-5	20.770889
2137.615186	-2.990600	3.285000	-9.822600	26.979119	8.519575E-5	20.762007
2138.613367	-2.983600	3.285100	-9.800800	27.002152	8.473372E-5	20.791335
2139.613359	-2.975200	3.285300	-9.772600	27.022353	8.268757E-5	20.759017
2140.618052	-3.000500	3.285500	-9.857600	26.999151	8.173050E-5	20.754651
2141.612634	-2.987400	3.284500	-9.811700	27.020741	8.281958E-5	20.754552
2142.613710	-2.975700	3.283000	-9.767400	27.046029	8.255556E-5	20.744421
2143.613592	-2.979700	3.284700	-9.786500	27.049456	8.041040E-5	20.752609
2144.617135	-3.016900	3.280900	-9.897700	27.029362	8.196151E-5	20.771757
2145.614670	-3.015700	3.280000	-9.890500	27.059808	8.037740E-5	20.758752
2146.614342	-2.961900	3.284300	-9.726600	27.080855	8.031139E-5	20.753841
2147.614821	-2.994300	3.282200	-9.827300	27.097803	7.793522E-5	20.759506
2148.613859	-2.986800	3.280000	-9.795400	27.150482	7.981636E-5	20.771711
2149.614738	-3.011300	3.280300	-9.876400	27.103292	7.899130E-5	20.757440
2150.614359	-3.006200	3.281100	-9.863400	27.077858	7.810023E-5	20.747033
2151.614682	-2.976700	3.280100	-9.762500	27.086450	7.895829E-5	20.772270
2152.613858	-2.998900	3.279100	-9.832500	27.079403	7.684614E-5	20.759019
2153.617270	-3.009000	3.278700	-9.864500	27.051762	7.932132E-5	20.736435
2154.616168	-3.004300	3.278700	-9.849200	27.036974	7.763820E-5	20.768506
2155.616850	-2.989400	3.279200	-9.801300	27.068443	7.668113E-5	20.773127
2156.617640	-3.011800	3.277700	-9.870000	27.060129	7.588907E-5	20.757179
2157.616882	-3.004200	3.278400	-9.847500	27.046858	7.744018E-5	20.750944
2158.616422	-3.001300	3.276400	-9.832600	26.952209	7.572406E-5	20.759129
2159.617208	-3.046100	3.274900	-9.974200	26.973832	7.628510E-5	20.753846
2160.618938	-3.006000	3.276600	-9.848700	27.017682	7.671413E-5	20.755743
2161.622343	-3.005000	3.276500	-9.845100	27.109795	7.697815E-5	20.741220
2162.620270	-3.025500	3.274700	-9.907300	27.145182	7.625210E-5	20.759267
2163.618167	-3.017200	3.275000	-9.880600	27.109901	7.371091E-5	20.762191
2164.617678	-3.007500	3.274500	-9.847300	27.019903	7.298486E-5	20.753709
2165.618485	-3.007300	3.274600	-9.845500	27.044720	7.295185E-5	20.746897
2166.617903	-3.013300	3.274600	-9.865800	27.029558	7.321587E-5	20.751564
2167.621196	-2.996800	3.274300	-9.811100	27.021177	7.404093E-5	20.787233
2168.618823	-3.010100	3.274900	-9.856300	27.079317	7.453597E-5	20.766519
2169.620375	-2.985600	3.273800	-9.772700	27.126913	7.516302E-5	20.763179
2170.623693	-3.002000	3.272900	-9.824500	27.161652	7.344689E-5	20.775833
2171.622177	-2.993200	3.272500	-9.793900	27.127962	7.473399E-5	20.759966
2172.620123	-2.987600	3.272000	-9.774900	27.149177	7.559205E-5	20.754276
2173.625286	-2.991200	3.272800	-9.788400	27.178806	7.585607E-5	20.761318
2174.622693	-3.002300	3.269700	-9.816500	27.116454	7.242382E-5	20.776368
2175.624833	-3.005700	3.272000	-9.834400	27.120201	7.433796E-5	20.778714
2176.626234	-2.994700	3.270700	-9.794100	27.139928	7.281985E-5	20.749715
2177.624331	-3.017300	3.269700	-9.865200	27.140649	7.324888E-5	20.761347
2178.627375	-2.986600	3.269700	-9.764400	27.109242	7.364491E-5	20.757734
2179.629501	-2.990600	3.269200	-9.775500	27.114699	7.417294E-5	20.765593
2180.626066	-2.985300	3.268700	-9.757500	27.100457	7.549304E-5	20.768813
2181.625991	-2.949500	3.270900	-9.646100	27.132265	7.070769E-5	20.758604
2182.629383	-2.987000	3.268200	-9.760900	27.160404	7.120273E-5	20.776474
2183.624846	-2.992200	3.268300	-9.779000	27.147749	7.285285E-5	20.773703
2184.628215	-3.002800	3.268100	-9.812800	27.139886	7.173077E-5	20.788555
2185.629629	-2.997500	3.267700	-9.794100	27.134151	6.876055E-5	20.765717
2186.626454	-3.007100	3.265500	-9.818700	27.123287	7.179677E-5	20.763325
2187.627441	-3.011100	3.267000	-9.836200	27.169533	6.876055E-5	20.760526
2188.630817	-3.001700	3.265100	-9.799700	27.183159	7.140074E-5	20.766170
2189.627270	-2.992000	3.264700	-9.767100	27.218335	6.961861E-5	20.754609
2190.630212	-2.974100	3.264800	-9.709200	27.165762	6.958561E-5	20.757681
2191.630569	-2.999100	3.263400	-9.786400	27.173382	6.991563E-5	20.738318
2192.628767	-3.012700	3.263300	-9.829600	27.183430	6.935459E-5	20.769762
2193.630468	-2.985800	3.264600	-9.746400	27.207197	6.668140E-5	20.761899
2194.631082	-2.997900	3.263800	-9.783500	27.255628	6.790249E-5	20.771258
2195.628772	-2.998000	3.262100	-9.778700	27.217474	6.744045E-5	20.777451
2196.630287	-2.979700	3.262200	-9.719900	27.209157	6.707742E-5	20.766241
2197.632232	-3.013600	3.262000	-9.828600	27.215387	6.658239E-5	20.763024
2198.629500	-3.005700	3.262000	-9.802800	27.222233	6.592234E-5	20.803101
2199.632002	-3.009700	3.261000	-9.813900	27.248557	6.777048E-5	20.772681
2200.632469	-3.004400	3.260700	-9.795600	27.270635	6.645038E-5	20.809113
2201.628476	-3.029900	3.261000	-9.879900	27.279394	6.810050E-5	20.781414
2202.631042	-3.000100	3.260900	-9.782400	27.256743	6.780348E-5	20.775699
2203.631289	-3.007400	3.259900	-9.802900	27.233620	6.625236E-5	20.788951
2204.629548	-2.971300	3.259800	-9.684600	27.288797	6.443723E-5	20.789924
2205.634537	-3.001900	3.258300	-9.780700	27.314406	6.555931E-5	20.789606
2206.630804	-2.993500	3.258200	-9.751500	27.270368	6.308413E-5	20.783240
2207.630905	-2.988200	3.259100	-9.737700	27.231837	6.400820E-5	20.794743
2208.632701	-3.014600	3.257700	-9.820200	27.188521	6.513028E-5	20.792900
2209.634337	-3.002400	3.256800	-9.776600	27.166536	6.239108E-5	20.806350
2210.632618	-2.992300	3.257600	-9.746700	27.225364	6.460224E-5	20.789181
2211.635759	-2.996500	3.256300	-9.756400	27.228246	6.183004E-5	20.776432
2212.635411	-3.015200	3.255400	-9.815300	27.213481	6.090597E-5	20.781021
2213.632483	-3.006000	3.255600	-9.785800	27.249635	6.255609E-5	20.785144
2214.633794	-3.009200	3.254600	-9.792500	27.235690	6.229207E-5	20.803360
2215.640562	-3.004400	3.255500	-9.779900	27.248122	6.083997E-5	20.800692
2216.638273	-3.020500	3.254800	-9.830100	27.267526	6.232508E-5	20.781330
2217.635703	-2.979700	3.254600	-9.696600	27.319152	6.103798E-5	20.791061
2218.638195	-3.006300	3.253400	-9.780200	27.359987	6.245709E-5	20.779982
2219.636549	-2.981600	3.255300	-9.704700	27.399407	6.338115E-5	20.799249
2220.638474	-2.999300	3.252800	-9.755500	27.422969	6.120299E-5	20.782175
2221.638330	-3.000200	3.251800	-9.755600	27.395788	6.321614E-5	20.778538
2222.637613	-2.987800	3.253200	-9.718800	27.402435	6.130200E-5	20.802770
2223.638529	-2.990200	3.252700	-9.725800	27.440387	6.183004E-5	20.800647
2224.642843	-3.016400	3.251100	-9.805700	27.396533	6.057595E-5	20.779763
2225.638273	-2.994400	3.251500	-9.735700	27.331735	6.384319E-5	20.787123
2226.638495	-3.001400	3.250200	-9.754700	27.293477	6.120299E-5	20.801743
2227.638706	-2.988700	3.251100	-9.715900	27.322898	6.120299E-5	20.779182
2228.638431	-3.024700	3.249700	-9.828000	27.274991	6.097198E-5	20.803537
2229.639583	-2.983300	3.249600	-9.694200	27.239215	6.017992E-5	20.786991
2230.641557	-2.991300	3.249300	-9.718200	27.236235	5.942086E-5	20.799167
2231.641689	-3.036500	3.247100	-9.858800	27.184056	6.173103E-5	20.795048
2232.641782	-2.992800	3.247600	-9.718500	27.203663	5.938786E-5	20.794854
2233.643824	-2.987000	3.247000	-9.698100	27.266129	5.922285E-5	20.807426
2234.640122	-3.006400	3.246700	-9.759800	27.300191	5.912384E-5	20.790480
2235.644118	-3.016600	3.247100	-9.794500	27.351442	5.856280E-5	20.808370
2236.640464	-3.010000	3.246000	-9.769600	27.392998	5.984990E-5	20.788060
2237.641797	-2.997900	3.246600	-9.732300	27.351098	5.717670E-5	20.799963
2238.641747	-2.982100	3.245300	-9.677200	27.361095	5.737471E-5	20.803855
2239.642650	-2.983800	3.246200	-9.685100	27.358316	5.796876E-5	20.787309
2240.642842	-2.991100	3.245100	-9.705600	27.364615	5.852980E-5	20.797440
2241.643252	-3.017900	3.244200	-9.790100	27.400809	5.796876E-5	20.805876
2242.643311	-3.014200	3.244000	-9.777500	27.380169	5.681367E-5	20.797914
2243.643114	-3.004100	3.243800	-9.743900	27.413412	5.447050E-5	20.801484
2244.645148	-2.985900	3.242900	-9.682500	27.402473	5.598861E-5	20.806601
2245.650486	-2.994800	3.241400	-9.706800	27.445982	5.671467E-5	20.813388
2246.644827	-2.985000	3.242600	-9.678400	27.446453	5.443750E-5	20.781619
2247.646372	-3.009500	3.241200	-9.753300	27.440744	5.585660E-5	20.812860
2248.646086	-3.021000	3.240200	-9.787200	27.444121	5.691268E-5	20.810568
2249.649698	-2.967700	3.242700	-9.622000	27.478030	5.390946E-5	20.795370
2250.647255	-3.011900	3.239800	-9.756800	27.488074	5.298539E-5	20.792199
2251.652976	-3.046000	3.239000	-9.864800	27.455260	5.354643E-5	20.805179
2252.646635	-2.999100	3.240500	-9.718100	27.436900	5.298539E-5	20.790975
2253.645765	-3.008800	3.239100	-9.744500	27.384067	5.285338E-5	20.813214
2254.645272	-2.998200	3.239200	-9.711300	27.425047	5.489953E-5	20.820776
2255.648311	-3.003600	3.239800	-9.730700	27.425273	5.275438E-5	20.826692
2256.646932	-2.985800	3.238100	-9.667700	27.479767	5.298539E-5	20.811343
2257.648048	-3.003100	3.236700	-9.719400	27.560035	5.295239E-5	20.823349
2258.648162	-2.991400	3.236400	-9.680600	27.600980	5.258936E-5	20.819976
2259.647270	-2.974600	3.236800	-9.627500	27.626922	5.447050E-5	20.810518
2260.650911	-3.015700	3.234900	-9.754500	27.648626	5.166530E-5	20.821926
2261.647279	-3.016600	3.236400	-9.761600	27.583646	5.311740E-5	20.794949
2262.648067	-3.007300	3.234900	-9.728000	27.576135	4.991617E-5	20.831487
2263.647140	-3.013400	3.234100	-9.744900	27.507077	5.321641E-5	20.813689
2264.650422	-3.009600	3.234600	-9.733700	27.525084	5.189631E-5	20.828486
2265.647838	-3.013600	3.234200	-9.744500	27.525903	5.186331E-5	20.799913
2266.648251	-2.982200	3.233700	-9.642700	27.565760	5.196232E-5	20.821048
2267.652748	-2.990900	3.234100	-9.672400	27.601497	5.130227E-5	20.807694
2268.648350	-2.990200	3.233100	-9.666500	27.582352	5.041120E-5	20.819725
2269.652505	-2.996000	3.231900	-9.681900	27.592916	5.331542E-5	20.808069
2270.654227	-3.000900	3.233200	-9.701600	27.555540	5.216033E-5	20.840162
2271.650641	-3.018100	3.230800	-9.749700	27.515831	4.932212E-5	20.813487
2272.651932	-2.974600	3.231200	-9.610600	27.443621	4.839806E-5	20.830927
2273.658150	-2.981700	3.230600	-9.631700	27.424523	4.753999E-5	20.809343
2274.653501	-3.015800	3.229900	-9.739300	27.385006	4.928912E-5	20.834547
2275.652352	-3.005300	3.231200	-9.709800	27.459498	4.965215E-5	20.834098
2276.654638	-2.982900	3.229300	-9.632000	27.511237	4.816704E-5	20.841107
2277.653692	-2.989500	3.230800	-9.657700	27.549983	4.978416E-5	20.833149
2278.654398	-3.008400	3.227900	-9.709800	27.595719	5.051021E-5	20.831278
2279.658442	-2.995100	3.228600	-9.669100	27.651524	4.621990E-5	20.837169
2280.655699	-3.030100	3.227100	-9.777700	27.561838	4.704496E-5	20.833224
2281.660326	-2.999900	3.226100	-9.677100	27.560576	4.796902E-5	20.848548
2282.660154	-3.008100	3.227100	-9.706700	27.576029	4.595588E-5	20.821898
2283.656066	-2.990100	3.226300	-9.645700	27.572681	4.519682E-5	20.858356
2284.656676	-3.008300	3.226100	-9.704300	27.575385	4.555985E-5	20.827414
2285.663787	-3.008100	3.225100	-9.700100	27.590416	4.493280E-5	20.847752
2286.658062	-3.018300	3.225600	-9.735100	27.599173	4.476779E-5	20.825270
2287.658407	-2.992100	3.225800	-9.651500	27.561670	4.621990E-5	20.847278
2288.660588	-2.985800	3.224500	-9.626500	27.535058	4.367871E-5	20.836150
2289.658278	-2.993000	3.224100	-9.648800	27.566710	4.456978E-5	20.840970
2290.659523	-3.013000	3.223700	-9.711900	27.636203	4.420675E-5	20.846408
2291.663999	-3.002200	3.223600	-9.677100	27.615117	4.354670E-5	20.849847
2292.662550	-2.998500	3.222000	-9.660300	27.681615	4.407474E-5	20.839947
2293.660927	-2.998300	3.222700	-9.662100	27.662865	4.282065E-5	20.843839
2294.663095	-2.999300	3.221400	-9.661200	27.731212	4.245762E-5	20.842442
2295.662314	-2.995100	3.221100	-9.647000	27.709735	4.295266E-5	20.821303
2296.659360	-3.013900	3.220300	-9.704600	27.672211	4.110452E-5	20.841391
2297.662628	-2.997600	3.219600	-9.650300	27.625365	4.206159E-5	20.839296
2298.661260	-3.000500	3.219400	-9.659100	27.628290	4.331568E-5	20.855516
2299.662332	-3.007300	3.218900	-9.679600	27.594882	4.331568E-5	20.844186
2300.664360	-2.994500	3.220000	-9.641300	27.632060	4.202859E-5	20.837024
2301.662317	-3.014200	3.218000	-9.698700	27.635654	4.321668E-5	20.846804
2302.665268	-3.011200	3.218200	-9.690100	27.650835	4.183057E-5	20.848329
2303.664121	-3.000500	3.217300	-9.653100	27.704949	4.235861E-5	20.848729
2304.662226	-2.984700	3.218300	-9.604700	27.680447	4.397573E-5	20.838298
2305.662700	-2.986100	3.216900	-9.604300	27.706609	4.014745E-5	20.841391
2306.665249	-2.994200	3.216600	-9.630600	27.669437	4.163256E-5	20.863728
2307.662022	-2.990400	3.215500	-9.614900	27.637514	4.192958E-5	20.866693
2308.662723	-3.006400	3.215700	-9.666600	27.671543	4.150055E-5	20.856365
2309.668155	-3.014800	3.214200	-9.689800	27.674272	4.103852E-5	20.887084
2310.662752	-3.013800	3.215400	-9.690100	27.676649	4.328268E-5	20.855813
2311.664542	-3.009300	3.216200	-9.678000	27.730938	4.288665E-5	20.860657
2312.663774	-3.018500	3.213400	-9.698100	27.773364	4.209459E-5	20.861152
2313.662653	-3.006400	3.213200	-9.659100	27.802322	4.298566E-5	20.852362
2314.665464	-2.992600	3.212300	-9.612300	27.858439	4.173157E-5	20.850993
2315.667452	-2.989400	3.214000	-9.606900	27.809466	4.110452E-5	20.868087
2316.664318	-2.972800	3.211300	-9.545300	27.735990	3.938840E-5	20.872853
2317.663422	-2.987200	3.211400	-9.592600	27.722646	4.100551E-5	20.867485
2318.665135	-2.971000	3.209700	-9.535400	27.691302	4.120353E-5	20.875297
2319.662777	-2.999000	3.210800	-9.628600	27.692142	4.087350E-5	20.864290
2320.663884	-3.002700	3.208600	-9.634200	27.656450	3.839832E-5	20.863462
2321.669909	-2.988200	3.210500	-9.592800	27.661264	4.064249E-5	20.857875
2322.664964	-2.999300	3.207700	-9.619700	27.631676	4.117053E-5	20.864137
2323.667691	-2.990300	3.207900	-9.591300	27.640604	4.064249E-5	20.859371
2324.666914	-2.991000	3.207800	-9.593900	27.637524	3.925639E-5	20.867176
2325.665838	-3.019000	3.206100	-9.678400	27.704508	3.915738E-5	20.867725
2326.667491	-2.991800	3.207400	-9.595400	27.754502	3.994944E-5	20.874412
2327.668834	-3.003500	3.205000	-9.625600	27.786562	4.047748E-5	20.874907
2328.669323	-3.014500	3.206200	-9.664800	27.816469	3.882735E-5	20.859962
2329.669450	-3.005900	3.205400	-9.634000	27.772374	4.014745E-5	20.864897
2330.668900	-3.012300	3.204300	-9.651600	27.773267	4.041147E-5	20.867218
2331.669353	-3.061300	3.203200	-9.805000	27.826110	3.925639E-5	20.875827
2332.670844	-3.004000	3.203600	-9.622500	27.763844	3.846433E-5	20.888554
2333.672412	-3.008100	3.203300	-9.634900	27.791663	3.886036E-5	20.878618
2334.671365	-2.997800	3.204200	-9.603300	27.808002	3.744125E-5	20.881311
2335.676011	-2.987000	3.201400	-9.561900	27.816630	3.899237E-5	20.881933
2336.671976	-2.994000	3.202800	-9.588500	27.785011	3.932239E-5	20.874768
2337.673446	-2.993900	3.201800	-9.585200	27.759937	3.760626E-5	20.891260
2338.669945	-3.004700	3.203000	-9.623000	27.796163	3.998244E-5	20.905904
2339.672276	-2.977600	3.200900	-9.530300	27.794254	3.886036E-5	20.892130
2340.672682	-3.020500	3.200400	-9.665300	27.843494	3.876135E-5	20.877676
2341.672113	-2.996200	3.199100	-9.584600	27.849816	3.711123E-5	20.904899
2342.671907	-2.991700	3.201300	-9.574900	27.861074	3.688021E-5	20.895367
2343.671682	-2.977900	3.199300	-9.526600	27.791690	3.783728E-5	20.904248
2344.671062	-2.989900	3.198200	-9.561700	27.818861	3.681421E-5	20.901247
2345.672950	-2.993100	3.195900	-9.564700	27.807677	3.645118E-5	20.884777
2346.672180	-3.011100	3.195600	-9.621000	27.773751	3.598915E-5	20.877661
2347.671936	-2.980100	3.197000	-9.525600	27.762422	3.420702E-5	20.904665
2348.673777	-2.984100	3.195200	-9.533900	27.751979	3.384399E-5	20.892260
2349.674675	-3.009200	3.194600	-9.612600	27.792220	3.539510E-5	20.891032
2350.676664	-3.001100	3.194700	-9.586500	27.809034	3.503208E-5	20.896573
2351.674055	-2.992800	3.193300	-9.556300	27.828670	3.453704E-5	20.906851
2352.673900	-3.013600	3.192900	-9.621900	27.814606	3.348096E-5	20.876578
2353.674354	-3.011500	3.192200	-9.613100	27.827106	3.519709E-5	20.901009
2354.676405	-2.999000	3.194300	-9.579300	27.896065	3.400900E-5	20.898816
2355.675463	-2.996600	3.191300	-9.561700	27.960748	3.252389E-5	20.898012
2356.675686	-2.987400	3.191300	-9.532800	27.969551	3.480106E-5	20.887433
2357.675521	-2.996600	3.191300	-9.562000	27.898740	3.249089E-5	20.904827
2358.676051	-3.009800	3.189900	-9.598400	27.858397	3.219387E-5	20.913060
2359.677967	-2.993700	3.190700	-9.550900	27.854058	3.206186E-5	20.905849
2360.676217	-2.999600	3.191200	-9.571200	27.860056	3.278791E-5	20.926108
2361.677877	-2.997000	3.188000	-9.554000	27.900470	3.519709E-5	20.905145
2362.677092	-2.997400	3.189200	-9.557400	27.882097	3.262290E-5	20.910360
2363.677780	-3.034100	3.185700	-9.664400	27.854768	3.443803E-5	20.910831
2364.678806	-2.986400	3.186100	-9.514500	27.904133	3.311794E-5	20.901720
2365.678969	-3.003200	3.184700	-9.563000	27.921342	3.301893E-5	20.904342
2366.677486	-2.991400	3.184100	-9.524300	27.903342	3.258990E-5	20.918940
2367.676387	-3.002200	3.185100	-9.561600	27.901974	3.173183E-5	20.897651
2368.680183	-2.992800	3.183800	-9.527800	27.925803	3.291992E-5	20.912624
2369.677361	-2.987400	3.183300	-9.508900	28.018498	3.225987E-5	20.905880
2370.678493	-2.991900	3.182700	-9.521400	28.028889	3.090677E-5	20.904012
2371.676785	-2.998000	3.182900	-9.541400	28.008356	3.183084E-5	20.889983
2372.679946	-2.997300	3.181100	-9.533800	27.975632	3.235888E-5	20.913940
2373.678678	-3.032600	3.180400	-9.643400	27.923194	3.064275E-5	20.891508
2374.678532	-3.005700	3.181500	-9.562000	27.910939	3.024672E-5	20.914258
2375.681246	-2.996900	3.180900	-9.532300	27.946991	3.123680E-5	20.912139
2376.681082	-3.000400	3.178700	-9.536300	27.948506	2.889362E-5	20.900389
2377.680424	-3.006200	3.178000	-9.552400	28.002254	3.179784E-5	20.908021
2378.678883	-2.991600	3.179100	-9.509600	28.029894	3.143481E-5	20.894119
2379.680565	-3.010100	3.177900	-9.564300	28.089125	2.971869E-5	20.920075
2380.678971	-3.000600	3.176600	-9.531100	28.050075	3.212786E-5	20.880296
2381.681988	-2.991000	3.176000	-9.498300	28.050968	3.159982E-5	20.906322
2382.681489	-3.006400	3.177300	-9.551900	28.011298	3.103878E-5	20.893419
2383.680438	-3.008900	3.173900	-9.549300	28.047868	2.971869E-5	20.910787
2384.682920	-2.985700	3.175600	-9.480900	28.005941	2.763953E-5	20.883759
2385.683180	-2.994000	3.173700	-9.501000	27.960444	2.750752E-5	20.876846
2386.685701	-2.998900	3.172200	-9.512200	27.943166	2.952067E-5	20.894540
2387.684205	-2.996000	3.171900	-9.501200	27.944277	3.153382E-5	20.868633
2388.682943	-3.002800	3.173200	-9.527500	27.999167	2.836559E-5	20.885001
2389.685129	-2.980000	3.171100	-9.449100	28.030010	2.750752E-5	20.897555
2390.682855	-2.995400	3.170700	-9.496300	27.958110	2.615442E-5	20.865488
2391.683846	-3.028700	3.168900	-9.596700	27.926744	2.724350E-5	20.888918
2392.684197	-2.998300	3.169100	-9.500800	27.913206	2.869561E-5	20.874344
2393.683257	-3.013500	3.170100	-9.552600	27.984015	2.681447E-5	20.881604
2394.684639	-2.999300	3.170400	-9.508400	27.953048	2.691348E-5	20.872246
2395.684255	-2.999200	3.168700	-9.503000	27.961474	2.628643E-5	20.861762
2396.683449	-3.017800	3.165400	-9.552100	27.946994	2.655045E-5	20.848136
2397.686519	-2.997700	3.165500	-9.488600	27.984803	2.754053E-5	20.879552
2398.685978	-2.981000	3.166400	-9.436700	28.000618	2.773854E-5	20.869394
2399.683788	-2.993700	3.164700	-9.473600	27.965461	2.641844E-5	20.876205
2400.684387	-2.980600	3.165400	-9.433700	27.979593	2.645145E-5	20.860559
2401.686156	-2.991200	3.163000	-9.459800	27.915649	2.556038E-5	20.863053
2402.685478	-2.986800	3.162700	-9.445500	27.858743	2.387726E-5	20.875005
2403.688209	-3.008600	3.161200	-9.509500	27.860329	2.602241E-5	20.859058
2404.686456	-3.014300	3.160700	-9.526000	27.840464	2.503234E-5	20.855661
2405.686155	-3.011900	3.160500	-9.518100	27.875598	2.631944E-5	20.854511
2406.690540	-3.012200	3.159400	-9.515400	27.940704	2.559338E-5	20.853659
2407.686584	-3.011700	3.158600	-9.511300	27.923073	2.473532E-5	20.873844
2408.686949	-2.992700	3.159800	-9.454700	27.973925	2.387726E-5	20.869552
2409.688833	-3.008100	3.157200	-9.496400	28.053579	2.542837E-5	20.879081
2410.686802	-3.012900	3.157900	-9.513500	28.120660	2.377825E-5	20.849409
2411.688392	-3.009800	3.155100	-9.494500	28.151545	2.559338E-5	20.882870
2412.690055	-3.005600	3.155600	-9.483600	28.095370	2.404227E-5	20.854769
2413.688357	-2.984100	3.155600	-9.415300	28.062271	2.622043E-5	20.849901
2414.687885	-2.993300	3.153800	-9.439600	28.038024	2.447130E-5	20.858208
2415.693836	-2.987900	3.153600	-9.421200	28.007005	2.493333E-5	20.848797
2416.686519	-2.998900	3.152600	-9.453200	28.002843	2.321721E-5	20.850297
2417.689506	-3.026500	3.150500	-9.534100	27.994307	2.315120E-5	20.854033
2418.690139	-3.012500	3.150900	-9.491700	28.046815	2.183111E-5	20.830075
2419.687835	-3.013000	3.149600	-9.489000	28.083183	2.140207E-5	20.852459
2420.687336	-3.002000	3.149600	-9.454100	28.141682	2.199612E-5	20.871045
2421.689627	-2.983900	3.149400	-9.395600	28.087910	2.275517E-5	20.861959
2422.687893	-3.005700	3.148300	-9.462300	28.075270	2.391026E-5	20.850183
2423.687281	-3.006300	3.146500	-9.458400	28.076803	2.268917E-5	20.852200
2424.688519	-3.004200	3.146300	-9.451300	28.047697	2.430629E-5	20.844239
2425.687411	-3.007300	3.144100	-9.453800	28.068517	2.130307E-5	20.852395
2426.689472	-3.015100	3.144200	-9.479300	28.044569	2.146808E-5	20.844409
2427.688363	-2.994100	3.143900	-9.412100	28.090729	1.922391E-5	20.855788
2428.687978	-3.012200	3.142000	-9.463500	28.113556	2.034600E-5	20.863119
2429.687595	-3.000300	3.141500	-9.424900	28.185519	2.166609E-5	20.849744
2430.690569	-3.005100	3.141200	-9.438200	28.195111	2.136907E-5	20.840909
2431.689334	-2.997200	3.140400	-9.411500	28.134477	1.935592E-5	20.854309
2432.687826	-3.003600	3.140800	-9.432900	28.069723	1.853086E-5	20.848867
2433.691361	-2.996300	3.139300	-9.405100	28.067811	1.988396E-5	20.842201
2434.692416	-2.996500	3.139300	-9.406300	28.097162	1.721077E-5	20.848513
2435.699490	-3.004000	3.137300	-9.423000	28.143172	2.041200E-5	20.853580
2436.692531	-2.996800	3.136900	-9.399500	28.138336	1.948793E-5	20.842547
2437.690921	-3.014000	3.135600	-9.450000	28.129042	1.592367E-5	20.836985
2438.695883	-2.976400	3.134800	-9.328700	28.178865	2.004897E-5	20.837831
2439.694288	-3.003900	3.134000	-9.413800	28.201321	1.641871E-5	20.824403
2440.691213	-3.001400	3.134200	-9.406300	28.224300	1.909190E-5	20.848959
2441.690810	-3.007300	3.131800	-9.417300	28.217531	1.826684E-5	20.840248
2442.693796	-3.033300	3.132000	-9.499300	28.163618	1.651772E-5	20.838602
2443.693321	-2.995700	3.131300	-9.379600	28.156501	1.674873E-5	20.844713
2444.694892	-3.023500	3.128900	-9.459200	28.188383	1.714476E-5	20.844568
2445.692925	-3.010100	3.128900	-9.417800	28.261600	1.697975E-5	20.831511
2446.692500	-2.997200	3.128400	-9.375000	28.273970	1.783781E-5	20.821208
2447.694881	-2.994100	3.127600	-9.363000	28.219316	1.704575E-5	20.837304
2448.697862	-2.995900	3.126100	-9.364800	28.238748	1.803583E-5	20.831738
2449.695083	-3.012900	3.124600	-9.412900	28.267448	1.697975E-5	20.834554
2450.695223	-3.003300	3.124300	-9.382400	28.278652	1.681474E-5	20.832559
2451.696646	-3.013500	3.122600	-9.409000	28.320986	1.674873E-5	20.824449
2452.696568	-2.982500	3.123200	-9.313600	28.327698	1.615469E-5	20.824095
2453.695723	-2.999800	3.122600	-9.366500	28.311465	1.565965E-5	20.844260
2454.696274	-2.997000	3.121200	-9.353200	28.313816	1.546164E-5	20.854213
2455.695354	-2.984400	3.120900	-9.313200	28.325094	1.496660E-5	20.837594
2456.695045	-3.030500	3.118100	-9.448700	28.274132	1.539563E-5	20.855034
2457.697540	-2.985800	3.118000	-9.308700	28.319689	1.384452E-5	20.831204
2458.694875	-2.997700	3.117300	-9.343300	28.342813	1.612169E-5	20.823667
2459.696895	-3.014200	3.116400	-9.393200	28.405413	1.569265E-5	20.830751
2460.698809	-2.998100	3.116400	-9.342100	28.442215	1.622069E-5	20.823713
2461.696307	-2.989400	3.115200	-9.311900	28.409155	1.473558E-5	20.847795
2462.695741	-3.019300	3.113200	-9.398800	28.406499	1.427355E-5	20.834215
2463.698566	-2.981200	3.114100	-9.283000	28.406822	1.585767E-5	20.831221
2464.695155	-2.978300	3.113000	-9.271300	28.410413	1.499960E-5	20.837682
2465.695389	-2.978900	3.111100	-9.267100	28.391403	1.443856E-5	20.836083
2466.697769	-3.024000	3.110000	-9.404000	28.355169	1.232641E-5	20.833737
2467.695812	-2.973900	3.110200	-9.248500	28.289884	1.292045E-5	20.824428
2468.696479	-2.991100	3.109200	-9.299100	28.341804	1.265643E-5	20.818858
2469.697994	-2.993800	3.106400	-9.299600	28.346640	1.176537E-5	20.809029
2470.698057	-2.999400	3.105600	-9.313300	28.330330	1.420755E-5	20.831487
2471.695601	-2.995000	3.105400	-9.299500	28.330376	1.331648E-5	20.818731
2472.697302	-3.010300	3.104600	-9.344800	28.359424	1.334948E-5	20.828539
2473.700633	-3.011500	3.102900	-9.343300	28.411194	1.163336E-5	20.840839
2474.696394	-3.017700	3.101000	-9.356800	28.410674	1.351449E-5	20.823720
2475.700828	-3.028400	3.100200	-9.387900	28.339123	1.354750E-5	20.833228
2476.698369	-3.002600	3.101200	-9.310200	28.323653	1.424055E-5	20.819548
2477.700082	-3.056700	3.098700	-9.469800	28.313588	1.259043E-5	20.815578
2478.700274	-3.006500	3.097400	-9.311700	28.292323	1.268943E-5	20.817875
2479.700958	-3.015800	3.096100	-9.335000	28.274944	1.295345E-5	20.818869
2480.702106	-2.994400	3.095300	-9.266700	28.255903	1.202939E-5	20.812500
2481.700246	-3.002400	3.095600	-9.293600	28.316252	1.387752E-5	20.811622
2482.699022	-3.003400	3.094600	-9.292300	28.367785	1.374551E-5	20.815621
2483.702080	-2.986900	3.094200	-9.240600	28.344728	1.232641E-5	20.827492
2484.702932	-3.013900	3.092500	-9.319000	28.387432	1.519762E-5	20.809326
2485.700082	-2.990000	3.092000	-9.244300	28.386733	1.209539E-5	20.832329
2486.700550	-3.010400	3.091000	-9.303500	28.458502	1.285445E-5	20.822096
2487.701060	-3.007000	3.089500	-9.289300	28.469082	9.818223E-6	20.814259
2488.700804	-3.003800	3.088900	-9.277900	28.475821	1.183137E-5	20.825313
2489.702009	-3.003500	3.086100	-9.268200	28.477083	1.285445E-5	20.833221
2490.701631	-2.974700	3.086400	-9.180500	28.508773	1.249142E-5	20.844745
2491.701611	-2.991500	3.085900	-9.230100	28.536081	1.080830E-5	20.797331
2492.701658	-2.986100	3.084600	-9.210200	28.556175	1.090730E-5	20.835111
2493.704915	-2.982600	3.084300	-9.197400	28.570745	1.209539E-5	20.804741
2494.704036	-2.992900	3.081100	-9.220300	28.588657	8.828150E-6	20.829418
2495.703751	-2.992300	3.081700	-9.220400	28.553516	1.169936E-5	20.798294
2496.706726	-2.981100	3.080100	-9.181300	28.466886	1.206239E-5	20.815367
2497.703998	-2.985100	3.079100	-9.190700	28.401953	9.719215E-6	20.812568
2498.705799	-3.017500	3.076600	-9.282700	28.356350	9.719215E-6	20.830185
2499.706122	-3.006600	3.077800	-9.252200	28.377860	1.202939E-5	20.804430
2500.707397	-3.019200	3.076000	-9.286100	28.409258	7.970087E-6	20.798588
2501.706777	-3.009900	3.074600	-9.253500	28.466085	9.686213E-6	20.817879
2502.710594	-2.990700	3.074300	-9.193700	28.521047	8.498126E-6	20.808269
2503.706335	-3.029900	3.070700	-9.303200	28.552490	1.354750E-5	20.809115
2504.709562	-2.997300	3.071200	-9.204300	28.583166	9.389191E-6	20.809189
2505.709457	-2.989900	3.069700	-9.176700	28.504290	1.064328E-5	20.811783
2506.705833	-3.006100	3.067500	-9.221000	28.496283	1.014825E-5	20.805615
2507.707049	-2.994400	3.067200	-9.183200	28.480942	9.653210E-6	20.795856
2508.710494	-2.992200	3.066200	-9.173600	28.441563	9.191176E-6	20.793659
2509.708402	-3.000700	3.065300	-9.197300	28.435860	8.597133E-6	20.802141
2510.707730	-3.000800	3.064500	-9.194300	28.480865	1.028026E-5	20.823753
2511.708778	-2.978100	3.062100	-9.118400	28.546106	8.861152E-6	20.817859
2512.707514	-3.002700	3.062000	-9.193000	28.593510	1.004924E-5	20.814391
2513.707324	-2.992400	3.059800	-9.155600	28.626982	9.257181E-6	20.771763
2514.707582	-3.008500	3.058900	-9.201700	28.568853	9.521201E-6	20.794774
2515.708874	-3.003100	3.056800	-9.179200	28.491435	6.649990E-6	20.800259
2516.706635	-2.996200	3.055500	-9.154000	28.487095	9.026164E-6	20.795415
2517.709028	-3.013900	3.056100	-9.209400	28.480851	6.980014E-6	20.814257
2518.709633	-3.003800	3.054700	-9.174900	28.492376	8.168101E-6	20.794095
2519.716578	-2.995000	3.052900	-9.142700	28.469178	8.102096E-6	20.802502
2520.710939	-3.004200	3.052100	-9.167300	28.528156	7.871079E-6	20.809738
2521.711149	-3.035400	3.049900	-9.256200	28.632575	9.191176E-6	20.806794
2522.712472	-3.017300	3.050300	-9.202700	28.667732	8.597133E-6	20.815177
2523.711871	-3.010100	3.048300	-9.174800	28.643203	9.950232E-6	20.807541
2524.713673	-2.991800	3.046400	-9.113500	28.577640	8.927157E-6	20.798408
2525.714422	-2.998000	3.045000	-9.127100	28.537074	6.715994E-6	20.798331
2526.713284	-3.002900	3.044300	-9.140000	28.608316	6.550982E-6	20.802750
2527.716774	-2.994000	3.042600	-9.109200	28.565547	5.923936E-6	20.802350
2528.714153	-2.989600	3.042000	-9.093400	28.558861	6.121951E-6	20.796565
2529.714073	-3.020000	3.039000	-9.176200	28.570852	5.593912E-6	20.808641
2530.714993	-2.987900	3.040200	-9.082300	28.554374	7.475050E-6	20.801055
2531.715065	-3.016500	3.037600	-9.161300	28.500925	5.362895E-6	20.784686
2532.714746	-2.990700	3.036700	-9.081100	28.505609	6.385970E-6	20.807895
2533.719998	-2.997300	3.035100	-9.095600	28.561988	5.296890E-6	20.815835
2534.714497	-2.999000	3.035100	-9.101400	28.666449	6.649990E-6	20.788755
2535.713985	-3.012600	3.032700	-9.135800	28.710309	7.970087E-6	20.768922
2536.717218	-2.993800	3.031900	-9.076100	28.708974	5.527907E-6	20.780379
2537.716790	-3.009000	3.030100	-9.116600	28.696039	5.989941E-6	20.780627
2538.717218	-2.993700	3.030300	-9.071000	28.667576	6.385970E-6	20.786097
2539.720392	-2.971100	3.029100	-8.999000	28.712494	6.815002E-6	20.790563
2540.716630	-2.998900	3.027400	-9.077700	28.719882	5.065873E-6	20.767658
2541.717399	-3.016800	3.024300	-9.122700	28.708338	5.824929E-6	20.792541
2542.716536	-2.996700	3.024800	-9.063100	28.639334	6.220958E-6	20.791316
2543.720012	-3.013500	3.022600	-9.108200	28.612401	6.187956E-6	20.768932
2544.719855	-3.003400	3.021400	-9.073300	28.577541	5.098875E-6	20.782661
2545.721331	-2.990300	3.019200	-9.027400	28.598010	7.112024E-6	20.785258
2546.720679	-2.990800	3.019400	-9.029900	28.672269	5.824929E-6	20.775177
2547.719845	-2.989000	3.018200	-9.020800	28.709954	7.046019E-6	20.787056
2548.721252	-3.001600	3.016600	-9.054300	28.697493	6.121951E-6	20.776401
2549.720842	-2.989500	3.014900	-9.012500	28.648882	4.999868E-6	20.780545
2550.721019	-2.983200	3.014200	-8.991100	28.655793	7.046019E-6	20.760478
2551.723739	-2.995700	3.012000	-9.022000	28.649132	8.498126E-6	20.766571
2552.721003	-2.993800	3.010700	-9.012400	28.684734	6.121951E-6	20.775878
2553.721554	-3.018900	3.008100	-9.080700	28.715139	7.277036E-6	20.770467
2554.719801	-2.996800	3.008100	-9.013500	28.710256	5.659917E-6	20.780248
2555.721939	-3.031700	3.006200	-9.112500	28.736666	7.904082E-6	20.771288
2556.721616	-3.018800	3.003500	-9.066000	28.780889	9.488198E-6	20.781221
2557.721646	-3.003500	3.004000	-9.021400	28.830980	9.488198E-6	20.787583
2558.723478	-2.970800	3.002800	-8.919500	28.873218	7.112024E-6	20.769441
2559.721570	-2.997000	3.001000	-8.992400	28.809476	7.871079E-6	20.780145
2560.722305	-2.982000	3.000500	-8.945800	28.712090	8.828150E-6	20.767870
2561.722507	-2.974400	2.998400	-8.917300	28.694721	7.838077E-6	20.763178
2562.722250	-2.971500	2.998500	-8.909300	28.714591	8.762145E-6	20.757587
2563.724752	-2.986400	2.997100	-8.949000	28.810266	7.211031E-6	20.761975
2564.724710	-3.021600	2.993100	-9.042800	28.875716	5.824929E-6	20.755835
2565.725153	-3.018200	2.993000	-9.032100	28.815149	7.046019E-6	20.762626
2566.724950	-3.027300	2.989300	-9.048400	28.781378	6.022943E-6	20.769385
2567.724485	-3.025000	2.989100	-9.040600	28.679303	6.352968E-6	20.745276
2568.725590	-3.001800	2.988900	-8.971300	28.699615	8.729143E-6	20.739657
2569.726055	-3.002400	2.987100	-8.967400	28.721217	7.772072E-6	20.763787
2570.726722	-2.994400	2.985700	-8.939700	28.720251	7.871079E-6	20.759020
2571.726907	-2.975300	2.984700	-8.879400	28.686382	7.640062E-6	20.771374
2572.725933	-2.979600	2.983700	-8.889300	28.654318	6.649990E-6	20.743819
2573.727401	-3.010700	2.980200	-8.971200	28.658354	5.923936E-6	20.758316
2574.725230	-3.003000	2.979400	-8.946000	28.592417	6.980014E-6	20.773462
2575.727295	-2.989700	2.979000	-8.905700	28.613877	7.640062E-6	20.755719
2576.727207	-2.983600	2.977900	-8.884300	28.701928	8.465123E-6	20.768540
2577.727527	-3.020200	2.976200	-8.988100	28.711290	6.154953E-6	20.757581
2578.732579	-3.006600	2.974200	-8.940500	28.739583	9.851225E-6	20.767114
2579.727930	-2.999600	2.972400	-8.915200	28.823788	8.069094E-6	20.756629
2580.728314	-3.011900	2.970200	-8.944500	28.841772	7.409045E-6	20.759099
2581.727377	-3.009500	2.969800	-8.937300	28.933671	9.422193E-6	20.757323
2582.727967	-3.000300	2.968600	-8.906000	28.930352	6.748997E-6	20.760143
2583.726464	-3.007000	2.966900	-8.920400	28.869114	7.046019E-6	20.766729
2584.727015	-3.011700	2.964200	-8.927200	28.860442	7.607060E-6	20.765579
2585.727619	-2.996700	2.963900	-8.881300	28.804651	8.663138E-6	20.758215
2586.727418	-2.996900	2.962400	-8.875900	28.839999	8.168101E-6	20.750674
2587.727502	-3.012600	2.959800	-8.916000	28.819240	7.937084E-6	20.760582
2588.726862	-2.967200	2.958700	-8.778700	28.814031	8.003089E-6	20.787104
2589.728194	-3.012700	2.957400	-8.909100	28.824930	6.748997E-6	20.745452
2590.728149	-3.001400	2.957000	-8.874200	28.793415	8.630135E-6	20.760647
2591.729418	-2.968100	2.955800	-8.771600	28.892827	9.224179E-6	20.765013
2592.728864	-2.998900	2.951800	-8.851500	28.930627	7.541055E-6	20.754256
2593.729357	-3.012100	2.950700	-8.887400	28.971221	8.333113E-6	20.756273
2594.730343	-3.001500	2.950000	-8.853700	28.969753	1.070929E-5	20.753846
2595.729493	-2.997000	2.948600	-8.836400	28.949938	6.385970E-6	20.758538
2596.729368	-3.008300	2.945400	-8.858400	28.902719	8.927157E-6	20.765496
2597.730634	-2.988000	2.945000	-8.798300	28.859046	5.989941E-6	20.758482
2598.733005	-2.996900	2.944100	-8.822500	28.849481	6.319965E-6	20.765917
2599.730271	-3.015700	2.941400	-8.869200	28.905340	8.795147E-6	20.767187
2600.730877	-3.014700	2.941100	-8.865300	28.907714	8.267109E-6	20.759148
2601.733453	-3.005800	2.939100	-8.833600	28.861758	8.729143E-6	20.772595
2602.734599	-3.006300	2.936500	-8.827600	28.841965	7.475050E-6	20.768777
2603.734490	-2.985800	2.936100	-8.766200	28.719254	7.871079E-6	20.745214
2604.734981	-2.993000	2.934300	-8.782100	28.758620	4.801853E-6	20.766849
2605.734536	-3.002000	2.932900	-8.804100	28.807573	5.857931E-6	20.776332
2606.733800	-3.013100	2.929900	-8.827100	28.839605	4.537834E-6	20.760709
2607.738335	-2.975300	2.929700	-8.715300	28.846662	7.244033E-6	20.781095
2608.736655	-3.009500	2.928300	-8.812200	28.809453	5.164880E-6	20.762104
2609.735022	-2.997500	2.924800	-8.766000	28.782370	7.475050E-6	20.736718
2610.739454	-3.003000	2.924300	-8.780500	28.810339	4.801853E-6	20.774850
2611.739873	-3.014800	2.922600	-8.810300	28.913764	5.626914E-6	20.768088
2612.736688	-2.997600	2.921000	-8.755400	28.903926	4.537834E-6	20.765289
2613.738436	-3.048300	2.917400	-8.892000	28.810385	6.914009E-6	20.774896
2614.739506	-3.030900	2.917300	-8.840100	28.868075	5.527907E-6	20.761889
2615.735731	-2.956300	2.917600	-8.624500	28.939517	7.772072E-6	20.773170
2616.740462	-3.019400	2.913900	-8.797400	28.956681	6.055946E-6	20.762487
2617.740420	-2.982300	2.911800	-8.682800	28.940879	5.527907E-6	20.769801
2618.741526	-2.966200	2.911300	-8.634700	28.985087	7.244033E-6	20.768821
2619.741212	-2.992900	2.908200	-8.703200	29.005970	7.046019E-6	20.777059
2620.747006	-3.008800	2.905900	-8.743000	29.037648	7.244033E-6	20.759664
2621.738467	-2.982000	2.903800	-8.657700	29.109917	5.461902E-6	20.761833
2622.738019	-3.014400	2.903200	-8.750100	29.152390	4.009795E-6	20.753896
2623.740689	-3.001800	2.900800	-8.707100	29.178638	5.131878E-6	20.763277
2624.739986	-3.000100	2.898500	-8.695100	29.122742	6.319965E-6	20.763850
2625.739524	-2.984300	2.898500	-8.648900	29.055376	5.329892E-6	20.767569
2626.743098	-3.000800	2.896800	-8.692500	28.973340	6.385970E-6	20.769314
2627.741142	-2.988800	2.894200	-8.649500	28.956917	3.217737E-6	20.777898
2628.742647	-2.964300	2.894000	-8.577500	28.923502	1.468608E-6	20.776950
2629.743786	-3.001400	2.892100	-8.679600	28.991968	5.791926E-6	20.765322
2630.740220	-3.019100	2.886700	-8.713400	28.952211	5.857931E-6	20.768889
2631.742438	-2.995200	2.886400	-8.644300	28.896675	6.187956E-6	20.768415
2632.745650	-2.994900	2.885200	-8.640100	28.863903	5.692919E-6	20.764324
2633.742854	-2.995800	2.884200	-8.639300	28.907254	5.065873E-6	20.778125
2634.742143	-2.986700	2.882500	-8.608700	28.892291	2.755703E-6	20.777276
2635.742632	-2.994800	2.880300	-8.624800	28.881736	5.395897E-6	20.761901
2636.743139	-2.992300	2.877600	-8.609200	28.907429	5.296890E-6	20.780198
2637.741795	-3.016500	2.875700	-8.673600	28.978545	5.824929E-6	20.766023
2638.742293	-3.002600	2.874100	-8.628200	29.041655	4.570836E-6	20.785039
2639.745228	-2.989200	2.871600	-8.582900	29.034747	4.966866E-6	20.768121
2640.744780	-2.986300	2.870300	-8.571000	29.015649	3.250739E-6	20.773535
2641.744423	-3.007600	2.867600	-8.623800	29.009162	3.514759E-6	20.765577
2642.746415	-3.018900	2.866100	-8.651900	29.040619	3.580764E-6	20.767873
2643.744907	-2.991400	2.863800	-8.566200	29.058677	5.131878E-6	20.785594
2644.744532	-3.008500	2.861900	-8.609100	29.094862	4.240812E-6	20.766104
2645.745034	-2.993300	2.859900	-8.560100	29.108831	4.405824E-6	20.767377
2646.745729	-2.991700	2.858700	-8.551400	29.066704	6.022943E-6	20.771871
2647.744781	-3.017800	2.855800	-8.617100	29.132661	5.131878E-6	20.778587
2648.745865	-3.018300	2.854200	-8.614200	29.118295	6.187956E-6	20.767904
2649.744943	-3.003000	2.853000	-8.566600	29.156038	5.758924E-6	20.799298
2650.748730	-2.994500	2.851500	-8.538400	29.129788	5.230885E-6	20.786598
2651.746091	-2.990500	2.849000	-8.519400	29.119362	3.019722E-6	20.769928
2652.746012	-2.990000	2.846200	-8.509300	29.150250	3.382749E-6	20.798682
2653.749857	-2.981400	2.844900	-8.480200	29.132566	4.999868E-6	20.771853
2654.746952	-2.998000	2.840900	-8.515800	29.165532	4.405824E-6	20.779468
2655.744967	-2.998900	2.839800	-8.515100	29.128682	5.494905E-6	20.803975
2656.747507	-2.987300	2.839300	-8.481300	29.102899	5.362895E-6	20.774677
2657.746346	-2.985200	2.835200	-8.462200	29.111369	4.900861E-6	20.798384
2658.747712	-2.992400	2.833300	-8.478000	29.075904	4.636841E-6	20.780193
2659.750491	-3.019500	2.832000	-8.550700	29.150576	6.550982E-6	20.783363
2660.749189	-2.997700	2.829100	-8.480200	29.211745	5.758924E-6	20.785260
2661.748846	-2.995500	2.826900	-8.467200	29.220018	4.108802E-6	20.791226
2662.753021	-2.995200	2.824400	-8.459100	29.254937	3.052725E-6	20.789906
2663.750906	-2.997000	2.820600	-8.452400	29.274922	4.405824E-6	20.786813
2664.752341	-2.990100	2.819800	-8.430800	29.278044	5.395897E-6	20.782846
2665.753690	-2.992900	2.816400	-8.428500	29.251471	4.273815E-6	20.785465
2666.749954	-2.973500	2.814200	-8.366700	29.241222	5.725922E-6	20.774662
2667.752352	-3.025100	2.811500	-8.504500	29.184560	5.164880E-6	20.782047
2668.754628	-3.003200	2.810200	-8.438800	29.180448	5.098875E-6	20.792602
2669.753679	-3.003000	2.806800	-8.427500	29.226562	5.428900E-6	20.796399
2670.754572	-3.006900	2.804800	-8.432500	29.322047	5.395897E-6	20.756070
2671.758160	-3.010600	2.801500	-8.433000	29.389273	5.131878E-6	20.805807
2672.755814	-2.996600	2.799800	-8.389300	29.388603	6.088948E-6	20.783320
2673.755313	-2.997900	2.796100	-8.381500	29.364884	6.253960E-6	20.782648
2674.767197	-3.004900	2.793700	-8.394000	29.341112	5.263888E-6	20.790932
2675.755859	-2.985200	2.791400	-8.331200	29.329775	6.055946E-6	20.781402
2676.756478	-2.973600	2.788600	-8.291300	29.329599	7.508053E-6	20.777906
2677.759258	-3.004400	2.785100	-8.366700	29.356735	5.296890E-6	20.794350
2678.757965	-3.010000	2.782700	-8.375600	29.348790	7.442048E-6	20.780652
2679.761171	-3.015600	2.778800	-8.378800	29.387044	6.220958E-6	20.784594
2680.759202	-2.995600	2.777100	-8.317700	29.364066	6.022943E-6	20.800790
2681.759430	-3.001000	2.773700	-8.323200	29.377460	6.154953E-6	20.782047
2682.758944	-2.996300	2.771100	-8.302100	29.397611	5.890934E-6	20.791452
2683.758518	-3.010000	2.768900	-8.333300	29.369859	5.494905E-6	20.808999
2684.759198	-3.004500	2.765500	-8.307900	29.384464	5.824929E-6	20.787210
2685.758827	-2.982100	2.763600	-8.241100	29.342071	6.848004E-6	20.809442
2686.759739	-3.024100	2.757400	-8.336700	29.382874	5.362895E-6	20.786555
2687.759047	-2.995600	2.756200	-8.255500	29.465198	5.560909E-6	20.796987
2688.759706	-2.997700	2.753400	-8.252700	29.514586	6.319965E-6	20.796983
2689.759747	-2.994400	2.749300	-8.231400	29.539144	4.537834E-6	20.789022
2690.759285	-3.018400	2.745800	-8.286900	29.409433	5.131878E-6	20.803841
2691.761103	-2.987900	2.743800	-8.196900	29.357066	3.580764E-6	20.800848
2692.763768	-2.975200	2.741400	-8.155300	29.324528	7.640062E-6	20.812150
2693.760757	-2.987500	2.737400	-8.176600	29.335124	6.748997E-6	20.789638
2694.760395	-2.988600	2.733500	-8.167900	29.364759	6.418973E-6	20.811446
2695.762824	-2.987500	2.730900	-8.157500	29.489320	9.158174E-6	20.799016
2696.762711	-2.982900	2.725800	-8.130400	29.474783	7.079021E-6	20.785311
2697.761783	-3.000500	2.723900	-8.172200	29.483004	5.791926E-6	20.810668
2698.760802	-3.026900	2.718800	-8.227600	29.444551	6.715994E-6	20.803676
2699.769685	-3.025400	2.715300	-8.213800	29.408128	5.395897E-6	20.784034
2700.762075	-2.981400	2.712600	-8.086700	29.334613	6.517980E-6	20.815675
2701.762805	-2.994500	2.708000	-8.108200	29.354095	7.079021E-6	20.797379
2702.771458	-2.999600	2.704100	-8.109600	29.386829	7.805075E-6	20.807612
2703.762253	-2.994500	2.701100	-8.087200	29.376652	6.682992E-6	20.824380
2704.763197	-2.979100	2.696700	-8.032900	29.384376	6.550982E-6	20.803242
2705.768464	-2.985500	2.692900	-8.038700	29.444363	8.597133E-6	20.817711
2706.765062	-2.956000	2.689300	-7.948500	29.472191	5.989941E-6	20.792181
2707.765423	-2.990300	2.684500	-8.026200	29.530221	7.838077E-6	20.807054
2708.768710	-2.998400	2.678900	-8.031300	29.649665	6.253960E-6	20.810348
2709.766785	-2.979700	2.675700	-7.971200	29.702164	7.310038E-6	20.831033
2710.765134	-2.991700	2.672400	-7.992500	29.690480	6.616987E-6	20.816883
2711.767545	-2.985600	2.667700	-7.963800	29.641663	6.319965E-6	20.816031
2712.767746	-2.994500	2.663200	-7.973700	29.716070	9.026164E-6	20.832725
2713.770817	-3.006900	2.657800	-7.990100	29.791118	7.772072E-6	20.814984
2714.769247	-3.033100	2.653500	-8.047400	29.790893	6.451975E-6	20.832775
2715.767310	-2.985800	2.648900	-7.907900	29.841705	6.649990E-6	20.815730
2716.765188	-3.003200	2.644200	-7.940500	29.894542	7.046019E-6	20.823490
2717.765950	-3.009800	2.640300	-7.946500	29.743442	5.263888E-6	20.800105
2718.766586	-2.974000	2.634500	-7.834800	29.677727	5.989941E-6	20.829155
2719.770515	-2.962500	2.630700	-7.791900	29.629923	5.890934E-6	20.832170
2720.768855	-2.980600	2.625000	-7.823600	29.606925	6.881007E-6	20.839332
2721.767406	-2.981900	2.620200	-7.812100	29.644500	4.834856E-6	20.844020
2722.770808	-3.059100	2.611800	-7.988500	29.605739	4.207810E-6	20.839084
2723.774631	-3.006100	2.610800	-7.847000	29.560480	5.758924E-6	20.829496
2724.766707	-2.985400	2.603400	-7.771400	29.650617	4.372822E-6	20.816049
2725.770267	-3.023000	2.596600	-7.848300	29.695616	4.735849E-6	20.825855
2726.776655	-3.007000	2.592400	-7.794900	29.741803	8.795147E-6	20.825954
2727.772029	-2.979900	2.588700	-7.712700	29.787939	4.999868E-6	20.832641
2728.769647	-2.985600	2.582500	-7.709400	29.807936	7.046019E-6	20.829570
2729.778838	-3.010800	2.576000	-7.754000	29.799471	8.135099E-6	20.830518
2730.769002	-2.986400	2.570600	-7.675400	29.736999	5.296890E-6	20.840550
2731.772317	-3.013500	2.564100	-7.726300	29.727593	4.471829E-6	20.836757
2732.774373	-2.991400	2.559700	-7.656200	29.764450	5.956939E-6	20.844994
2733.770883	-3.038400	2.551700	-7.751800	29.795365	4.999868E-6	20.823059
2734.772718	-2.979200	2.547100	-7.587700	29.787865	4.504832E-6	20.842050
2735.774819	-3.015700	2.539500	-7.657100	29.874193	3.085727E-6	20.830472
2736.772455	-2.994800	2.533800	-7.587300	29.852541	4.966866E-6	20.823812
2737.772258	-2.989800	2.528100	-7.558200	29.806556	3.580764E-6	20.835291
2738.775295	-3.003100	2.523300	-7.575800	29.836725	6.451975E-6	20.843426
2739.772758	-2.990500	2.517400	-7.527200	29.900332	6.815002E-6	20.855406
2740.773560	-3.008700	2.510500	-7.550900	29.889222	5.428900E-6	20.845626
2741.775555	-2.975500	2.504100	-7.449600	29.861110	4.405824E-6	20.837668
2742.771650	-3.000200	2.497700	-7.492800	29.857450	5.428900E-6	20.842512
