LabVIEW Measurement	
Writer_Version	2
Reader_Version	2
Separator	Tab
Decimal_Separator	.
Multi_Headings	No
X_Columns	One
Time_Pref	Absolute
Operator	admin
Description	Clolumns are: time, Current, Voltage, Power, Battery Temp, and Chamber Temp
Date	2024/08/16
Time	13:07:17.8513970375061035156
***End_of_Header***	
	
Channels	6						
Samples	1	1	1	1	1	1	
Date	2024/09/03	2024/09/03	2024/09/03	2024/09/03	2024/09/03	2024/09/03	
Time	18:42:33.9694423675537109375	18:42:33.9754114151000976563	18:42:33.9834094047546386719	18:42:33.952320098876953125	18:42:33.952320098876953125	18:42:33.952320098876953125	
X_Dimension	Time	Time	Time	Time	Time	Time	
X0	0.0000000000000000E+0	0.0000000000000000E+0	0.0000000000000000E+0	0.0000000000000000E+0	0.0000000000000000E+0	0.0000000000000000E+0	
Delta_X	1.000000	1.000000	1.000000	1.000000	1.000000	1.000000	
***End_of_Header***							
X_Value	Untitled	Untitled 1	Untitled 2	Untitled 3	Untitled 4	Untitled 5	Comment
0.000000	0.015838	4.088600	0.064933	20.867789	0.000469	20.760632
0.998574	-2.979000	3.924700	-11.690000	20.864792	0.000467	20.756686
1.999051	-2.979900	3.918700	-11.676000	20.873800	0.000466	20.777075
2.999058	-2.999800	3.914000	-11.740000	20.878814	0.000467	20.771658
3.997307	-2.985700	3.911900	-11.678000	20.882529	0.000466	20.748820
4.999172	-2.992300	3.909000	-11.696000	20.886220	0.000465	20.760098
6.000795	-2.984800	3.905400	-11.656000	20.902538	0.000464	20.756977
6.998374	-3.006800	3.903400	-11.736000	20.888637	0.000466	20.767257
8.000776	-3.005100	3.900700	-11.721000	20.907174	0.000465	20.763510
8.999804	-2.986100	3.900300	-11.645000	20.916875	0.000463	20.771316
10.001395	-3.009600	3.899100	-11.733000	20.931049	0.000462	20.741394
10.999782	-2.998000	3.896000	-11.680000	20.925508	0.000459	20.778054
12.000546	-2.995800	3.896500	-11.672000	20.958692	0.000462	20.778525
13.003343	-2.985700	3.894300	-11.626000	20.930215	0.000458	20.760475
14.002911	-2.986800	3.892700	-11.626000	20.952098	0.000460	20.754859
15.000629	-3.000900	3.892500	-11.680000	20.952915	0.000459	20.757574
16.001528	-3.016800	3.891600	-11.740000	20.959652	0.000457	20.759570
17.001842	-3.000800	3.891000	-11.675000	20.982581	0.000457	20.757847
18.001138	-2.996200	3.888800	-11.651000	20.969877	0.000457	20.763158
19.003618	-3.013300	3.888100	-11.714000	20.973638	0.000456	20.770240
20.002226	-3.011200	3.888300	-11.707000	21.001934	0.000455	20.762978
21.003613	-3.006800	3.887600	-11.689000	20.983644	0.000454	20.759857
22.006465	-3.005200	3.886800	-11.679000	21.021095	0.000454	20.758435
23.003628	-3.002900	3.885900	-11.668000	21.023561	0.000454	20.769911
24.007946	-2.999900	3.884200	-11.651000	21.003898	0.000451	20.755934
25.003716	-2.996800	3.884200	-11.639000	21.043769	0.000455	20.743655
26.002915	-3.029600	3.882400	-11.762000	21.053222	0.000454	20.762594
27.004526	-3.005500	3.883200	-11.670000	21.070539	0.000453	20.764741
28.004147	-3.007200	3.881700	-11.671000	21.066415	0.000453	20.744494
29.003590	-3.023700	3.881700	-11.736000	21.087948	0.000453	20.746593
30.008779	-2.996000	3.882400	-11.631000	21.075945	0.000453	20.752131
31.011785	-3.003200	3.881700	-11.656000	21.090315	0.000452	20.749909
32.004356	-2.995400	3.881500	-11.626000	21.084877	0.000451	20.745892
33.010503	-2.995400	3.880800	-11.623000	21.098671	0.000450	20.746887
34.005117	-2.999400	3.880200	-11.638000	21.101791	0.000451	20.757120
35.005974	-2.976900	3.880600	-11.551000	21.132726	0.000451	20.741597
36.004154	-2.985500	3.878100	-11.577000	21.135421	0.000449	20.768476
37.004529	-2.976900	3.880500	-11.551000	21.121371	0.000451	20.743041
38.008275	-2.989400	3.879000	-11.595000	21.148938	0.000449	20.752599
39.005895	-2.985000	3.879400	-11.580000	21.159593	0.000448	20.732435
40.006334	-2.982900	3.877700	-11.566000	21.163713	0.000449	20.763111
41.005985	-2.990900	3.877700	-11.595000	21.174011	0.000447	20.748281
42.006615	-2.989300	3.876400	-11.586000	21.165656	0.000448	20.734707
43.006348	-2.976700	3.877800	-11.542000	21.174188	0.000449	20.746087
44.007192	-2.972800	3.877400	-11.526000	21.193841	0.000449	20.767171
45.006431	-2.979200	3.876700	-11.549000	21.194969	0.000448	20.748858
46.008493	-2.995300	3.875800	-11.608000	21.218541	0.000447	20.750153
47.007098	-3.003500	3.875200	-11.638000	21.228569	0.000449	20.728416
48.009965	-3.000900	3.875100	-11.628000	21.219087	0.000449	20.740267
49.009776	-3.011500	3.874700	-11.667000	21.236627	0.000447	20.747857
50.010346	-2.997500	3.875200	-11.616000	21.249148	0.000448	20.788833
51.013231	-3.011800	3.873100	-11.664000	21.244232	0.000447	20.748827
52.015165	-3.011300	3.874500	-11.665000	21.268107	0.000446	20.735727
53.010289	-2.980100	3.874100	-11.543000	21.277459	0.000446	20.725167
54.010348	-2.988800	3.874200	-11.578000	21.284519	0.000449	20.745982
55.012180	-3.001000	3.873600	-11.624000	21.294475	0.000448	20.731760
56.014526	-3.002900	3.872700	-11.629000	21.304350	0.000446	20.737372
57.016084	-2.996800	3.872800	-11.605000	21.306321	0.000446	20.738869
58.013879	-2.996000	3.872800	-11.602000	21.307643	0.000447	20.747305
59.012917	-2.985300	3.873500	-11.563000	21.315353	0.000447	20.730362
60.017383	-3.006000	3.871100	-11.635000	21.326480	0.000447	20.735330
61.014940	-3.005600	3.870800	-11.633000	21.330169	0.000446	20.754669
62.017541	-3.008700	3.871300	-11.647000	21.350400	0.000447	20.737450
63.013031	-2.986800	3.872300	-11.565000	21.363921	0.000447	20.746236
64.014906	-3.016000	3.870000	-11.671000	21.356062	0.000446	20.723674
65.014400	-2.996200	3.871600	-11.599000	21.366913	0.000449	20.758239
66.014659	-3.022400	3.870900	-11.698000	21.381106	0.000449	20.731186
67.020021	-2.993600	3.870000	-11.585000	21.371429	0.000447	20.729091
68.019282	-2.997100	3.870200	-11.599000	21.404030	0.000447	20.752227
69.020191	-2.990800	3.871800	-11.579000	21.411535	0.000447	20.730337
70.015677	-2.999700	3.870400	-11.610000	21.438748	0.000448	20.748083
71.018631	-3.001500	3.870000	-11.615000	21.409069	0.000447	20.747311
72.019062	-2.978800	3.869200	-11.523000	21.414158	0.000445	20.736281
73.020614	-2.994500	3.869800	-11.588000	21.439074	0.000446	20.752202
74.018361	-2.994800	3.870200	-11.589000	21.448675	0.000448	20.738575
75.019834	-2.983700	3.868400	-11.542000	21.447706	0.000447	20.737605
76.020355	-3.006400	3.869000	-11.631000	21.461749	0.000447	20.748812
77.019015	-2.979600	3.869600	-11.528000	21.474392	0.000448	20.730167
78.022859	-2.998500	3.867700	-11.597000	21.456112	0.000448	20.751706
79.019582	-2.983200	3.867700	-11.537000	21.478536	0.000448	20.726253
80.020815	-2.987200	3.867700	-11.553000	21.516120	0.000448	20.750110
81.019911	-2.993400	3.866700	-11.573000	21.506569	0.000446	20.744346
82.018607	-2.995800	3.866700	-11.583000	21.507318	0.000448	20.732767
83.020281	-2.996600	3.865900	-11.584000	21.522355	0.000447	20.744969
84.022384	-3.006800	3.867200	-11.627000	21.546372	0.000449	20.732965
85.019823	-2.989700	3.867600	-11.562000	21.551439	0.000447	20.734242
86.020163	-2.995600	3.867200	-11.583000	21.547048	0.000448	20.729848
87.023410	-3.019000	3.866200	-11.671000	21.548921	0.000448	20.751164
88.020539	-3.001300	3.866100	-11.602000	21.563936	0.000448	20.714503
89.022191	-3.012900	3.867200	-11.651000	21.565233	0.000448	20.721018
90.020984	-2.994900	3.866100	-11.578000	21.562914	0.000448	20.741457
91.025587	-3.031200	3.865300	-11.716000	21.580474	0.000449	20.730105
92.021179	-3.017000	3.865500	-11.661000	21.585615	0.000448	20.731931
93.021846	-2.995900	3.865200	-11.579000	21.583794	0.000448	20.740066
94.022434	-2.988400	3.865900	-11.551000	21.600851	0.000449	20.760456
95.025477	-2.996600	3.865700	-11.582000	21.616215	0.000447	20.738845
96.022198	-3.001300	3.864200	-11.596000	21.612824	0.000450	20.726442
97.022381	-2.976400	3.865400	-11.504000	21.637915	0.000450	20.752500
98.021703	-2.980300	3.866000	-11.521000	21.640779	0.000449	20.755367
99.022159	-2.991900	3.864000	-11.560000	21.672050	0.000453	20.735926
100.025112	-3.021800	3.864600	-11.677000	21.668712	0.000448	20.759613
101.023527	-3.007300	3.864200	-11.620000	21.659914	0.000452	20.736583
102.022251	-2.992700	3.864700	-11.565000	21.674924	0.000452	20.738802
103.023215	-2.990500	3.863600	-11.553000	21.714849	0.000449	20.751258
104.023129	-3.002400	3.864200	-11.601000	21.700413	0.000453	20.723058
105.024968	-3.012700	3.863900	-11.640000	21.709418	0.000454	20.758625
106.021997	-2.986900	3.865300	-11.544000	21.700713	0.000453	20.751810
107.025689	-2.992500	3.863900	-11.561000	21.705575	0.000453	20.727276
108.027111	-2.998600	3.863700	-11.584000	21.720163	0.000455	20.760369
109.022528	-3.013400	3.863100	-11.641000	21.739612	0.000453	20.736685
110.026567	-3.003300	3.863600	-11.602000	21.752453	0.000453	20.739106
111.023796	-3.020100	3.862300	-11.664000	21.744848	0.000452	20.731968
112.024520	-3.008900	3.861200	-11.616000	21.751781	0.000454	20.737485
113.024770	-3.023400	3.861800	-11.675000	21.774122	0.000452	20.753681
114.025666	-3.029300	3.861400	-11.696000	21.772800	0.000455	20.735762
115.027027	-3.011500	3.860900	-11.625000	21.788681	0.000456	20.744071
116.027323	-2.998600	3.862300	-11.579000	21.782901	0.000453	20.749191
117.026489	-2.995000	3.861500	-11.564000	21.797460	0.000456	20.754280
118.028912	-2.988400	3.860600	-11.536000	21.802618	0.000456	20.748537
119.028736	-2.993700	3.860800	-11.557000	21.805018	0.000456	20.750939
120.027924	-2.989900	3.862300	-11.546000	21.829027	0.000456	20.744623
121.037247	-3.010800	3.860800	-11.623000	21.831841	0.000454	20.749336
122.029787	-3.005500	3.861300	-11.604000	21.847499	0.000457	20.756474
123.027579	-2.983500	3.860500	-11.517000	21.856499	0.000456	20.748413
124.030246	-2.973100	3.860800	-11.478000	21.847372	0.000455	20.751605
125.029678	-3.003700	3.861300	-11.598000	21.872729	0.000457	20.765133
126.032269	-2.988600	3.859700	-11.533000	21.875445	0.000456	20.778756
127.033714	-3.010300	3.859700	-11.618000	21.884746	0.000457	20.752978
128.029860	-2.979100	3.859800	-11.498000	21.894393	0.000458	20.772592
129.034245	-3.007300	3.860100	-11.608000	21.910347	0.000457	20.754422
130.038435	-3.029200	3.857800	-11.685000	21.898328	0.000458	20.777479
131.032223	-2.993300	3.860600	-11.555000	21.929245	0.000458	20.762907
132.035031	-2.999600	3.860100	-11.577000	21.938118	0.000458	20.762306
133.035715	-2.974400	3.860400	-11.481000	21.936997	0.000458	20.781099
134.033483	-2.995200	3.859800	-11.560000	21.935474	0.000456	20.750176
135.032994	-2.993300	3.859400	-11.551000	21.958932	0.000457	20.753269
136.032972	-2.998700	3.859500	-11.572000	21.969229	0.000459	20.760731
137.046440	-2.990000	3.859300	-11.538000	21.960105	0.000460	20.759659
138.031970	-2.981900	3.858300	-11.503000	21.977108	0.000461	20.770990
139.032847	-2.991600	3.858800	-11.542000	21.962272	0.000458	20.749974
140.035047	-2.983100	3.858200	-11.509000	21.984089	0.000459	20.768495
141.033956	-3.002200	3.857600	-11.580000	21.984464	0.000461	20.768870
142.038353	-3.015600	3.857100	-11.631000	22.009165	0.000459	20.766570
143.034470	-2.980100	3.858300	-11.497000	21.995033	0.000460	20.771864
144.040470	-2.988500	3.859100	-11.532000	21.985807	0.000462	20.746506
145.035865	-2.970800	3.858000	-11.460000	22.011534	0.000461	20.756613
146.035893	-3.003000	3.856700	-11.581000	22.030582	0.000460	20.772363
147.038227	-2.992700	3.857700	-11.544000	22.037984	0.000462	20.762702
148.038922	-2.984200	3.856500	-11.508000	22.061566	0.000462	20.787260
149.038177	-3.010500	3.857200	-11.611000	22.052741	0.000462	20.778424
150.036332	-3.005600	3.857300	-11.592000	22.079016	0.000460	20.781496
151.037435	-2.997200	3.857100	-11.559000	22.070343	0.000464	20.775183
152.036651	-2.990500	3.857100	-11.534000	22.089934	0.000462	20.761605
153.051835	-2.978400	3.856500	-11.485000	22.091854	0.000461	20.781545
154.037796	-2.971200	3.856500	-11.457000	22.089387	0.000463	20.765324
155.041018	-2.984000	3.856100	-11.505000	22.088641	0.000463	20.763629
156.042050	-3.023200	3.854700	-11.653000	22.124363	0.000464	20.781375
157.041680	-2.983000	3.856500	-11.502000	22.114717	0.000465	20.797797
158.040686	-3.001700	3.855400	-11.572000	22.119751	0.000466	20.776283
159.044645	-3.008900	3.854000	-11.596000	22.141335	0.000464	20.777030
160.039433	-2.992400	3.855100	-11.535000	22.137599	0.000463	20.775660
161.042226	-2.982200	3.855300	-11.496000	22.151757	0.000464	20.786516
162.038671	-2.990300	3.855600	-11.528000	22.153281	0.000463	20.776661
163.041149	-2.999000	3.853700	-11.555000	22.158564	0.000463	20.785745
164.039540	-2.982400	3.855100	-11.496000	22.170429	0.000466	20.783399
165.042324	-2.997100	3.853700	-11.549000	22.196104	0.000466	20.785872
166.043541	-2.970300	3.853700	-11.445000	22.181699	0.000466	20.783777
167.040453	-2.988900	3.853700	-11.517000	22.203264	0.000466	20.777393
168.043173	-2.997400	3.852400	-11.547000	22.192220	0.000468	20.768232
169.040583	-3.001400	3.852800	-11.564000	22.235216	0.000468	20.775245
170.041827	-3.010700	3.851500	-11.595000	22.225822	0.000467	20.789073
171.046517	-2.998800	3.851700	-11.550000	22.221808	0.000469	20.792640
172.042605	-2.966700	3.852900	-11.429000	22.227391	0.000470	20.787800
173.041262	-2.996700	3.851800	-11.541000	22.229137	0.000470	20.790970
174.042335	-2.989100	3.852600	-11.514000	22.252864	0.000470	20.791968
175.044697	-2.998700	3.851100	-11.548000	22.263283	0.000472	20.777743
176.041391	-2.999600	3.851200	-11.550000	22.261812	0.000472	20.797134
177.043415	-2.997100	3.850900	-11.540000	22.283447	0.000471	20.772329
178.042337	-2.988100	3.851700	-11.508000	22.294310	0.000471	20.766137
179.043821	-2.996700	3.851800	-11.542000	22.296576	0.000473	20.797803
180.043907	-3.015700	3.851200	-11.613000	22.296031	0.000472	20.803422
181.043688	-3.028700	3.849400	-11.658000	22.293636	0.000472	20.793911
182.047873	-3.009100	3.851900	-11.590000	22.295356	0.000472	20.778564
183.043502	-2.983300	3.850900	-11.488000	22.314223	0.000474	20.791292
184.048626	-3.005000	3.850900	-11.571000	22.316387	0.000475	20.804838
185.046564	-3.004700	3.850800	-11.570000	22.321048	0.000474	20.800970
186.044523	-3.008300	3.850600	-11.583000	22.333709	0.000474	20.778087
187.045150	-3.004000	3.850900	-11.567000	22.341208	0.000476	20.791760
188.047174	-2.992300	3.849600	-11.518000	22.341105	0.000473	20.813943
189.048100	-3.001200	3.849500	-11.552000	22.361191	0.000474	20.785692
190.047548	-2.976700	3.850700	-11.461000	22.381774	0.000475	20.813416
191.049310	-3.003900	3.849100	-11.562000	22.365626	0.000476	20.787762
192.054022	-2.973300	3.849700	-11.445000	22.392788	0.000476	20.805005
193.049257	-3.010900	3.848500	-11.587000	22.399117	0.000476	20.804704
194.050911	-3.005900	3.848100	-11.565000	22.369708	0.000475	20.804652
195.053731	-3.003900	3.846900	-11.554000	22.396223	0.000475	20.807971
196.050651	-3.027700	3.846600	-11.645000	22.407064	0.000475	20.808395
197.052696	-3.001200	3.846900	-11.544000	22.393454	0.000477	20.802826
198.054012	-3.005300	3.847600	-11.563000	22.422163	0.000474	20.800756
199.053019	-3.003600	3.848000	-11.557000	22.425972	0.000476	20.809786
200.055782	-2.994900	3.847200	-11.521000	22.421436	0.000479	20.813778
201.053992	-2.988400	3.847500	-11.496000	22.425802	0.000475	20.814358
202.054000	-2.992300	3.846300	-11.508000	22.439979	0.000477	20.797260
203.054366	-2.990400	3.845500	-11.499000	22.460561	0.000478	20.807915
204.055774	-3.006200	3.846300	-11.562000	22.476457	0.000479	20.811032
205.057803	-3.019200	3.845500	-11.609000	22.478899	0.000478	20.807313
206.054561	-3.001400	3.845200	-11.540000	22.509178	0.000478	20.821042
207.054858	-3.016800	3.845100	-11.598000	22.509676	0.000479	20.813480
208.060377	-3.001200	3.845400	-11.540000	22.485403	0.000478	20.798180
209.054719	-2.982000	3.844500	-11.463000	22.516029	0.000480	20.810834
210.056167	-2.991600	3.845400	-11.503000	22.506860	0.000480	20.841480
211.059388	-3.006800	3.844000	-11.557000	22.512514	0.000479	20.803520
212.056787	-3.013200	3.845300	-11.586000	22.519294	0.000479	20.824534
213.054983	-2.994800	3.843900	-11.511000	22.532203	0.000480	20.801903
214.060977	-2.984400	3.843800	-11.471000	22.532504	0.000481	20.826859
215.056120	-3.011800	3.844700	-11.579000	22.572621	0.000480	20.831002
216.056814	-3.003700	3.843700	-11.544000	22.564923	0.000484	20.822344
217.060805	-2.989800	3.844000	-11.492000	22.588145	0.000482	20.821420
218.056809	-3.007000	3.843100	-11.556000	22.575688	0.000481	20.805625
219.057916	-3.025800	3.841700	-11.624000	22.588745	0.000482	20.823918
220.069616	-3.002100	3.843100	-11.536000	22.585410	0.000483	20.838121
221.058626	-2.989000	3.843500	-11.487000	22.591737	0.000484	20.821699
222.059928	-2.998800	3.842200	-11.521000	22.571207	0.000483	20.806353
223.062876	-2.991800	3.841400	-11.492000	22.575719	0.000484	20.833156
224.059001	-2.973100	3.842400	-11.423000	22.608137	0.000483	20.847132
225.058828	-2.985900	3.842700	-11.473000	22.605695	0.000487	20.844687
226.061626	-3.003700	3.842200	-11.541000	22.631934	0.000485	20.831139
227.060257	-2.989500	3.843200	-11.487000	22.610058	0.000485	20.817290
228.059134	-2.987200	3.841300	-11.473000	22.645817	0.000486	20.826553
229.058883	-2.978900	3.842300	-11.444000	22.649505	0.000485	20.815074
230.062893	-2.998000	3.842400	-11.519000	22.653666	0.000485	20.857647
231.058945	-3.001900	3.840700	-11.529000	22.678480	0.000487	20.825604
232.063871	-3.003200	3.840500	-11.533000	22.679359	0.000487	20.817002
233.059861	-3.011800	3.841000	-11.567000	22.703003	0.000487	20.822193
234.059196	-3.004300	3.841200	-11.539000	22.693811	0.000485	20.842383
235.064541	-2.986800	3.842100	-11.475000	22.741196	0.000488	20.828208
236.062069	-3.008200	3.840300	-11.552000	22.709559	0.000490	20.844880
237.060321	-3.002000	3.839300	-11.524000	22.751514	0.000490	20.849922
238.060331	-2.993700	3.840000	-11.495000	22.728521	0.000489	20.842064
239.059485	-3.000700	3.839900	-11.521000	22.741524	0.000491	20.835649
240.061238	-3.004400	3.839900	-11.535000	22.734081	0.000490	20.833409
241.061758	-3.012800	3.838700	-11.564000	22.743548	0.000491	20.837202
242.062942	-2.990800	3.839600	-11.482000	22.740807	0.000491	20.824499
243.065546	-3.000300	3.839600	-11.518000	22.742103	0.000494	20.831961
244.060873	-2.995700	3.838700	-11.499000	22.744470	0.000493	20.843815
245.063293	-3.006600	3.838400	-11.539000	22.769507	0.000493	20.837127
246.060795	-2.988800	3.839300	-11.474000	22.788667	0.000492	20.840198
247.062370	-2.989500	3.838800	-11.475000	22.797010	0.000492	20.843815
248.060744	-2.999800	3.837900	-11.512000	22.799030	0.000492	20.842994
249.061533	-2.967800	3.839100	-11.392000	22.783259	0.000492	20.839523
250.062160	-2.994600	3.837300	-11.490000	22.808620	0.000495	20.836006
251.062058	-2.997000	3.836300	-11.496000	22.805035	0.000493	20.846638
252.061235	-3.009300	3.836200	-11.543000	22.827881	0.000496	20.860515
253.062168	-3.002700	3.836300	-11.519000	22.845690	0.000495	20.833787
254.062285	-2.980500	3.838300	-11.438000	22.817020	0.000494	20.866703
255.061385	-2.996700	3.836800	-11.496000	22.825242	0.000494	20.836536
256.062180	-3.017500	3.835000	-11.571000	22.836655	0.000497	20.835166
257.062729	-2.997500	3.836100	-11.499000	22.840865	0.000495	20.862616
258.063261	-3.002700	3.836100	-11.516000	22.829351	0.000497	20.869099
259.063127	-3.015500	3.836300	-11.567000	22.861665	0.000498	20.855954
260.064623	-2.988500	3.835800	-11.462000	22.846968	0.000497	20.852610
261.068022	-3.004300	3.834900	-11.519000	22.852351	0.000496	20.855632
262.066607	-3.010500	3.834700	-11.544000	22.862241	0.000498	20.859849
263.064748	-3.030500	3.833900	-11.618000	22.854093	0.000499	20.840781
264.068116	-3.019900	3.834600	-11.579000	22.885680	0.000498	20.849192
265.065611	-2.989500	3.835800	-11.467000	22.890239	0.000499	20.859924
266.065151	-3.019200	3.834200	-11.576000	22.928748	0.000501	20.844451
267.068038	-2.998700	3.833100	-11.493000	22.932135	0.000501	20.867283
268.067340	-2.999800	3.834600	-11.502000	22.936942	0.000500	20.859297
269.066667	-2.990100	3.832900	-11.459000	22.930938	0.000504	20.868929
270.073027	-2.992700	3.833600	-11.472000	22.928370	0.000502	20.859719
271.068275	-3.000000	3.833700	-11.498000	22.952683	0.000505	20.867007
272.066257	-3.006700	3.831900	-11.521000	22.948572	0.000505	20.862889
273.068820	-3.023200	3.832700	-11.586000	22.957137	0.000504	20.870995
274.068924	-2.991200	3.831400	-11.459000	22.947298	0.000504	20.860190
275.072433	-3.005300	3.830600	-11.511000	22.973200	0.000503	20.854847
276.069972	-3.008500	3.831700	-11.527000	22.970406	0.000504	20.881918
277.069632	-2.991300	3.832000	-11.462000	22.965402	0.000504	20.862681
278.069468	-2.977900	3.832600	-11.411000	22.976979	0.000504	20.893718
279.070094	-2.992100	3.830800	-11.461000	22.979540	0.000504	20.866889
280.069854	-3.004900	3.830300	-11.509000	22.983997	0.000507	20.878466
281.072553	-2.991200	3.831000	-11.458000	23.051592	0.000504	20.872225
282.072653	-2.994100	3.830500	-11.468000	23.025932	0.000507	20.865955
283.072348	-3.000300	3.829700	-11.489000	23.031141	0.000504	20.880182
284.070395	-2.997300	3.830400	-11.479000	23.038455	0.000506	20.897467
285.070442	-3.007800	3.830200	-11.520000	23.067021	0.000505	20.887684
286.071857	-3.008500	3.829000	-11.519000	23.073470	0.000507	20.890826
287.071507	-3.006800	3.829600	-11.514000	23.082482	0.000506	20.895115
288.075521	-2.989000	3.828200	-11.441000	23.087787	0.000505	20.877672
289.072591	-3.006900	3.829100	-11.513000	23.088133	0.000507	20.883708
290.072597	-2.985500	3.828200	-11.427000	23.063548	0.000508	20.884204
291.076915	-2.991700	3.828700	-11.453000	23.091612	0.000506	20.896202
292.074223	-2.994800	3.829100	-11.467000	23.095871	0.000506	20.900469
293.075166	-2.991700	3.827800	-11.451000	23.111706	0.000507	20.898318
294.076020	-3.016000	3.828500	-11.546000	23.101320	0.000507	20.878430
295.077106	-3.005800	3.827200	-11.503000	23.120223	0.000506	20.898793
296.076050	-2.985500	3.828600	-11.429000	23.109958	0.000506	20.897516
297.081246	-3.016500	3.826700	-11.541000	23.109878	0.000505	20.870884
298.078149	-2.993600	3.828600	-11.460000	23.133187	0.000509	20.892818
299.080084	-2.993000	3.827400	-11.454000	23.157047	0.000507	20.887330
300.080812	-2.998900	3.827300	-11.477000	23.167775	0.000508	20.890019
301.078498	-3.012000	3.826100	-11.523000	23.152807	0.000508	20.908683
302.078146	-3.017400	3.825100	-11.541000	23.157239	0.000508	20.909331
303.081492	-2.991400	3.825000	-11.440000	23.179103	0.000510	20.885724
304.081330	-2.998200	3.826300	-11.471000	23.186148	0.000510	20.897525
305.080772	-2.989500	3.825800	-11.436000	23.201614	0.000511	20.899746
306.085072	-3.005300	3.825300	-11.494000	23.208189	0.000510	20.896852
307.080976	-2.995900	3.825100	-11.458000	23.226443	0.000509	20.886697
308.080686	-3.013200	3.824600	-11.523000	23.233039	0.000510	20.886195
309.084181	-2.996900	3.823700	-11.458000	23.251866	0.000514	20.881829
310.081841	-2.975600	3.825300	-11.381000	23.229999	0.000512	20.883149
311.081121	-2.978700	3.825600	-11.394000	23.235751	0.000512	20.877534
312.081459	-3.003500	3.822600	-11.480000	23.248653	0.000511	20.887144
313.084301	-2.974700	3.824000	-11.374000	23.234805	0.000514	20.900292
314.080515	-2.997300	3.823000	-11.458000	23.214262	0.000514	20.877810
315.079665	-3.008000	3.822800	-11.498000	23.223425	0.000511	20.882251
316.081154	-3.009000	3.824200	-11.506000	23.253134	0.000514	20.879307
317.081834	-2.970200	3.824700	-11.360000	23.214785	0.000512	20.861739
318.083374	-2.990300	3.822500	-11.429000	23.230151	0.000512	20.870026
319.085039	-3.002300	3.822300	-11.475000	23.251863	0.000515	20.884197
320.082899	-3.006800	3.821900	-11.491000	23.248529	0.000513	20.868529
321.084538	-2.986200	3.823000	-11.415000	23.234530	0.000516	20.869198
322.084043	-2.996800	3.820700	-11.449000	23.239533	0.000516	20.858566
323.084892	-2.988000	3.822900	-11.422000	23.252487	0.000514	20.875340
324.084272	-2.981500	3.821000	-11.392000	23.258437	0.000515	20.860441
325.084098	-2.974000	3.822100	-11.366000	23.254429	0.000516	20.859270
326.082092	-2.992400	3.821400	-11.435000	23.275272	0.000514	20.867829
327.083611	-3.020600	3.820900	-11.541000	23.272062	0.000516	20.859871
328.084921	-2.996900	3.818700	-11.443000	23.292035	0.000516	20.858077
329.084515	-2.973500	3.820100	-11.359000	23.287724	0.000515	20.870351
330.086303	-2.983500	3.820500	-11.397000	23.296120	0.000518	20.867386
331.086184	-2.994000	3.820300	-11.437000	23.318359	0.000517	20.857432
332.087110	-2.994000	3.819600	-11.435000	23.334967	0.000518	20.875973
333.086086	-2.988200	3.820000	-11.413000	23.329216	0.000516	20.852666
334.086657	-2.996800	3.818200	-11.441000	23.331055	0.000517	20.853087
335.086585	-2.993300	3.818600	-11.429000	23.326127	0.000518	20.862846
336.085722	-3.000900	3.818400	-11.458000	23.308650	0.000517	20.864296
337.087695	-2.977500	3.818600	-11.369000	23.312759	0.000519	20.854665
338.088866	-2.989200	3.818400	-11.413000	23.341071	0.000520	20.835625
339.089067	-2.989900	3.817100	-11.411000	23.345477	0.000518	20.860429
340.088676	-2.982600	3.819000	-11.390000	23.351853	0.000521	20.868241
341.088879	-2.998000	3.816200	-11.440000	23.384545	0.000519	20.850274
342.089931	-2.992000	3.817100	-11.420000	23.385463	0.000521	20.848823
343.090272	-2.989300	3.817500	-11.410000	23.380887	0.000520	20.848978
344.091568	-2.998000	3.816500	-11.441000	23.389826	0.000522	20.840869
345.092327	-3.032200	3.815500	-11.569000	23.396149	0.000522	20.830611
346.094074	-3.001800	3.817000	-11.458000	23.388958	0.000519	20.828619
347.092759	-3.010100	3.816300	-11.486000	23.407528	0.000521	20.844860
348.092780	-3.001600	3.815700	-11.453000	23.385195	0.000520	20.840020
349.092444	-3.004400	3.814100	-11.458000	23.399813	0.000522	20.843292
350.092564	-2.991100	3.815000	-11.410000	23.390003	0.000522	20.819235
351.093479	-2.995900	3.815100	-11.429000	23.418387	0.000522	20.858114
352.092459	-2.984100	3.814800	-11.383000	23.397649	0.000519	20.857243
353.091909	-2.987200	3.814000	-11.392000	23.427950	0.000524	20.833087
354.092874	-2.998400	3.814000	-11.435000	23.422001	0.000521	20.836134
355.095107	-2.990500	3.814700	-11.407000	23.427004	0.000522	20.822656
356.092855	-3.006000	3.813700	-11.463000	23.458899	0.000523	20.835185
357.093243	-2.999800	3.812500	-11.436000	23.464953	0.000523	20.839357
358.097709	-2.994300	3.812800	-11.416000	23.495326	0.000524	20.831870
359.096547	-2.999500	3.813000	-11.437000	23.491768	0.000523	20.855803
360.096446	-3.004800	3.812700	-11.455000	23.477255	0.000524	20.827981
361.101358	-3.000000	3.812900	-11.438000	23.497849	0.000524	20.839614
362.108907	-2.989100	3.812400	-11.394000	23.508552	0.000525	20.812411
363.096756	-3.005700	3.812000	-11.456000	23.507511	0.000525	20.839342
364.103246	-2.990000	3.812600	-11.398000	23.532556	0.000525	20.821774
365.098155	-2.995700	3.812000	-11.418000	23.537138	0.000527	20.811668
366.100910	-2.996200	3.811900	-11.420000	23.516798	0.000529	20.833953
367.103946	-3.013500	3.809800	-11.480000	23.517645	0.000527	20.840017
368.099909	-2.998300	3.811500	-11.427000	23.523819	0.000527	20.831982
369.103581	-3.010400	3.811100	-11.472000	23.495886	0.000527	20.833379
370.103945	-3.005800	3.810000	-11.452000	23.533456	0.000528	20.816038
371.100866	-2.995300	3.810100	-11.411000	23.544956	0.000529	20.810496
372.104256	-3.002900	3.809100	-11.437000	23.567537	0.000528	20.826493
373.104488	-2.974700	3.810000	-11.332000	23.552626	0.000531	20.812495
374.102479	-2.971200	3.809800	-11.319000	23.572171	0.000530	20.815492
375.105560	-2.978600	3.808100	-11.342000	23.538436	0.000531	20.828616
376.104921	-2.998300	3.808400	-11.417000	23.533109	0.000530	20.827070
377.102894	-3.005300	3.806700	-11.439000	23.525442	0.000528	20.829816
378.107459	-2.994700	3.808100	-11.403000	23.501046	0.000530	20.815319
379.106505	-2.993900	3.807500	-11.399000	23.538662	0.000532	20.812248
380.105001	-2.994800	3.808400	-11.404000	23.531069	0.000530	20.814594
381.105339	-3.006400	3.807300	-11.445000	23.538860	0.000530	20.823825
382.105816	-2.982100	3.806800	-11.351000	23.567565	0.000533	20.826047
383.107311	-2.996500	3.806900	-11.406000	23.557533	0.000531	20.819310
384.108035	-3.010500	3.805300	-11.455000	23.568066	0.000531	20.804739
385.109715	-3.004400	3.806300	-11.435000	23.566993	0.000532	20.812198
386.110263	-3.003600	3.806000	-11.431000	23.572795	0.000529	20.789092
387.108199	-2.980700	3.806400	-11.344000	23.598785	0.000532	20.803766
388.108877	-3.013000	3.804100	-11.461000	23.610885	0.000535	20.824430
389.110013	-3.013900	3.804600	-11.466000	23.610236	0.000531	20.831839
390.110583	-3.008700	3.804500	-11.446000	23.665699	0.000530	20.822484
391.111878	-3.011200	3.805100	-11.458000	23.653727	0.000531	20.806688
392.109181	-3.022200	3.804500	-11.496000	23.672543	0.000533	20.812750
393.109851	-3.020900	3.804000	-11.490000	23.671798	0.000532	20.804417
394.110222	-2.987500	3.804800	-11.366000	23.628787	0.000533	20.810609
395.109853	-3.004400	3.803000	-11.425000	23.636799	0.000529	20.791140
396.110097	-2.990500	3.803700	-11.374000	23.663412	0.000532	20.823510
397.111411	-3.002700	3.802600	-11.417000	23.679394	0.000532	20.801126
398.114058	-3.012300	3.802200	-11.453000	23.697464	0.000533	20.791267
399.111126	-2.999900	3.802100	-11.405000	23.682556	0.000532	20.804770
400.111654	-3.019300	3.801800	-11.478000	23.668565	0.000533	20.796908
401.115490	-3.027400	3.801400	-11.507000	23.729253	0.000534	20.798482
402.112366	-2.993400	3.802700	-11.382000	23.711130	0.000533	20.798330
403.114176	-3.003900	3.801600	-11.418000	23.719893	0.000534	20.786253
404.117106	-3.004500	3.801500	-11.420000	23.707396	0.000532	20.815449
405.113570	-3.016200	3.801100	-11.464000	23.745131	0.000534	20.793539
406.114130	-2.988800	3.802200	-11.363000	23.737963	0.000534	20.769283
407.116158	-3.000200	3.801600	-11.405000	23.725071	0.000534	20.789073
408.112901	-2.989200	3.800400	-11.360000	23.727933	0.000534	20.809487
409.114054	-3.011400	3.800000	-11.442000	23.739732	0.000534	20.801401
410.120012	-3.005200	3.799500	-11.418000	23.773556	0.000534	20.786002
411.117646	-2.994100	3.799000	-11.374000	23.773658	0.000533	20.769983
412.116182	-2.977900	3.798700	-11.311000	23.770722	0.000534	20.786480
413.114087	-3.003900	3.797900	-11.408000	23.774579	0.000534	20.806943
414.116360	-2.999600	3.799000	-11.395000	23.736625	0.000535	20.796391
415.130596	-3.000900	3.799500	-11.401000	23.768583	0.000534	20.798086
416.124836	-2.990600	3.798000	-11.357000	23.784788	0.000535	20.786833
417.120656	-3.004200	3.798400	-11.410000	23.813462	0.000535	20.779073
418.117124	-3.030200	3.796900	-11.504000	23.771226	0.000536	20.816857
419.116994	-2.988400	3.797400	-11.347000	23.765276	0.000537	20.803305
420.119542	-2.987900	3.796100	-11.342000	23.768787	0.000536	20.785014
421.117902	-3.007800	3.795300	-11.415000	23.786757	0.000537	20.769841
422.119915	-3.016900	3.797000	-11.453000	23.778344	0.000537	20.787958
423.119350	-2.993600	3.796500	-11.365000	23.792164	0.000536	20.786641
424.123036	-3.000800	3.796800	-11.391000	23.802913	0.000537	20.789359
425.119689	-3.024800	3.795500	-11.480000	23.825464	0.000539	20.773563
426.120596	-3.002800	3.795700	-11.397000	23.817453	0.000536	20.784497
427.121407	-2.985000	3.795200	-11.328000	23.839876	0.000537	20.792282
428.120851	-2.982200	3.795900	-11.319000	23.847770	0.000537	20.782653
429.120684	-3.009300	3.793000	-11.414000	23.840627	0.000537	20.767904
430.121490	-3.008400	3.795300	-11.416000	23.863974	0.000537	20.792738
431.119954	-2.968200	3.795400	-11.265000	23.917407	0.000538	20.778513
432.120637	-3.000000	3.793600	-11.380000	23.877243	0.000536	20.776644
433.122118	-2.990300	3.793400	-11.342000	23.848122	0.000539	20.792016
434.119902	-3.004800	3.793200	-11.397000	23.886329	0.000537	20.795713
435.119716	-2.989100	3.793300	-11.337000	23.891583	0.000538	20.792921
436.120142	-3.003800	3.792000	-11.390000	23.886403	0.000538	20.779666
437.123457	-2.989300	3.792000	-11.334000	23.883245	0.000538	20.773654
438.119850	-2.973400	3.794400	-11.281000	23.870880	0.000538	20.789704
439.119843	-3.006600	3.793500	-11.405000	23.918289	0.000538	20.775603
440.124503	-3.018300	3.791200	-11.442000	23.920656	0.000538	20.770865
441.122941	-2.990300	3.792200	-11.339000	23.946091	0.000540	20.767921
442.122146	-3.020700	3.790100	-11.448000	23.911552	0.000538	20.783073
443.121287	-3.006300	3.790300	-11.394000	23.920857	0.000540	20.761109
444.122772	-3.009700	3.790000	-11.406000	23.937735	0.000539	20.777559
445.121747	-2.985100	3.791400	-11.317000	23.966228	0.000537	20.782899
446.122996	-3.015400	3.788800	-11.424000	23.954259	0.000541	20.762361
447.121382	-2.994000	3.789700	-11.345000	23.933232	0.000538	20.789640
448.121457	-2.990500	3.789900	-11.333000	23.944058	0.000540	20.763985
449.122111	-2.971600	3.790500	-11.263000	23.974170	0.000539	20.772846
450.123254	-2.987200	3.789700	-11.319000	23.965462	0.000539	20.775493
451.123341	-2.990900	3.790500	-11.337000	23.948567	0.000540	20.785103
452.124978	-2.986200	3.788400	-11.312000	23.953867	0.000540	20.744424
453.126322	-2.986000	3.789600	-11.315000	23.963574	0.000541	20.756055
454.123812	-2.986200	3.788500	-11.311000	23.955935	0.000543	20.768783
455.125089	-2.975300	3.788300	-11.270000	23.991075	0.000539	20.756607
456.126266	-2.997300	3.787800	-11.352000	23.986322	0.000541	20.769385
457.124905	-2.999600	3.787900	-11.361000	24.000256	0.000541	20.788100
458.126247	-2.980200	3.788400	-11.289000	24.015566	0.000540	20.776426
459.126752	-2.987500	3.786700	-11.312000	23.995383	0.000540	20.762824
460.126138	-2.994500	3.787100	-11.339000	23.973136	0.000539	20.753790
461.127144	-3.003800	3.786400	-11.373000	23.997475	0.000540	20.756387
462.127717	-2.982700	3.787800	-11.297000	23.951065	0.000540	20.771486
463.129807	-3.020300	3.785300	-11.432000	23.960698	0.000540	20.766921
464.128583	-2.984500	3.786100	-11.298000	23.976798	0.000541	20.748454
465.128306	-2.999000	3.786200	-11.353000	23.998177	0.000546	20.751875
466.131546	-3.007800	3.784500	-11.382000	23.999172	0.000543	20.773262
467.127860	-3.021000	3.783300	-11.429000	23.979914	0.000543	20.762958
468.128367	-3.021500	3.784100	-11.433000	24.005245	0.000543	20.757066
469.132484	-3.004000	3.784800	-11.369000	24.031227	0.000543	20.754674
470.128385	-3.017900	3.784000	-11.419000	24.029954	0.000546	20.780898
471.131502	-2.994000	3.783200	-11.325000	24.023387	0.000544	20.764830
472.132707	-3.001400	3.783300	-11.354000	24.023733	0.000544	20.752848
473.129218	-3.017800	3.783600	-11.417000	24.047895	0.000545	20.729663
474.129868	-3.010300	3.783900	-11.389000	24.054913	0.000545	20.762781
475.134022	-2.985200	3.783400	-11.293000	24.066084	0.000543	20.735102
476.132126	-3.009100	3.783700	-11.384000	24.075487	0.000543	20.753068
477.133501	-3.001600	3.782300	-11.352000	24.099722	0.000543	20.776900
478.131887	-3.001200	3.783200	-11.353000	24.087158	0.000544	20.751497
479.133457	-3.008900	3.781500	-11.376000	24.112761	0.000546	20.753942
480.132610	-3.008200	3.781500	-11.375000	24.122587	0.000545	20.741985
481.133293	-3.022600	3.780000	-11.425000	24.125121	0.000546	20.762071
482.135266	-2.995700	3.779900	-11.322000	24.118678	0.000544	20.740436
483.133813	-3.014500	3.781000	-11.397000	24.075381	0.000545	20.753911
484.134311	-3.020000	3.780600	-11.417000	24.071179	0.000544	20.743532
485.137929	-3.003600	3.779000	-11.350000	24.088838	0.000544	20.764088
486.133615	-2.997500	3.780700	-11.332000	24.078860	0.000547	20.757874
487.136330	-3.020100	3.779700	-11.414000	24.097849	0.000545	20.749891
488.137780	-2.990100	3.779300	-11.300000	24.119741	0.000545	20.748614
489.137836	-2.996300	3.779600	-11.323000	24.134569	0.000544	20.742149
490.136954	-2.999900	3.778100	-11.333000	24.136305	0.000544	20.759538
491.136083	-3.018900	3.778100	-11.405000	24.124814	0.000545	20.748961
492.140625	-2.984700	3.778800	-11.277000	24.143372	0.000546	20.756194
493.138191	-3.014000	3.777100	-11.383000	24.165263	0.000546	20.747330
494.141831	-2.990800	3.777600	-11.297000	24.177628	0.000545	20.731282
495.139569	-3.023100	3.777500	-11.419000	24.176259	0.000547	20.747928
496.138112	-2.997500	3.777500	-11.322000	24.142991	0.000545	20.735897
497.137246	-2.998500	3.776700	-11.324000	24.133533	0.000545	20.750119
498.140891	-3.008500	3.777300	-11.363000	24.118087	0.000546	20.747903
499.138314	-2.989500	3.776600	-11.289000	24.079814	0.000546	20.742709
500.141477	-3.002000	3.775300	-11.333000	24.120966	0.000547	20.743205
501.137791	-2.980800	3.777200	-11.258000	24.134778	0.000547	20.735720
502.139329	-3.022900	3.774300	-11.408000	24.103873	0.000546	20.744079
503.138241	-2.989900	3.775700	-11.288000	24.113353	0.000547	20.749793
504.138896	-2.976200	3.776500	-11.239000	24.094739	0.000546	20.740607
505.140002	-3.001300	3.774700	-11.329000	24.109295	0.000546	20.731499
506.137494	-2.993600	3.774500	-11.299000	24.118723	0.000547	20.741903
507.139903	-3.002700	3.773900	-11.331000	24.081702	0.000547	20.747447
508.143089	-3.005900	3.773100	-11.340000	24.091154	0.000544	20.756453
509.141060	-2.965300	3.774500	-11.192000	24.139178	0.000546	20.761471
510.139990	-2.993500	3.774300	-11.297000	24.149798	0.000547	20.746991
511.139941	-3.001800	3.772500	-11.323000	24.180251	0.000547	20.751457
512.141911	-2.998800	3.774100	-11.317000	24.218312	0.000547	20.736528
513.141928	-3.018400	3.772600	-11.386000	24.189405	0.000546	20.755424
514.139448	-3.009600	3.771500	-11.350000	24.208237	0.000546	20.756769
515.144597	-3.004900	3.771600	-11.332000	24.191343	0.000547	20.764954
516.140658	-3.010100	3.771700	-11.352000	24.209056	0.000547	20.755693
517.140042	-3.011000	3.771700	-11.356000	24.229182	0.000548	20.761182
518.140376	-2.993200	3.772600	-11.291000	24.260501	0.000548	20.730007
519.140688	-3.034900	3.770900	-11.444000	24.254377	0.000547	20.739986
520.139777	-3.011700	3.771000	-11.355000	24.276742	0.000547	20.742032
521.144657	-2.996600	3.770600	-11.299000	24.281666	0.000547	20.756455
522.142167	-2.995100	3.770600	-11.293000	24.295519	0.000549	20.753282
523.142357	-3.008800	3.770000	-11.343000	24.291386	0.000550	20.746290
524.144895	-2.992900	3.769600	-11.281000	24.291583	0.000549	20.746014
525.142879	-3.019400	3.767700	-11.375000	24.280711	0.000547	20.720408
526.144563	-2.997200	3.768300	-11.294000	24.252844	0.000546	20.755045
527.146714	-2.998600	3.768400	-11.298000	24.247937	0.000549	20.750597
528.142309	-3.014100	3.767100	-11.354000	24.244378	0.000547	20.745604
529.144148	-3.000000	3.769300	-11.307000	24.264602	0.000546	20.765417
530.145200	-3.007600	3.767400	-11.330000	24.291246	0.000546	20.752788
531.144766	-2.978400	3.769100	-11.225000	24.323110	0.000549	20.751561
532.144014	-3.012400	3.767400	-11.348000	24.312108	0.000548	20.736731
533.147367	-2.988100	3.767800	-11.258000	24.270738	0.000549	20.729844
534.146847	-3.016300	3.766500	-11.360000	24.253668	0.000548	20.763932
535.147381	-3.002300	3.767100	-11.309000	24.255608	0.000547	20.754498
536.146338	-2.984700	3.767600	-11.244000	24.244507	0.000548	20.723447
537.147720	-2.971700	3.766600	-11.192000	24.246172	0.000547	20.756888
538.147235	-2.988500	3.766600	-11.255000	24.251891	0.000548	20.760727
539.146638	-2.987300	3.766800	-11.252000	24.239700	0.000545	20.762723
540.149269	-2.977000	3.765400	-11.209000	24.266817	0.000548	20.755310
541.146878	-2.971000	3.767200	-11.191000	24.277685	0.000546	20.753410
542.150270	-3.021000	3.764400	-11.371000	24.325871	0.000548	20.742476
543.147267	-2.988800	3.765900	-11.254000	24.303856	0.000548	20.751213
544.147038	-3.016500	3.763400	-11.351000	24.272804	0.000547	20.735237
545.149321	-3.005300	3.763600	-11.311000	24.264468	0.000547	20.748687
546.146781	-2.984200	3.763400	-11.229000	24.272900	0.000546	20.759515
547.150855	-2.978600	3.764900	-11.213000	24.310066	0.000547	20.766925
548.147810	-3.002100	3.762100	-11.293000	24.336931	0.000547	20.756890
549.153094	-3.010500	3.762500	-11.326000	24.341657	0.000546	20.773486
550.152577	-2.981700	3.764200	-11.222000	24.333971	0.000546	20.768146
551.150114	-3.022300	3.761700	-11.367000	24.344018	0.000546	20.771112
552.149577	-3.004800	3.761900	-11.303000	24.343619	0.000545	20.782566
553.152487	-3.000300	3.763400	-11.290000	24.329439	0.000545	20.779247
554.150167	-3.014300	3.761300	-11.337000	24.320406	0.000544	20.773030
555.150989	-3.007600	3.761500	-11.312000	24.360483	0.000547	20.761551
556.154062	-2.986100	3.762100	-11.232000	24.363344	0.000545	20.773430
557.151911	-3.003600	3.759600	-11.291000	24.388370	0.000544	20.765345
558.155167	-3.006400	3.759300	-11.301000	24.390359	0.000545	20.772556
559.156187	-2.996500	3.761100	-11.269000	24.376328	0.000546	20.758006
560.153229	-3.012000	3.760600	-11.325000	24.388194	0.000545	20.760426
561.153811	-3.002800	3.759800	-11.289000	24.413342	0.000545	20.774276
562.156081	-2.996000	3.761200	-11.267000	24.376501	0.000544	20.766240
563.154048	-2.994600	3.759700	-11.258000	24.388889	0.000547	20.763494
564.156155	-2.997900	3.759400	-11.268000	24.409586	0.000546	20.754860
565.154671	-3.023900	3.759600	-11.367000	24.426001	0.000546	20.787450
566.156497	-3.012900	3.757600	-11.321000	24.436896	0.000547	20.774199
567.156113	-3.000400	3.758700	-11.277000	24.451300	0.000544	20.780589
568.158577	-3.008000	3.758100	-11.302000	24.468386	0.000547	20.785876
569.155460	-2.990400	3.757400	-11.235000	24.444730	0.000547	20.755505
570.157116	-3.013500	3.757400	-11.323000	24.432068	0.000546	20.771251
571.158663	-3.019500	3.756000	-11.340000	24.435797	0.000547	20.790165
572.166834	-3.019700	3.756900	-11.344000	24.447161	0.000547	20.770746
573.158018	-3.021500	3.756900	-11.350000	24.450843	0.000549	20.777760
574.156990	-2.996900	3.756600	-11.257000	24.465269	0.000550	20.773266
575.159585	-2.993200	3.757100	-11.245000	24.466013	0.000547	20.783496
576.160213	-2.978100	3.756500	-11.186000	24.489118	0.000546	20.796720
577.160426	-3.001400	3.755700	-11.271000	24.480386	0.000547	20.777527
578.161526	-3.015400	3.754500	-11.321000	24.495083	0.000547	20.767616
579.158669	-2.994100	3.756300	-11.245000	24.504933	0.000546	20.793146
580.161222	-3.013800	3.755500	-11.318000	24.502987	0.000547	20.797832
581.163207	-3.018700	3.754200	-11.331000	24.506592	0.000547	20.777741
582.162082	-3.007600	3.753800	-11.289000	24.484800	0.000546	20.781007
583.163305	-2.999200	3.753500	-11.257000	24.472315	0.000547	20.776542
584.163939	-2.998000	3.755000	-11.257000	24.446241	0.000546	20.797798
585.163836	-3.018900	3.753400	-11.329000	24.441635	0.000546	20.795548
586.163513	-2.998500	3.754400	-11.257000	24.494141	0.000547	20.792276
587.164299	-3.011100	3.753400	-11.301000	24.501551	0.000548	20.788805
588.167076	-2.969600	3.754000	-11.147000	24.539034	0.000547	20.795592
589.162827	-3.012700	3.753000	-11.306000	24.496071	0.000546	20.788997
590.167710	-2.990300	3.754000	-11.224000	24.459928	0.000547	20.798728
591.167121	-3.022800	3.751200	-11.338000	24.444400	0.000546	20.811598
592.165551	-2.986700	3.752400	-11.207000	24.463527	0.000546	20.803761
593.164935	-3.005500	3.751400	-11.274000	24.473896	0.000547	20.801837
594.170050	-2.991500	3.751700	-11.223000	24.477301	0.000548	20.796243
595.166328	-3.032400	3.751100	-11.374000	24.472046	0.000545	20.794291
596.166149	-3.007200	3.750800	-11.279000	24.466474	0.000547	20.804347
597.169426	-2.978200	3.750400	-11.168000	24.497064	0.000547	20.803743
598.166251	-3.014500	3.749200	-11.301000	24.542253	0.000547	20.799770
599.166676	-3.002700	3.750100	-11.260000	24.522402	0.000547	20.786491
600.168343	-3.009800	3.749400	-11.283000	24.496156	0.000546	20.786237
601.167090	-2.993300	3.750800	-11.227000	24.499486	0.000547	20.809492
602.177515	-3.006200	3.749000	-11.269000	24.510973	0.000547	20.816750
603.169331	-2.998000	3.748500	-11.236000	24.508280	0.000546	20.805987
604.167095	-3.001300	3.749500	-11.252000	24.527310	0.000546	20.802321
605.167774	-2.999000	3.748500	-11.241000	24.540435	0.000546	20.792256
606.171402	-3.005700	3.747500	-11.263000	24.539261	0.000547	20.808148
607.168343	-3.003900	3.748400	-11.259000	24.562739	0.000546	20.799461
608.169293	-3.006000	3.748300	-11.266000	24.567835	0.000545	20.817851
609.169346	-3.015300	3.746500	-11.296000	24.569648	0.000543	20.827257
610.168540	-2.989600	3.747000	-11.201000	24.567005	0.000542	20.811802
611.168455	-3.008900	3.747600	-11.275000	24.545115	0.000544	20.823030
612.170801	-3.000400	3.746500	-11.240000	24.565482	0.000544	20.815491
613.169086	-2.997400	3.747400	-11.232000	24.555033	0.000542	20.805481
614.168899	-2.988300	3.746700	-11.195000	24.587514	0.000543	20.825742
615.169959	-3.002500	3.746800	-11.249000	24.585173	0.000544	20.817704
616.168845	-3.006800	3.744600	-11.258000	24.612529	0.000542	20.815280
617.175845	-3.018700	3.744800	-11.304000	24.606435	0.000543	20.829080
618.169379	-3.014400	3.745200	-11.288000	24.569350	0.000542	20.831225
619.172545	-2.992400	3.745700	-11.208000	24.608795	0.000542	20.820543
620.171134	-2.996600	3.745700	-11.224000	24.646125	0.000540	20.791620
621.170455	-3.004200	3.744800	-11.248000	24.647815	0.000544	20.804695
622.170719	-3.014400	3.744100	-11.285000	24.636796	0.000539	20.820664
623.169974	-3.010000	3.744400	-11.270000	24.600882	0.000540	20.817345
624.170287	-3.011200	3.743000	-11.270000	24.566481	0.000539	20.822657
625.170693	-2.996600	3.745200	-11.222000	24.578991	0.000539	20.840423
626.174966	-2.990600	3.743400	-11.194000	24.584439	0.000541	20.824553
627.171903	-2.976800	3.744900	-11.147000	24.585557	0.000539	20.818563
628.170676	-2.992300	3.742100	-11.197000	24.609385	0.000537	20.838204
629.174211	-3.001100	3.743200	-11.232000	24.643455	0.000542	20.808380
630.175161	-3.006100	3.742200	-11.249000	24.678696	0.000540	20.813397
631.171410	-3.005600	3.742400	-11.247000	24.691059	0.000540	20.818216
632.176513	-3.018700	3.741300	-11.293000	24.677452	0.000540	20.842493
633.171404	-2.999400	3.742100	-11.223000	24.629359	0.000540	20.808460
634.171746	-3.006100	3.741800	-11.247000	24.622765	0.000540	20.824129
635.177031	-2.995300	3.741800	-11.207000	24.662757	0.000542	20.813998
636.175237	-2.997100	3.741700	-11.213000	24.661537	0.000540	20.830317
637.174124	-2.974400	3.742500	-11.131000	24.667106	0.000541	20.816939
638.172970	-2.986100	3.740900	-11.170000	24.663177	0.000542	20.832437
639.173655	-2.998700	3.741100	-11.217000	24.654971	0.000539	20.814246
640.171499	-2.979000	3.741800	-11.146000	24.675540	0.000540	20.815445
641.173474	-2.993900	3.740000	-11.196000	24.660117	0.000542	20.835530
642.174422	-2.999300	3.740300	-11.217000	24.642982	0.000540	20.824027
643.176689	-3.018800	3.739600	-11.289000	24.617366	0.000540	20.825350
644.173415	-3.024600	3.738100	-11.305000	24.667304	0.000539	20.825198
645.174017	-3.009400	3.738900	-11.251000	24.670364	0.000538	20.834907
646.173947	-3.011200	3.738400	-11.256000	24.679117	0.000541	20.848431
647.173913	-3.017200	3.737500	-11.276000	24.697072	0.000540	20.840371
648.174538	-3.013700	3.737400	-11.263000	24.689932	0.000537	20.843637
649.175147	-2.988800	3.738100	-11.172000	24.690528	0.000540	20.829537
650.175336	-3.005500	3.737200	-11.231000	24.698388	0.000538	20.837898
651.177243	-3.013300	3.736000	-11.256000	24.692965	0.000537	20.850473
652.174817	-3.008700	3.736600	-11.242000	24.724546	0.000538	20.843284
653.179885	-3.009800	3.736000	-11.244000	24.728875	0.000539	20.843361
654.176369	-3.015400	3.737600	-11.270000	24.736732	0.000537	20.845556
655.175302	-3.004800	3.736800	-11.227000	24.772690	0.000539	20.858881
656.179336	-3.003800	3.736400	-11.223000	24.780447	0.000536	20.832528
657.176706	-3.017400	3.735200	-11.269000	24.785219	0.000537	20.868609
658.176245	-2.986300	3.735300	-11.154000	24.775723	0.000538	20.845329
659.180102	-2.993500	3.735700	-11.183000	24.763463	0.000538	20.831130
660.178296	-3.017700	3.735700	-11.272000	24.756799	0.000539	20.832029
661.174318	-3.015300	3.733100	-11.255000	24.746280	0.000537	20.861301
662.180367	-3.021300	3.734000	-11.280000	24.767592	0.000537	20.869411
663.179111	-2.996600	3.736000	-11.194000	24.735713	0.000535	20.841214
664.176171	-2.989800	3.734900	-11.166000	24.690374	0.000535	20.842184
665.177473	-2.988100	3.734800	-11.159000	24.725889	0.000537	20.848425
666.178653	-3.029800	3.732000	-11.306000	24.707786	0.000534	20.854440
667.178206	-2.988300	3.735300	-11.161000	24.696198	0.000535	20.842339
668.178377	-2.996300	3.732400	-11.183000	24.705698	0.000538	20.839544
669.179129	-3.006300	3.732400	-11.220000	24.706720	0.000535	20.850526
670.179107	-3.000800	3.731800	-11.198000	24.680259	0.000533	20.855267
671.179670	-3.009600	3.732400	-11.233000	24.691399	0.000535	20.863126
672.182297	-3.016800	3.732300	-11.259000	24.668048	0.000536	20.859609
673.181383	-2.967900	3.732600	-11.078000	24.669394	0.000536	20.847684
674.180429	-2.991700	3.731100	-11.162000	24.678094	0.000535	20.837449
675.182033	-2.994100	3.730800	-11.170000	24.710877	0.000535	20.851852
676.183328	-2.996600	3.731700	-11.182000	24.744399	0.000535	20.851353
677.179125	-2.986300	3.730600	-11.141000	24.755692	0.000535	20.858418
678.183025	-2.996100	3.730800	-11.177000	24.737735	0.000535	20.848459
679.181072	-3.005900	3.729500	-11.209000	24.731395	0.000534	20.874811
680.181050	-3.001900	3.729800	-11.196000	24.721296	0.000536	20.850928
681.180943	-2.993900	3.730000	-11.165000	24.718736	0.000533	20.871118
682.180902	-3.006700	3.728600	-11.210000	24.722717	0.000534	20.868948
683.180634	-2.978200	3.729500	-11.107000	24.715805	0.000532	20.862013
684.179820	-2.989000	3.729700	-11.147000	24.698671	0.000533	20.859044
685.180127	-3.013700	3.727900	-11.233000	24.741268	0.000535	20.852478
686.181705	-2.978500	3.728500	-11.105000	24.788170	0.000534	20.831743
687.181917	-2.974500	3.728700	-11.089000	24.825420	0.000534	20.866280
688.184500	-3.017300	3.727300	-11.245000	24.801352	0.000535	20.847817
689.180167	-3.008200	3.726900	-11.210000	24.786829	0.000532	20.847941
690.180030	-3.021700	3.727200	-11.262000	24.788052	0.000533	20.885675
691.179455	-2.990500	3.728300	-11.148000	24.779270	0.000531	20.863113
692.184836	-2.997300	3.727700	-11.172000	24.773328	0.000532	20.859521
693.183070	-3.002300	3.727100	-11.188000	24.745155	0.000533	20.843103
694.179713	-3.011300	3.725500	-11.218000	24.732923	0.000532	20.872551
695.181617	-3.004900	3.726800	-11.197000	24.756745	0.000534	20.870853
696.180886	-3.030400	3.725200	-11.288000	24.739263	0.000532	20.853311
697.181252	-2.998900	3.726000	-11.173000	24.752223	0.000532	20.847351
698.182581	-3.018400	3.725100	-11.243000	24.767491	0.000532	20.860302
699.181062	-2.999400	3.726500	-11.177000	24.766447	0.000531	20.871581
700.180422	-2.990500	3.726800	-11.144000	24.787712	0.000532	20.878222
701.181249	-2.995800	3.725500	-11.160000	24.808599	0.000531	20.880692
702.183638	-3.026700	3.723800	-11.270000	24.812505	0.000530	20.864699
703.182418	-3.007000	3.725300	-11.201000	24.815269	0.000533	20.853248
704.182570	-3.006700	3.722600	-11.192000	24.812956	0.000530	20.855194
705.183135	-2.979100	3.725900	-11.099000	24.807734	0.000531	20.865600
706.184512	-3.002200	3.723900	-11.179000	24.820095	0.000531	20.878479
707.185019	-3.006600	3.723800	-11.195000	24.813829	0.000530	20.865553
708.188074	-3.000400	3.723400	-11.171000	24.812341	0.000529	20.856474
709.189470	-2.971700	3.724000	-11.065000	24.866326	0.000530	20.870824
710.185549	-3.011500	3.723200	-11.211000	24.875627	0.000529	20.860719
711.185659	-2.998300	3.723200	-11.162000	24.865882	0.000530	20.866585
712.188408	-2.997600	3.721500	-11.154000	24.828534	0.000529	20.887896
713.185686	-3.014600	3.721300	-11.218000	24.805513	0.000530	20.874276
714.190123	-3.016700	3.721300	-11.225000	24.813816	0.000530	20.866963
715.190780	-2.991500	3.720200	-11.128000	24.849899	0.000530	20.876622
716.186585	-2.978200	3.722000	-11.084000	24.871532	0.000530	20.865144
717.190303	-2.986900	3.722400	-11.118000	24.882775	0.000531	20.874056
718.189147	-3.030800	3.720800	-11.276000	24.891251	0.000530	20.871657
719.187903	-2.987500	3.720400	-11.114000	24.882870	0.000529	20.875100
720.187102	-3.003300	3.720100	-11.172000	24.854774	0.000531	20.878670
721.189569	-3.001000	3.720800	-11.165000	24.838486	0.000531	20.893141
722.189236	-2.982500	3.720900	-11.096000	24.847688	0.000529	20.874877
723.189405	-2.996000	3.720600	-11.146000	24.876284	0.000530	20.885559
724.188418	-3.008700	3.719600	-11.190000	24.828391	0.000529	20.878270
725.190869	-3.008800	3.720000	-11.192000	24.867981	0.000529	20.881493
726.189559	-3.006500	3.718000	-11.177000	24.845625	0.000530	20.901254
727.191163	-2.995700	3.717800	-11.137000	24.838038	0.000531	20.878943
728.190852	-2.992000	3.717700	-11.123000	24.826773	0.000530	20.887551
729.192142	-2.978800	3.718800	-11.077000	24.792308	0.000527	20.885680
730.191045	-2.985500	3.717800	-11.097000	24.813443	0.000529	20.877493
731.192478	-3.024600	3.716400	-11.240000	24.856312	0.000529	20.885903
732.192380	-2.986000	3.719000	-11.105000	24.874188	0.000528	20.890567
733.192898	-2.992800	3.718000	-11.127000	24.849195	0.000530	20.896777
734.192035	-3.015600	3.715500	-11.203000	24.893453	0.000530	20.895203
735.193433	-2.992600	3.715900	-11.120000	24.864711	0.000529	20.894332
736.194227	-2.990900	3.717600	-11.118000	24.891637	0.000530	20.910449
737.194521	-2.987800	3.715900	-11.101000	24.902747	0.000528	20.909745
738.196939	-3.006900	3.715500	-11.171000	24.937508	0.000527	20.891057
739.196075	-3.002000	3.716500	-11.155000	24.915524	0.000527	20.907871
740.195901	-2.996400	3.717000	-11.135000	24.931386	0.000528	20.888705
741.195899	-2.995200	3.715200	-11.127000	24.915944	0.000528	20.905448
742.198473	-3.002000	3.715300	-11.152000	24.904032	0.000526	20.907716
743.201708	-3.001100	3.715300	-11.149000	24.907781	0.000527	20.921435
744.197682	-3.002800	3.714500	-11.153000	24.911190	0.000525	20.909684
745.197277	-3.020100	3.712900	-11.212000	24.875952	0.000524	20.912724
746.199524	-3.013700	3.713800	-11.190000	24.868539	0.000527	20.907655
747.199020	-3.000800	3.714200	-11.144000	24.833455	0.000526	20.904686
748.198005	-3.000800	3.714300	-11.144000	24.848820	0.000526	20.910624
749.199844	-2.997100	3.713700	-11.129000	24.846057	0.000525	20.904058
750.198267	-3.010100	3.713900	-11.178000	24.840310	0.000523	20.908247
751.198984	-3.023700	3.712600	-11.224000	24.853687	0.000523	20.924516
752.199469	-3.000800	3.713300	-11.141000	24.890386	0.000525	20.914408
753.199974	-3.007000	3.712600	-11.163000	24.922584	0.000523	20.918749
754.200814	-2.982600	3.712500	-11.071000	24.896055	0.000524	20.904452
755.206582	-3.002600	3.712700	-11.147000	24.882006	0.000522	20.896990
756.199765	-3.017300	3.712200	-11.199000	24.917459	0.000522	20.915502
757.200663	-3.001600	3.712200	-11.141000	24.877600	0.000521	20.918644
758.205797	-2.979800	3.711300	-11.058000	24.864072	0.000520	20.890845
759.199507	-3.003600	3.710500	-11.144000	24.869766	0.000521	20.909361
760.202500	-2.989500	3.712300	-11.097000	24.883642	0.000522	20.882987
761.205754	-2.990100	3.711000	-11.095000	24.910867	0.000521	20.910783
762.199186	-2.993900	3.711200	-11.110000	24.911787	0.000519	20.897483
763.203217	-3.011000	3.709500	-11.168000	24.938489	0.000521	20.898679
764.205286	-3.004300	3.708700	-11.141000	24.934861	0.000519	20.907839
765.201021	-3.004100	3.710300	-11.145000	24.931900	0.000519	20.891592
766.203280	-3.023500	3.709500	-11.215000	24.907514	0.000519	20.899358
767.203575	-2.991100	3.710300	-11.097000	24.928596	0.000522	20.906767
768.200215	-2.992100	3.709200	-11.096000	24.924644	0.000520	20.897585
769.201879	-2.999900	3.709200	-11.126000	24.954057	0.000519	20.886804
770.204309	-2.992700	3.707900	-11.096000	24.965595	0.000518	20.899807
771.203003	-3.004700	3.707200	-11.139000	24.942673	0.000517	20.896240
772.205411	-3.004000	3.708800	-11.141000	24.970322	0.000517	20.873259
773.208270	-2.981900	3.708900	-11.059000	24.978750	0.000518	20.864651
774.206668	-2.992800	3.707800	-11.096000	24.980519	0.000518	20.883494
775.204426	-3.020700	3.705600	-11.192000	24.996929	0.000518	20.882422
776.205745	-3.000200	3.707900	-11.124000	24.954961	0.000514	20.881548
777.206111	-2.986700	3.707200	-11.071000	24.946309	0.000515	20.873339
778.204737	-2.991300	3.707200	-11.087000	24.950141	0.000516	20.894253
779.206418	-2.997400	3.706000	-11.107000	24.949647	0.000517	20.870525
780.208559	-3.020500	3.706400	-11.195000	24.974711	0.000517	20.875768
781.204808	-2.998000	3.707300	-11.113000	24.973143	0.000517	20.879410
782.206540	-2.991600	3.705000	-11.083000	24.967974	0.000514	20.901721
783.206292	-2.973700	3.705600	-11.019000	24.967801	0.000516	20.891117
784.205134	-2.994100	3.706600	-11.096000	24.933319	0.000513	20.874051
785.207723	-3.002600	3.705700	-11.126000	24.960076	0.000514	20.886682
786.207141	-3.011100	3.705100	-11.155000	24.941501	0.000514	20.868513
787.207238	-3.002900	3.704500	-11.123000	24.972361	0.000514	20.859186
788.208192	-3.022200	3.703900	-11.193000	24.994115	0.000512	20.876753
789.213998	-2.979900	3.705500	-11.041000	25.022013	0.000517	20.875832
790.209207	-2.992100	3.705300	-11.085000	25.003590	0.000513	20.867298
791.210474	-2.990800	3.703900	-11.076000	25.031263	0.000514	20.864255
792.213339	-3.003700	3.703400	-11.122000	25.091356	0.000512	20.865782
793.211145	-3.000200	3.702700	-11.108000	25.018638	0.000513	20.862488
794.212382	-2.995400	3.703100	-11.092000	24.980949	0.000511	20.881555
795.212324	-3.011600	3.702900	-11.151000	24.974188	0.000511	20.892785
796.216096	-3.029600	3.702600	-11.216000	24.965215	0.000511	20.866712
797.211767	-2.990800	3.703800	-11.076000	24.968599	0.000512	20.841186
798.214932	-3.001400	3.703200	-11.113000	24.954603	0.000512	20.863173
799.216445	-3.000700	3.701100	-11.105000	24.999480	0.000511	20.854164
800.214901	-3.003300	3.701200	-11.115000	25.041027	0.000510	20.857461
801.215875	-2.988300	3.701300	-11.060000	25.038866	0.000512	20.869516
802.216702	-2.997700	3.700100	-11.091000	25.005926	0.000510	20.840247
803.214047	-3.024400	3.700400	-11.190000	24.996679	0.000511	20.862258
804.220051	-2.969900	3.702000	-10.994000	25.021616	0.000511	20.848883
805.216862	-2.996100	3.699700	-11.083000	25.002403	0.000509	20.849986
806.214725	-3.003100	3.701300	-11.114000	24.994722	0.000511	20.840854
807.215293	-2.980400	3.699400	-11.024000	25.001514	0.000509	20.866162
808.215944	-2.987100	3.700300	-11.051000	25.032860	0.000509	20.844997
809.215025	-3.005900	3.699000	-11.118000	25.032789	0.000509	20.844451
810.214795	-2.991400	3.699900	-11.067000	25.042412	0.000509	20.844154
811.215209	-3.011800	3.697300	-11.134000	25.062427	0.000511	20.835322
812.214618	-3.002900	3.699000	-11.106000	25.061982	0.000510	20.856212
813.217707	-2.996500	3.699200	-11.084000	25.101582	0.000509	20.848074
814.216075	-3.023800	3.698500	-11.183000	25.113613	0.000511	20.838340
815.218127	-2.987300	3.697800	-11.045000	25.094127	0.000510	20.850073
816.214159	-2.989700	3.698000	-11.054000	25.097806	0.000509	20.845706
817.216110	-2.982600	3.698200	-11.029000	25.067104	0.000510	20.845232
818.220245	-2.978900	3.698300	-11.016000	25.072127	0.000508	20.833205
819.216852	-2.986400	3.697900	-11.042000	25.087165	0.000511	20.842136
820.218843	-3.009400	3.696400	-11.123000	25.054749	0.000508	20.831408
821.220295	-2.994100	3.696200	-11.066000	25.027228	0.000509	20.834603
822.219533	-2.997300	3.695800	-11.077000	25.025388	0.000508	20.855514
823.216540	-3.014400	3.694200	-11.135000	25.038241	0.000508	20.842812
824.217883	-2.990200	3.696100	-11.051000	25.050124	0.000508	20.841938
825.218073	-3.014700	3.694500	-11.137000	25.080277	0.000507	20.836645
826.219562	-2.992900	3.696800	-11.064000	25.077172	0.000509	20.828312
827.220715	-2.999700	3.694800	-11.083000	25.084133	0.000506	20.831981
828.221835	-3.009500	3.694200	-11.117000	25.071627	0.000506	20.840289
829.220277	-2.994100	3.695100	-11.062000	25.074612	0.000504	20.835700
830.219854	-3.018700	3.694400	-11.150000	25.047262	0.000504	20.828634
831.221237	-2.986400	3.694400	-11.032000	25.103546	0.000505	20.843881
832.220730	-3.002300	3.694900	-11.092000	25.101736	0.000504	20.846332
833.221907	-2.996700	3.693000	-11.066000	25.096214	0.000504	20.818978
834.221668	-3.015000	3.693200	-11.134000	25.073272	0.000506	20.849527
835.220213	-3.024900	3.691800	-11.166000	25.056910	0.000504	20.839267
836.220854	-2.989700	3.694200	-11.044000	25.070290	0.000505	20.845111
837.220065	-3.005000	3.693400	-11.098000	25.110087	0.000503	20.836224
838.223384	-2.995500	3.693200	-11.061000	25.157097	0.000502	20.836949
839.220862	-3.008400	3.692200	-11.107000	25.130030	0.000503	20.815466
840.221803	-3.008700	3.691500	-11.105000	25.103999	0.000501	20.838173
841.225621	-2.989800	3.693300	-11.041000	25.075940	0.000503	20.814273
842.221050	-3.007800	3.691700	-11.103000	25.100724	0.000500	20.807384
843.220887	-2.988600	3.692100	-11.033000	25.096473	0.000502	20.847212
844.224570	-2.985700	3.691100	-11.020000	25.139605	0.000502	20.835510
845.221632	-2.982500	3.692700	-11.013000	25.122753	0.000502	20.820490
846.221346	-3.005200	3.689700	-11.088000	25.121561	0.000502	20.818819
847.224565	-3.006400	3.691200	-11.096000	25.140004	0.000501	20.829746
848.231486	-3.008400	3.690700	-11.102000	25.154874	0.000500	20.820019
849.223153	-2.985100	3.690900	-11.017000	25.096904	0.000503	20.823939
850.224902	-2.976500	3.691200	-10.986000	25.115924	0.000502	20.821695
851.224957	-2.978500	3.689400	-10.988000	25.132848	0.000499	20.841054
852.229746	-3.003600	3.688600	-11.078000	25.129372	0.000498	20.818599
853.226235	-3.005900	3.688400	-11.086000	25.086717	0.000500	20.826040
854.227983	-3.001300	3.688200	-11.068000	25.056190	0.000499	20.821949
855.226913	-3.010200	3.689400	-11.104000	25.039756	0.000498	20.817781
856.227332	-3.030400	3.687500	-11.174000	25.040822	0.000498	20.838290
857.229072	-3.009100	3.688900	-11.099000	25.057734	0.000500	20.812593
858.230987	-2.990500	3.688600	-11.029000	25.082669	0.000499	20.804433
859.227951	-2.988600	3.688500	-11.023000	25.090128	0.000497	20.828516
860.229408	-3.004400	3.686800	-11.076000	25.100794	0.000498	20.828791
861.231915	-3.002300	3.687400	-11.070000	25.062537	0.000499	20.814096
862.228999	-2.994100	3.687800	-11.041000	25.068280	0.000497	20.815119
863.230012	-3.012500	3.686300	-11.104000	25.094657	0.000498	20.819312
864.234257	-2.987900	3.686700	-11.014000	25.159985	0.000499	20.814245
865.230690	-3.002700	3.686000	-11.067000	25.119595	0.000496	20.822060
866.229846	-2.989700	3.686500	-11.021000	25.094984	0.000496	20.808735
867.231214	-2.973900	3.686600	-10.963000	25.085411	0.000499	20.807659
868.232310	-2.985700	3.685000	-11.000000	25.060355	0.000495	20.795784
869.231921	-2.990600	3.685700	-11.021000	25.025100	0.000499	20.822036
870.232377	-2.996300	3.685300	-11.041000	24.999571	0.000496	20.798781
871.233154	-2.992300	3.685100	-11.026000	25.013322	0.000496	20.816377
872.240759	-3.009500	3.683300	-11.084000	25.009244	0.000495	20.794265
873.233055	-2.996100	3.685200	-11.040000	25.021970	0.000497	20.812729
874.234807	-3.013800	3.683400	-11.100000	25.006684	0.000494	20.802128
875.233758	-2.990500	3.684400	-11.018000	24.999274	0.000494	20.798483
876.234146	-3.015700	3.683300	-11.107000	25.033609	0.000495	20.801179
877.233171	-2.982900	3.683900	-10.988000	25.017002	0.000494	20.813433
878.234971	-3.013000	3.683200	-11.097000	25.065729	0.000494	20.811136
879.235331	-2.993400	3.682800	-11.023000	25.112494	0.000492	20.794544
880.235328	-3.002700	3.683300	-11.059000	25.109759	0.000495	20.807445
881.236598	-2.978700	3.683300	-10.971000	25.124027	0.000492	20.823191
882.238822	-3.005900	3.681300	-11.065000	25.147773	0.000492	20.801037
883.236649	-2.993900	3.683000	-11.026000	25.153540	0.000494	20.805403
884.237671	-2.992900	3.681600	-11.018000	25.186153	0.000491	20.776979
885.236652	-3.006500	3.680500	-11.065000	25.120530	0.000491	20.805456
886.237987	-2.994400	3.682200	-11.025000	25.143822	0.000491	20.798966
887.237363	-3.038300	3.680600	-11.182000	25.152947	0.000492	20.780626
888.239319	-3.007100	3.680600	-11.067000	25.144099	0.000489	20.810151
889.239623	-3.014000	3.680000	-11.090000	25.174028	0.000492	20.798945
890.241612	-2.986300	3.681500	-10.994000	25.166224	0.000492	20.818611
891.242231	-2.995700	3.680100	-11.024000	25.132295	0.000491	20.780756
892.239303	-2.989300	3.680200	-11.000000	25.103634	0.000491	20.822159
893.240720	-2.997600	3.681000	-11.033000	25.090807	0.000490	20.791739
894.241598	-3.023700	3.678500	-11.121000	25.049391	0.000489	20.803745
895.244102	-3.027400	3.678100	-11.134000	25.106097	0.000491	20.812305
896.242838	-3.013600	3.678100	-11.084000	25.109876	0.000489	20.793813
897.241514	-3.018400	3.677300	-11.099000	25.127232	0.000489	20.789424
898.243928	-3.014800	3.678100	-11.088000	25.125444	0.000489	20.780992
899.242218	-3.012600	3.678100	-11.079000	25.148909	0.000486	20.793168
900.241298	-3.004400	3.677700	-11.048000	25.175334	0.000488	20.786031
901.241877	-3.007200	3.677800	-11.059000	25.171308	0.000488	20.795266
902.244518	-2.996900	3.676900	-11.017000	25.160470	0.000487	20.783911
903.244394	-2.984500	3.677600	-10.974000	25.159278	0.000488	20.795043
904.243701	-2.998300	3.677000	-11.024000	25.158457	0.000485	20.779994
905.246970	-3.000800	3.676300	-11.031000	25.125796	0.000485	20.796044
906.243233	-2.997900	3.676500	-11.021000	25.143544	0.000484	20.808645
907.247745	-2.990300	3.676300	-10.992000	25.128108	0.000484	20.786985
908.242095	-3.008500	3.675400	-11.055000	25.133603	0.000486	20.801985
909.244785	-2.991600	3.676500	-10.997000	25.155555	0.000483	20.801263
910.241683	-3.004000	3.674400	-11.036000	25.132211	0.000485	20.776405
911.245054	-3.023500	3.674300	-11.108000	25.100794	0.000484	20.780428
912.245599	-2.998400	3.674500	-11.017000	25.114738	0.000485	20.764080
913.248784	-3.004500	3.674500	-11.040000	25.166125	0.000483	20.785795
914.246064	-3.006200	3.673900	-11.043000	25.133462	0.000484	20.782876
915.245041	-2.977900	3.673800	-10.939000	25.126352	0.000483	20.799921
916.245709	-2.987500	3.674300	-10.977000	25.165656	0.000482	20.786273
917.247081	-2.997100	3.674100	-11.011000	25.170728	0.000482	20.771924
918.250295	-3.020600	3.673100	-11.094000	25.176124	0.000482	20.793463
919.246946	-2.997300	3.673400	-11.009000	25.115343	0.000484	20.780335
920.246918	-2.999900	3.672100	-11.014000	25.104927	0.000483	20.788845
921.247056	-2.996500	3.672500	-11.003000	25.123703	0.000482	20.786831
922.246261	-3.001200	3.672800	-11.021000	25.121839	0.000480	20.767889
923.248089	-3.004400	3.672900	-11.034000	25.138197	0.000482	20.785259
924.246964	-2.987000	3.672700	-10.970000	25.157584	0.000481	20.783384
925.246984	-3.001700	3.672100	-11.022000	25.179140	0.000482	20.767567
926.247406	-3.011800	3.672100	-11.057000	25.187867	0.000481	20.754042
927.249437	-2.997500	3.672100	-11.007000	25.174639	0.000478	20.775851
928.249973	-3.022700	3.670700	-11.095000	25.139914	0.000480	20.765645
929.248879	-3.027800	3.670300	-11.112000	25.175781	0.000480	20.769411
930.248213	-3.016300	3.669800	-11.068000	25.196442	0.000478	20.776402
931.249576	-2.992100	3.671000	-10.983000	25.178291	0.000480	20.753912
932.247894	-3.000400	3.670400	-11.012000	25.202554	0.000478	20.756459
933.249837	-3.034900	3.669700	-11.137000	25.199992	0.000477	20.800355
934.254311	-3.003500	3.669100	-11.019000	25.230443	0.000476	20.775451
935.250782	-2.988300	3.669800	-10.964000	25.215256	0.000475	20.781541
936.249653	-2.997800	3.668600	-10.997000	25.206085	0.000477	20.758108
937.251696	-3.008100	3.668400	-11.033000	25.161316	0.000475	20.763897
938.254924	-2.997100	3.668800	-10.995000	25.186894	0.000476	20.774878
939.253150	-3.002600	3.667500	-11.012000	25.192639	0.000477	20.783964
940.252463	-3.015200	3.667400	-11.057000	25.250504	0.000477	20.768565
941.253768	-2.997600	3.668900	-10.997000	25.264302	0.000477	20.770089
942.256251	-3.009800	3.665400	-11.031000	25.259777	0.000477	20.757959
943.252918	-3.039400	3.666000	-11.141000	25.200619	0.000477	20.754042
944.254321	-3.004800	3.667700	-11.019000	25.163708	0.000477	20.747332
945.255445	-3.008100	3.666500	-11.028000	25.172009	0.000476	20.758511
946.254350	-2.975700	3.667100	-10.911000	25.152570	0.000478	20.761756
947.255930	-3.002300	3.666200	-11.006000	25.187123	0.000475	20.754244
948.259755	-3.000600	3.665300	-10.997000	25.155256	0.000474	20.760659
949.255079	-3.030600	3.664100	-11.104000	25.142325	0.000475	20.775178
950.254889	-3.010900	3.663700	-11.030000	25.165048	0.000474	20.749152
951.254435	-3.014200	3.664100	-11.043000	25.174071	0.000475	20.739244
952.255722	-3.004000	3.665500	-11.010000	25.174939	0.000474	20.762875
953.255635	-3.008600	3.664600	-11.024000	25.218016	0.000473	20.756810
954.254769	-3.002700	3.663600	-10.998000	25.231366	0.000475	20.749350
955.254342	-3.008100	3.663900	-11.021000	25.280979	0.000475	20.770238
956.254925	-3.009200	3.662500	-11.021000	25.267182	0.000472	20.757333
957.255098	-3.004800	3.662300	-11.003000	25.222788	0.000471	20.745479
958.254900	-3.017300	3.663300	-11.052000	25.238324	0.000471	20.762025
959.255567	-3.010600	3.663000	-11.027000	25.264496	0.000471	20.764595
960.256613	-2.991900	3.663200	-10.958000	25.245779	0.000472	20.761449
961.259992	-2.985900	3.663000	-10.936000	25.197356	0.000470	20.755034
962.257403	-2.990100	3.663200	-10.952000	25.230468	0.000469	20.773579
963.261241	-3.015200	3.660400	-11.036000	25.238691	0.000471	20.736789
964.259370	-2.998700	3.660900	-10.977000	25.278143	0.000468	20.761700
965.258936	-2.999800	3.660500	-10.979000	25.273222	0.000469	20.755812
966.258862	-3.006900	3.660500	-11.006000	25.285149	0.000468	20.749294
967.259998	-3.004300	3.659500	-10.993000	25.286717	0.000469	20.754662
968.258833	-3.018400	3.659600	-11.046000	25.259450	0.000466	20.746251
969.258772	-3.011500	3.659300	-11.019000	25.212173	0.000466	20.749995
970.261167	-2.997400	3.660100	-10.970000	25.243720	0.000467	20.763649
971.258930	-2.993000	3.659900	-10.953000	25.259425	0.000466	20.754287
972.260245	-2.996600	3.658800	-10.963000	25.302178	0.000466	20.754538
973.265612	-2.979800	3.659000	-10.901000	25.344633	0.000466	20.740266
974.261653	-3.000100	3.658400	-10.974000	25.337550	0.000465	20.738844
975.261522	-3.010900	3.658500	-11.013000	25.347562	0.000465	20.755536
976.261885	-2.990200	3.657700	-10.936000	25.299693	0.000466	20.775751
977.264061	-2.993900	3.658700	-10.953000	25.261542	0.000463	20.752620
978.262405	-2.998800	3.657100	-10.967000	25.262638	0.000462	20.760832
979.264471	-2.998300	3.657900	-10.966000	25.216507	0.000464	20.750553
980.266181	-3.021300	3.656300	-11.046000	25.223591	0.000463	20.756243
981.262613	-2.999400	3.656800	-10.968000	25.235549	0.000462	20.770145
982.263075	-3.018900	3.656200	-11.036000	25.187925	0.000464	20.750308
983.265967	-3.000500	3.656000	-10.969000	25.207339	0.000462	20.751306
984.262834	-3.003000	3.656600	-10.979000	25.193445	0.000460	20.746366
985.264242	-2.988600	3.657300	-10.929000	25.236969	0.000463	20.746914
986.264307	-2.980100	3.655500	-10.892000	25.223029	0.000461	20.747618
987.265347	-3.016300	3.654900	-11.024000	25.219600	0.000460	20.738959
988.265945	-3.008300	3.655900	-10.997000	25.229370	0.000457	20.747819
989.268603	-3.005500	3.654800	-10.984000	25.247866	0.000461	20.755484
990.265447	-3.004800	3.654000	-10.979000	25.208024	0.000459	20.751994
991.270422	-2.987500	3.655300	-10.920000	25.218764	0.000459	20.731006
992.265682	-3.006800	3.654400	-10.987000	25.207802	0.000458	20.741339
993.268054	-2.993400	3.654400	-10.938000	25.219687	0.000457	20.735727
994.266122	-2.994800	3.652800	-10.938000	25.242211	0.000459	20.755496
995.269389	-3.006300	3.653900	-10.983000	25.267889	0.000457	20.742870
996.270691	-3.008600	3.653200	-10.990000	25.309627	0.000457	20.740205
997.267150	-2.989300	3.652900	-10.918000	25.310769	0.000459	20.730920
998.266352	-3.019100	3.651500	-11.023000	25.324442	0.000457	20.738485
999.270335	-3.007900	3.651800	-10.983000	25.306550	0.000456	20.759402
1000.269267	-2.984400	3.653000	-10.902000	25.247768	0.000455	20.733099
1001.270262	-3.003700	3.652000	-10.969000	25.287716	0.000457	20.739068
1002.269497	-2.995400	3.651100	-10.936000	25.262365	0.000457	20.754394
1003.266672	-3.024000	3.651100	-11.039000	25.241560	0.000455	20.748205
1004.267207	-3.007500	3.650300	-10.977000	25.241440	0.000455	20.748084
1005.266567	-2.995700	3.651100	-10.936000	25.255689	0.000456	20.743423
1006.269550	-3.026100	3.649100	-11.041000	25.289145	0.000454	20.745720
1007.267793	-3.016000	3.649700	-11.006000	25.277567	0.000455	20.739785
1008.268549	-2.982400	3.649900	-10.885000	25.276549	0.000453	20.746823
1009.268590	-2.995500	3.649800	-10.932000	25.262032	0.000454	20.739834
1010.267978	-2.979700	3.648500	-10.870000	25.276453	0.000452	20.751943
1011.267364	-2.987900	3.649700	-10.904000	25.320079	0.000454	20.730785
1012.272621	-2.993100	3.648000	-10.918000	25.270521	0.000453	20.743142
1013.268863	-2.979200	3.650000	-10.874000	25.209573	0.000454	20.739798
1014.267918	-2.960500	3.650300	-10.805000	25.213898	0.000453	20.727069
1015.268987	-2.988500	3.648400	-10.902000	25.266672	0.000453	20.726949
1016.268234	-2.990500	3.648400	-10.910000	25.268941	0.000453	20.744875
1017.268049	-3.019400	3.646600	-11.010000	25.275701	0.000453	20.720366
1018.267879	-2.978100	3.647900	-10.863000	25.308910	0.000452	20.739486
1019.271121	-2.988700	3.647200	-10.900000	25.329488	0.000455	20.739284
1020.269368	-3.002500	3.646200	-10.946000	25.326753	0.000451	20.739383
1021.269910	-3.027700	3.645500	-11.037000	25.333096	0.000452	20.745278
1022.271106	-3.025100	3.646400	-11.029000	25.356908	0.000452	20.736944
1023.274658	-2.989400	3.646700	-10.901000	25.357405	0.000451	20.747875
1024.270066	-3.017600	3.646300	-11.003000	25.346519	0.000451	20.735522
1025.271446	-3.002800	3.645700	-10.947000	25.352732	0.000453	20.730380
1026.271529	-3.005000	3.645300	-10.952000	25.351217	0.000450	20.762999
1027.272352	-3.015400	3.644600	-10.989000	25.354695	0.000451	20.759853
1028.273147	-3.013700	3.644700	-10.983000	25.319479	0.000449	20.752468
1029.276166	-3.001000	3.643800	-10.934000	25.301382	0.000449	20.745678
1030.275133	-2.970100	3.644200	-10.822000	25.279560	0.000447	20.740837
1031.273164	-3.016600	3.643500	-10.990000	25.307771	0.000449	20.731704
1032.278002	-2.993500	3.643000	-10.904000	25.337720	0.000451	20.767465
1033.274470	-3.020200	3.642200	-10.999000	25.343633	0.000449	20.755384
1034.275752	-3.010200	3.642700	-10.964000	25.335658	0.000447	20.749273
1035.274609	-3.023300	3.641700	-11.009000	25.321664	0.000447	20.758930
1036.276777	-3.005500	3.642700	-10.947000	25.304536	0.000448	20.729404
1037.276078	-3.026200	3.641400	-11.019000	25.343732	0.000446	20.746000
1038.273213	-3.001900	3.642400	-10.934000	25.331133	0.000444	20.748997
1039.276067	-2.981200	3.641800	-10.856000	25.314651	0.000447	20.758527
1040.273993	-2.992200	3.641600	-10.895000	25.280550	0.000446	20.737090
1041.274495	-3.009700	3.640200	-10.953000	25.278612	0.000446	20.758378
1042.275837	-3.011400	3.641600	-10.965000	25.293128	0.000444	20.762048
1043.274381	-3.020800	3.640000	-10.995000	25.325812	0.000443	20.764518
1044.274932	-2.997200	3.639500	-10.907000	25.351936	0.000444	20.761824
1045.275878	-3.001400	3.639000	-10.920000	25.334686	0.000444	20.736916
1046.285843	-3.012200	3.639600	-10.962000	25.343680	0.000441	20.750689
1047.275417	-3.006200	3.639200	-10.939000	25.350844	0.000440	20.764521
1048.275417	-2.999200	3.638200	-10.911000	25.292610	0.000440	20.766743
1049.279334	-3.029700	3.638100	-11.021000	25.334041	0.000442	20.776099
1050.275367	-2.985000	3.637300	-10.856000	25.326436	0.000440	20.763721
1051.277421	-3.025100	3.636900	-11.001000	25.316917	0.000439	20.758905
1052.278418	-2.994300	3.638200	-10.893000	25.308719	0.000440	20.748777
1053.275972	-3.000700	3.637500	-10.914000	25.335637	0.000441	20.770115
1054.278295	-3.001800	3.637700	-10.917000	25.349381	0.000440	20.761630
1055.275119	-2.987900	3.636700	-10.865000	25.381791	0.000439	20.760508
1056.276776	-2.970000	3.638600	-10.806000	25.331810	0.000440	20.754418
1057.276571	-3.010000	3.635000	-10.940000	25.302608	0.000439	20.758289
1058.284137	-3.004100	3.636500	-10.924000	25.305096	0.000440	20.743243
1059.279012	-2.990800	3.636900	-10.875000	25.290626	0.000438	20.758586
1060.276913	-3.020100	3.634000	-10.973000	25.295253	0.000439	20.784095
1061.282689	-2.997200	3.633900	-10.891000	25.301018	0.000438	20.748632
1062.280228	-3.017500	3.633600	-10.963000	25.288515	0.000440	20.749828
1063.278922	-3.010200	3.634000	-10.938000	25.250931	0.000439	20.771364
1064.279838	-2.988400	3.634500	-10.861000	25.233756	0.000437	20.738473
1065.280660	-3.001300	3.633200	-10.904000	25.233806	0.000438	20.765550
1066.280676	-3.005100	3.632800	-10.916000	25.270643	0.000439	20.752748
1067.284383	-3.002200	3.633500	-10.908000	25.276881	0.000437	20.777977
1068.283021	-2.993800	3.634000	-10.879000	25.304169	0.000437	20.772185
1069.286263	-2.973100	3.633900	-10.803000	25.345328	0.000437	20.773682
1070.283428	-2.989500	3.633000	-10.860000	25.392050	0.000436	20.782663
1071.283837	-2.992800	3.632300	-10.870000	25.372985	0.000435	20.780589
1072.285038	-2.994000	3.632000	-10.874000	25.377331	0.000436	20.766460
1073.285639	-3.018000	3.630500	-10.955000	25.411974	0.000433	20.766160
1074.285187	-3.003900	3.630700	-10.905000	25.429294	0.000434	20.774069
1075.288357	-2.989800	3.630400	-10.853000	25.462964	0.000432	20.791284
1076.286361	-2.992300	3.629600	-10.859000	25.481632	0.000431	20.793435
1077.285807	-2.976900	3.631200	-10.808000	25.482768	0.000432	20.779402
1078.289493	-2.976800	3.630700	-10.807000	25.476206	0.000432	20.779925
1079.285346	-2.986700	3.630200	-10.842000	25.444965	0.000433	20.771787
1080.286489	-2.999600	3.628700	-10.884000	25.426071	0.000431	20.784583
1081.285756	-2.992900	3.630300	-10.864000	25.394511	0.000432	20.770436
1082.290529	-2.977100	3.629500	-10.805000	25.385832	0.000431	20.793015
1083.286010	-2.980400	3.630200	-10.818000	25.366524	0.000429	20.772205
1084.286828	-3.009700	3.628200	-10.918000	25.385011	0.000428	20.790769
1085.289692	-2.991800	3.627700	-10.852000	25.401341	0.000428	20.789622
1086.287035	-3.013900	3.629000	-10.936000	25.377132	0.000428	20.815099
1087.287372	-3.000700	3.627600	-10.885000	25.390502	0.000428	20.783005
1088.294093	-2.976300	3.627400	-10.795000	25.391844	0.000426	20.799052
1089.285887	-2.997700	3.628700	-10.877000	25.377900	0.000425	20.784576
1090.289175	-3.009000	3.627800	-10.914000	25.377826	0.000428	20.797304
1091.288877	-2.999300	3.626600	-10.876000	25.391993	0.000427	20.784976
1092.286402	-2.995300	3.627600	-10.865000	25.354388	0.000425	20.781356
1093.287141	-2.993800	3.626300	-10.855000	25.331446	0.000425	20.789615
1094.285956	-3.004200	3.624900	-10.889000	25.362169	0.000426	20.808135
1095.286222	-3.007100	3.625200	-10.901000	25.385505	0.000424	20.807385
1096.286527	-3.014400	3.623400	-10.922000	25.377110	0.000426	20.792792
1097.286358	-2.988200	3.624700	-10.830000	25.382971	0.000427	20.810531
1098.289388	-2.998300	3.624600	-10.866000	25.368280	0.000425	20.780132
1099.288528	-3.008200	3.623400	-10.899000	25.408992	0.000426	20.801098
1100.287725	-3.019000	3.622500	-10.935000	25.394727	0.000424	20.809059
1101.289744	-3.010000	3.623900	-10.907000	25.387295	0.000424	20.785949
1102.288085	-2.997800	3.623400	-10.861000	25.459097	0.000425	20.822013
1103.289510	-3.003700	3.621400	-10.876000	25.475373	0.000425	20.803270
1104.290714	-3.009600	3.621700	-10.899000	25.511825	0.000424	20.794357
1105.289063	-3.003100	3.622400	-10.877000	25.488297	0.000424	20.805343
1106.287219	-2.992300	3.623000	-10.839000	25.455189	0.000423	20.788218
1107.291248	-3.015600	3.620200	-10.916000	25.383687	0.000424	20.810776
1108.289163	-2.985100	3.621000	-10.808000	25.371409	0.000423	20.794654
1109.288123	-2.987500	3.621000	-10.817000	25.403097	0.000424	20.796126
1110.291119	-3.006300	3.620400	-10.883000	25.376999	0.000423	20.805482
1111.288514	-3.015000	3.619400	-10.912000	25.332264	0.000422	20.803239
1112.289486	-3.009000	3.619300	-10.889000	25.309668	0.000421	20.795723
1113.291368	-2.996200	3.620600	-10.847000	25.365289	0.000422	20.798940
1114.292990	-2.996600	3.620400	-10.847000	25.330714	0.000417	20.802157
1115.292624	-3.019400	3.617300	-10.922000	25.317390	0.000419	20.810589
1116.292005	-3.012300	3.618400	-10.899000	25.316368	0.000418	20.800554
1117.292650	-3.004200	3.619200	-10.872000	25.311646	0.000417	20.808615
1118.292278	-2.999600	3.617500	-10.850000	25.328868	0.000417	20.813580
1119.292593	-3.028000	3.617500	-10.953000	25.353745	0.000420	20.815798
1120.292274	-2.988000	3.618600	-10.811000	25.435141	0.000418	20.812656
1121.291814	-3.016200	3.617000	-10.907000	25.471101	0.000419	20.822687
1122.291546	-3.015200	3.617100	-10.905000	25.441001	0.000420	20.808110
1123.291462	-3.004700	3.616700	-10.866000	25.399050	0.000419	20.817193
1124.292202	-3.015100	3.616300	-10.903000	25.420398	0.000417	20.811602
1125.295508	-3.005600	3.617000	-10.871000	25.472113	0.000418	20.810902
1126.294157	-3.023200	3.614300	-10.926000	25.474446	0.000418	20.825572
1127.295479	-3.003300	3.615900	-10.859000	25.507022	0.000415	20.817509
1128.292932	-3.023700	3.614700	-10.929000	25.478794	0.000416	20.841792
1129.293559	-3.030600	3.614500	-10.953000	25.438902	0.000417	20.832080
1130.292778	-2.993300	3.614900	-10.820000	25.418573	0.000417	20.842012
1131.292311	-3.020600	3.614600	-10.918000	25.446803	0.000414	20.834798
1132.294927	-3.032300	3.614300	-10.958000	25.500479	0.000415	20.818525
1133.296656	-2.992400	3.614200	-10.814000	25.519690	0.000415	20.827859
1134.297590	-2.996700	3.614400	-10.831000	25.486092	0.000414	20.820198
1135.293167	-2.996100	3.613300	-10.824000	25.424804	0.000413	20.827407
1136.296766	-2.996700	3.612600	-10.825000	25.446969	0.000413	20.812206
1137.293540	-3.014200	3.612500	-10.887000	25.506315	0.000412	20.831023
1138.300203	-2.993000	3.612700	-10.812000	25.475550	0.000412	20.826681
1139.295065	-2.996900	3.612200	-10.824000	25.435584	0.000410	20.842498
1140.294327	-3.008700	3.610900	-10.863000	25.478975	0.000410	20.839604
1141.297162	-3.018200	3.611600	-10.900000	25.474004	0.000411	20.836982
1142.295747	-3.006100	3.609600	-10.850000	25.482876	0.000409	20.839728
1143.294971	-2.982900	3.609700	-10.767000	25.456083	0.000410	20.839374
1144.294892	-3.005100	3.610200	-10.848000	25.448528	0.000408	20.866400
1145.296403	-3.005200	3.609600	-10.847000	25.459514	0.000411	20.833812
1146.297948	-3.007400	3.610500	-10.857000	25.457675	0.000408	20.839077
1147.296689	-2.982400	3.610100	-10.766000	25.509712	0.000409	20.842021
1148.297036	-3.009300	3.609100	-10.860000	25.524793	0.000408	20.825398
1149.300884	-3.009600	3.608600	-10.860000	25.521266	0.000407	20.835132
1150.297068	-3.019400	3.609300	-10.897000	25.487592	0.000408	20.835454
1151.297315	-3.026400	3.607700	-10.918000	25.485953	0.000405	20.832386
1152.300274	-2.981300	3.608600	-10.758000	25.485805	0.000406	20.841246
1153.295980	-3.006700	3.608300	-10.848000	25.482852	0.000406	20.845867
1154.297239	-3.006600	3.607200	-10.844000	25.488369	0.000406	20.827227
1155.299764	-3.027100	3.606600	-10.917000	25.520800	0.000406	20.857897
1156.297205	-3.028100	3.607400	-10.922000	25.540954	0.000406	20.857748
1157.296955	-2.997000	3.606200	-10.808000	25.556288	0.000403	20.833319
1158.302420	-2.999800	3.606200	-10.817000	25.523936	0.000405	20.855830
1159.296990	-3.013900	3.605400	-10.866000	25.518668	0.000405	20.854807
1160.296808	-2.996500	3.606500	-10.806000	25.510793	0.000405	20.829830
1161.303165	-2.991700	3.606900	-10.790000	25.488376	0.000406	20.844776
1162.298978	-2.997500	3.604800	-10.805000	25.460940	0.000406	20.858476
1163.297858	-3.016200	3.604400	-10.870000	25.456493	0.000405	20.848321
1164.298902	-2.993300	3.604400	-10.789000	25.474859	0.000402	20.851591
1165.299017	-2.992300	3.604200	-10.784000	25.507167	0.000403	20.855585
1166.299584	-2.996500	3.604500	-10.800000	25.495909	0.000404	20.857082
1167.301765	-2.983300	3.603200	-10.747000	25.492156	0.000401	20.849521
1168.302305	-3.000500	3.603500	-10.811000	25.471131	0.000402	20.842632
1169.301854	-3.021400	3.602200	-10.883000	25.517128	0.000402	20.858476
1170.307817	-3.000200	3.603300	-10.810000	25.541655	0.000401	20.855133
1171.302902	-3.000600	3.602500	-10.808000	25.501096	0.000400	20.853283
1172.300711	-2.988900	3.602700	-10.767000	25.535067	0.000399	20.839982
1173.304171	-3.000300	3.601000	-10.803000	25.557084	0.000398	20.876316
1174.305077	-3.003900	3.602300	-10.820000	25.554474	0.000400	20.877014
1175.306630	-3.004000	3.601100	-10.817000	25.502587	0.000399	20.832021
1176.307917	-3.016900	3.599600	-10.859000	25.552832	0.000395	20.866357
1177.306489	-2.988300	3.600400	-10.759000	25.539856	0.000398	20.874661
1178.307331	-3.007700	3.601100	-10.829000	25.562247	0.000397	20.886242
1179.307535	-3.002100	3.599000	-10.803000	25.544654	0.000399	20.854352
1180.307912	-2.985200	3.599200	-10.743000	25.519236	0.000396	20.871024
1181.306461	-3.003000	3.599900	-10.809000	25.493264	0.000398	20.863434
1182.307744	-2.986000	3.599500	-10.747000	25.498779	0.000394	20.860912
1183.308257	-3.011000	3.598400	-10.834000	25.446812	0.000398	20.875108
1184.308634	-2.990500	3.599500	-10.763000	25.460484	0.000396	20.870345
1185.307902	-3.015100	3.597800	-10.847000	25.455438	0.000393	20.882821
1186.306626	-2.997600	3.598000	-10.785000	25.499078	0.000396	20.888711
1187.308455	-3.017500	3.596600	-10.852000	25.544553	0.000395	20.870844
1188.307579	-2.991900	3.597900	-10.764000	25.600014	0.000395	20.894773
1189.312300	-3.007700	3.595900	-10.815000	25.663504	0.000394	20.858969
1190.309654	-2.998800	3.597400	-10.787000	25.623397	0.000395	20.899765
1191.310049	-2.998600	3.597100	-10.786000	25.575241	0.000393	20.879852
1192.309865	-2.980300	3.597400	-10.720000	25.544056	0.000392	20.894525
1193.314048	-2.995700	3.594600	-10.768000	25.529024	0.000394	20.883224
1194.312137	-2.989500	3.594600	-10.745000	25.477386	0.000393	20.890162
1195.312257	-3.004200	3.596000	-10.802000	25.473309	0.000393	20.878482
1196.315005	-2.997600	3.594900	-10.776000	25.452213	0.000391	20.862514
1197.312296	-3.013200	3.593500	-10.827000	25.519014	0.000393	20.879335
1198.314667	-3.021100	3.592300	-10.852000	25.552533	0.000393	20.894029
1199.315496	-2.993000	3.594500	-10.757000	25.596092	0.000391	20.887515
1200.316367	-3.021500	3.592300	-10.853000	25.610453	0.000393	20.882973
1201.312876	-2.983700	3.594600	-10.725000	25.605957	0.000390	20.905482
1202.314363	-2.999500	3.592800	-10.776000	25.580509	0.000391	20.894624
1203.315401	-2.962500	3.593800	-10.645000	25.616164	0.000390	20.900087
1204.314047	-2.989700	3.591900	-10.738000	25.615643	0.000390	20.909046
1205.313661	-3.006100	3.591900	-10.797000	25.557470	0.000391	20.907521
1206.316453	-3.037600	3.590500	-10.905000	25.578290	0.000389	20.890973
1207.316609	-2.970800	3.591400	-10.669000	25.567258	0.000389	20.884636
1208.315700	-2.970100	3.592600	-10.670000	25.556297	0.000387	20.890698
1209.317724	-3.001500	3.591800	-10.780000	25.569690	0.000386	20.901776
1210.318298	-3.009800	3.590000	-10.804000	25.577639	0.000386	20.889371
1211.318052	-3.019200	3.588700	-10.834000	25.563274	0.000387	20.892489
1212.318499	-3.003100	3.589200	-10.778000	25.560145	0.000385	20.899303
1213.318107	-3.014600	3.590500	-10.823000	25.529552	0.000385	20.877590
1214.317370	-3.017000	3.588700	-10.826000	25.507509	0.000387	20.889117
1215.318649	-3.017300	3.588900	-10.828000	25.495183	0.000386	20.877215
1216.317393	-3.008700	3.588500	-10.796000	25.512033	0.000385	20.898875
1217.319379	-2.993700	3.588100	-10.741000	25.530795	0.000387	20.903018
1218.319134	-2.997300	3.586700	-10.750000	25.531141	0.000384	20.894831
1219.320147	-2.995900	3.588000	-10.749000	25.523016	0.000386	20.898999
1220.321217	-2.995200	3.587200	-10.744000	25.530098	0.000386	20.892362
1221.326414	-2.997400	3.586700	-10.750000	25.530743	0.000383	20.875941
1222.322168	-2.993500	3.586400	-10.734000	25.511508	0.000384	20.875591
1223.320998	-3.002100	3.585500	-10.763000	25.521670	0.000383	20.869675
1224.325978	-2.997000	3.586500	-10.746000	25.596693	0.000382	20.871051
1225.324619	-2.988600	3.584500	-10.712000	25.594083	0.000381	20.885024
1226.322617	-3.003400	3.585400	-10.767000	25.591349	0.000380	20.879433
1227.325049	-2.979400	3.584400	-10.679000	25.554023	0.000382	20.888888
1228.327701	-3.004600	3.584200	-10.768000	25.588664	0.000379	20.879582
1229.324801	-3.009100	3.585500	-10.788000	25.597909	0.000379	20.874643
1230.325053	-3.001700	3.585000	-10.760000	25.590929	0.000381	20.855306
1231.326687	-2.985100	3.583800	-10.697000	25.621064	0.000377	20.880354
1232.325083	-3.016800	3.582700	-10.807000	25.627377	0.000379	20.854453
1233.326456	-2.996300	3.583500	-10.737000	25.632496	0.000379	20.865758
1234.326243	-2.991600	3.582700	-10.717000	25.588886	0.000377	20.851358
1235.327025	-3.001400	3.583200	-10.754000	25.579592	0.000379	20.861463
1236.327130	-2.978900	3.583400	-10.673000	25.623202	0.000378	20.883924
1237.327817	-2.992000	3.582900	-10.719000	25.619277	0.000376	20.863862
1238.328458	-3.002000	3.580900	-10.749000	25.639152	0.000377	20.886192
1239.328592	-3.002100	3.581900	-10.752000	25.635178	0.000376	20.862287
1240.328185	-3.003300	3.580900	-10.754000	25.560037	0.000377	20.870747
1241.327553	-2.988100	3.581700	-10.702000	25.536578	0.000375	20.870422
1242.328785	-2.992300	3.581500	-10.717000	25.563814	0.000377	20.841351
1243.331974	-3.022200	3.579800	-10.818000	25.588189	0.000374	20.841649
1244.332322	-3.023500	3.579700	-10.822000	25.584609	0.000374	20.854649
1245.328452	-3.029800	3.579300	-10.844000	25.646835	0.000373	20.857401
1246.332022	-3.004800	3.579500	-10.755000	25.701393	0.000371	20.852455
1247.333121	-3.018100	3.578000	-10.797000	25.646335	0.000375	20.844571
1248.331599	-2.980700	3.580300	-10.671000	25.686907	0.000369	20.851655
1249.331305	-3.000300	3.578800	-10.736000	25.669866	0.000372	20.861091
1250.339333	-3.024200	3.577300	-10.816000	25.660026	0.000370	20.853580
1251.329646	-2.999700	3.577700	-10.731000	25.593015	0.000370	20.851237
1252.332750	-2.996100	3.577000	-10.716000	25.554199	0.000369	20.845445
1253.332886	-3.016400	3.577400	-10.789000	25.558550	0.000369	20.866409
1254.332283	-3.034400	3.574700	-10.846000	25.586384	0.000369	20.847422
1255.330750	-2.996000	3.577000	-10.716000	25.614982	0.000370	20.833945
1256.330583	-3.007900	3.575300	-10.753000	25.576765	0.000369	20.849616
1257.333872	-2.972900	3.575700	-10.629000	25.595333	0.000368	20.860202
1258.331102	-3.013300	3.574800	-10.772000	25.587205	0.000370	20.844453
1259.333327	-3.010000	3.575200	-10.761000	25.585146	0.000370	20.838593
1260.330970	-3.017900	3.575300	-10.789000	25.598937	0.000368	20.835848
1261.331848	-3.007300	3.574800	-10.750000	25.539896	0.000368	20.859055
1262.330417	-3.014200	3.574400	-10.773000	25.565916	0.000368	20.836350
1263.333489	-2.986400	3.574000	-10.672000	25.605577	0.000367	20.838249
1264.331100	-3.001500	3.573300	-10.725000	25.647869	0.000366	20.856542
1265.330508	-3.018400	3.572800	-10.784000	25.681462	0.000368	20.845712
1266.333879	-3.013000	3.572000	-10.761000	25.665090	0.000368	20.847286
1267.334957	-3.002500	3.572400	-10.725000	25.642306	0.000365	20.849533
1268.339837	-2.999900	3.572600	-10.717000	25.674834	0.000364	20.839055
1269.335348	-2.996900	3.571200	-10.701000	25.703060	0.000367	20.827103
1270.336667	-3.008100	3.571200	-10.742000	25.713668	0.000366	20.813102
1271.335242	-2.994000	3.572000	-10.693000	25.719036	0.000365	20.833666
1272.336307	-2.994600	3.571300	-10.693000	25.728752	0.000366	20.823037
1273.337010	-3.020700	3.570800	-10.785000	25.687907	0.000364	20.824211
1274.335644	-3.014900	3.570900	-10.765000	25.666266	0.000366	20.807691
1275.336821	-3.014700	3.570500	-10.763000	25.619602	0.000363	20.827205
1276.338309	-3.020200	3.569800	-10.781000	25.581015	0.000363	20.815479
1277.346668	-3.005100	3.570400	-10.729000	25.585486	0.000363	20.822340
1278.337017	-2.988300	3.569400	-10.665000	25.600372	0.000364	20.828755
1279.343651	-2.977800	3.569900	-10.630000	25.654241	0.000364	20.829752
1280.339559	-3.025200	3.568000	-10.793000	25.643260	0.000362	20.820620
1281.337605	-3.008600	3.568200	-10.735000	25.635357	0.000359	20.840183
1282.340770	-3.000800	3.568200	-10.707000	25.636675	0.000363	20.818748
1283.341546	-2.981900	3.568500	-10.640000	25.567672	0.000362	20.821519
1284.340274	-2.995800	3.567500	-10.687000	25.578482	0.000360	20.812934
1285.341540	-2.994400	3.567200	-10.680000	25.579700	0.000361	20.816529
1286.340947	-2.993900	3.566900	-10.678000	25.548935	0.000360	20.815978
1287.340563	-3.014800	3.565800	-10.750000	25.564515	0.000361	20.819297
1288.339606	-3.011200	3.566900	-10.740000	25.578954	0.000358	20.817202
1289.343792	-2.986000	3.566800	-10.649000	25.633021	0.000359	20.815079
1290.343735	-3.015300	3.564700	-10.748000	25.630639	0.000357	20.810790
1291.341125	-3.025300	3.565900	-10.787000	25.604547	0.000358	20.800231
1292.343791	-2.983200	3.564100	-10.630000	25.573313	0.000358	20.827183
1293.339787	-2.979900	3.565800	-10.625000	25.543843	0.000358	20.822718
1294.341714	-2.985200	3.564400	-10.640000	25.519362	0.000358	20.805246
1295.341875	-3.013300	3.563500	-10.737000	25.527466	0.000357	20.822392
1296.342250	-3.015500	3.563400	-10.745000	25.518721	0.000356	20.808868
1297.341824	-3.009700	3.564200	-10.726000	25.512953	0.000356	20.804973
1298.344749	-2.996100	3.562800	-10.673000	25.554875	0.000356	20.797287
1299.345298	-2.986200	3.563200	-10.640000	25.566481	0.000354	20.798512
1300.343446	-2.980700	3.562100	-10.617000	25.588051	0.000354	20.799785
1301.345755	-2.997600	3.563900	-10.682000	25.586363	0.000354	20.815634
1302.349241	-2.992000	3.562200	-10.658000	25.628554	0.000355	20.802531
1303.344670	-3.005600	3.561000	-10.701000	25.649921	0.000353	20.800758
1304.345158	-3.009200	3.561800	-10.717000	25.658718	0.000351	20.798214
1305.343946	-3.009600	3.561100	-10.716000	25.703890	0.000353	20.801384
1306.346698	-3.010700	3.560100	-10.717000	25.699913	0.000354	20.802605
1307.345381	-2.995600	3.559300	-10.661000	25.698648	0.000353	20.814611
1308.344980	-2.978700	3.560000	-10.604000	25.704936	0.000350	20.809073
1309.352040	-3.009200	3.559200	-10.709000	25.696337	0.000352	20.800910
1310.344655	-3.004600	3.558500	-10.691000	25.649153	0.000351	20.786710
1311.346072	-3.010200	3.558700	-10.711000	25.644534	0.000349	20.789658
1312.350132	-3.004500	3.557700	-10.688000	25.595808	0.000351	20.777230
1313.348131	-2.988100	3.559200	-10.635000	25.570437	0.000350	20.800588
1314.349402	-2.973600	3.559000	-10.582000	25.606614	0.000350	20.795196
1315.354090	-2.993900	3.557800	-10.651000	25.653257	0.000352	20.796522
1316.350549	-3.037800	3.557100	-10.805000	25.675769	0.000350	20.790209
1317.352497	-2.990900	3.558600	-10.643000	25.699049	0.000349	20.794626
1318.353705	-2.996200	3.556900	-10.656000	25.717164	0.000349	20.784845
1319.351443	-3.015500	3.557200	-10.726000	25.702999	0.000349	20.800015
1320.350727	-3.004900	3.555000	-10.681000	25.742800	0.000348	20.813914
1321.352645	-3.019700	3.556300	-10.737000	25.749588	0.000349	20.779006
1322.351362	-3.012700	3.555300	-10.710000	25.705757	0.000347	20.796621
1323.352253	-3.000700	3.554100	-10.663000	25.711122	0.000349	20.787312
1324.352025	-3.009800	3.553700	-10.695000	25.708195	0.000349	20.777733
1325.352556	-2.978700	3.556200	-10.592000	25.673631	0.000347	20.798019
1326.353711	-2.988700	3.554000	-10.621000	25.639461	0.000347	20.775554
1327.352596	-3.006600	3.553600	-10.682000	25.607858	0.000346	20.782694
1328.352095	-3.002700	3.552900	-10.667000	25.579904	0.000347	20.792078
1329.353043	-2.984300	3.554200	-10.606000	25.575902	0.000348	20.778575
1330.354090	-2.992600	3.553300	-10.633000	25.575127	0.000347	20.786806
1331.355082	-3.001300	3.553500	-10.664000	25.595749	0.000346	20.796612
1332.354383	-2.999600	3.552500	-10.655000	25.637841	0.000345	20.770133
1333.355989	-2.987100	3.552300	-10.610000	25.690542	0.000347	20.794142
1334.357171	-2.997800	3.551500	-10.646000	25.623650	0.000344	20.810409
1335.357712	-2.992000	3.552300	-10.627000	25.597956	0.000344	20.783654
1336.356970	-3.010600	3.550100	-10.687000	25.608666	0.000344	20.766436
1337.357282	-2.992200	3.551300	-10.626000	25.638156	0.000344	20.786571
1338.357428	-2.989300	3.550300	-10.612000	25.680986	0.000343	20.782647
1339.364512	-2.988300	3.550000	-10.608000	25.718925	0.000344	20.769070
1340.358168	-2.972400	3.550600	-10.552000	25.758800	0.000345	20.789682
1341.357551	-2.973600	3.550200	-10.555000	25.749257	0.000342	20.790054
1342.358334	-2.994600	3.549100	-10.627000	25.737773	0.000342	20.790373
1343.358325	-3.007100	3.549200	-10.672000	25.743139	0.000342	20.789598
1344.359348	-2.996400	3.550300	-10.637000	25.711557	0.000341	20.781110
1345.363938	-2.985800	3.548500	-10.594000	25.725719	0.000342	20.800076
1346.359958	-2.999500	3.549200	-10.645000	25.721118	0.000343	20.779334
1347.361863	-3.011900	3.547100	-10.683000	25.689163	0.000338	20.776160
1348.360311	-2.988900	3.548300	-10.604000	25.663124	0.000340	20.775138
1349.363615	-3.016100	3.546300	-10.695000	25.635986	0.000338	20.787711
1350.362962	-2.999200	3.545700	-10.634000	25.649899	0.000339	20.781296
1351.363261	-3.009600	3.545400	-10.669000	25.689647	0.000338	20.776647
1352.366077	-3.000800	3.544700	-10.636000	25.674738	0.000339	20.784432
1353.363502	-2.990100	3.544700	-10.599000	25.678283	0.000339	20.784199
1354.366840	-2.990100	3.544500	-10.598000	25.657536	0.000338	20.787069
1355.365019	-3.029100	3.543800	-10.733000	25.663868	0.000339	20.799592
1356.364493	-3.022600	3.544600	-10.713000	25.676589	0.000336	20.794352
1357.364317	-3.008000	3.542700	-10.656000	25.644607	0.000336	20.779774
1358.365827	-2.992100	3.544200	-10.603000	25.655092	0.000336	20.770390
1359.364865	-3.012900	3.543300	-10.674000	25.670073	0.000336	20.777849
1360.368427	-3.004600	3.544000	-10.647000	25.650711	0.000335	20.773576
1361.364855	-3.017500	3.543600	-10.692000	25.643355	0.000334	20.785154
1362.365138	-2.984900	3.543400	-10.576000	25.656101	0.000332	20.787999
1363.366968	-3.001200	3.543300	-10.634000	25.653192	0.000331	20.758049
1364.367231	-3.012500	3.542200	-10.670000	25.637066	0.000335	20.786425
1365.365569	-3.004800	3.542500	-10.644000	25.698435	0.000334	20.795905
1366.367126	-2.997200	3.543600	-10.620000	25.709761	0.000332	20.781677
1367.366838	-3.009900	3.542000	-10.659000	25.675226	0.000331	20.788241
1368.367511	-3.008800	3.540500	-10.651000	25.674828	0.000331	20.766978
1369.368342	-2.982000	3.541200	-10.559000	25.642948	0.000332	20.796125
1370.369588	-2.991000	3.540400	-10.589000	25.603815	0.000329	20.796178
1371.369287	-2.986700	3.539700	-10.570000	25.594071	0.000328	20.789710
1372.372894	-3.014200	3.539100	-10.667000	25.611962	0.000329	20.770220
1373.374025	-3.017500	3.539500	-10.679000	25.635891	0.000331	20.771493
1374.372950	-3.006500	3.538300	-10.637000	25.689262	0.000326	20.781001
1375.370119	-2.994900	3.537400	-10.593000	25.651023	0.000327	20.771518
1376.373818	-2.985600	3.539100	-10.566000	25.657533	0.000327	20.784696
1377.373020	-3.003300	3.537000	-10.621000	25.703769	0.000327	20.775659
1378.370286	-2.968600	3.538600	-10.503000	25.722458	0.000326	20.791585
1379.375570	-3.005200	3.535900	-10.625000	25.682875	0.000326	20.773638
1380.373487	-2.996800	3.537200	-10.599000	25.711276	0.000325	20.764706
1381.371611	-3.006800	3.537000	-10.635000	25.691499	0.000326	20.768075
1382.372583	-3.004200	3.537700	-10.627000	25.700665	0.000326	20.770170
1383.374709	-2.996900	3.535600	-10.595000	25.701341	0.000325	20.781754
1384.373909	-3.005900	3.535800	-10.627000	25.696744	0.000324	20.777611
1385.372651	-3.002500	3.535400	-10.613000	25.672520	0.000325	20.767979
1386.377362	-3.022900	3.533600	-10.681000	25.619349	0.000322	20.787596
1387.373180	-2.965100	3.536100	-10.483000	25.634928	0.000323	20.763414
1388.374101	-3.014200	3.533400	-10.649000	25.666089	0.000321	20.778116
1389.372751	-3.011700	3.533700	-10.641000	25.657419	0.000324	20.757079
1390.376056	-2.996900	3.533000	-10.586000	25.672550	0.000324	20.759949
1391.373626	-3.020300	3.532500	-10.668000	25.690215	0.000323	20.756828
1392.377025	-3.003000	3.533400	-10.610000	25.726493	0.000321	20.734471
1393.377876	-2.979100	3.533100	-10.525000	25.742423	0.000323	20.765171
1394.375361	-2.978900	3.531800	-10.521000	25.735240	0.000321	20.760801
1395.378132	-2.996400	3.531500	-10.581000	25.726172	0.000321	20.764970
1396.376630	-2.992900	3.531800	-10.569000	25.754971	0.000320	20.762128
1397.376398	-2.973600	3.533300	-10.506000	25.757680	0.000323	20.754891
1398.376679	-2.967800	3.531600	-10.480000	25.718079	0.000321	20.756840
1399.377839	-2.993000	3.530400	-10.565000	25.705880	0.000318	20.739845
1400.379897	-3.002800	3.529500	-10.597000	25.685010	0.000318	20.756816
1401.377747	-2.994200	3.530300	-10.570000	25.665756	0.000319	20.747435
1402.377227	-3.009900	3.529800	-10.624000	25.702183	0.000318	20.741348
1403.381269	-3.014200	3.527700	-10.632000	25.715105	0.000317	20.755750
1404.378104	-2.990500	3.529300	-10.553000	25.746486	0.000318	20.776839
1405.378938	-3.041400	3.527700	-10.728000	25.686015	0.000318	20.762568
1406.382279	-2.986900	3.529600	-10.541000	25.694463	0.000317	20.751612
1407.379521	-2.957900	3.529000	-10.437000	25.689595	0.000318	20.777543
1408.379494	-3.012500	3.526200	-10.622000	25.727536	0.000318	20.773452
1409.384458	-3.006300	3.526700	-10.601000	25.701449	0.000315	20.753413
1410.381339	-3.008600	3.526500	-10.609000	25.711788	0.000316	20.750521
1411.383881	-2.992300	3.527000	-10.552000	25.728684	0.000317	20.751845
1412.385660	-2.990700	3.526800	-10.547000	25.636832	0.000317	20.763903
1413.380797	-2.980400	3.526800	-10.510000	25.613698	0.000314	20.767223
1414.383389	-3.019000	3.525300	-10.642000	25.634897	0.000317	20.748209
1415.386678	-2.989800	3.525600	-10.540000	25.626698	0.000316	20.742820
1416.385712	-2.998600	3.524300	-10.567000	25.625955	0.000315	20.751556
1417.384407	-3.028600	3.523600	-10.670000	25.602871	0.000313	20.742597
1418.384279	-3.002000	3.524300	-10.579000	25.637011	0.000316	20.748436
1419.384757	-3.013400	3.522000	-10.612000	25.671927	0.000315	20.767858
1420.384919	-2.975200	3.523500	-10.482000	25.682038	0.000315	20.768530
1421.383652	-3.049500	3.522100	-10.739000	25.666759	0.000314	20.732794
1422.384113	-3.011800	3.522600	-10.608000	25.653941	0.000314	20.754535
1423.384184	-3.012500	3.521500	-10.608000	25.666938	0.000315	20.767114
1424.385170	-2.992800	3.523200	-10.543000	25.706515	0.000313	20.760398
1425.386214	-2.983800	3.522700	-10.510000	25.674917	0.000313	20.743359
1426.390093	-2.969300	3.522900	-10.459000	25.636255	0.000313	20.740564
1427.385943	-2.984700	3.520800	-10.508000	25.640158	0.000313	20.750174
1428.388550	-2.990800	3.520200	-10.527000	25.684158	0.000312	20.753590
1429.386452	-2.990100	3.519200	-10.521000	25.663439	0.000309	20.755065
1430.385142	-3.009300	3.519400	-10.589000	25.696509	0.000311	20.757460
1431.385991	-3.005900	3.521000	-10.582000	25.713408	0.000312	20.750252
1432.384253	-3.024300	3.518500	-10.640000	25.768290	0.000310	20.741841
1433.386299	-2.972100	3.520200	-10.461000	25.727916	0.000309	20.766721
1434.389555	-2.979200	3.518400	-10.480000	25.697382	0.000308	20.754544
1435.388532	-2.991100	3.518400	-10.523000	25.697932	0.000310	20.763157
1436.387792	-2.984000	3.519000	-10.500000	25.719446	0.000309	20.754894
1437.391188	-3.006200	3.516800	-10.571000	25.737684	0.000310	20.749505
1438.389142	-2.978000	3.517800	-10.475000	25.762505	0.000310	20.750729
1439.389459	-2.994800	3.518100	-10.535000	25.774976	0.000308	20.743341
1440.389530	-3.000400	3.517300	-10.552000	25.736218	0.000308	20.747085
1441.389244	-2.982500	3.516400	-10.487000	25.670875	0.000308	20.748309
1442.392007	-2.968800	3.516900	-10.439000	25.652072	0.000309	20.723732
1443.391729	-2.967400	3.516100	-10.433000	25.666975	0.000307	20.772842
1444.394000	-3.004600	3.515200	-10.560000	25.695204	0.000306	20.759469
1445.392683	-2.995700	3.515900	-10.532000	25.750636	0.000307	20.746868
1446.389311	-2.974900	3.514900	-10.456000	25.717814	0.000304	20.757523
1447.388892	-2.977600	3.515600	-10.467000	25.671029	0.000304	20.757473
1448.392313	-2.997600	3.513800	-10.532000	25.676793	0.000304	20.760891
1449.392402	-2.990300	3.514400	-10.508000	25.673890	0.000304	20.766984
1450.389864	-2.986000	3.514500	-10.494000	25.682187	0.000303	20.755877
1451.388814	-3.029300	3.512000	-10.637000	25.600566	0.000304	20.741705
1452.391790	-2.988700	3.512400	-10.496000	25.572859	0.000301	20.768407
1453.390839	-2.986100	3.511800	-10.485000	25.603899	0.000304	20.739362
1454.391302	-2.981200	3.512500	-10.471000	25.588890	0.000302	20.768385
1455.392644	-2.982500	3.513000	-10.477000	25.594855	0.000303	20.759677
1456.393241	-2.976400	3.512100	-10.452000	25.622064	0.000302	20.774202
1457.392448	-2.981700	3.511700	-10.470000	25.606657	0.000301	20.769160
1458.393045	-2.997900	3.510400	-10.523000	25.598061	0.000301	20.775699
1459.393333	-3.020700	3.510400	-10.603000	25.588621	0.000302	20.750572
1460.393279	-2.995100	3.510000	-10.512000	25.577763	0.000301	20.765271
1461.396471	-3.012900	3.509600	-10.574000	25.613517	0.000303	20.765144
1462.395204	-3.028900	3.509600	-10.629000	25.658768	0.000301	20.772659
1463.394818	-3.017500	3.509600	-10.589000	25.698990	0.000300	20.747150
1464.395718	-2.989900	3.508900	-10.491000	25.676112	0.000302	20.755465
1465.395266	-3.022800	3.507200	-10.601000	25.691070	0.000304	20.769067
1466.396782	-2.985000	3.507600	-10.469000	25.728885	0.000304	20.755366
1467.399323	-3.014000	3.507200	-10.568000	25.734769	0.000299	20.747999
1468.398338	-2.999700	3.506600	-10.518000	25.736882	0.000300	20.744432
1469.398358	-3.011200	3.506800	-10.559000	25.747764	0.000300	20.762950
1470.397697	-3.012300	3.506600	-10.562000	25.745975	0.000299	20.777274
1471.402262	-3.006300	3.505200	-10.537000	25.737900	0.000299	20.776276
1472.398953	-2.987700	3.505600	-10.472000	25.723066	0.000300	20.785557
1473.399411	-2.985900	3.506300	-10.469000	25.673375	0.000300	20.760303
1474.400344	-2.991500	3.506900	-10.490000	25.643756	0.000299	20.746202
1475.398815	-2.996100	3.504000	-10.497000	25.670268	0.000298	20.743905
1476.400664	-2.996600	3.504700	-10.502000	25.682789	0.000298	20.783035
1477.400706	-2.987500	3.506000	-10.473000	25.652600	0.000297	20.763619
1478.398988	-2.996500	3.503600	-10.497000	25.635579	0.000297	20.769284
1479.399074	-3.007900	3.503800	-10.538000	25.660249	0.000297	20.749490
1480.398374	-3.011000	3.502400	-10.544000	25.701344	0.000297	20.766585
1481.400025	-3.008000	3.502500	-10.535000	25.692276	0.000295	20.752735
1482.400983	-3.002600	3.502100	-10.514000	25.700076	0.000295	20.768156
1483.401505	-2.988200	3.502700	-10.466000	25.719382	0.000294	20.769055
1484.403063	-3.013700	3.503300	-10.557000	25.721122	0.000293	20.790243
1485.404799	-3.009600	3.501300	-10.536000	25.726188	0.000294	20.772098
1486.403797	-3.014200	3.501600	-10.552000	25.709444	0.000294	20.756701
1487.404593	-2.996600	3.500600	-10.489000	25.706960	0.000294	20.792614
1488.402558	-3.013000	3.499200	-10.542000	25.670610	0.000292	20.770803
1489.403277	-2.987800	3.500600	-10.458000	25.647826	0.000291	20.774946
1490.405874	-3.004100	3.500000	-10.513000	25.639927	0.000291	20.785031
1491.408641	-3.006900	3.499700	-10.522000	25.603001	0.000291	20.791566
1492.407300	-2.972800	3.500200	-10.405000	25.620271	0.000291	20.777617
1493.407155	-2.976800	3.498800	-10.414000	25.609786	0.000291	20.779415
1494.407360	-2.982400	3.499000	-10.435000	25.613616	0.000289	20.777571
1495.408319	-3.003800	3.498200	-10.507000	25.685195	0.000291	20.777391
1496.405841	-2.987100	3.498100	-10.448000	25.701323	0.000290	20.779840
1497.406386	-2.993100	3.498200	-10.470000	25.699037	0.000291	20.761896
1498.408618	-2.984300	3.497100	-10.435000	25.680357	0.000291	20.784386
1499.408456	-3.004900	3.497100	-10.507000	25.721674	0.000289	20.771357
1500.408767	-2.991600	3.497000	-10.460000	25.668009	0.000289	20.788105
1501.408641	-3.009600	3.496200	-10.521000	25.644728	0.000291	20.782266
1502.409508	-3.012600	3.495600	-10.530000	25.652578	0.000289	20.793944
1503.413649	-3.017600	3.495900	-10.549000	25.708065	0.000288	20.786611
1504.409444	-3.001800	3.496200	-10.494000	25.706173	0.000287	20.794669
1505.409668	-3.024000	3.494000	-10.566000	25.769355	0.000290	20.797439
1506.411420	-3.004600	3.495000	-10.500000	25.818943	0.000288	20.806947
1507.410702	-3.017500	3.494900	-10.546000	25.787891	0.000287	20.804205
1508.411056	-3.014400	3.492400	-10.527000	25.784485	0.000288	20.786559
1509.410302	-3.023600	3.493700	-10.561000	25.733877	0.000287	20.787408
1510.410551	-3.016800	3.492000	-10.534000	25.742346	0.000285	20.784061
1511.411075	-3.035100	3.491800	-10.597000	25.797304	0.000286	20.795642
1512.411391	-2.968400	3.492900	-10.368000	25.833054	0.000286	20.777974
1513.410605	-2.975400	3.492100	-10.389000	25.871805	0.000288	20.797935
1514.410609	-2.937000	3.493900	-10.261000	25.871361	0.000286	20.804127
1515.415592	-2.990900	3.492400	-10.444000	25.806494	0.000289	20.780218
1516.412734	-2.991000	3.490900	-10.440000	25.745826	0.000286	20.785660
1517.411623	-2.983900	3.492800	-10.421000	25.698318	0.000283	20.798632
1518.411791	-2.989700	3.491900	-10.438000	25.712906	0.000284	20.780094
1519.412262	-3.007300	3.490100	-10.495000	25.724183	0.000286	20.784783
1520.410241	-3.020000	3.488000	-10.533000	25.705649	0.000283	20.773279
1521.411189	-2.987200	3.489300	-10.422000	25.643975	0.000284	20.794312
1522.411799	-3.002100	3.489200	-10.474000	25.652452	0.000282	20.808041
1523.413770	-2.989700	3.488500	-10.428000	25.667083	0.000282	20.807564
1524.412249	-2.997400	3.487900	-10.454000	25.698663	0.000282	20.792815
1525.412182	-2.994600	3.487700	-10.443000	25.728329	0.000281	20.797957
1526.411657	-3.014800	3.486800	-10.511000	25.723334	0.000281	20.820914
1527.411436	-3.016600	3.487800	-10.520000	25.751260	0.000281	20.811031
1528.416165	-2.999000	3.487000	-10.456000	25.780548	0.000282	20.796829
1529.412153	-2.998500	3.486300	-10.452000	25.797273	0.000280	20.799878
1530.413220	-2.976200	3.488300	-10.381000	25.765742	0.000281	20.793810
1531.413703	-2.984400	3.486700	-10.404000	25.765100	0.000279	20.808338
1532.413095	-3.010500	3.486200	-10.495000	25.813763	0.000279	20.809330
1533.412914	-2.992700	3.486000	-10.431000	25.788103	0.000280	20.818643
1534.412678	-3.022300	3.485500	-10.533000	25.778342	0.000279	20.811208
1535.414450	-3.002200	3.486100	-10.465000	25.811406	0.000278	20.792264
1536.414778	-3.005400	3.485400	-10.474000	25.757621	0.000280	20.790869
1537.416353	-2.991500	3.485700	-10.425000	25.739134	0.000278	20.804542
1538.419439	-2.969000	3.485200	-10.347000	25.709098	0.000277	20.817047
1539.415108	-2.993100	3.482300	-10.421000	25.713020	0.000276	20.821934
1540.416274	-3.009300	3.482800	-10.480000	25.753972	0.000278	20.799057
1541.415890	-2.960500	3.483600	-10.313000	25.790442	0.000276	20.812931
1542.416571	-2.997600	3.483300	-10.440000	25.739461	0.000277	20.799655
1543.418191	-2.999400	3.483500	-10.448000	25.746891	0.000275	20.804273
1544.420682	-3.004800	3.483000	-10.464000	25.786567	0.000275	20.814254
1545.418646	-2.992900	3.481900	-10.420000	25.776901	0.000275	20.817821
1546.420399	-3.033500	3.481300	-10.560000	25.724454	0.000275	20.833418
1547.423099	-3.034000	3.480200	-10.559000	25.761898	0.000275	20.817450
1548.419196	-2.999100	3.481000	-10.438000	25.790322	0.000274	20.835095
1549.420159	-3.014600	3.479700	-10.489000	25.798618	0.000274	20.829204
1550.423398	-2.989000	3.480700	-10.403000	25.812581	0.000274	20.824738
1551.421484	-2.992600	3.479200	-10.411000	25.842994	0.000272	20.847227
1552.420331	-2.982000	3.479300	-10.374000	25.813606	0.000274	20.821500
1553.422318	-2.998400	3.478900	-10.430000	25.798522	0.000273	20.803030
1554.419475	-2.967800	3.480300	-10.327000	25.796708	0.000271	20.833450
1555.421361	-3.010400	3.479200	-10.473000	25.867440	0.000270	20.815361
1556.425070	-2.993100	3.478600	-10.411000	25.875362	0.000273	20.821423
1557.420046	-2.999400	3.477400	-10.429000	25.881525	0.000271	20.811019
1558.419141	-3.001400	3.477900	-10.438000	25.872258	0.000271	20.826840
1559.423223	-2.996800	3.476800	-10.419000	25.859268	0.000270	20.812842
1560.426705	-3.017000	3.475700	-10.485000	25.846773	0.000270	20.811670
1561.423625	-3.019700	3.475300	-10.493000	25.823771	0.000267	20.831711
1562.424578	-3.019800	3.476500	-10.497000	25.754108	0.000269	20.843289
1563.425870	-3.027200	3.474700	-10.517000	25.731724	0.000268	20.835030
1564.423745	-2.987700	3.475500	-10.383000	25.778731	0.000268	20.822030
1565.424050	-3.009100	3.474900	-10.456000	25.767726	0.000268	20.830890
1566.428089	-3.012400	3.475100	-10.468000	25.746861	0.000268	20.829846
1567.425946	-3.009600	3.473200	-10.452000	25.709617	0.000267	20.827051
1568.423670	-2.998100	3.474500	-10.415000	25.704403	0.000267	20.830348
1569.433744	-3.003500	3.472600	-10.429000	25.748305	0.000267	20.839831
1570.425240	-2.987800	3.473600	-10.378000	25.797573	0.000266	20.839533
1571.425915	-2.989000	3.472600	-10.379000	25.843760	0.000269	20.810540
1572.430846	-2.996500	3.472500	-10.404000	25.838420	0.000267	20.832676
1573.426793	-3.007800	3.470700	-10.439000	25.815069	0.000265	20.837194
1574.426690	-3.020700	3.471600	-10.486000	25.783393	0.000267	20.842834
1575.431252	-3.016500	3.472000	-10.473000	25.769655	0.000265	20.819077
1576.428446	-2.988200	3.472300	-10.375000	25.802824	0.000266	20.827739
1577.428944	-3.020600	3.470900	-10.483000	25.828958	0.000265	20.834076
1578.430399	-2.997800	3.471900	-10.407000	25.815029	0.000267	20.848533
1579.431305	-2.990100	3.471500	-10.380000	25.843396	0.000265	20.847157
1580.429215	-2.971100	3.470500	-10.310000	25.840388	0.000266	20.855041
1581.431469	-3.001800	3.470200	-10.416000	25.865658	0.000266	20.835381
1582.430709	-2.996800	3.469300	-10.396000	25.885531	0.000265	20.835905
1583.430643	-3.020900	3.468400	-10.477000	25.898321	0.000266	20.838796
1584.430445	-3.007600	3.469800	-10.435000	25.851050	0.000264	20.836829
1585.431066	-3.014600	3.467800	-10.453000	25.883192	0.000264	20.840194
1586.437219	-2.998900	3.468500	-10.401000	25.883640	0.000264	20.845859
1587.430717	-3.001400	3.467400	-10.406000	25.856211	0.000267	20.848177
1588.431161	-2.988900	3.468000	-10.364000	25.856038	0.000262	20.853219
1589.429497	-3.025300	3.466600	-10.487000	25.884954	0.000263	20.855713
1590.431270	-3.016900	3.466600	-10.458000	25.876853	0.000263	20.840937
1591.432082	-3.022000	3.466000	-10.474000	25.833724	0.000261	20.851192
1592.430572	-3.026700	3.466000	-10.489000	25.840082	0.000263	20.845725
1593.430073	-2.989500	3.465700	-10.360000	25.805202	0.000263	20.837714
1594.431426	-2.981600	3.466400	-10.335000	25.768060	0.000264	20.848768
1595.430478	-2.977800	3.464900	-10.317000	25.775757	0.000262	20.863138
1596.431028	-2.970700	3.465500	-10.295000	25.824253	0.000259	20.858747
1597.429925	-2.992400	3.464100	-10.365000	25.833193	0.000261	20.851132
1598.430739	-2.994400	3.464100	-10.371000	25.835427	0.000260	20.859066
1599.430743	-3.003700	3.463400	-10.402000	25.825169	0.000259	20.855400
1600.432786	-2.972800	3.465300	-10.300000	25.865663	0.000259	20.879481
1601.431982	-2.994200	3.463300	-10.369000	25.905008	0.000260	20.848833
1602.432510	-2.996900	3.462900	-10.377000	25.919365	0.000258	20.872738
1603.432930	-2.974100	3.463300	-10.299000	25.922841	0.000258	20.857265
1604.436286	-3.006700	3.461200	-10.406000	25.896410	0.000258	20.867696
1605.432649	-2.993100	3.462500	-10.363000	25.896361	0.000258	20.863379
1606.434888	-2.969000	3.462400	-10.279000	25.880782	0.000259	20.879496
1607.435211	-3.012100	3.460200	-10.422000	25.887837	0.000258	20.885635
1608.433151	-2.990200	3.460800	-10.347000	25.905474	0.000254	20.876800
1609.434036	-2.987700	3.461700	-10.342000	25.950237	0.000257	20.864873
1610.436670	-2.992600	3.461500	-10.358000	25.929819	0.000256	20.867593
1611.433540	-3.011300	3.459500	-10.417000	25.883562	0.000255	20.887503
1612.436206	-2.998500	3.460300	-10.374000	25.839095	0.000254	20.877448
1613.438375	-2.991600	3.459400	-10.348000	25.841356	0.000255	20.874504
1614.437107	-3.005000	3.458500	-10.392000	25.854100	0.000257	20.865970
1615.435205	-3.008800	3.459100	-10.407000	25.831866	0.000254	20.875877
1616.441614	-3.013000	3.458600	-10.420000	25.811094	0.000251	20.858805
1617.437263	-2.991500	3.459000	-10.347000	25.860458	0.000253	20.864770
1618.439673	-2.990900	3.458100	-10.342000	25.861677	0.000253	20.895390
1619.439214	-2.999600	3.458700	-10.374000	25.881501	0.000251	20.876899
1620.441318	-3.005500	3.457100	-10.389000	25.913621	0.000252	20.880717
1621.438674	-3.011500	3.458000	-10.413000	25.899584	0.000252	20.884160
1622.442074	-3.015700	3.455600	-10.421000	25.902441	0.000250	20.882762
1623.438891	-3.023100	3.455900	-10.445000	25.891011	0.000250	20.883134
1624.439846	-2.979600	3.456900	-10.299000	25.880258	0.000250	20.892719
1625.438840	-2.997700	3.455600	-10.358000	25.877626	0.000249	20.884386
1626.440326	-3.007500	3.455900	-10.393000	25.886400	0.000250	20.899837
1627.441535	-3.007800	3.456200	-10.394000	25.919238	0.000250	20.899161
1628.439313	-3.016600	3.454800	-10.420000	25.947482	0.000249	20.882967
1629.440512	-3.003500	3.456100	-10.379000	25.972542	0.000249	20.870212
1630.440419	-3.002600	3.455900	-10.376000	25.958609	0.000250	20.911212
1631.439410	-3.040100	3.454000	-10.499000	25.899640	0.000248	20.904603
1632.441010	-3.006000	3.453300	-10.380000	25.896312	0.000248	20.878501
1633.440647	-2.992100	3.453900	-10.333000	25.929871	0.000247	20.902257
1634.443583	-2.982900	3.454700	-10.305000	25.927314	0.000247	20.888309
1635.441863	-3.005700	3.452400	-10.376000	25.919118	0.000246	20.884817
1636.442263	-3.016200	3.451600	-10.409000	25.928582	0.000249	20.875833
1637.442674	-3.020500	3.451600	-10.424000	25.927663	0.000246	20.897193
1638.442277	-3.003600	3.451500	-10.366000	25.899101	0.000246	20.877984
1639.444530	-2.976200	3.452000	-10.273000	25.959368	0.000246	20.887321
1640.447685	-2.991900	3.451400	-10.325000	25.961080	0.000246	20.889989
1641.445516	-2.992500	3.451900	-10.329000	25.941184	0.000246	20.897026
1642.446761	-2.991100	3.450300	-10.319000	25.862341	0.000246	20.903168
1643.446919	-3.018200	3.449700	-10.411000	25.850069	0.000245	20.900798
1644.446437	-2.992700	3.448700	-10.320000	25.889368	0.000244	20.872000
1645.450248	-2.979600	3.450000	-10.278000	25.875687	0.000245	20.879593
1646.446565	-2.979300	3.450400	-10.279000	25.871340	0.000245	20.894665
1647.446725	-2.995500	3.447700	-10.326000	25.945367	0.000244	20.869937
1648.451273	-2.954800	3.449900	-10.193000	25.944849	0.000243	20.879847
1649.450099	-2.992700	3.447900	-10.318000	25.912631	0.000243	20.864077
1650.447346	-2.986300	3.448100	-10.296000	25.943208	0.000243	20.867768
1651.451093	-2.983200	3.450200	-10.292000	25.958088	0.000244	20.876553
1652.452083	-3.011200	3.446100	-10.376000	25.955707	0.000243	20.859937
1653.448818	-2.990300	3.447300	-10.307000	25.923268	0.000241	20.870021
1654.450453	-2.984400	3.447100	-10.287000	25.876791	0.000240	20.877858
1655.454186	-3.000400	3.446900	-10.341000	25.856671	0.000241	20.852906
1656.448147	-3.006100	3.445200	-10.354000	25.902106	0.000242	20.849237
1657.453941	-3.000100	3.446600	-10.339000	25.894505	0.000239	20.878109
1658.451290	-2.991100	3.446100	-10.307000	25.852948	0.000242	20.864338
1659.448653	-3.010600	3.445100	-10.371000	25.855209	0.000239	20.863291
1660.450862	-3.014700	3.445300	-10.386000	25.910513	0.000238	20.867639
1661.456509	-2.992000	3.445500	-10.308000	25.924447	0.000239	20.855085
1662.450588	-2.983500	3.444400	-10.276000	25.924573	0.000241	20.852841
1663.453417	-2.993100	3.443100	-10.305000	25.928328	0.000239	20.872733
1664.451295	-2.991900	3.443300	-10.301000	25.937172	0.000237	20.870239
1665.450662	-3.004900	3.443900	-10.347000	25.937771	0.000237	20.865625
1666.452215	-2.967500	3.443200	-10.216000	25.933625	0.000236	20.876158
1667.451388	-2.998300	3.443000	-10.322000	25.853387	0.000236	20.851503
1668.451649	-2.991900	3.443300	-10.301000	25.825640	0.000236	20.868200
1669.454047	-3.000100	3.441700	-10.324000	25.866881	0.000237	20.857472
1670.451154	-3.005000	3.441000	-10.340000	25.919077	0.000237	20.870553
1671.451277	-3.010200	3.442800	-10.363000	25.935896	0.000236	20.842405
1672.454555	-3.001200	3.441900	-10.329000	25.907926	0.000235	20.830902
1673.453022	-2.996900	3.440500	-10.310000	25.910141	0.000237	20.845455
1674.452206	-3.011600	3.440400	-10.360000	25.974828	0.000237	20.866345
1675.454064	-2.987300	3.439200	-10.273000	25.999345	0.000236	20.849726
1676.452797	-2.981400	3.440700	-10.257000	25.986856	0.000233	20.849032
1677.453043	-2.991300	3.440900	-10.292000	25.954914	0.000236	20.851554
1678.454193	-2.978600	3.439800	-10.245000	25.919044	0.000234	20.838753
1679.456265	-3.017200	3.437300	-10.370000	25.922052	0.000234	20.845093
1680.452927	-3.010800	3.437600	-10.349000	25.945009	0.000235	20.841604
1681.453046	-2.993200	3.437800	-10.289000	25.962775	0.000235	20.852339
1682.457945	-2.988400	3.437000	-10.271000	25.955797	0.000233	20.848174
1683.455584	-2.991200	3.437200	-10.280000	25.939106	0.000235	20.835199
1684.455748	-2.977000	3.438100	-10.235000	25.925221	0.000234	20.835001
1685.460920	-3.031100	3.435300	-10.412000	25.865853	0.000232	20.837000
1686.456878	-2.987900	3.437300	-10.269000	25.856367	0.000234	20.840273
1687.455345	-3.006600	3.436500	-10.331000	25.857934	0.000233	20.831890
1688.457087	-2.996400	3.435100	-10.292000	25.903894	0.000233	20.830645
1689.457568	-2.976100	3.435700	-10.224000	25.912565	0.000231	20.826554
1690.459517	-3.008400	3.436000	-10.337000	25.905264	0.000233	20.841978
1691.462056	-2.987400	3.436000	-10.264000	25.900674	0.000233	20.841634
1692.459862	-3.005600	3.435100	-10.323000	25.865972	0.000231	20.848024
1693.460855	-2.981800	3.436000	-10.244000	25.840561	0.000232	20.826766
1694.461359	-3.021100	3.433100	-10.371000	25.833459	0.000229	20.843339
1695.459693	-3.015300	3.433600	-10.352000	25.883738	0.000230	20.821777
1696.460402	-2.986600	3.435100	-10.259000	25.939312	0.000231	20.832087
1697.461845	-2.992400	3.433500	-10.274000	25.945247	0.000231	20.843739
1698.461943	-2.979000	3.432700	-10.225000	25.932408	0.000230	20.821833
1699.464148	-3.003400	3.433000	-10.310000	25.891747	0.000228	20.823659
1700.466692	-2.998900	3.431800	-10.290000	25.904861	0.000229	20.828772
1701.463120	-2.988000	3.431300	-10.252000	25.869018	0.000228	20.811731
1702.465646	-2.964900	3.433300	-10.178000	25.803535	0.000228	20.829875
1703.466423	-3.010200	3.431000	-10.327000	25.819661	0.000228	20.816203
1704.464779	-3.007800	3.431600	-10.321000	25.845798	0.000227	20.832501
1705.464901	-3.034800	3.428400	-10.403000	25.871015	0.000227	20.819900
1706.464100	-3.007000	3.431300	-10.317000	25.912874	0.000226	20.819278
1707.464756	-2.994500	3.429700	-10.269000	25.932327	0.000227	20.852570
1708.464844	-2.997300	3.428900	-10.276000	25.917899	0.000227	20.821008
1709.464810	-3.004600	3.430200	-10.306000	25.915462	0.000226	20.822826
1710.464695	-2.994000	3.428900	-10.265000	25.887298	0.000226	20.815396
1711.465104	-2.975100	3.429500	-10.202000	25.900366	0.000227	20.818092
1712.465144	-3.001700	3.428500	-10.291000	25.939990	0.000223	20.847467
1713.465997	-3.012700	3.427000	-10.323000	25.967093	0.000225	20.826333
1714.466670	-2.995700	3.427800	-10.268000	25.934753	0.000225	20.812809
1715.465110	-3.002700	3.426800	-10.289000	25.940768	0.000223	20.819800
1716.466437	-3.005900	3.427000	-10.300000	25.999791	0.000223	20.823622
1717.467970	-3.008800	3.426600	-10.309000	26.032432	0.000223	20.819906
1718.465389	-2.993000	3.427000	-10.255000	26.038739	0.000223	20.816761
1719.466014	-3.005800	3.426500	-10.298000	26.045177	0.000223	20.817539
1720.467262	-2.994700	3.426200	-10.260000	26.071182	0.000223	20.814270
1721.466412	-3.003300	3.425000	-10.286000	25.987083	0.000223	20.801372
1722.468985	-2.999400	3.425100	-10.272000	25.951715	0.000220	20.809935
1723.471939	-3.018200	3.424000	-10.333000	25.973379	0.000220	20.803725
1724.468785	-2.990500	3.425400	-10.243000	25.972340	0.000220	20.803629
1725.467910	-2.994200	3.423800	-10.250000	25.935478	0.000223	20.815908
1726.467821	-2.975300	3.424600	-10.188000	25.909568	0.000221	20.823543
1727.468565	-2.975600	3.423500	-10.186000	25.918990	0.000222	20.792706
1728.470297	-2.968100	3.423400	-10.161000	25.925425	0.000219	20.802016
1729.468591	-3.003600	3.423200	-10.281000	25.907194	0.000221	20.811201
1730.470655	-3.012900	3.421200	-10.306000	25.892961	0.000221	20.821558
1731.469762	-3.012100	3.420900	-10.303000	25.947389	0.000219	20.813650
1732.468942	-2.996600	3.421500	-10.252000	25.915897	0.000218	20.818048
1733.468413	-2.979700	3.421700	-10.194000	25.871231	0.000218	20.804945
1734.469145	-3.008900	3.420000	-10.290000	25.879931	0.000218	20.807047
1735.473875	-3.012900	3.420800	-10.305000	25.923678	0.000217	20.810217
1736.470722	-3.018200	3.421500	-10.326000	25.924322	0.000219	20.815607
1737.469815	-3.015600	3.421000	-10.316000	25.910790	0.000215	20.789684
1738.470510	-3.021000	3.419300	-10.329000	25.915809	0.000218	20.789985
1739.472710	-2.993500	3.419000	-10.233000	25.898596	0.000218	20.788339
1740.470571	-2.998800	3.419000	-10.252000	25.889854	0.000217	20.791885
1741.471660	-2.992800	3.419100	-10.232000	25.906799	0.000218	20.805115
1742.471885	-2.995700	3.418000	-10.239000	25.933381	0.000215	20.799103
1743.476489	-3.001100	3.418100	-10.257000	26.022682	0.000216	20.807740
1744.472015	-2.989600	3.419000	-10.220000	26.059792	0.000215	20.805670
1745.474232	-2.984200	3.418000	-10.199000	26.027704	0.000215	20.796191
1746.474487	-2.993700	3.417600	-10.230000	25.985705	0.000215	20.794298
1747.472905	-3.013600	3.417900	-10.300000	25.955722	0.000212	20.779822
1748.479484	-2.962300	3.418300	-10.125000	25.937865	0.000215	20.807401
1749.477458	-3.002400	3.417100	-10.258000	25.972396	0.000213	20.786616
1750.473509	-3.014200	3.416700	-10.298000	25.942687	0.000214	20.787115
1751.478015	-2.985500	3.417600	-10.202000	25.948456	0.000214	20.809506
1752.476218	-3.008100	3.416100	-10.274000	25.916288	0.000214	20.803742
1753.478151	-3.011300	3.415500	-10.284000	25.892594	0.000215	20.802224
1754.477613	-3.000600	3.414300	-10.244000	25.842763	0.000214	20.798633
1755.476533	-2.999300	3.414000	-10.239000	25.866169	0.000212	20.798438
1756.480546	-2.979700	3.414400	-10.173000	25.877719	0.000211	20.791549
1757.476386	-3.005100	3.412600	-10.254000	25.838694	0.000210	20.770838
1758.475721	-2.998100	3.414000	-10.235000	25.833506	0.000212	20.782695
1759.474978	-2.985300	3.414300	-10.192000	25.853432	0.000212	20.792281
1760.477244	-2.997400	3.412700	-10.229000	25.877032	0.000209	20.788962
1761.479287	-2.971800	3.412500	-10.141000	25.936284	0.000213	20.783527
1762.476262	-2.985800	3.412200	-10.188000	25.932311	0.000211	20.780010
1763.482739	-2.989300	3.412200	-10.200000	25.953750	0.000209	20.777841
1764.480691	-3.004000	3.411600	-10.247000	25.926105	0.000208	20.785629
1765.478104	-3.004600	3.412100	-10.251000	25.960537	0.000210	20.764745
1766.480160	-3.019000	3.409900	-10.294000	25.968761	0.000210	20.782965
1767.480563	-3.013700	3.411400	-10.280000	25.994074	0.000210	20.784214
1768.479259	-2.992300	3.411000	-10.206000	26.009299	0.000209	20.768690
1769.482206	-3.012300	3.409600	-10.269000	26.021897	0.000208	20.778977
1770.481682	-2.997500	3.409900	-10.220000	26.004161	0.000209	20.766372
1771.478775	-2.999000	3.408600	-10.222000	26.030265	0.000208	20.759883
1772.485688	-2.972700	3.411300	-10.140000	26.047131	0.000207	20.789157
1773.486609	-3.019300	3.407800	-10.288000	25.985283	0.000207	20.773485
1774.479174	-2.999500	3.409100	-10.225000	25.959153	0.000207	20.765251
1775.483453	-3.029200	3.407100	-10.320000	25.935756	0.000206	20.773513
1776.483080	-3.022000	3.408000	-10.298000	25.933442	0.000206	20.784939
1777.479846	-3.017400	3.407900	-10.282000	25.924774	0.000206	20.759635
1778.484107	-3.013900	3.406200	-10.265000	25.936347	0.000207	20.796867
1779.482878	-3.010000	3.407300	-10.255000	25.967124	0.000204	20.775155
1780.482346	-2.987900	3.407000	-10.178000	25.993725	0.000206	20.772483
1781.484356	-3.015400	3.405100	-10.267000	26.029223	0.000208	20.778750
1782.485626	-2.995100	3.406500	-10.202000	25.997624	0.000205	20.778297
1783.484352	-2.990400	3.405000	-10.181000	26.014462	0.000207	20.755385
1784.487965	-2.989800	3.407300	-10.186000	26.059496	0.000205	20.756061
1785.485852	-2.986100	3.404900	-10.167000	26.029494	0.000205	20.771436
1786.488888	-2.985200	3.405100	-10.164000	26.039947	0.000202	20.768188
1787.486607	-2.988100	3.405500	-10.175000	26.067991	0.000205	20.777398
1788.487515	-3.009900	3.404900	-10.248000	26.092928	0.000204	20.748400
1789.486766	-3.019700	3.402700	-10.274000	26.107380	0.000204	20.772880
1790.488294	-3.014500	3.404300	-10.261000	26.085328	0.000205	20.759256
1791.489465	-2.996500	3.404400	-10.201000	26.104179	0.000201	20.776776
1792.486522	-2.984500	3.401900	-10.152000	26.062923	0.000199	20.760927
1793.487450	-2.999700	3.401700	-10.203000	26.011184	0.000201	20.754936
1794.487912	-2.990000	3.402700	-10.172000	25.985283	0.000200	20.781546
1795.486893	-2.985900	3.402600	-10.159000	25.933343	0.000201	20.763503
1796.487001	-2.995900	3.402900	-10.193000	25.955353	0.000200	20.760958
1797.488093	-2.989400	3.401100	-10.166000	25.980067	0.000199	20.772038
1798.491585	-3.001600	3.401500	-10.209000	25.981582	0.000201	20.763602
1799.489102	-2.976900	3.401700	-10.126000	26.002375	0.000199	20.769320
1800.490816	-3.011900	3.400200	-10.240000	25.989858	0.000199	20.755796
1801.489471	-2.984000	3.400100	-10.145000	25.959727	0.000197	20.783372
1802.491723	-2.980100	3.401400	-10.136000	25.970632	0.000198	20.757816
1803.489888	-2.993500	3.399000	-10.174000	25.918367	0.000198	20.765053
1804.490231	-3.014800	3.399200	-10.246000	25.914274	0.000197	20.748138
1805.489680	-2.987900	3.398500	-10.153000	25.973967	0.000197	20.766857
1806.491158	-2.962200	3.400300	-10.070000	26.006236	0.000197	20.759922
1807.488604	-2.980700	3.399800	-10.133000	26.020242	0.000197	20.761666
1808.489693	-2.981700	3.398500	-10.133000	26.046300	0.000196	20.749915
1809.494964	-3.027400	3.397600	-10.285000	26.021514	0.000195	20.750616
1810.490293	-2.995800	3.396200	-10.173000	26.000157	0.000195	20.761401
1811.489374	-2.999500	3.397000	-10.188000	25.985453	0.000194	20.752318
1812.493009	-2.987600	3.396200	-10.146000	25.978944	0.000194	20.772332
1813.490383	-3.019600	3.395900	-10.254000	25.999016	0.000194	20.738443
1814.490651	-2.987000	3.395600	-10.141000	26.014343	0.000196	20.739144
1815.492539	-2.979900	3.396900	-10.121000	26.010001	0.000193	20.752325
1816.489278	-2.972100	3.395100	-10.090000	25.995941	0.000194	20.751950
1817.491045	-2.998500	3.395700	-10.181000	25.999150	0.000193	20.757070
1818.490754	-2.976300	3.395700	-10.105000	26.039909	0.000193	20.743019
1819.491956	-2.984700	3.394900	-10.131000	26.055937	0.000193	20.744898
1820.491423	-2.999600	3.394400	-10.181000	26.051858	0.000192	20.746016
1821.492736	-2.991900	3.394400	-10.154000	26.024663	0.000191	20.733864
1822.493205	-2.964000	3.395100	-10.062000	25.991856	0.000190	20.736465
1823.494023	-3.000300	3.393400	-10.180000	25.968484	0.000189	20.731002
1824.494985	-3.003200	3.392800	-10.189000	25.915476	0.000191	20.722792
1825.494582	-3.004200	3.392500	-10.191000	25.924218	0.000188	20.755758
1826.495511	-3.015500	3.392200	-10.228000	25.971394	0.000190	20.734399
1827.497556	-2.989300	3.392900	-10.141000	26.000707	0.000189	20.759109
1828.495647	-2.988500	3.393100	-10.139000	26.016084	0.000188	20.743263
1829.498640	-3.023400	3.391600	-10.253000	26.040550	0.000187	20.739396
1830.500497	-2.999900	3.390400	-10.170000	26.033032	0.000188	20.725202
1831.495719	-3.000000	3.391600	-10.175000	26.049943	0.000191	20.746462
1832.498348	-2.987500	3.391800	-10.132000	26.027861	0.000189	20.743242
1833.498595	-3.011400	3.390200	-10.208000	26.059110	0.000190	20.696401
1834.496571	-3.017000	3.389500	-10.226000	26.136456	0.000189	20.751834
1835.497616	-3.002700	3.390100	-10.179000	26.161043	0.000189	20.730072
1836.499780	-3.014500	3.389200	-10.216000	26.137404	0.000187	20.726232
1837.496258	-3.011800	3.388800	-10.206000	26.099931	0.000189	20.730780
1838.499825	-3.010700	3.389700	-10.205000	26.078400	0.000185	20.719102
1839.500824	-3.021700	3.387600	-10.236000	26.109101	0.000189	20.734779
1840.503597	-3.002400	3.388600	-10.173000	26.118317	0.000186	20.721753
1841.501023	-3.000400	3.387900	-10.164000	26.128058	0.000187	20.723954
1842.502024	-2.972900	3.387500	-10.070000	26.121776	0.000186	20.730444
1843.498236	-2.992400	3.387900	-10.137000	26.048581	0.000187	20.729921
1844.498198	-3.012600	3.387400	-10.204000	26.044954	0.000186	20.729121
1845.501998	-3.000600	3.386500	-10.161000	26.058566	0.000186	20.715769
1846.498842	-2.994100	3.386100	-10.137000	26.058196	0.000187	20.730572
1847.502254	-2.996500	3.385900	-10.144000	26.091955	0.000186	20.701427
1848.503221	-2.994600	3.384700	-10.135000	26.110282	0.000185	20.711781
1849.502021	-3.016400	3.384500	-10.207000	26.135074	0.000184	20.709191
1850.504447	-2.989100	3.384500	-10.116000	26.097991	0.000185	20.711286
1851.502296	-2.985200	3.385500	-10.105000	26.114159	0.000181	20.712358
1852.501186	-2.997500	3.385300	-10.146000	26.172897	0.000184	20.724440
1853.500919	-3.011400	3.384600	-10.191000	26.189413	0.000182	20.732975
1854.505087	-2.992600	3.383500	-10.124000	26.151843	0.000181	20.713240
1855.504060	-2.988500	3.384100	-10.112000	26.115385	0.000182	20.719281
1856.505775	-2.994700	3.383900	-10.133000	26.082500	0.000181	20.715161
1857.507869	-2.995700	3.383500	-10.134000	26.095914	0.000182	20.742392
1858.504370	-2.992000	3.382100	-10.119000	26.096809	0.000178	20.726694
1859.503827	-3.002400	3.383200	-10.157000	26.160041	0.000182	20.711046
1860.507753	-3.003700	3.381600	-10.157000	26.127887	0.000179	20.710979
1861.506442	-3.010700	3.381300	-10.180000	26.149069	0.000180	20.713771
1862.507319	-3.036900	3.380800	-10.266000	26.166208	0.000178	20.735262
1863.507308	-3.003100	3.380700	-10.152000	26.195787	0.000179	20.723733
1864.507862	-3.004900	3.380000	-10.156000	26.175649	0.000179	20.723411
1865.515538	-2.991500	3.380900	-10.113000	26.158292	0.000178	20.717349
1866.509983	-3.024900	3.378500	-10.218000	26.115946	0.000180	20.699928
1867.508090	-3.002600	3.380300	-10.148000	26.085379	0.000177	20.724692
1868.508473	-2.990700	3.378500	-10.103000	26.084336	0.000178	20.711790
1869.510191	-2.999100	3.379500	-10.134000	26.121345	0.000178	20.718631
1870.510139	-3.004300	3.377200	-10.145000	26.117373	0.000177	20.714165
1871.510837	-2.998500	3.379000	-10.132000	26.147598	0.000177	20.694274
1872.512530	-2.982200	3.378800	-10.075000	26.111263	0.000178	20.696171
1873.514593	-3.010100	3.376500	-10.163000	26.098152	0.000177	20.710025
1874.511124	-2.990600	3.377900	-10.101000	26.108657	0.000175	20.695923
1875.511278	-2.995900	3.379400	-10.123000	26.127938	0.000177	20.718143
1876.510381	-3.021000	3.377400	-10.202000	26.131093	0.000177	20.731746
1877.511515	-3.033500	3.376100	-10.240000	26.069697	0.000177	20.712255
1878.513002	-2.989600	3.377100	-10.096000	26.026379	0.000175	20.722786
1879.513105	-3.020200	3.376500	-10.196000	26.004346	0.000174	20.724831
1880.512874	-3.018300	3.375400	-10.187000	25.984701	0.000174	20.721215
1881.513054	-2.993900	3.375900	-10.106000	25.986318	0.000173	20.701975
1882.513069	-3.015300	3.373600	-10.171000	25.970271	0.000174	20.720943
1883.513581	-2.971700	3.375400	-10.031000	26.027725	0.000175	20.710387
1884.513187	-2.992200	3.374300	-10.095000	26.045186	0.000174	20.718922
1885.512778	-2.980300	3.375900	-10.060000	26.113236	0.000175	20.723759
1886.512129	-3.004400	3.375200	-10.140000	26.066894	0.000173	20.722241
1887.512640	-3.000700	3.373700	-10.122000	26.107573	0.000174	20.703843
1888.515460	-3.020400	3.373100	-10.187000	26.078569	0.000172	20.712160
1889.515769	-2.981500	3.372500	-10.053000	26.100720	0.000171	20.710709
1890.515226	-3.010500	3.371900	-10.150000	26.081470	0.000170	20.707014
1891.516094	-2.983100	3.371900	-10.058000	26.104794	0.000173	20.729503
1892.518422	-3.002600	3.373100	-10.127000	26.118750	0.000170	20.717920
1893.518381	-3.003100	3.371900	-10.125000	26.110429	0.000173	20.696281
1894.522970	-3.015500	3.370600	-10.163000	26.100515	0.000172	20.698174
1895.518559	-2.997100	3.370700	-10.101000	26.112169	0.000173	20.711781
1896.517867	-2.993000	3.370900	-10.088000	26.179594	0.000172	20.721685
1897.520037	-2.988400	3.370300	-10.071000	26.196556	0.000170	20.714074
1898.518956	-3.000300	3.371300	-10.113000	26.191436	0.000170	20.707980
1899.519495	-2.996200	3.369700	-10.095000	26.150954	0.000170	20.716614
1900.521585	-3.007000	3.369700	-10.132000	26.213666	0.000170	20.706136
1901.521014	-3.022900	3.367100	-10.177000	26.188580	0.000168	20.734509
1902.523417	-2.983200	3.368900	-10.049000	26.172738	0.000167	20.718115
1903.526281	-2.969100	3.369800	-10.005000	26.168635	0.000168	20.741968
1904.522137	-3.011400	3.367000	-10.139000	26.179791	0.000169	20.710029
1905.523402	-3.002200	3.367800	-10.110000	26.205067	0.000170	20.707452
1906.523754	-3.007500	3.366900	-10.126000	26.233480	0.000167	20.722729
1907.521964	-3.009400	3.367500	-10.133000	26.183538	0.000166	20.701939
1908.524354	-3.017400	3.365900	-10.156000	26.190517	0.000166	20.732662
1909.531405	-3.020000	3.366100	-10.165000	26.238966	0.000165	20.717336
1910.523538	-2.996700	3.366100	-10.086000	26.235215	0.000166	20.717361
1911.526671	-2.995800	3.365600	-10.082000	26.221708	0.000165	20.710425
1912.527966	-3.018800	3.364100	-10.155000	26.196302	0.000164	20.720457
1913.527660	-2.997800	3.365600	-10.089000	26.217014	0.000164	20.742694
1914.525315	-3.012300	3.365500	-10.137000	26.158578	0.000164	20.720008
1915.527739	-3.016900	3.362900	-10.144000	26.182721	0.000163	20.721982
1916.523339	-3.002800	3.364100	-10.100000	26.180706	0.000163	20.728968
1917.530105	-2.998100	3.365500	-10.089000	26.165955	0.000164	20.730741
1918.540698	-3.032300	3.362800	-10.195000	26.198341	0.000162	20.719661
1919.523546	-3.018000	3.363000	-10.148000	26.199088	0.000161	20.733688
1920.526347	-2.979900	3.363000	-10.020000	26.241973	0.000161	20.745490
1921.528866	-2.990400	3.362900	-10.056000	26.237779	0.000162	20.710453
1922.526103	-3.019300	3.361100	-10.147000	26.220494	0.000161	20.740500
1923.530561	-3.013400	3.361300	-10.127000	26.164293	0.000161	20.739028
1924.532869	-2.983900	3.361500	-10.029000	26.139214	0.000161	20.744648
1925.528083	-3.018400	3.361500	-10.144000	26.114799	0.000160	20.729598
1926.527568	-3.011000	3.359500	-10.115000	26.097708	0.000160	20.735185
1927.529685	-3.008900	3.360700	-10.111000	26.159948	0.000160	20.744619
1928.527500	-3.023100	3.360500	-10.158000	26.175048	0.000162	20.731816
1929.527272	-3.004200	3.360800	-10.095000	26.213046	0.000159	20.733490
1930.531138	-2.995700	3.359900	-10.064000	26.193606	0.000161	20.726282
1931.528387	-3.004800	3.359600	-10.094000	26.231895	0.000162	20.715447
1932.533577	-3.029800	3.358400	-10.175000	26.288863	0.000157	20.739980
1933.530640	-3.008600	3.357700	-10.101000	26.300011	0.000161	20.740277
1934.528047	-3.000300	3.359500	-10.078000	26.316725	0.000158	20.732418
1935.531083	-3.007600	3.357100	-10.096000	26.287698	0.000157	20.743551
1936.529951	-3.002800	3.359800	-10.088000	26.303289	0.000156	20.739304
1937.528658	-2.993500	3.357000	-10.048000	26.311109	0.000157	20.726774
1938.528748	-3.016500	3.357300	-10.127000	26.340635	0.000156	20.734163
1939.530634	-2.982600	3.356700	-10.011000	26.373258	0.000155	20.755097
1940.530264	-2.966100	3.357900	-9.958700	26.391759	0.000156	20.734810
1941.528336	-2.990200	3.357500	-10.038000	26.362136	0.000155	20.741073
1942.533615	-2.980500	3.356200	-10.001000	26.369713	0.000153	20.739679
1943.532527	-3.011100	3.354000	-10.098000	26.395587	0.000153	20.753830
1944.531440	-3.012000	3.355600	-10.106000	26.395185	0.000153	20.740624
1945.532790	-3.007400	3.354900	-10.089000	26.372445	0.000154	20.745745
1946.529030	-2.978700	3.355800	-9.994500	26.388158	0.000154	20.741622
1947.532677	-2.981500	3.356000	-10.004000	26.406113	0.000154	20.736909
1948.537389	-3.015600	3.353600	-10.112000	26.391365	0.000156	20.720188
1949.532030	-3.001400	3.354000	-10.066000	26.336913	0.000153	20.756976
1950.532408	-3.001300	3.354000	-10.064000	26.350148	0.000152	20.736612
1951.533302	-3.007700	3.352700	-10.083000	26.358119	0.000151	20.742252
1952.533807	-3.012100	3.352600	-10.098000	26.345754	0.000152	20.762068
1953.532128	-2.989600	3.354200	-10.027000	26.362415	0.000151	20.757949
1954.531650	-3.000700	3.352900	-10.060000	26.394175	0.000152	20.743402
1955.534211	-3.003100	3.352300	-10.066000	26.399885	0.000150	20.747245
1956.534950	-3.013800	3.351400	-10.099000	26.425508	0.000150	20.742178
1957.534393	-3.007200	3.351800	-10.078000	26.456352	0.000150	20.740462
1958.535161	-3.007500	3.352200	-10.081000	26.468740	0.000150	20.733947
1959.534262	-3.008800	3.351000	-10.082000	26.479090	0.000150	20.732022
1960.534047	-2.992000	3.351500	-10.027000	26.485920	0.000150	20.753587
1961.535115	-3.005000	3.349500	-10.064000	26.525695	0.000148	20.772706
1962.535135	-3.014900	3.349500	-10.098000	26.467050	0.000149	20.741258
1963.534327	-2.999200	3.350300	-10.047000	26.460179	0.000149	20.759956
1964.538804	-3.005700	3.348500	-10.064000	26.448234	0.000149	20.754588
1965.536637	-3.003500	3.349400	-10.059000	26.438897	0.000147	20.754213
1966.536471	-3.006500	3.348600	-10.066000	26.467009	0.000147	20.749751
1967.538573	-3.004900	3.347900	-10.058000	26.443175	0.000147	20.746659
1968.536670	-2.984000	3.349100	-9.991700	26.370721	0.000146	20.740692
1969.537902	-2.993800	3.347800	-10.022000	26.331915	0.000148	20.753375
1970.540044	-3.009300	3.347000	-10.070000	26.295237	0.000146	20.752076
1971.537858	-2.994400	3.346200	-10.020000	26.299488	0.000145	20.761564
1972.538930	-2.987700	3.347400	-10.000000	26.328912	0.000145	20.758418
1973.541540	-3.004900	3.346200	-10.053000	26.396602	0.000146	20.749635
1974.539602	-3.028500	3.346900	-10.134000	26.357945	0.000145	20.755354
1975.543321	-3.003900	3.345000	-10.046000	26.384016	0.000147	20.750262
1976.540306	-3.009400	3.345300	-10.066000	26.375056	0.000147	20.736040
1977.540812	-2.973300	3.345200	-9.945100	26.350248	0.000144	20.754731
1978.541104	-3.011400	3.344300	-10.070000	26.339577	0.000145	20.749222
1979.544150	-2.980500	3.345600	-9.970200	26.340619	0.000144	20.756908
1980.552063	-2.979500	3.344200	-9.963100	26.352488	0.000143	20.765517
1981.541398	-3.005100	3.344500	-10.049000	26.375704	0.000143	20.735269
1982.542807	-2.982600	3.344800	-9.975300	26.423007	0.000143	20.771908
1983.539388	-2.982000	3.344500	-9.971700	26.403862	0.000146	20.769735
1984.542161	-2.974100	3.343500	-9.941600	26.426359	0.000143	20.761051
1985.543324	-3.007200	3.342000	-10.049000	26.453224	0.000142	20.765768
1986.541316	-3.010500	3.342600	-10.062000	26.463754	0.000144	20.748376
1987.542934	-3.010600	3.342100	-10.061000	26.406098	0.000143	20.769611
1988.543818	-2.984200	3.342900	-9.974400	26.371630	0.000144	20.758203
1989.541806	-2.997600	3.342700	-10.019000	26.352041	0.000141	20.765068
1990.542415	-3.013400	3.341400	-10.068000	26.337859	0.000140	20.760771
1991.543765	-2.987900	3.341100	-9.982200	26.331311	0.000140	20.754190
1992.541124	-3.010700	3.340400	-10.056000	26.385784	0.000142	20.769583
1993.544828	-3.008700	3.339400	-10.047000	26.394029	0.000140	20.785931
1994.544790	-3.005500	3.339200	-10.035000	26.382928	0.000141	20.773825
1995.542811	-2.996700	3.341000	-10.011000	26.368032	0.000140	20.775450
1996.543973	-2.992500	3.339000	-9.990000	26.353379	0.000140	20.775895
1997.542240	-3.000200	3.337400	-10.011000	26.370859	0.000138	20.766911
1998.544991	-3.010800	3.337900	-10.049000	26.355684	0.000136	20.774894
1999.545029	-2.991400	3.338500	-9.985800	26.368550	0.000139	20.748942
2000.545935	-3.005100	3.338400	-10.032000	26.435138	0.000136	20.767979
2001.546442	-2.996900	3.336900	-9.999700	26.476852	0.000137	20.780983
2002.547297	-2.982500	3.337900	-9.954000	26.488695	0.000137	20.787197
2003.547410	-3.006600	3.336600	-10.031000	26.444700	0.000136	20.775693
2004.548042	-3.024600	3.337400	-10.093000	26.486188	0.000138	20.794161
2005.547973	-3.010600	3.335800	-10.042000	26.494483	0.000138	20.791118
2006.548929	-3.001000	3.337000	-10.012000	26.463672	0.000136	20.782909
2007.548558	-3.010400	3.334700	-10.038000	26.497957	0.000136	20.789394
2008.550432	-2.993400	3.335200	-9.982800	26.483330	0.000136	20.771373
2009.550166	-2.987500	3.334400	-9.960300	26.532241	0.000136	20.769327
2010.549819	-3.001000	3.335600	-10.009000	26.597781	0.000137	20.783527
2011.549731	-3.003700	3.335400	-10.017000	26.587577	0.000134	20.774218
2012.549879	-3.001600	3.334300	-10.007000	26.589636	0.000137	20.794305
2013.549457	-2.987300	3.334700	-9.960400	26.559004	0.000133	20.772523
2014.548758	-3.000400	3.334300	-10.004000	26.559497	0.000134	20.782501
2015.549978	-3.015100	3.333200	-10.049000	26.488884	0.000134	20.791655
2016.551319	-2.989700	3.333100	-9.964000	26.438060	0.000132	20.776605
2017.550236	-2.990800	3.332000	-9.964400	26.424133	0.000135	20.791531
2018.550924	-2.989000	3.332400	-9.959700	26.470955	0.000135	20.780745
2019.551761	-3.002400	3.331700	-10.002000	26.467804	0.000136	20.778527
2020.551259	-3.023800	3.331500	-10.073000	26.504398	0.000133	20.794446
2021.550689	-3.005100	3.332100	-10.011000	26.501490	0.000132	20.770660
2022.554040	-3.013000	3.331500	-10.037000	26.539002	0.000131	20.768063
2023.551259	-3.002900	3.329400	-9.996800	26.592570	0.000132	20.792040
2024.552319	-2.975000	3.330100	-9.905600	26.619779	0.000130	20.771502
2025.556119	-2.978100	3.329800	-9.915600	26.565262	0.000130	20.788770
2026.556976	-3.022000	3.328600	-10.058000	26.532591	0.000130	20.808086
2027.551905	-2.988000	3.329400	-9.947200	26.545323	0.000129	20.783427
2028.554381	-2.979200	3.330400	-9.920600	26.566574	0.000131	20.781081
2029.554427	-3.009400	3.328600	-10.015000	26.533626	0.000129	20.801540
2030.554644	-3.009900	3.327400	-10.014000	26.595118	0.000129	20.796497
2031.559386	-3.018900	3.326800	-10.042000	26.624186	0.000128	20.787311
2032.555506	-3.016500	3.326700	-10.035000	26.616713	0.000128	20.799714
2033.557646	-3.016800	3.326600	-10.035000	26.548413	0.000129	20.810714
2034.559381	-3.013900	3.326700	-10.026000	26.581583	0.000127	20.817031
2035.555785	-2.992200	3.326000	-9.951200	26.572896	0.000126	20.802608
2036.557359	-2.989500	3.326000	-9.942100	26.631380	0.000127	20.793121
2037.559101	-2.985100	3.326300	-9.929100	26.581407	0.000128	20.819698
2038.555923	-2.980400	3.325300	-9.909800	26.575997	0.000124	20.818527
2039.555343	-3.008100	3.324700	-10.000000	26.580390	0.000126	20.819624
2040.559019	-2.985400	3.326400	-9.928900	26.561945	0.000123	20.804876
2041.563343	-2.987100	3.325000	-9.930800	26.544717	0.000122	20.823594
2042.556430	-3.005100	3.323300	-9.985400	26.541510	0.000124	20.806146
2043.560632	-3.009400	3.323400	-10.000000	26.573413	0.000125	20.815930
2044.558692	-3.012700	3.323000	-10.010000	26.553528	0.000123	20.813959
2045.556566	-2.966100	3.324500	-9.860100	26.529922	0.000123	20.830059
2046.560481	-3.006000	3.324000	-9.990800	26.531756	0.000125	20.823842
2047.557398	-2.989300	3.322900	-9.932400	26.540796	0.000122	20.810170
2048.558276	-3.011600	3.322600	-10.005000	26.640968	0.000122	20.813666
2049.560477	-3.021100	3.322100	-10.035000	26.644242	0.000121	20.815060
2050.558890	-3.006000	3.322200	-9.986200	26.630662	0.000121	20.824168
2051.559946	-3.008600	3.321200	-9.990900	26.599880	0.000121	20.846802
2052.564741	-3.009100	3.321900	-9.994100	26.646083	0.000121	20.810747
2053.560691	-3.023200	3.320500	-10.038000	26.677729	0.000122	20.809370
2054.561929	-2.998600	3.320600	-9.955400	26.666782	0.000121	20.820650
2055.565460	-2.996900	3.319700	-9.947800	26.676265	0.000119	20.816907
2056.562545	-3.013000	3.320100	-10.002000	26.691730	0.000119	20.818230
2057.565359	-3.002400	3.320100	-9.967200	26.744774	0.000119	20.825091
2058.567198	-3.015100	3.318800	-10.006000	26.759521	0.000119	20.839917
2059.561999	-2.985100	3.318400	-9.904200	26.780792	0.000118	20.820053
2060.565211	-2.998500	3.317300	-9.946200	26.768083	0.000119	20.792577
2061.566553	-3.013100	3.318100	-9.997000	26.751077	0.000118	20.817204
2062.562360	-3.000500	3.316400	-9.950000	26.732266	0.000120	20.836223
2063.564864	-2.997100	3.317800	-9.942400	26.704915	0.000120	20.822951
2064.565497	-3.040200	3.316400	-10.082000	26.722140	0.000115	20.828888
2065.561609	-3.001200	3.316900	-9.953900	26.669268	0.000119	20.824097
2066.564433	-2.997700	3.317600	-9.944200	26.693121	0.000115	20.827688
2067.565291	-3.003400	3.316800	-9.961300	26.692427	0.000115	20.822724
2068.563678	-3.010300	3.316300	-9.981100	26.694490	0.000115	20.842341
2069.567662	-3.005900	3.314300	-9.961800	26.700420	0.000116	20.830760
2070.571425	-3.008900	3.313600	-9.969200	26.790175	0.000119	20.829012
2071.565179	-2.990600	3.315500	-9.914900	26.815690	0.000114	20.817682
2072.566602	-2.995500	3.315700	-9.931600	26.815686	0.000118	20.836644
2073.571209	-3.005000	3.313500	-9.955900	26.812980	0.000117	20.837716
2074.564542	-3.018200	3.313000	-9.998400	26.761203	0.000115	20.830229
2075.567654	-3.026000	3.313000	-10.024000	26.684680	0.000114	20.831057
2076.571015	-3.000200	3.312600	-9.937300	26.659876	0.000115	20.848320
2077.567657	-3.027600	3.312600	-10.028000	26.691948	0.000113	20.844053
2078.569658	-3.000500	3.312500	-9.937500	26.688647	0.000114	20.843579
2079.569428	-2.997800	3.312800	-9.930200	26.660000	0.000112	20.834220
2080.571097	-2.997500	3.311600	-9.925600	26.657789	0.000113	20.829627
2081.569917	-3.026600	3.311100	-10.020000	26.731266	0.000111	20.850390
2082.569995	-3.000600	3.311800	-9.936900	26.789519	0.000112	20.849215
2083.566652	-2.991000	3.311400	-9.902900	26.845764	0.000112	20.827058
2084.571305	-3.009500	3.310200	-9.961500	26.809006	0.000111	20.838462
2085.568888	-3.005600	3.310800	-9.949700	26.838937	0.000111	20.860495
2086.569514	-3.001100	3.310800	-9.934400	26.797762	0.000110	20.847071
2087.569858	-3.006100	3.309300	-9.947100	26.766063	0.000114	20.858821
2088.573738	-2.997100	3.308900	-9.915700	26.755515	0.000111	20.823088
2089.572299	-3.015800	3.308800	-9.978400	26.756757	0.000110	20.842828
2090.571894	-2.978100	3.309300	-9.853600	26.757504	0.000111	20.846898
2091.572827	-2.977100	3.310100	-9.852900	26.790216	0.000109	20.862717
2092.572830	-3.001000	3.308000	-9.926600	26.743306	0.000109	20.847796
2093.575203	-2.996400	3.308300	-9.912000	26.763585	0.000107	20.851115
2094.574439	-3.010100	3.306400	-9.951200	26.785627	0.000110	20.850043
2095.575312	-3.003000	3.307400	-9.931200	26.803896	0.000107	20.848971
2096.575558	-3.001200	3.305600	-9.919800	26.832737	0.000108	20.838140
2097.574554	-2.990300	3.306300	-9.886300	26.773246	0.000105	20.870311
2098.576455	-2.985900	3.307000	-9.873800	26.771779	0.000104	20.835646
2099.577404	-3.002400	3.306100	-9.925300	26.737260	0.000107	20.869692
2100.577986	-2.981400	3.305700	-9.855100	26.737552	0.000106	20.877571
2101.577665	-2.993800	3.305000	-9.894000	26.769100	0.000106	20.852393
2102.577338	-3.005300	3.304000	-9.928700	26.765782	0.000106	20.867074
2103.576433	-3.003200	3.304400	-9.922600	26.779406	0.000105	20.858012
2104.579394	-2.997200	3.303800	-9.900600	26.829844	0.000105	20.853724
2105.578846	-3.002500	3.303200	-9.916200	26.883107	0.000104	20.860337
2106.580521	-3.015400	3.302800	-9.958500	26.935673	0.000105	20.864831
2107.582141	-3.011400	3.302900	-9.945300	26.987241	0.000105	20.865478
2108.581214	-3.030100	3.302200	-10.005000	27.002058	0.000105	20.874214
2109.580010	-2.981500	3.302500	-9.845400	27.005088	0.000105	20.870623
2110.580590	-3.005300	3.301900	-9.921900	27.032758	0.000106	20.865259
2111.582003	-2.998600	3.302700	-9.902400	26.981242	0.000105	20.865609
2112.579966	-3.004700	3.301400	-9.918800	26.922449	0.000105	20.878085
2113.580490	-2.982100	3.300900	-9.842800	26.882519	0.000103	20.868281
2114.582315	-3.001600	3.299100	-9.902000	26.886517	0.000104	20.851439
2115.580919	-3.007500	3.299800	-9.923800	26.875475	0.000104	20.878740
2116.582512	-2.973400	3.299200	-9.808300	26.878008	0.000104	20.876547
2117.583607	-3.007500	3.299500	-9.922500	26.854029	0.000102	20.876143
2118.580943	-3.002100	3.299100	-9.902300	26.896941	0.000103	20.862867
2119.582266	-2.983300	3.298900	-9.841100	26.854476	0.000102	20.892238
2120.582874	-2.993700	3.298500	-9.874100	26.864879	0.000103	20.881362
2121.582292	-2.992200	3.298300	-9.868000	26.921436	0.000101	20.888445
2122.582586	-3.017500	3.298100	-9.951100	26.935660	0.000101	20.881886
2123.583166	-3.013300	3.295100	-9.927700	26.977055	0.000102	20.871356
2124.583003	-2.977900	3.296700	-9.816800	27.004029	9.932078E-5	20.876670
2125.583138	-3.005300	3.296800	-9.907000	26.988670	0.000101	20.865019
2126.583414	-2.976700	3.296100	-9.810800	26.949826	0.000101	20.888070
2127.582168	-2.968800	3.296300	-9.785300	26.926676	9.899076E-5	20.889921
2128.582776	-2.991200	3.296600	-9.859200	26.973181	9.816570E-5	20.886899
2129.582140	-2.988900	3.296000	-9.850300	26.947641	9.793468E-5	20.880183
2130.583110	-3.010600	3.294700	-9.918100	26.946902	9.800069E-5	20.900776
2131.583018	-3.012200	3.294400	-9.922400	26.981914	9.971681E-5	20.868656
2132.583486	-3.004600	3.295400	-9.900300	26.990577	9.968381E-5	20.894435
2133.583369	-2.998300	3.293600	-9.874300	26.941068	9.839671E-5	20.880212
2134.585145	-3.031500	3.293800	-9.984000	26.919501	9.743965E-5	20.854259
2135.585602	-3.010200	3.293100	-9.911900	26.937866	9.783567E-5	20.864665
2136.585920	-2.990400	3.292600	-9.844100	26.872051	9.588853E-5	20.865815
2137.587421	-2.998200	3.291800	-9.868800	26.888949	9.621856E-5	20.870952
2138.587719	-2.989700	3.291800	-9.840400	26.948985	9.592153E-5	20.880113
2139.587640	-2.997800	3.291200	-9.865200	26.948465	9.592153E-5	20.887175
2140.591527	-2.987700	3.291400	-9.833200	26.957276	9.433742E-5	20.872329
2141.587297	-2.979900	3.292000	-9.808600	26.915827	9.496446E-5	20.888495
2142.590332	-2.989400	3.291300	-9.838500	26.953947	9.516248E-5	20.867559
2143.589841	-2.998500	3.290200	-9.864900	26.927890	9.555851E-5	20.879288
2144.590475	-2.994400	3.290500	-9.851700	26.972516	9.410640E-5	20.853042
2145.591364	-2.977300	3.290200	-9.794500	27.003853	9.486546E-5	20.861321
2146.591085	-3.011700	3.288800	-9.903600	26.965267	9.252229E-5	20.868511
2147.590524	-3.003700	3.287800	-9.874900	26.954869	9.351236E-5	20.867064
2148.591777	-2.997000	3.289400	-9.857500	26.902877	9.291831E-5	20.865518
2149.591087	-2.980900	3.289000	-9.803400	26.933679	9.338035E-5	20.869937
2150.591292	-2.986000	3.288700	-9.818600	26.954229	9.433742E-5	20.863102
2151.591279	-2.987400	3.286100	-9.815500	27.006271	9.443643E-5	20.870391
2152.591659	-2.985400	3.287800	-9.814400	27.018284	9.199425E-5	20.866824
2153.592037	-2.992100	3.286400	-9.832800	26.985103	9.130120E-5	20.849104
2154.590691	-2.997100	3.286400	-9.848700	26.996165	9.242328E-5	20.866392
2155.591810	-2.989500	3.286000	-9.822600	26.980683	9.037713E-5	20.848927
2156.591470	-3.009700	3.285300	-9.886200	26.910574	9.176323E-5	20.847179
2157.592404	-2.994700	3.285300	-9.838200	26.887201	9.133420E-5	20.855445
2158.591157	-2.986900	3.284500	-9.809300	26.937652	9.212626E-5	20.872036
2159.593851	-2.994800	3.284600	-9.836200	26.950658	9.008011E-5	20.852398
2160.594121	-2.991700	3.284000	-9.823400	26.959293	9.083916E-5	20.844487
2161.593667	-2.987800	3.283600	-9.808500	26.987013	9.110318E-5	20.842017
2162.594316	-2.989800	3.282900	-9.814500	27.077342	9.120219E-5	20.847034
2163.591098	-3.001400	3.282900	-9.852600	27.122204	9.262129E-5	20.843316
2164.594556	-2.989400	3.282400	-9.811600	27.133413	8.876001E-5	20.843683
2165.593595	-2.995600	3.281800	-9.830000	27.086444	8.988209E-5	20.846231
2166.594998	-2.983500	3.282000	-9.790800	27.081060	8.829798E-5	20.857886
2167.595374	-2.993100	3.281900	-9.821800	27.140287	8.981609E-5	20.854390
2168.598548	-3.001100	3.280600	-9.844500	27.100260	8.859500E-5	20.864393
2169.607132	-3.014500	3.280000	-9.886500	27.143731	9.014611E-5	20.840311
2170.595553	-2.981400	3.279900	-9.778200	27.137353	8.668086E-5	20.868982
2171.595913	-3.005800	3.280000	-9.858000	27.118048	8.912304E-5	20.842455
2172.595441	-2.994900	3.280900	-9.825300	27.108140	8.720890E-5	20.841025
2173.595159	-3.029400	3.279700	-9.934000	27.121341	8.545977E-5	20.843870
2174.596343	-2.981800	3.279000	-9.776400	27.151263	8.552577E-5	20.841248
2175.595422	-3.010700	3.278200	-9.868600	27.126572	8.499774E-5	20.839174
2176.595046	-3.020200	3.277600	-9.897900	27.109501	8.344662E-5	20.839549
2177.596117	-3.019600	3.278400	-9.898200	27.091382	8.387565E-5	20.843611
2178.595147	-3.007600	3.277300	-9.855700	27.071236	8.496473E-5	20.825721
2179.596123	-3.006700	3.276400	-9.849600	27.056489	8.229154E-5	20.831280
2180.597011	-2.990200	3.277200	-9.798400	27.057482	8.262156E-5	20.829907
2181.598820	-3.007500	3.274700	-9.847200	27.108153	8.440369E-5	20.847676
2182.596273	-3.004900	3.275400	-9.840600	27.137576	8.133447E-5	20.841233
2183.596468	-3.008500	3.275400	-9.852200	27.176853	8.235754E-5	20.836166
2184.596484	-2.990800	3.275300	-9.794400	27.210028	8.163149E-5	20.835395
2185.596890	-3.014500	3.275100	-9.872400	27.226625	7.968435E-5	20.839287
2186.597886	-3.031900	3.274400	-9.926300	27.197472	8.001437E-5	20.838887
2187.607865	-2.986200	3.275000	-9.778700	27.243838	8.133447E-5	20.862289
2188.597902	-3.003700	3.272900	-9.829800	27.291968	7.856227E-5	20.822511
2189.603041	-2.972400	3.273600	-9.729100	27.280258	7.909030E-5	20.831120
2190.599419	-3.024800	3.272200	-9.897100	27.264505	8.027839E-5	20.825232
2191.598814	-2.997700	3.272000	-9.807800	27.270683	7.826524E-5	20.843299
2192.600475	-2.999700	3.272300	-9.814200	27.301593	7.945333E-5	20.838356
2193.598836	-3.009300	3.271500	-9.844600	27.236669	8.014638E-5	20.829949
2194.599929	-2.937800	3.271700	-9.610800	27.216399	8.113645E-5	20.823785
2195.600454	-2.993200	3.271500	-9.791200	27.230836	8.017938E-5	20.849211
2196.601095	-2.988500	3.272700	-9.779400	27.272121	7.961834E-5	20.836686
2197.602487	-3.032800	3.270400	-9.917600	27.266883	8.176350E-5	20.819089
2198.602527	-3.019500	3.268400	-9.867800	27.281992	7.938733E-5	20.843295
2199.603058	-3.006200	3.269800	-9.828900	27.297223	8.044340E-5	20.828271
2200.603097	-3.030700	3.267400	-9.901300	27.208033	7.602108E-5	20.834810
2201.603063	-3.009900	3.268600	-9.837300	27.245889	7.981636E-5	20.824050
2202.603444	-2.984400	3.269200	-9.755700	27.280078	7.701115E-5	20.824301
2203.605976	-2.985200	3.267700	-9.754200	27.277570	7.744018E-5	20.811821
2204.603990	-2.998500	3.268000	-9.798600	27.204754	7.859527E-5	20.821081
2205.601901	-2.986800	3.267500	-9.759000	27.254046	7.806723E-5	20.812815
2206.604961	-2.989600	3.266400	-9.764100	27.294982	7.681314E-5	20.830758
2207.603280	-2.994500	3.264800	-9.775500	27.293614	7.866127E-5	20.824640
2208.604465	-3.002700	3.265100	-9.803000	27.317604	7.757219E-5	20.811315
2209.604471	-2.993200	3.265700	-9.774100	27.309489	7.879328E-5	20.840609
2210.604531	-2.997800	3.265700	-9.787300	27.323999	7.737418E-5	20.831497
2211.604929	-3.008400	3.262900	-9.814800	27.378974	7.876028E-5	20.818996
2212.604133	-2.988100	3.264300	-9.753100	27.327446	7.744018E-5	20.807939
2213.603744	-3.008200	3.263400	-9.816300	27.301837	7.549304E-5	20.841447
2214.604575	-2.997600	3.264800	-9.785200	27.282409	7.433796E-5	20.824275
2215.606098	-3.022500	3.261900	-9.858400	27.196246	7.371091E-5	20.826748
2216.605224	-3.003600	3.261900	-9.796500	27.211774	7.314987E-5	20.818185
2217.603965	-3.016700	3.261600	-9.838300	27.167281	7.674713E-5	20.809944
2218.607141	-2.951000	3.263200	-9.627900	27.178866	7.301786E-5	20.821122
2219.606495	-2.993100	3.260900	-9.759800	27.250172	7.559205E-5	20.826935
2220.606463	-3.010900	3.261800	-9.820100	27.321620	7.390893E-5	20.834320
2221.610228	-2.998600	3.261600	-9.779100	27.323002	7.331488E-5	20.818641
2222.609933	-2.997200	3.259300	-9.768600	27.354087	7.496500E-5	20.822884
2223.607652	-3.012000	3.258700	-9.813600	27.338156	7.199478E-5	20.817763
2224.610617	-2.974500	3.259700	-9.694900	27.250583	7.354590E-5	20.804116
2225.611182	-2.972200	3.259400	-9.686500	27.253460	7.235781E-5	20.830243
2226.611459	-3.023400	3.257800	-9.848500	27.248169	7.126873E-5	20.831559
2227.613489	-2.979100	3.257700	-9.704400	27.308256	7.212679E-5	20.826567
2228.610809	-2.985200	3.256800	-9.720900	27.316097	7.285285E-5	20.826867
2229.615209	-2.998100	3.256100	-9.761700	27.325569	7.199478E-5	20.815060
2230.613950	-3.007000	3.258200	-9.796200	27.339017	7.206079E-5	20.830958
2231.613482	-3.009400	3.255800	-9.797800	27.342862	7.140074E-5	20.816334
2232.614830	-2.983300	3.255500	-9.711100	27.311031	7.156575E-5	20.824143
2233.617051	-2.979100	3.257000	-9.701800	27.322020	6.862854E-5	20.831878
2234.613001	-3.023000	3.253800	-9.835100	27.320704	7.100471E-5	20.834821
2235.615326	-3.024900	3.253700	-9.841100	27.295128	7.064169E-5	20.809094
2236.617386	-3.005200	3.253900	-9.777600	27.331869	6.866154E-5	20.815707
2237.616218	-2.990100	3.254000	-9.729000	27.308277	6.991563E-5	20.807148
2238.615501	-2.984600	3.254000	-9.711200	27.254814	7.024566E-5	20.811217
2239.620267	-3.001500	3.252400	-9.761100	27.290463	6.876055E-5	20.807721
2240.617200	-3.004700	3.253400	-9.773100	27.338714	6.786948E-5	20.797937
2241.618505	-3.040300	3.252600	-9.887600	27.425763	6.872755E-5	20.794469
2242.621380	-2.997400	3.251300	-9.744800	27.446107	6.909057E-5	20.813988
2243.618207	-3.003600	3.251900	-9.766500	27.374019	6.767147E-5	20.808323
2244.620532	-2.994900	3.251200	-9.736200	27.349809	6.747345E-5	20.803408
2245.619908	-2.987600	3.250300	-9.709600	27.346935	6.885956E-5	20.798620
2246.619813	-3.012400	3.249400	-9.787600	27.317187	6.714343E-5	20.819904
2247.618855	-2.998500	3.249900	-9.743500	27.318236	6.631837E-5	20.812424
2248.623917	-3.027100	3.248600	-9.832100	27.323294	6.711043E-5	20.805658
2249.626491	-2.998700	3.248900	-9.741800	27.275366	6.793549E-5	20.810078
2250.622550	-3.010100	3.248300	-9.776800	27.277772	6.489927E-5	20.810602
2251.625796	-3.004600	3.246700	-9.754000	27.317096	6.681341E-5	20.826924
2252.621842	-2.980800	3.249900	-9.686500	27.320916	6.621936E-5	20.803741
2253.622529	-3.001100	3.248100	-9.746100	27.312087	6.621936E-5	20.800075
2254.625170	-2.991500	3.247100	-9.712400	27.301098	6.546031E-5	20.792814
2255.621953	-3.004000	3.246400	-9.749700	27.349947	6.460224E-5	20.811133
2256.622822	-3.002000	3.245600	-9.742800	27.362230	6.466825E-5	20.787454
2257.624854	-2.986600	3.246600	-9.695000	27.344171	6.242408E-5	20.799633
2258.622342	-3.003100	3.245100	-9.744300	27.340523	6.258910E-5	20.786480
2259.625188	-2.989400	3.243500	-9.695100	27.330829	6.390919E-5	20.779574
2260.624161	-2.995000	3.243700	-9.713200	27.381730	6.308413E-5	20.790950
2261.623363	-3.016100	3.242900	-9.779900	27.400612	6.120299E-5	20.788133
2262.624290	-2.975800	3.243200	-9.650600	27.376873	6.295212E-5	20.782270
2263.629878	-3.011100	3.242500	-9.762700	27.340186	6.150002E-5	20.777606
2264.626830	-3.015700	3.242400	-9.777500	27.350060	6.163203E-5	20.785642
2265.625548	-2.994100	3.242200	-9.706900	27.376754	6.212706E-5	20.794478
2266.629852	-2.995400	3.242400	-9.711600	27.372811	6.024592E-5	20.770122
2267.625728	-3.010800	3.239500	-9.752700	27.380451	6.014692E-5	20.792981
2268.627708	-3.025700	3.238500	-9.798100	27.344735	6.074096E-5	20.791665
2269.628364	-3.023100	3.239900	-9.793800	27.318335	5.892583E-5	20.800670
2270.631199	-3.035000	3.238400	-9.827300	27.360908	6.001491E-5	20.775218
2271.627844	-2.986000	3.239800	-9.673400	27.420918	6.041094E-5	20.782009
2272.629292	-2.990500	3.237900	-9.682000	27.406508	5.925585E-5	20.788849
2273.627396	-2.977500	3.239200	-9.643600	27.420819	6.083997E-5	20.805143
2274.627010	-2.993600	3.239000	-9.694900	27.421520	5.899183E-5	20.788304
2275.630895	-2.995900	3.238200	-9.700500	27.449671	6.212706E-5	20.767313
2276.626668	-3.000400	3.239300	-9.718400	27.485047	6.004791E-5	20.797688
2277.630947	-3.002400	3.237900	-9.721000	27.454142	5.935486E-5	20.794571
2278.631876	-3.016300	3.235700	-9.759300	27.486215	5.856280E-5	20.766620
2279.628317	-3.000300	3.234800	-9.704100	27.530420	6.100498E-5	20.771741
2280.633664	-3.001300	3.236100	-9.711600	27.576131	5.803476E-5	20.776956
2281.631287	-2.999600	3.237100	-9.709000	27.498225	5.895883E-5	20.766376
2282.628200	-3.012800	3.236000	-9.748700	27.492303	5.846379E-5	20.765633
2283.630161	-3.012600	3.233500	-9.740500	27.421039	5.786975E-5	20.763638
2284.632311	-3.019200	3.233600	-9.762000	27.429026	5.800176E-5	20.774519
2285.627766	-3.013600	3.233900	-9.745000	27.425604	5.744072E-5	20.798103
2286.630633	-3.007600	3.231900	-9.719600	27.421218	5.889283E-5	20.782311
2287.634179	-3.012800	3.231100	-9.734000	27.374163	5.810077E-5	20.758681
2288.631575	-2.984400	3.232000	-9.644800	27.407800	5.905784E-5	20.772131
2289.631628	-3.019200	3.230500	-9.753000	27.425341	5.806777E-5	20.775078
2290.633903	-3.010600	3.230200	-9.724200	27.460914	5.869481E-5	20.772460
2291.630986	-3.006100	3.232700	-9.716900	27.462574	5.757273E-5	20.779820
2292.635378	-3.002900	3.230300	-9.699900	27.433705	5.678067E-5	20.771165
2293.631317	-3.005300	3.230700	-9.708900	27.466028	5.701169E-5	20.772390
2294.631014	-2.959500	3.230400	-9.559100	27.546764	5.747372E-5	20.765900
2295.635998	-3.002200	3.228600	-9.692400	27.559094	5.602162E-5	20.758865
2296.634989	-2.973900	3.228500	-9.600600	27.499170	5.496554E-5	20.759739
2297.633537	-2.976100	3.230100	-9.611700	27.531937	5.473452E-5	20.737705
2298.632037	-2.951800	3.228400	-9.528800	27.571027	5.691268E-5	20.757595
2299.635875	-3.000500	3.229700	-9.689700	27.606739	5.311740E-5	20.770295
2300.633230	-3.009700	3.226200	-9.709000	27.645809	5.555958E-5	20.769779
2301.635595	-3.000800	3.227400	-9.684000	27.615528	5.245735E-5	20.741679
2302.635316	-3.016000	3.225900	-9.728300	27.654537	5.374445E-5	20.765285
2303.634514	-2.988100	3.226200	-9.637600	27.630980	5.433849E-5	20.750589
2304.637013	-2.990400	3.225700	-9.645800	27.647398	5.483353E-5	20.758576
2305.635462	-3.001000	3.226000	-9.680200	27.676691	5.278738E-5	20.758654
2306.637547	-2.980400	3.225600	-9.613200	27.634085	5.192932E-5	20.748972
2307.635554	-2.998400	3.225500	-9.670500	27.678453	5.361244E-5	20.767065
2308.636434	-2.985700	3.223400	-9.623600	27.642296	5.288639E-5	20.753442
2309.643651	-2.989700	3.223800	-9.637700	27.618264	5.427249E-5	20.743958
2310.639090	-2.978400	3.222500	-9.596400	27.592793	5.255636E-5	20.751995
2311.639116	-2.992900	3.221300	-9.640700	27.656908	5.037820E-5	20.757239
2312.639625	-3.012700	3.220700	-9.702600	27.700332	5.074123E-5	20.750675
2313.638731	-3.008400	3.220100	-9.686200	27.731708	5.126927E-5	20.747636
2314.639133	-3.005300	3.219700	-9.675500	27.724939	5.093924E-5	20.750307
2315.645926	-2.982400	3.220600	-9.603900	27.641341	4.961915E-5	20.752954
2316.641962	-3.031600	3.216700	-9.749700	27.670732	5.130227E-5	20.734639
2317.641999	-3.016700	3.220400	-9.713300	27.677877	5.021319E-5	20.739458
2318.641241	-2.995000	3.217500	-9.635900	27.630609	4.744099E-5	20.751164
2319.643220	-3.017900	3.219100	-9.713700	27.575675	4.981716E-5	20.736193
2320.641243	-3.004500	3.218100	-9.667600	27.531500	5.021319E-5	20.742955
2321.642717	-3.015900	3.219100	-9.707800	27.538720	5.057622E-5	20.754487
2322.644971	-2.980900	3.216400	-9.586900	27.531405	5.051021E-5	20.739066
2323.643631	-2.973500	3.216100	-9.562500	27.538327	5.008118E-5	20.738918
2324.642921	-2.992300	3.216000	-9.622800	27.499088	5.093924E-5	20.745432
2325.643214	-2.996200	3.214400	-9.630500	27.562094	5.041120E-5	20.717311
2326.641936	-2.975300	3.213900	-9.561600	27.534064	4.790302E-5	20.738897
2327.643235	-2.982700	3.215400	-9.589700	27.520623	4.968515E-5	20.737227
2328.643830	-2.998300	3.214600	-9.637000	27.526905	5.070823E-5	20.717467
2329.644279	-3.000100	3.215000	-9.644000	27.502222	4.853007E-5	20.728196
2330.643899	-3.008600	3.212900	-9.665000	27.522663	4.952014E-5	20.722683
2331.643122	-3.008700	3.211000	-9.659900	27.502194	5.011418E-5	20.732909
2332.645164	-3.010300	3.211100	-9.665000	27.547317	4.942113E-5	20.736109
2333.645226	-3.023200	3.211400	-9.707700	27.575338	5.070823E-5	20.739173
2334.645937	-2.978300	3.211500	-9.563400	27.650468	4.928912E-5	20.754552
2335.646959	-2.986700	3.210700	-9.588200	27.757948	5.179731E-5	20.727574
2336.646995	-2.999500	3.209700	-9.627200	27.783067	5.100525E-5	20.710651
2337.651242	-3.011600	3.209000	-9.663300	27.776991	4.998217E-5	20.732039
2338.647283	-3.016000	3.208600	-9.676500	27.735848	5.103825E-5	20.754173
2339.648042	-2.996500	3.208600	-9.613300	27.778151	5.136827E-5	20.720404
2340.648775	-3.031400	3.209200	-9.727100	27.749635	5.077423E-5	20.725846
2341.648664	-3.009300	3.208300	-9.653700	27.797419	4.714396E-5	20.730786
2342.649030	-3.007200	3.206400	-9.641600	27.792359	4.846406E-5	20.714313
2343.649399	-2.998700	3.206700	-9.616000	27.786333	5.008118E-5	20.727215
2344.651109	-3.008100	3.206200	-9.644000	27.786255	4.701195E-5	20.731879
2345.649896	-2.989800	3.206200	-9.585100	27.842817	4.866208E-5	20.717204
2346.650310	-3.014400	3.204900	-9.660500	27.815090	4.806803E-5	20.727707
2347.649886	-3.015800	3.206000	-9.667400	27.795474	4.994917E-5	20.731674
2348.650422	-3.008500	3.205200	-9.641700	27.844001	4.582387E-5	20.733570
2349.650497	-2.995300	3.204100	-9.595700	27.844669	4.628590E-5	20.753209
2350.649966	-3.017700	3.204200	-9.668600	27.816742	4.579087E-5	20.733637
2351.654517	-2.991300	3.202900	-9.580200	27.712021	4.585687E-5	20.715968
2352.651392	-3.002700	3.203600	-9.618800	27.681565	4.486680E-5	20.710926
2353.650256	-3.008600	3.201300	-9.630700	27.758712	4.592287E-5	20.741620
2354.650209	-3.005600	3.202100	-9.623700	27.716929	4.562585E-5	20.736556
2355.651663	-3.002900	3.200000	-9.608900	27.698152	4.493280E-5	20.734256
2356.650547	-3.006700	3.200200	-9.621500	27.670523	4.410774E-5	20.728739
2357.650646	-3.004500	3.200400	-9.614500	27.696640	4.410774E-5	20.740321
2358.650863	-2.986700	3.198200	-9.551100	27.690662	4.328268E-5	20.699216
2359.649259	-3.002900	3.197800	-9.601400	27.699963	4.480079E-5	20.728017
2360.649559	-3.017600	3.197300	-9.647700	27.656588	4.318367E-5	20.744589
2361.651361	-3.017100	3.198200	-9.648800	27.614154	4.371171E-5	20.741719
2362.652990	-3.002400	3.197800	-9.600400	27.620599	4.272164E-5	20.733031
2363.652776	-2.999400	3.196600	-9.587200	27.624939	4.361271E-5	20.722224
2364.651620	-3.001400	3.196400	-9.592300	27.678861	4.100551E-5	20.723378
2365.651863	-2.979500	3.196000	-9.520500	27.708268	4.192958E-5	20.734479
2366.653421	-3.001100	3.195000	-9.588100	27.703163	4.291965E-5	20.729815
2367.652363	-3.000700	3.195500	-9.588000	27.753231	4.278764E-5	20.725197
2368.650702	-3.011600	3.192900	-9.615300	27.775105	4.331568E-5	20.718286
2369.651530	-3.032200	3.193700	-9.683000	27.749486	4.387672E-5	20.722377
2370.651023	-3.029900	3.191100	-9.668400	27.734637	4.206159E-5	20.726875
2371.652699	-2.980300	3.192200	-9.512900	27.787977	4.163256E-5	20.748786
2372.652437	-3.005500	3.191400	-9.591100	27.776768	4.202859E-5	20.728021
2373.651376	-3.034900	3.189900	-9.680900	27.766754	4.239162E-5	20.746868
2374.653233	-2.986100	3.192300	-9.531600	27.791451	4.146755E-5	20.706287
2375.654239	-2.977300	3.191300	-9.500400	27.790259	4.051048E-5	20.728796
2376.652046	-2.995800	3.188700	-9.551500	27.761223	4.225961E-5	20.735612
2377.653244	-2.996800	3.188300	-9.553700	27.773994	4.018045E-5	20.713375
2378.654068	-2.972000	3.190200	-9.480000	27.732753	4.334869E-5	20.742997
2379.654062	-3.000900	3.186600	-9.561800	27.664135	4.080750E-5	20.719939
2380.653412	-2.974500	3.188400	-9.482800	27.703937	4.212760E-5	20.700720
2381.655471	-2.979900	3.187200	-9.496900	27.686052	4.232561E-5	20.738202
2382.654858	-2.971200	3.187200	-9.468300	27.679684	4.093951E-5	20.736535
2383.655635	-2.977600	3.184800	-9.481800	27.676878	4.381072E-5	20.715218
2384.655278	-2.983000	3.185400	-9.501100	27.680496	4.044447E-5	20.714591
2385.654278	-3.008000	3.183300	-9.574800	27.788571	3.899237E-5	20.720459
2386.656671	-2.996700	3.182700	-9.537200	27.791120	3.994944E-5	20.723972
2387.657838	-2.994400	3.182700	-9.529400	27.810884	4.057648E-5	20.725844
2388.654665	-2.987600	3.182600	-9.507200	27.739239	4.100551E-5	20.724393
2389.654646	-2.980400	3.182400	-9.484200	27.796594	4.153355E-5	20.729007
2390.657865	-2.988700	3.183500	-9.513900	27.784812	4.117053E-5	20.718097
2391.656675	-2.986100	3.180500	-9.496600	27.787835	4.156656E-5	20.725882
2392.656189	-2.989700	3.180500	-9.508100	27.828993	3.994944E-5	20.730794
2393.656695	-2.993800	3.179200	-9.516900	27.858105	4.321668E-5	20.741127
2394.655971	-2.982500	3.178500	-9.478600	27.929807	4.169856E-5	20.724151
2395.657301	-2.975800	3.177700	-9.454600	27.997511	4.051048E-5	20.726865
2396.657849	-3.013500	3.175800	-9.568800	28.013875	4.054348E-5	20.711093
2397.657770	-3.000800	3.176700	-9.530600	28.067767	4.070849E-5	20.727884
2398.656324	-3.015000	3.176200	-9.575100	27.977494	3.912438E-5	20.725209
2399.658034	-2.988700	3.174800	-9.487400	27.897086	3.770527E-5	20.716348
2400.657051	-2.982800	3.176700	-9.473800	27.869037	3.773827E-5	20.716567
2401.657773	-2.985600	3.173400	-9.473500	27.893826	3.668220E-5	20.731560
2402.659407	-2.968200	3.173700	-9.418600	27.971851	3.932239E-5	20.730434
2403.658334	-2.991300	3.172200	-9.488200	27.931387	3.674820E-5	20.748977
2404.660900	-3.010100	3.172400	-9.547900	27.938843	3.701222E-5	20.728505
2405.660112	-3.007200	3.171000	-9.535000	27.907129	3.833232E-5	20.712705
2406.661879	-3.004800	3.172800	-9.532900	27.865918	3.671520E-5	20.723859
2407.661407	-3.020900	3.169100	-9.573000	27.843223	3.833232E-5	20.721881
2408.663531	-3.017000	3.168500	-9.558500	27.846746	3.546111E-5	20.729220
2409.662374	-3.014200	3.169600	-9.553200	27.865710	3.519709E-5	20.735030
2410.661962	-3.008900	3.168500	-9.533200	27.814849	3.671520E-5	20.727464
2411.661598	-2.985200	3.169200	-9.460100	27.866796	3.668220E-5	20.715733
2412.664143	-3.012500	3.166600	-9.538100	27.907758	3.364597E-5	20.734202
2413.666489	-3.018600	3.166100	-9.555000	27.951815	3.364597E-5	20.747252
2414.666689	-3.008200	3.165600	-9.522100	27.945139	3.301893E-5	20.729626
2415.665702	-3.004300	3.164000	-9.504600	28.019345	3.466905E-5	20.732722
2416.666856	-2.995600	3.163100	-9.474600	27.997030	3.295292E-5	20.733968
2417.668216	-2.999400	3.163800	-9.488900	27.976574	3.090677E-5	20.730447
2418.668701	-2.994200	3.162800	-9.469300	27.962737	3.143481E-5	20.767729
2419.666784	-3.008600	3.162900	-9.515400	28.006919	3.219387E-5	20.740603
2420.671229	-3.006400	3.161100	-9.502500	28.027297	3.103878E-5	20.724130
2421.669562	-2.993500	3.159300	-9.456000	28.054663	3.176484E-5	20.747411
2422.669109	-3.015000	3.159600	-9.524200	28.067851	3.285392E-5	20.744566
2423.673738	-3.018000	3.158100	-9.529500	28.144253	3.090677E-5	20.723327
2424.671041	-3.004600	3.157700	-9.486700	28.078636	3.298593E-5	20.745465
2425.672215	-2.981600	3.158700	-9.417300	28.016431	2.882762E-5	20.748281
2426.674734	-3.016200	3.157400	-9.522500	27.966449	3.041174E-5	20.753922
2427.671442	-2.998900	3.155000	-9.459400	27.945222	2.998270E-5	20.747255
2428.673062	-3.002600	3.155700	-9.474700	27.963447	2.796956E-5	20.749477
2429.675023	-3.009100	3.154600	-9.491800	28.008915	2.836559E-5	20.751621
2430.673401	-3.007100	3.154200	-9.484200	27.973265	2.876162E-5	20.752248
2431.671817	-2.996500	3.153600	-9.448700	27.970587	3.008171E-5	20.750500
2432.674778	-2.984600	3.153600	-9.411900	27.983182	2.612142E-5	20.744686
2433.672609	-3.007200	3.152200	-9.478400	28.051857	2.770554E-5	20.747432
2434.671126	-2.996700	3.151000	-9.441100	28.061749	2.655045E-5	20.743164
2435.675390	-3.009700	3.150700	-9.482300	28.035318	2.694648E-5	20.739792
2436.671132	-3.023300	3.149000	-9.519500	28.086615	2.889362E-5	20.757290
2437.673603	-3.022800	3.147500	-9.513100	28.056343	2.945467E-5	20.747205
2438.677169	-2.973800	3.148500	-9.362200	27.990920	2.628643E-5	20.746310
2439.671818	-2.995100	3.147100	-9.424800	27.960993	2.988370E-5	20.756491
2440.673857	-3.004500	3.145700	-9.450700	28.036464	3.031273E-5	20.769870
2441.675527	-2.994300	3.145600	-9.418100	28.032299	2.932266E-5	20.744813
2442.675731	-3.001500	3.144700	-9.438000	28.076576	3.060975E-5	20.728217
2443.676031	-2.987300	3.144600	-9.392900	28.068519	2.754053E-5	20.763731
2444.676914	-2.983000	3.144600	-9.379700	28.120503	3.008171E-5	20.728341
2445.675924	-3.035900	3.141500	-9.535900	28.104218	2.727651E-5	20.742294
2446.676569	-3.009000	3.141300	-9.451900	28.057408	2.985070E-5	20.761554
2447.681179	-2.990900	3.141000	-9.393300	28.005716	2.552738E-5	20.757885
2448.679772	-2.995800	3.141100	-9.409200	27.941306	2.866261E-5	20.737149
2449.678615	-3.005300	3.139200	-9.433700	27.980901	2.631944E-5	20.737648
2450.680529	-2.987600	3.137100	-9.371400	28.062983	2.592341E-5	20.759580
2451.678677	-3.001300	3.138100	-9.417700	28.113013	2.711149E-5	20.727913
2452.681072	-2.986100	3.136600	-9.365200	28.052747	2.618743E-5	20.732205
2453.682039	-2.999500	3.136200	-9.405600	28.074238	2.625343E-5	20.755737
2454.680252	-2.985600	3.136200	-9.362400	28.100193	2.661646E-5	20.752941
2455.680837	-3.003400	3.134600	-9.413600	28.100271	2.608842E-5	20.753019
2456.682650	-2.984500	3.132900	-9.349400	28.179644	2.664946E-5	20.740464
2457.682504	-2.996900	3.132400	-9.386700	28.199400	2.641844E-5	20.753242
2458.681100	-3.014500	3.130400	-9.435300	28.193949	2.503234E-5	20.771936
2459.682878	-3.004400	3.130400	-9.404600	28.237024	2.552738E-5	20.750818
2460.681613	-3.000800	3.130100	-9.392100	28.198708	2.849760E-5	20.753968
2461.683463	-3.007100	3.129500	-9.410200	28.142190	2.701249E-5	20.758235
2462.681888	-2.997500	3.128100	-9.376000	28.123248	2.622043E-5	20.756710
2463.682601	-2.995200	3.127900	-9.367500	28.061397	2.688048E-5	20.741388
2464.683103	-3.018400	3.127300	-9.438600	28.061471	2.404227E-5	20.747152
2465.685531	-2.978000	3.125500	-9.306000	28.070494	2.628643E-5	20.763822
2466.684897	-3.006200	3.124700	-9.391500	28.119009	2.661646E-5	20.775676
2467.685072	-3.000900	3.124000	-9.374000	28.171113	2.664946E-5	20.763171
2468.685669	-2.998800	3.124000	-9.366500	28.187127	2.569239E-5	20.753214
2469.685726	-3.000300	3.121900	-9.365100	28.134946	2.506534E-5	20.766589
2470.686666	-3.006300	3.121300	-9.383100	28.126496	2.285418E-5	20.767566
2471.687471	-2.990900	3.121300	-9.334800	28.171879	2.519735E-5	20.757778
2472.689689	-3.024600	3.118500	-9.430900	28.176712	2.717750E-5	20.773550
2473.687419	-3.016900	3.117900	-9.405500	28.204152	2.674847E-5	20.756129
2474.688599	-2.984400	3.117500	-9.303500	28.236497	2.658346E-5	20.765935
2475.688003	-3.014700	3.114900	-9.389700	28.289492	2.450430E-5	20.749116
2476.687883	-2.992900	3.115600	-9.323500	28.283215	2.628643E-5	20.751805
2477.687871	-3.013800	3.114100	-9.384200	28.261871	2.496634E-5	20.772516
2478.689099	-3.027500	3.111500	-9.419400	28.260680	2.631944E-5	20.776532
2479.689125	-2.990000	3.112800	-9.305700	28.294018	2.526336E-5	20.786391
2480.689867	-3.019800	3.112400	-9.397700	28.263776	2.315120E-5	20.770641
2481.692943	-3.026800	3.111100	-9.415000	28.292946	2.381125E-5	20.778199
2482.688957	-3.003400	3.109500	-9.337700	28.305309	2.285418E-5	20.783061
2483.688672	-2.990000	3.109800	-9.297300	28.232286	2.325021E-5	20.809111
2484.691347	-2.978400	3.108100	-9.256300	28.208987	2.189711E-5	20.768584
2485.690180	-2.986200	3.106800	-9.276600	28.207567	2.414128E-5	20.784224
2486.690550	-3.008500	3.106000	-9.343000	28.260953	2.476832E-5	20.780601
2487.690671	-3.013000	3.105400	-9.355300	28.314590	2.440530E-5	20.782922
2488.691574	-2.976000	3.105700	-9.241700	28.345048	2.235914E-5	20.766649
2489.691846	-2.996500	3.102300	-9.295800	28.341400	2.572539E-5	20.797589
2490.691326	-2.992900	3.103500	-9.287900	28.336491	2.143508E-5	20.774628
2491.691473	-3.022800	3.100600	-9.371900	28.318965	2.097304E-5	20.782112
2492.691159	-2.994900	3.100400	-9.284300	28.308728	2.222714E-5	20.789348
2493.696110	-3.004300	3.099000	-9.308500	28.324683	2.166609E-5	20.788817
2494.691258	-2.995400	3.098100	-9.279900	28.241226	2.107205E-5	20.790137
2495.691799	-2.995300	3.097500	-9.277300	28.223080	2.097304E-5	20.803636
2496.692346	-2.980900	3.096300	-9.228300	28.222855	2.034600E-5	20.792030
2497.692881	-3.002400	3.096100	-9.294400	28.305516	1.985096E-5	20.803183
2498.692153	-2.994700	3.093500	-9.263500	28.331265	1.961994E-5	20.773159
2499.693553	-2.986200	3.094900	-9.240600	28.304620	2.011498E-5	20.789479
2500.693414	-2.991600	3.092600	-9.251600	28.268502	2.219413E-5	20.785830
2501.693762	-3.011900	3.091000	-9.308500	28.274719	2.117106E-5	20.803944
2502.694607	-3.018100	3.089100	-9.321600	28.342732	1.981796E-5	20.801775
2503.693934	-2.986900	3.089500	-9.227100	28.262401	2.041200E-5	20.808611
2504.694768	-2.982700	3.088300	-9.210100	28.244800	2.100605E-5	20.795158
2505.694475	-2.990500	3.086400	-9.228900	28.218525	2.097304E-5	20.792412
2506.693431	-3.008200	3.083600	-9.274200	28.225688	2.034600E-5	20.778286
2507.695705	-2.973600	3.085600	-9.174000	28.202435	2.245815E-5	20.810352
2508.697133	-3.008100	3.083600	-9.275300	28.265515	2.064302E-5	20.799418
2509.696073	-2.981900	3.083800	-9.195300	28.244667	2.120406E-5	20.803084
2510.697688	-3.011900	3.081700	-9.279700	28.311314	2.103905E-5	20.789107
2511.698127	-3.009600	3.081100	-9.272200	28.334688	1.975195E-5	20.798891
2512.695690	-3.008000	3.079400	-9.261400	28.367697	1.829985E-5	20.815532
2513.700778	-3.008400	3.077700	-9.258000	28.337801	2.037900E-5	20.810561
2514.698419	-2.995400	3.076500	-9.214400	28.300574	2.018098E-5	20.817648
2515.697031	-2.980000	3.075500	-9.163700	28.350983	2.097304E-5	20.817669
2516.699415	-3.000900	3.073700	-9.223000	28.339334	2.113806E-5	20.815422
2517.698850	-2.996200	3.072800	-9.205700	28.422108	2.245815E-5	20.789716
2518.696668	-3.000300	3.073500	-9.220600	28.467159	2.014798E-5	20.807107
2519.700047	-3.005700	3.071700	-9.231900	28.455483	2.074203E-5	20.806729
2520.699851	-3.016400	3.070200	-9.259700	28.421233	2.027999E-5	20.822025
2521.698118	-2.985700	3.068400	-9.159800	28.407153	2.176510E-5	20.821597
2522.700854	-3.039200	3.067200	-9.320500	28.410343	2.282118E-5	20.819594
2523.702510	-3.003500	3.066900	-9.210500	28.408829	2.027999E-5	20.815224
2524.700902	-2.987800	3.065700	-9.159000	28.440152	2.011498E-5	20.810731
2525.701838	-2.989100	3.065200	-9.161100	28.379979	1.915791E-5	20.831218
2526.700815	-2.983100	3.063500	-9.136500	28.343393	2.011498E-5	20.811923
2527.701499	-3.007100	3.060800	-9.203300	28.336027	2.018098E-5	20.801662
2528.704044	-2.994700	3.062300	-9.169700	28.359049	2.080803E-5	20.835747
2529.701502	-2.997200	3.059600	-9.169100	28.419044	1.932292E-5	20.817450
2530.701486	-2.990800	3.059900	-9.151200	28.481914	2.014798E-5	20.829552
2531.702026	-2.987400	3.058900	-9.137100	28.498236	1.965295E-5	20.821332
2532.704877	-2.989100	3.056500	-9.135100	28.506637	1.823384E-5	20.820784
2533.703309	-3.017600	3.054700	-9.217100	28.462845	1.912491E-5	20.832160
2534.702615	-3.009400	3.053300	-9.188000	28.411936	1.750779E-5	20.834474
2535.706977	-2.970000	3.054400	-9.070600	28.428069	1.760680E-5	20.835546
2536.702383	-3.008600	3.050400	-9.176400	28.447469	1.909190E-5	20.831375
2537.708018	-3.026200	3.049400	-9.227500	28.461591	1.806883E-5	20.838483
2538.706323	-2.979800	3.050300	-9.087800	28.347984	1.826684E-5	20.844994
2539.704635	-2.995000	3.047900	-9.127500	28.336706	1.711176E-5	20.826527
2540.708378	-3.016400	3.046100	-9.187600	28.284234	1.648471E-5	20.832490
2541.706489	-2.989400	3.045600	-9.103700	28.318088	1.476859E-5	20.825324
2542.702902	-2.984600	3.045000	-9.087400	28.328328	1.671573E-5	20.821411
2543.715683	-3.004400	3.041300	-9.137400	28.358857	1.724377E-5	20.818011
2544.708770	-3.012500	3.041900	-9.161800	28.343637	1.529663E-5	20.817859
2545.705444	-3.016800	3.039100	-9.167900	28.407309	1.843186E-5	20.845461
2546.706234	-3.033200	3.039100	-9.217600	28.476596	1.460357E-5	20.833679
2547.708835	-2.981300	3.038900	-9.059100	28.501325	1.711176E-5	20.832504
2548.705984	-2.989700	3.036700	-9.077900	28.466901	1.645171E-5	20.829132
2549.711685	-2.986800	3.036100	-9.067300	28.434068	1.328348E-5	20.823570
2550.709119	-3.017000	3.033300	-9.150600	28.459364	1.635270E-5	20.835293
2551.705067	-3.023300	3.031800	-9.165000	28.527593	1.440556E-5	20.851844
2552.712867	-3.001100	3.030900	-9.094900	28.533317	1.727677E-5	20.818255
2553.710986	-3.010000	3.030600	-9.121800	28.547740	1.539563E-5	20.846056
2554.707753	-3.000000	3.027800	-9.082500	28.565308	1.463658E-5	20.843834
2555.708986	-2.999100	3.027100	-9.075900	28.536883	1.394353E-5	20.835597
2556.708766	-3.023600	3.024600	-9.144000	28.558319	1.513161E-5	20.836796
2557.707911	-2.979100	3.025300	-9.011500	28.559560	1.559365E-5	20.847054
2558.714828	-3.046600	3.022200	-9.206000	28.536363	1.325048E-5	20.836970
2559.711390	-2.994000	3.021900	-9.045900	28.519934	1.486759E-5	20.844131
2560.709450	-2.987700	3.020900	-9.024000	28.540035	1.490060E-5	20.845408
2561.710532	-2.997400	3.019400	-9.050200	28.577921	1.288745E-5	20.851795
2562.708846	-3.033200	3.017000	-9.150200	28.664102	1.562665E-5	20.835703
2563.709041	-3.024000	3.015600	-9.117600	28.695172	1.539563E-5	20.845659
2564.712018	-2.980000	3.016600	-8.988100	28.721829	1.615469E-5	20.834577
2565.713231	-3.018700	3.012900	-9.093800	28.720023	1.579166E-5	20.845086
2566.711159	-3.014800	3.013200	-9.082600	28.685412	1.503261E-5	20.837726
2567.712543	-3.001900	3.011500	-9.039500	28.552301	1.440556E-5	20.859657
2568.712850	-3.042800	3.009400	-9.155800	28.495334	1.437256E-5	20.838324
2569.711631	-3.036800	3.007700	-9.132400	28.478830	1.598968E-5	20.830239
2570.713580	-3.039300	3.007000	-9.137900	28.451893	1.453757E-5	20.840571
2571.712216	-2.966500	3.008200	-8.922700	28.442255	1.618769E-5	20.854098
2572.712032	-2.998500	3.005400	-9.011300	28.470134	1.678173E-5	20.848033
2573.711962	-3.000100	3.004500	-9.012400	28.555083	1.575866E-5	20.847761
2574.714867	-3.001300	3.002500	-9.009800	28.561309	1.605568E-5	20.862565
2575.712094	-3.034700	2.999400	-9.101300	28.516848	1.615469E-5	20.842921
2576.713380	-2.979600	3.000400	-8.939100	28.492144	1.615469E-5	20.838430
2577.714270	-3.014500	2.997200	-9.034500	28.545147	1.674873E-5	20.861935
2578.716146	-3.002000	2.997200	-8.997300	28.541802	1.589067E-5	20.849084
2579.714888	-3.023300	2.994200	-9.051900	28.513279	1.466958E-5	20.861610
2580.716371	-3.027700	2.991800	-9.056200	28.529139	1.704575E-5	20.855772
2581.715790	-3.001500	2.992300	-8.980800	28.619312	1.463658E-5	20.847488
2582.715043	-2.981300	2.992600	-8.920100	28.655856	1.763980E-5	20.863906
2583.717874	-3.015300	2.988900	-9.011300	28.704889	1.787081E-5	20.854972
2584.715787	-3.019400	2.988100	-9.021500	28.728770	1.625370E-5	20.887085
2585.717623	-3.001800	2.985500	-8.961100	28.713035	1.506561E-5	20.854643
2586.717905	-2.982100	2.984800	-8.900000	28.729339	1.886089E-5	20.866797
2587.717276	-3.013300	2.984000	-8.990700	28.740584	1.674873E-5	20.877175
2588.717353	-2.988200	2.981600	-8.908700	28.720616	1.770580E-5	20.836676
2589.718840	-3.010800	2.980500	-8.972700	28.677578	1.585767E-5	20.881042
2590.717239	-2.993500	2.979200	-8.917400	28.640262	1.641871E-5	20.877596
2591.720801	-3.019800	2.978400	-8.993200	28.592439	1.410854E-5	20.875898
2592.718819	-3.005100	2.975800	-8.941700	28.613052	1.450457E-5	20.873899
2593.719275	-3.013400	2.974400	-8.962100	28.685276	1.595667E-5	20.870778
2594.718833	-3.056600	2.972000	-9.083000	28.659827	1.605568E-5	20.866483
2595.725712	-3.013100	2.972100	-8.953700	28.614679	1.674873E-5	20.880753
2596.723171	-3.007400	2.969100	-8.928300	28.622260	1.615469E-5	20.878432
2597.718905	-2.967500	2.969700	-8.811300	28.693764	1.453757E-5	20.878853
2598.722081	-2.999900	2.967300	-8.900500	28.707679	1.605568E-5	20.875800
2599.720583	-2.997900	2.966900	-8.892900	28.727823	1.757379E-5	20.879493
2600.720750	-2.989300	2.964500	-8.860600	28.762702	1.318447E-5	20.900875
2601.722780	-3.018500	2.961800	-8.939400	28.727496	1.684774E-5	20.884380
2602.722055	-3.013100	2.962000	-8.924300	28.719315	1.519762E-5	20.880881
2603.722258	-3.004100	2.960300	-8.892100	28.734551	1.450457E-5	20.876787
2604.723085	-2.983900	2.959900	-8.831500	28.766286	1.424055E-5	20.871770
2605.721921	-2.996500	2.957200	-8.860800	28.776786	1.440556E-5	20.874286
2606.726161	-3.040000	2.954400	-8.980200	28.798881	1.503261E-5	20.891326
2607.724788	-2.988700	2.954200	-8.828200	28.779822	1.532963E-5	20.890619
2608.721930	-3.000400	2.953600	-8.861300	28.777542	1.509861E-5	20.895909
2609.725185	-3.001500	2.952300	-8.860100	28.779597	1.298646E-5	20.885652
2610.723007	-2.980200	2.949400	-8.788500	28.745449	1.424055E-5	20.869748
2611.722103	-3.048800	2.946300	-8.981900	28.738487	1.513161E-5	20.873166
2612.723666	-3.008900	2.946100	-8.863600	28.746486	1.325048E-5	20.896869
2613.724701	-3.005900	2.944500	-8.850100	28.731416	1.265643E-5	20.881216
2614.721422	-3.000400	2.944900	-8.834500	28.777101	1.410854E-5	20.906369
2615.722546	-2.984900	2.942100	-8.780900	28.681837	1.400953E-5	20.898606
2616.724282	-2.997800	2.939200	-8.810000	28.650068	1.450457E-5	20.895532
2617.723176	-2.993500	2.938600	-8.795700	28.754100	1.476859E-5	20.919234
2618.724408	-3.006700	2.936100	-8.826900	28.888166	1.285445E-5	20.882173
2619.724116	-3.010000	2.935600	-8.835100	28.947367	1.315147E-5	20.919999
2620.722964	-2.999100	2.933400	-8.797400	29.016326	1.209539E-5	20.894174
2621.725238	-3.021200	2.932500	-8.858500	29.010353	1.394353E-5	20.891001
2622.727674	-2.991500	2.930200	-8.765000	29.002352	1.513161E-5	20.914706
2623.724480	-3.005600	2.928700	-8.801300	28.950507	1.529663E-5	20.893768
2624.725185	-3.016200	2.927700	-8.829600	28.841834	1.067629E-5	20.908989
2625.726156	-2.993400	2.925200	-8.755300	28.809082	1.367951E-5	20.898757
2626.723843	-3.002600	2.922800	-8.775200	28.729528	1.499960E-5	20.905391
2627.725290	-3.009100	2.921600	-8.790300	28.760153	1.361350E-5	20.876972
2628.730682	-2.996600	2.920700	-8.751600	28.786805	1.318447E-5	20.881059
2629.728073	-3.004800	2.919700	-8.772000	28.807144	1.430655E-5	20.888744
2630.728358	-3.007300	2.917500	-8.773500	28.835087	1.407554E-5	20.881332
2631.732033	-3.029600	2.914500	-8.829200	28.904251	1.262343E-5	20.868980
2632.726625	-3.029400	2.912700	-8.822300	28.993595	1.539563E-5	20.881704
2633.725938	-3.019600	2.911400	-8.790100	29.010312	1.318447E-5	20.872469
2634.726085	-2.990100	2.909600	-8.699300	29.095959	1.440556E-5	20.863935
2635.726586	-3.019900	2.906200	-8.775400	29.118669	1.377851E-5	20.866430
2636.728686	-3.007500	2.906000	-8.739300	29.132561	1.516462E-5	20.869996
2637.728672	-2.993900	2.905300	-8.697700	29.083918	1.641871E-5	20.876931
2638.727285	-3.014400	2.903200	-8.750500	29.051767	1.519762E-5	20.858289
2639.728906	-2.997400	2.900800	-8.694500	29.054440	1.585767E-5	20.883739
2640.736044	-2.978300	2.899800	-8.635400	29.024867	1.245842E-5	20.875279
2641.737186	-2.994600	2.898300	-8.678700	29.013274	1.394353E-5	20.859807
2642.731891	-2.960300	2.897300	-8.576200	28.973345	1.278844E-5	20.860355
2643.735425	-3.000400	2.895700	-8.687500	28.960269	1.315147E-5	20.852872
2644.728993	-3.001800	2.891800	-8.679800	28.939137	1.374551E-5	20.870461
2645.730818	-3.012500	2.890900	-8.707700	28.896055	1.331648E-5	20.870680
2646.731367	-2.978600	2.889900	-8.607000	28.871461	1.424055E-5	20.855862
2647.730276	-3.024000	2.886600	-8.727700	28.800710	1.285445E-5	20.845282
2648.733794	-3.004500	2.885700	-8.669600	28.787450	1.443856E-5	20.860848
2649.734554	-3.004500	2.884000	-8.664500	28.829247	1.417454E-5	20.846528
2650.729176	-3.008900	2.882200	-8.671300	28.843042	1.407554E-5	20.858053
2651.729830	-3.055000	2.878700	-8.793100	28.817677	1.427355E-5	20.872329
2652.734856	-3.016300	2.877300	-8.677600	28.845497	1.605568E-5	20.854362
2653.729042	-2.982600	2.875900	-8.577300	28.922805	1.625370E-5	20.856379
2654.733835	-3.017400	2.872500	-8.666100	28.923430	1.311847E-5	20.846103
2655.734625	-3.030700	2.872200	-8.703800	29.003237	1.222740E-5	20.857281
2656.729820	-2.996300	2.869800	-8.598200	28.970564	1.480159E-5	20.854235
2657.735642	-2.982600	2.869100	-8.556700	29.030729	1.579166E-5	20.841359
2658.734122	-3.008200	2.865700	-8.620200	29.121849	1.394353E-5	20.853513
2659.731880	-3.007200	2.863800	-8.611000	29.209716	1.391052E-5	20.850070
2660.736475	-3.014100	2.861400	-8.623500	29.174747	1.556064E-5	20.842806
2661.735265	-2.995500	2.860800	-8.568500	29.175266	1.417454E-5	20.835269
2662.731290	-3.001500	2.857400	-8.576000	29.179873	1.493360E-5	20.848920
2663.736428	-2.987600	2.856600	-8.532900	29.157238	1.575866E-5	20.828483
2664.736563	-3.011200	2.855300	-8.597300	29.160757	1.552764E-5	20.853364
2665.732743	-3.002000	2.852100	-8.560300	29.066666	1.523062E-5	20.853860
2666.736602	-2.991600	2.850000	-8.524800	29.081109	1.460357E-5	20.844232
2667.735951	-3.031200	2.847700	-8.631500	29.126431	1.519762E-5	20.833949
2668.732883	-2.989900	2.847400	-8.512600	29.182647	1.635270E-5	20.848396
2669.740647	-2.989400	2.844700	-8.503200	29.145475	1.466958E-5	20.839862
2670.734889	-2.999400	2.840700	-8.518600	29.113059	1.536263E-5	20.857932
2671.732388	-2.991200	2.840700	-8.496500	29.102752	1.622069E-5	20.817677
2672.741464	-3.004800	2.837300	-8.524600	29.196044	1.371251E-5	20.830128
2673.738175	-2.991700	2.835200	-8.480900	29.253421	1.839885E-5	20.850491
2674.736492	-2.982000	2.834000	-8.450000	29.205725	1.503261E-5	20.843203
2675.740244	-3.010400	2.830600	-8.520300	29.063470	1.552764E-5	20.845425
2676.737073	-2.974100	2.831000	-8.418700	28.971951	1.625370E-5	20.839986
2677.734121	-2.979800	2.827200	-8.423400	28.987430	1.371251E-5	20.833769
2678.736016	-2.973200	2.825600	-8.400200	29.041374	1.810183E-5	20.835489
2679.736636	-3.006700	2.821900	-8.482400	29.037406	1.608868E-5	20.850931
2680.735078	-2.995400	2.818800	-8.442200	29.085704	1.836585E-5	20.826577
2681.735257	-3.029700	2.816400	-8.532200	29.123940	1.605568E-5	20.844240
2682.738370	-3.004800	2.814600	-8.456200	29.225354	1.790382E-5	20.836905
2683.734551	-3.010000	2.813600	-8.467900	29.297238	1.678173E-5	20.825898
2684.737252	-2.988700	2.809400	-8.395800	29.292158	1.961994E-5	20.832632
2685.737840	-2.990700	2.806900	-8.393700	29.351708	1.671573E-5	20.837172
2686.733682	-3.020300	2.805600	-8.472600	29.279550	1.704575E-5	20.818977
2687.734001	-3.001700	2.802800	-8.412200	29.194462	1.516462E-5	20.823319
2688.736631	-2.950000	2.801200	-8.262500	29.159194	1.658372E-5	20.852737
2689.736070	-3.032000	2.795000	-8.473900	29.241507	1.655072E-5	20.809088
2690.740170	-3.017100	2.794400	-8.429800	29.253021	1.796982E-5	20.817846
2691.740301	-3.001100	2.792000	-8.378300	29.291549	1.404253E-5	20.829647
2692.737771	-3.003300	2.788000	-8.372200	29.337157	1.777181E-5	20.831990
2693.742162	-3.003400	2.786900	-8.369300	29.366002	1.559365E-5	20.831664
2694.740985	-2.987100	2.782100	-8.309800	29.347202	1.457057E-5	20.841166
2695.736226	-2.988300	2.781000	-8.309700	29.244887	1.513161E-5	20.815813
2696.740417	-2.992500	2.778700	-8.313900	29.259518	1.420755E-5	20.823446
2697.740953	-3.014200	2.773300	-8.358900	29.334195	1.285445E-5	20.815729
2698.736518	-2.986800	2.773400	-8.283100	29.393248	1.371251E-5	20.817874
2699.742768	-3.000800	2.769000	-8.307800	29.392777	1.061028E-5	20.825460
2700.743336	-2.963600	2.766700	-8.198400	29.350784	1.516462E-5	20.825336
2701.737670	-3.025000	2.762300	-8.354500	29.397426	1.311847E-5	20.824930
2702.743011	-2.980100	2.760300	-8.223400	29.406291	1.407554E-5	20.821062
2703.743616	-3.027900	2.757100	-8.345700	29.337876	1.199638E-5	20.826077
2704.740465	-2.989100	2.753700	-8.229600	29.354191	1.245842E-5	20.821183
2705.744944	-2.972100	2.751600	-8.176700	29.400562	1.377851E-5	20.810547
2706.742458	-3.012600	2.747600	-8.276300	29.442033	1.367951E-5	20.826269
2707.740691	-2.997000	2.744500	-8.223800	29.406131	1.417454E-5	20.816634
2708.746125	-2.995500	2.742300	-8.213400	29.337249	1.176537E-5	20.823074
2709.744488	-3.034500	2.736100	-8.301900	29.302206	1.374551E-5	20.832327
2710.742929	-2.998300	2.733800	-8.195400	29.285395	1.344849E-5	20.801161
2711.744995	-3.031300	2.730900	-8.276700	29.267735	1.348149E-5	20.820346
2712.747541	-3.027600	2.727000	-8.255200	29.328279	1.196338E-5	20.819724
2713.744362	-2.998600	2.724400	-8.168800	29.246738	1.222740E-5	20.813885
2714.745651	-2.987900	2.720900	-8.129000	29.249705	1.351449E-5	20.821143
2715.746081	-3.020700	2.716100	-8.203200	29.362423	1.311847E-5	20.823789
2716.743096	-2.995200	2.714500	-8.129500	29.424099	1.417454E-5	20.802028
2717.746344	-3.000700	2.708600	-8.126500	29.501642	1.255742E-5	20.820920
2718.747051	-3.040400	2.704500	-8.222100	29.505900	1.433956E-5	20.808617
2719.746390	-2.999800	2.701300	-8.102800	29.454430	1.450457E-5	20.806048
2720.745319	-3.003300	2.697700	-8.101000	29.444822	1.374551E-5	20.825286
2721.750027	-3.026300	2.692300	-8.146900	29.459952	1.447156E-5	20.823467
2722.749846	-3.007100	2.689900	-8.087500	29.487085	1.490060E-5	20.810988
2723.751819	-2.982900	2.687100	-8.013500	29.495598	1.460357E-5	20.833319
2724.751334	-2.962100	2.682000	-7.943100	29.503149	1.348149E-5	20.818171
2725.750302	-2.993000	2.677100	-8.011600	29.495054	1.331648E-5	20.801951
2726.751419	-2.980800	2.674800	-7.971600	29.531544	1.391052E-5	20.813603
2727.752011	-2.986600	2.669900	-7.973000	29.538031	1.318447E-5	20.799279
2728.750211	-3.000200	2.664200	-7.992100	29.603905	1.529663E-5	20.804046
2729.754294	-2.971300	2.661100	-7.906100	29.576551	1.420755E-5	20.828153
2730.751822	-3.003100	2.655500	-7.973600	29.568331	1.255742E-5	20.803745
2731.750857	-2.982800	2.651800	-7.909100	29.531123	1.226040E-5	20.773824
2732.754539	-3.020800	2.646000	-7.992200	29.530354	1.183137E-5	20.802447
2733.753643	-2.989100	2.641800	-7.896100	29.537656	1.457057E-5	20.817867
2734.751362	-3.024100	2.635300	-7.968300	29.546347	1.212839E-5	20.810033
2735.752326	-3.022000	2.631500	-7.951300	29.567095	1.268943E-5	20.784956
2736.754504	-3.002100	2.626100	-7.883500	29.544763	1.321747E-5	20.801325
2737.752359	-2.989600	2.622000	-7.838300	29.616903	1.242541E-5	20.819045
2738.752066	-2.992200	2.616000	-7.827000	29.674999	1.338248E-5	20.805543
2739.753468	-2.993100	2.611500	-7.815600	29.600788	1.298646E-5	20.796162
2740.753523	-3.006200	2.605600	-7.831800	29.605888	1.226040E-5	20.802251
2741.754633	-2.983900	2.601400	-7.761300	29.573904	1.506561E-5	20.790872
2742.755880	-2.995800	2.596600	-7.777900	29.615200	1.407554E-5	20.796940
2743.753299	-2.981000	2.589300	-7.717700	29.596580	1.499960E-5	20.787652
2744.755168	-3.020600	2.583300	-7.801900	29.599306	1.301946E-5	20.798461
2745.754521	-2.993200	2.578500	-7.716800	29.683569	1.668273E-5	20.785259
2746.755003	-2.999700	2.572800	-7.716800	29.683421	1.503261E-5	20.780369
2747.756383	-3.005900	2.566300	-7.712800	29.745675	1.292045E-5	20.790977
2748.758226	-2.980900	2.562800	-7.638000	29.669167	1.420755E-5	20.785913
2749.756977	-2.987600	2.555300	-7.633800	29.663699	1.483459E-5	20.772813
2750.759061	-2.957800	2.551500	-7.546200	29.683550	1.282144E-5	20.772913
2751.760632	-3.016800	2.542900	-7.669600	29.766546	1.275544E-5	20.780251
2752.759727	-3.015800	2.537400	-7.651100	29.777088	1.384452E-5	20.774285
2753.759634	-3.021400	2.530900	-7.646100	29.772017	1.410854E-5	20.784345
2754.761983	-3.004100	2.524800	-7.584300	29.774442	1.473558E-5	20.782997
2755.759265	-3.020000	2.519300	-7.606600	29.793947	1.592367E-5	20.782275
2756.759375	-2.962900	2.513900	-7.447600	29.814097	1.199638E-5	20.778885
2757.761274	-3.001300	2.505900	-7.519900	29.880871	1.361350E-5	20.780781
2758.760477	-3.000700	2.498800	-7.497300	29.768187	1.410854E-5	20.789967
