LabVIEW Measurement	
Writer_Version	2
Reader_Version	2
Separator	Tab
Decimal_Separator	.
Multi_Headings	No
X_Columns	One
Time_Pref	Absolute
Operator	admin
Description	Clolumns are: time, Current, Voltage, Power, Battery Temp, and Chamber Temp
Date	2024/08/16
Time	13:07:17.8513970375061035156
***End_of_Header***	
	
Channels	6						
Samples	1	1	1	1	1	1	
Date	2024/09/19	2024/09/19	2024/09/19	2024/09/19	2024/09/19	2024/09/19	
Time	08:57:40.1501221656799316406	08:57:40.156177520751953125	08:57:40.164142608642578125	08:57:40.1345233917236328125	08:57:40.1345233917236328125	08:57:40.1345233917236328125	
X_Dimension	Time	Time	Time	Time	Time	Time	
X0	0.0000000000000000E+0	0.0000000000000000E+0	0.0000000000000000E+0	0.0000000000000000E+0	0.0000000000000000E+0	0.0000000000000000E+0	
Delta_X	1.000000	1.000000	1.000000	1.000000	1.000000	1.000000	
***End_of_Header***							
X_Value	Untitled	Untitled 1	Untitled 2	Untitled 3	Untitled 4	Untitled 5	Comment
0.000000	0.014085	4.085700	0.057567	20.812413	0.000468	20.831379
0.999719	-2.993700	3.913700	-11.716000	20.810215	0.000468	20.809741
2.006108	-3.005900	3.906500	-11.742000	20.800560	0.000466	20.825690
3.001085	-3.007800	3.901500	-11.735000	20.810485	0.000466	20.833718
4.010871	-3.000100	3.899000	-11.696000	20.821619	0.000465	20.832050
5.003790	-2.976100	3.897500	-11.599000	20.821089	0.000464	20.834365
6.000483	-2.987700	3.894100	-11.633000	20.845073	0.000465	20.834168
7.010488	-3.018200	3.890700	-11.742000	20.844346	0.000462	20.827751
8.005011	-3.005200	3.888900	-11.687000	20.837684	0.000462	20.847166
9.001744	-2.993800	3.888200	-11.640000	20.852038	0.000463	20.860572
10.010012	-2.997600	3.885700	-11.647000	20.862763	0.000464	20.849014
11.002171	-2.995300	3.885200	-11.636000	20.869068	0.000463	20.796999
12.007056	-3.014400	3.882500	-11.703000	20.895250	0.000460	20.857794
13.003332	-3.007900	3.880600	-11.672000	20.878957	0.000459	20.821587
14.004871	-3.019900	3.880000	-11.716000	20.892904	0.000457	20.818465
15.000979	-2.997200	3.879800	-11.627000	20.896623	0.000459	20.848736
16.004409	-2.982600	3.877900	-11.565000	20.918449	0.000461	20.842116
17.005165	-3.002200	3.877000	-11.639000	20.916855	0.000460	20.833884
18.002783	-3.002000	3.875700	-11.634000	20.913210	0.000457	20.838773
19.003371	-2.965000	3.877100	-11.495000	20.943053	0.000456	20.860084
20.014570	-2.999700	3.874500	-11.621000	20.923443	0.000457	20.849481
21.005251	-2.985700	3.874800	-11.567000	20.940258	0.000457	20.865348
22.006216	-2.986900	3.874900	-11.572000	20.961845	0.000456	20.837153
23.004723	-3.000800	3.872200	-11.619000	20.952036	0.000456	20.850577
24.008008	-3.017000	3.872300	-11.681000	20.949838	0.000455	20.838896
25.009455	-3.001700	3.870200	-11.617000	21.002394	0.000455	20.843096
26.008923	-3.016200	3.870200	-11.673000	20.992204	0.000454	20.836697
27.011410	-3.012800	3.869500	-11.657000	20.995406	0.000453	20.866925
28.005729	-3.012900	3.869000	-11.656000	20.997092	0.000454	20.837319
29.005841	-3.012300	3.869400	-11.655000	21.018284	0.000455	20.853773
30.011412	-3.024300	3.868400	-11.698000	21.025764	0.000454	20.860305
31.005647	-2.997300	3.867700	-11.592000	21.033251	0.000456	20.827492
32.005128	-3.008900	3.868300	-11.638000	21.032180	0.000453	20.852024
33.013961	-3.003600	3.868200	-11.617000	21.057280	0.000454	20.831137
34.006757	-2.992600	3.867300	-11.573000	21.061676	0.000453	20.837905
35.007694	-3.008600	3.866100	-11.630000	21.082534	0.000452	20.843595
36.008018	-3.002100	3.867300	-11.608000	21.077639	0.000452	20.844388
37.008649	-3.002200	3.864700	-11.601000	21.074451	0.000451	20.816544
38.009306	-2.971200	3.866600	-11.487000	21.095161	0.000451	20.828250
39.010496	-2.990000	3.866900	-11.561000	21.109504	0.000452	20.823157
40.010739	-2.998100	3.864300	-11.584000	21.130165	0.000451	20.846668
41.008790	-2.990800	3.864400	-11.556000	21.113426	0.000451	20.821865
42.012225	-2.994500	3.864400	-11.570000	21.140642	0.000450	20.825381
43.011573	-2.992200	3.865300	-11.565000	21.125899	0.000450	20.805417
44.012502	-3.011400	3.864100	-11.636000	21.153971	0.000448	20.827333
45.014227	-2.997600	3.864600	-11.583000	21.184054	0.000451	20.822813
46.013964	-3.001400	3.863700	-11.596000	21.162675	0.000450	20.811859
47.011503	-2.998300	3.861900	-11.579000	21.166221	0.000449	20.832475
48.014699	-3.004300	3.863800	-11.606000	21.183439	0.000451	20.839742
49.018905	-3.003200	3.862300	-11.598000	21.180890	0.000450	20.824390
50.020944	-2.999700	3.861900	-11.584000	21.218434	0.000451	20.794143
51.019826	-3.006300	3.863000	-11.613000	21.189380	0.000449	20.819132
52.018023	-2.995100	3.861200	-11.564000	21.228328	0.000450	20.817316
53.016716	-2.994700	3.862200	-11.565000	21.230673	0.000452	20.822033
54.012593	-3.010200	3.861200	-11.622000	21.251201	0.000448	20.829293
55.014122	-3.018000	3.859600	-11.647000	21.267930	0.000451	20.821373
56.017435	-3.005300	3.861500	-11.604000	21.259936	0.000450	20.820488
57.015126	-2.976300	3.860000	-11.488000	21.253318	0.000450	20.809126
58.017394	-2.983700	3.859800	-11.515000	21.275015	0.000452	20.791951
59.015763	-3.006100	3.859500	-11.601000	21.280710	0.000451	20.793381
60.016933	-3.014700	3.858500	-11.631000	21.289136	0.000448	20.800388
61.017843	-2.992200	3.859200	-11.546000	21.306991	0.000449	20.809242
62.020584	-3.013700	3.858500	-11.628000	21.302824	0.000448	20.812659
63.017711	-3.024500	3.859500	-11.672000	21.332731	0.000449	20.803700
64.016932	-2.983200	3.859100	-11.511000	21.324274	0.000450	20.798558
65.018715	-3.004400	3.859300	-11.594000	21.357450	0.000450	20.797610
66.019956	-3.025100	3.857100	-11.667000	21.365057	0.000453	20.810910
67.017528	-2.988600	3.858600	-11.531000	21.348764	0.000447	20.806464
68.020284	-3.001500	3.858400	-11.580000	21.367476	0.000449	20.783459
69.021018	-3.009900	3.858600	-11.613000	21.385527	0.000450	20.799148
70.019419	-3.001500	3.858200	-11.580000	21.400871	0.000449	20.801698
71.019642	-2.999200	3.857100	-11.567000	21.385158	0.000449	20.797357
72.026978	-2.995100	3.857500	-11.553000	21.413912	0.000451	20.819487
73.016801	-3.015700	3.857500	-11.632000	21.413112	0.000449	20.794031
74.017108	-3.016800	3.855600	-11.631000	21.415987	0.000451	20.787424
75.020923	-3.008800	3.856300	-11.602000	21.443595	0.000452	20.805565
76.019934	-2.976500	3.857900	-11.482000	21.421445	0.000450	20.800946
77.021196	-3.010300	3.856200	-11.607000	21.441472	0.000449	20.796802
78.026680	-3.011200	3.856800	-11.612000	21.440727	0.000451	20.796057
79.021467	-3.016400	3.854400	-11.626000	21.454463	0.000449	20.778981
80.018204	-3.004700	3.855500	-11.584000	21.465492	0.000449	20.784326
81.029272	-2.997200	3.856000	-11.556000	21.488614	0.000451	20.793711
82.018252	-3.005800	3.856600	-11.591000	21.481752	0.000450	20.805337
83.022488	-2.992600	3.855300	-11.537000	21.497266	0.000450	20.810429
84.026815	-3.014600	3.853300	-11.615000	21.473998	0.000450	20.790940
85.021482	-2.993700	3.856000	-11.542000	21.511735	0.000450	20.807837
86.024056	-2.991100	3.854300	-11.527000	21.514276	0.000451	20.800423
87.033247	-2.993400	3.853900	-11.534000	21.526695	0.000451	20.775391
88.028172	-3.020700	3.853900	-11.641000	21.548843	0.000452	20.788545
89.022677	-3.004900	3.854600	-11.582000	21.561889	0.000451	20.795436
90.024892	-3.010600	3.853700	-11.601000	21.554438	0.000451	20.778496
91.025550	-3.004500	3.853700	-11.577000	21.579667	0.000453	20.792837
92.024993	-3.015500	3.853700	-11.620000	21.596079	0.000451	20.781285
93.024918	-2.982800	3.853200	-11.493000	21.608416	0.000452	20.766129
94.028411	-3.006500	3.852300	-11.580000	21.600793	0.000452	20.783631
95.027661	-2.999900	3.853700	-11.559000	21.620391	0.000451	20.793760
96.027891	-3.007400	3.852200	-11.585000	21.619093	0.000450	20.771124
97.028331	-3.003000	3.852400	-11.568000	21.629548	0.000451	20.798656
98.025144	-2.997500	3.852200	-11.546000	21.645886	0.000452	20.783237
99.027311	-3.027800	3.851400	-11.659000	21.644335	0.000453	20.770779
100.026402	-2.986600	3.852300	-11.504000	21.651743	0.000453	20.799057
101.026490	-2.989200	3.852000	-11.513000	21.654446	0.000451	20.788959
102.053283	-2.977100	3.853000	-11.470000	21.681582	0.000455	20.778183
103.031667	-3.004600	3.851500	-11.570000	21.664673	0.000452	20.784020
104.028062	-2.982200	3.852200	-11.487000	21.696515	0.000455	20.790757
105.035461	-3.004500	3.850900	-11.569000	21.698810	0.000455	20.776458
106.028828	-3.015200	3.850400	-11.608000	21.712304	0.000454	20.774316
107.025182	-3.011700	3.850300	-11.595000	21.717270	0.000454	20.770277
108.030736	-3.014500	3.851300	-11.608000	21.750434	0.000452	20.774070
109.030313	-3.009800	3.850800	-11.588000	21.727503	0.000453	20.795691
110.029487	-2.988600	3.851200	-11.509000	21.737575	0.000454	20.766891
111.026946	-3.001900	3.851100	-11.559000	21.748946	0.000454	20.769736
112.032022	-3.006900	3.850500	-11.578000	21.763190	0.000454	20.785889
113.053541	-3.006700	3.849900	-11.574000	21.765387	0.000455	20.803260
114.030930	-3.013700	3.849000	-11.599000	21.780603	0.000457	20.782928
115.031758	-3.012300	3.849000	-11.594000	21.757333	0.000456	20.776707
116.028964	-3.013000	3.848700	-11.595000	21.771342	0.000459	20.761805
117.030781	-2.984800	3.849300	-11.488000	21.786811	0.000459	20.786770
118.029510	-2.978300	3.849900	-11.465000	21.796286	0.000455	20.795305
119.035698	-2.998700	3.848300	-11.539000	21.824759	0.000458	20.765956
120.035839	-3.002300	3.848000	-11.552000	21.822790	0.000457	20.795754
121.034346	-3.024300	3.847500	-11.635000	21.823369	0.000457	20.771678
122.038507	-3.015900	3.847500	-11.603000	21.851424	0.000459	20.780792
123.034321	-2.989200	3.848000	-11.500000	21.859699	0.000455	20.770108
124.033341	-2.999400	3.847600	-11.540000	21.840424	0.000459	20.762669
125.035363	-2.991100	3.848100	-11.509000	21.885655	0.000458	20.759578
126.033178	-2.972600	3.847800	-11.437000	21.881791	0.000456	20.765668
127.036097	-3.009600	3.846800	-11.576000	21.870324	0.000461	20.748974
128.033244	-2.978300	3.848300	-11.460000	21.886707	0.000460	20.765847
129.032740	-2.988500	3.847900	-11.498000	21.910873	0.000459	20.753526
130.033072	-3.010700	3.847500	-11.582000	21.906167	0.000460	20.754031
131.033454	-3.012100	3.846000	-11.584000	21.889465	0.000461	20.768608
132.034210	-3.003400	3.846600	-11.552000	21.903104	0.000462	20.762819
133.038353	-3.017200	3.845900	-11.603000	21.912880	0.000462	20.767389
134.035132	-3.009700	3.847300	-11.579000	21.949901	0.000459	20.774575
135.037217	-3.026700	3.844400	-11.635000	21.957904	0.000461	20.754137
136.035370	-3.009900	3.844400	-11.571000	21.968080	0.000462	20.755787
137.036431	-2.993400	3.845500	-11.510000	21.970136	0.000463	20.757846
138.037478	-2.995100	3.846700	-11.519000	21.968185	0.000460	20.763954
139.040119	-2.981100	3.846900	-11.467000	21.983349	0.000461	20.754951
140.039361	-2.990800	3.845300	-11.500000	21.971065	0.000463	20.770156
141.037139	-2.992900	3.844700	-11.506000	22.003103	0.000461	20.759553
142.036569	-2.995300	3.844500	-11.514000	22.002678	0.000463	20.780465
143.034690	-3.029100	3.843900	-11.641000	22.010484	0.000462	20.771684
144.041080	-2.991100	3.845900	-11.503000	22.027161	0.000463	20.758506
145.041412	-3.025900	3.843400	-11.629000	22.037311	0.000465	20.766770
146.039942	-2.995200	3.845200	-11.516000	22.033595	0.000462	20.754516
147.039434	-3.005000	3.843400	-11.549000	22.046864	0.000462	20.751678
148.043622	-2.990200	3.845300	-11.498000	22.052923	0.000464	20.753476
149.040244	-3.004200	3.843200	-11.545000	22.044798	0.000461	20.747238
150.045563	-3.015900	3.842800	-11.588000	22.033928	0.000464	20.752004
151.039882	-2.998100	3.843700	-11.523000	22.075110	0.000465	20.752454
152.042774	-2.995600	3.842300	-11.509000	22.088617	0.000464	20.756967
153.040780	-2.997500	3.842000	-11.515000	22.082386	0.000464	20.753100
154.044431	-2.993300	3.843400	-11.503000	22.093606	0.000465	20.742047
155.046392	-3.019300	3.842700	-11.602000	22.100391	0.000465	20.744572
156.045420	-3.006400	3.842200	-11.551000	22.091540	0.000466	20.741875
157.046472	-2.987400	3.843100	-11.480000	22.081846	0.000465	20.756827
158.044804	-2.992500	3.842900	-11.499000	22.082818	0.000465	20.742626
159.055836	-2.974000	3.843100	-11.428000	22.139904	0.000465	20.745724
160.048882	-2.977100	3.843100	-11.439000	22.151719	0.000467	20.747122
161.044976	-3.009300	3.841000	-11.557000	22.155206	0.000468	20.761519
162.045539	-3.015400	3.840900	-11.581000	22.154389	0.000468	20.720870
163.053540	-2.975900	3.841800	-11.431000	22.178223	0.000467	20.734302
164.058544	-3.002700	3.840400	-11.531000	22.178198	0.000469	20.739019
165.047802	-3.011400	3.841600	-11.567000	22.156241	0.000469	20.737898
166.053815	-2.969200	3.842500	-11.408000	22.186003	0.000469	20.765801
167.050576	-3.004500	3.841100	-11.538000	22.203764	0.000468	20.744228
168.052637	-2.989500	3.841500	-11.483000	22.214776	0.000468	20.738183
169.049930	-2.981000	3.840900	-11.449000	22.240937	0.000469	20.734031
170.059594	-2.972700	3.840800	-11.417000	22.243011	0.000470	20.757919
171.059401	-2.977200	3.840300	-11.432000	22.241362	0.000471	20.727818
172.053334	-3.006800	3.840600	-11.547000	22.283974	0.000471	20.743933
173.048831	-2.990800	3.839200	-11.482000	22.265685	0.000472	20.747905
174.056664	-3.015200	3.840000	-11.577000	22.267874	0.000470	20.734449
175.054214	-3.014200	3.839100	-11.571000	22.282185	0.000471	20.745461
176.053660	-2.989600	3.839200	-11.477000	22.254344	0.000473	20.746033
177.051819	-3.013700	3.839100	-11.569000	22.273427	0.000471	20.747596
178.053393	-3.003500	3.838100	-11.527000	22.296784	0.000471	20.746802
179.054036	-3.001500	3.838500	-11.521000	22.293845	0.000472	20.735798
180.054090	-2.993000	3.838400	-11.487000	22.303961	0.000474	20.737867
181.068823	-3.005700	3.837900	-11.534000	22.301618	0.000471	20.739314
182.057269	-2.998000	3.839300	-11.510000	22.316280	0.000475	20.734555
183.052631	-3.011900	3.837400	-11.557000	22.309366	0.000474	20.734270
184.060474	-3.010000	3.836000	-11.545000	22.339296	0.000475	20.718246
185.071599	-3.012700	3.837000	-11.559000	22.332348	0.000472	20.725988
186.059539	-2.991700	3.837400	-11.479000	22.338079	0.000475	20.714182
187.063524	-3.016500	3.836600	-11.572000	22.347721	0.000474	20.732848
188.063968	-3.013700	3.836800	-11.562000	22.361036	0.000476	20.727214
189.067868	-2.992000	3.836300	-11.478000	22.372596	0.000475	20.718401
190.058412	-3.014800	3.835900	-11.563000	22.395945	0.000476	20.708590
191.056620	-2.970200	3.836000	-11.393000	22.389513	0.000476	20.742454
192.062522	-3.003200	3.836000	-11.518000	22.391161	0.000478	20.725138
193.058485	-2.997500	3.836400	-11.499000	22.386468	0.000478	20.725654
194.063471	-2.989800	3.834300	-11.463000	22.400557	0.000477	20.728383
195.063134	-2.998900	3.835700	-11.502000	22.417733	0.000478	20.719978
196.062283	-3.002300	3.834300	-11.511000	22.418722	0.000478	20.728081
197.062025	-2.998300	3.834300	-11.495000	22.420167	0.000479	20.724787
198.062374	-2.977400	3.835500	-11.419000	22.432053	0.000478	20.721042
199.062508	-3.010700	3.833000	-11.540000	22.455758	0.000479	20.730083
200.066244	-3.004000	3.834100	-11.517000	22.448680	0.000479	20.723944
201.062599	-3.004100	3.834600	-11.519000	22.462902	0.000479	20.729651
202.067547	-2.998500	3.834200	-11.495000	22.466444	0.000482	20.724664
203.064498	-2.985800	3.834000	-11.447000	22.474027	0.000481	20.727516
204.060600	-3.003700	3.832800	-11.511000	22.492933	0.000481	20.723216
205.062757	-3.012300	3.833400	-11.547000	22.513569	0.000481	20.714959
206.063948	-2.976400	3.834000	-11.411000	22.511791	0.000482	20.718394
207.064259	-2.987400	3.832500	-11.448000	22.507537	0.000481	20.712236
208.064230	-3.001800	3.832400	-11.504000	22.548049	0.000483	20.698755
209.062106	-2.986100	3.832300	-11.442000	22.534319	0.000483	20.718197
210.064714	-3.006400	3.830600	-11.515000	22.545976	0.000482	20.718966
211.062698	-2.983600	3.832300	-11.433000	22.555518	0.000482	20.723782
212.067856	-3.013600	3.831000	-11.544000	22.564741	0.000483	20.705517
213.062020	-2.988200	3.831900	-11.449000	22.556065	0.000482	20.713424
214.067818	-2.994000	3.830200	-11.466000	22.572800	0.000482	20.744885
215.065694	-2.996900	3.830900	-11.480000	22.551282	0.000483	20.736609
216.064719	-2.993300	3.830400	-11.464000	22.556115	0.000485	20.722482
217.067833	-2.998400	3.829600	-11.482000	22.591744	0.000483	20.711699
218.066566	-3.015400	3.829800	-11.547000	22.583019	0.000482	20.715289
219.064064	-3.006700	3.830500	-11.516000	22.593564	0.000484	20.708780
220.064761	-3.025600	3.828800	-11.584000	22.626800	0.000485	20.718362
221.069569	-2.995700	3.831100	-11.475000	22.643947	0.000486	20.707087
222.064157	-2.991800	3.829800	-11.457000	22.646209	0.000486	20.735907
223.063132	-3.002900	3.828700	-11.496000	22.633926	0.000486	20.707006
224.066616	-2.992800	3.830100	-11.462000	22.652363	0.000486	20.709353
225.065119	-3.001800	3.828900	-11.493000	22.632260	0.000486	20.708657
226.065628	-2.997600	3.828300	-11.475000	22.664327	0.000488	20.717070
227.068814	-3.015000	3.828300	-11.541000	22.670229	0.000487	20.694530
228.066311	-3.011700	3.826800	-11.524000	22.676481	0.000487	20.709802
229.064662	-2.995500	3.828200	-11.467000	22.685009	0.000489	20.711232
230.066546	-3.021400	3.828300	-11.565000	22.676709	0.000489	20.709082
231.066551	-3.010300	3.829300	-11.527000	22.688575	0.000488	20.692517
232.067415	-3.018500	3.827300	-11.551000	22.707338	0.000488	20.723167
233.067031	-2.990600	3.828400	-11.449000	22.705591	0.000490	20.679689
234.067369	-2.996600	3.827200	-11.467000	22.681025	0.000490	20.694438
235.082392	-2.998000	3.826700	-11.471000	22.688452	0.000490	20.723216
236.068401	-2.971800	3.827300	-11.373000	22.703225	0.000492	20.703873
237.072534	-3.001500	3.825900	-11.482000	22.736587	0.000491	20.719275
238.066844	-2.987100	3.826600	-11.430000	22.743663	0.000492	20.690799
239.072544	-3.000500	3.826800	-11.482000	22.740497	0.000493	20.698060
240.073861	-3.008500	3.826300	-11.511000	22.728036	0.000491	20.707863
241.067036	-2.990600	3.825900	-11.440000	22.723081	0.000494	20.701952
242.068410	-3.005900	3.826700	-11.502000	22.742937	0.000492	20.699556
243.069492	-3.005000	3.825200	-11.494000	22.769143	0.000493	20.702099
244.071431	-3.005800	3.824800	-11.495000	22.791112	0.000494	20.698503
245.069232	-2.990800	3.823900	-11.436000	22.784184	0.000493	20.707210
246.069353	-2.985400	3.825400	-11.419000	22.800979	0.000494	20.694635
247.068258	-2.994800	3.823300	-11.448000	22.808552	0.000496	20.695584
248.071984	-2.997300	3.824400	-11.462000	22.801126	0.000495	20.701896
249.068040	-2.983700	3.823800	-11.408000	22.812282	0.000496	20.678456
250.075818	-3.014200	3.822300	-11.520000	22.818264	0.000497	20.696304
251.075978	-3.000300	3.824300	-11.473000	22.794917	0.000495	20.687614
252.076180	-2.978600	3.823000	-11.387000	22.825560	0.000496	20.695078
253.077975	-3.034600	3.822100	-11.597000	22.842690	0.000494	20.686634
254.070810	-3.001300	3.822700	-11.471000	22.855150	0.000497	20.684891
255.076172	-2.992400	3.823900	-11.442000	22.854319	0.000494	20.683585
256.074104	-2.999300	3.823100	-11.466000	22.826818	0.000496	20.696339
257.073364	-3.004300	3.821200	-11.478000	22.832922	0.000497	20.700557
258.071361	-3.006400	3.821400	-11.488000	22.854498	0.000498	20.696093
259.078403	-3.007900	3.822600	-11.497000	22.867449	0.000500	20.695317
260.090338	-3.018100	3.819800	-11.528000	22.887874	0.000497	20.696813
261.079904	-3.008600	3.822000	-11.498000	22.874769	0.000498	20.701703
262.075882	-3.014200	3.820900	-11.516000	22.865826	0.000501	20.687052
263.082580	-2.995900	3.821800	-11.449000	22.913603	0.000496	20.683708
264.079498	-3.019000	3.820500	-11.533000	22.922742	0.000499	20.691442
265.077897	-2.985100	3.820300	-11.403000	22.930479	0.000500	20.696350
266.079161	-3.009600	3.820000	-11.496000	22.947019	0.000499	20.687789
267.079738	-3.000900	3.820800	-11.465000	22.965721	0.000500	20.701787
268.077703	-3.005900	3.819200	-11.479000	22.957750	0.000499	20.710870
269.078360	-2.999400	3.820600	-11.458000	22.957294	0.000501	20.709465
270.080213	-2.989200	3.821400	-11.422000	22.952057	0.000500	20.701373
271.078269	-3.010100	3.819800	-11.497000	22.978184	0.000501	20.676813
272.084767	-3.002900	3.819600	-11.469000	22.983439	0.000501	20.697252
273.080387	-3.015300	3.819100	-11.514000	23.009411	0.000501	20.698145
274.083990	-3.011200	3.819400	-11.500000	23.006922	0.000501	20.695177
275.084014	-2.990700	3.818300	-11.419000	22.993713	0.000503	20.701383
276.095460	-2.988500	3.818600	-11.411000	22.968004	0.000503	20.693168
277.082726	-3.005200	3.818300	-11.475000	22.969971	0.000502	20.704148
278.082480	-2.999100	3.817300	-11.448000	22.981598	0.000503	20.697305
279.090742	-2.996100	3.817500	-11.436000	22.987099	0.000504	20.698075
280.092832	-3.006800	3.816200	-11.474000	23.004805	0.000503	20.689736
281.088439	-2.986900	3.816800	-11.400000	23.025978	0.000502	20.705261
282.084403	-3.024800	3.816600	-11.543000	23.027618	0.000504	20.696947
283.086522	-3.005900	3.817500	-11.474000	23.059243	0.000504	20.707299
284.085621	-3.001500	3.816400	-11.455000	23.088361	0.000503	20.714190
285.092535	-3.017700	3.814200	-11.509000	23.090174	0.000506	20.689452
286.089240	-3.005300	3.816100	-11.467000	23.096283	0.000504	20.700316
287.087946	-3.017200	3.816000	-11.512000	23.107738	0.000507	20.687137
288.095828	-2.998900	3.816000	-11.442000	23.093149	0.000502	20.712350
289.090394	-3.000500	3.815200	-11.446000	23.084551	0.000505	20.701837
290.085234	-3.005800	3.813900	-11.463000	23.118155	0.000504	20.706111
291.087700	-3.005100	3.815000	-11.463000	23.093640	0.000506	20.695296
292.085883	-3.010000	3.815100	-11.482000	23.086966	0.000506	20.700938
293.085569	-2.990300	3.815400	-11.408000	23.102908	0.000507	20.682770
294.088959	-3.013600	3.814100	-11.493000	23.099055	0.000506	20.705465
295.092486	-3.016000	3.813000	-11.499000	23.105575	0.000508	20.698721
296.086904	-3.015100	3.813200	-11.496000	23.098582	0.000509	20.707362
297.090617	-3.020800	3.813100	-11.518000	23.106651	0.000508	20.688893
298.091908	-2.998900	3.813500	-11.434000	23.150030	0.000507	20.716241
299.091237	-3.016200	3.811600	-11.495000	23.136364	0.000509	20.700649
300.086031	-2.992100	3.811600	-11.403000	23.149458	0.000509	20.709504
301.092355	-3.000200	3.812500	-11.436000	23.144709	0.000511	20.708538
302.097714	-3.009600	3.811600	-11.470000	23.161025	0.000508	20.690273
303.087713	-2.977500	3.812800	-11.352000	23.181266	0.000508	20.705342
304.088441	-2.990500	3.810700	-11.395000	23.204475	0.000508	20.710109
305.091355	-2.986100	3.812400	-11.383000	23.212242	0.000509	20.699399
306.093466	-2.998500	3.810300	-11.424000	23.182342	0.000511	20.709265
307.093977	-3.018000	3.810000	-11.498000	23.194760	0.000511	20.713175
308.097233	-3.009200	3.810600	-11.466000	23.203879	0.000509	20.701450
309.092126	-3.022100	3.810000	-11.514000	23.205120	0.000511	20.707436
310.096092	-2.991900	3.810600	-11.400000	23.188118	0.000513	20.698932
311.093328	-3.005600	3.809500	-11.449000	23.224372	0.000512	20.697804
312.093812	-2.993000	3.809700	-11.401000	23.196007	0.000512	20.704467
313.093574	-3.002700	3.809300	-11.436000	23.208285	0.000511	20.708711
314.095448	-2.984600	3.809200	-11.368000	23.212778	0.000512	20.707049
315.094287	-2.996600	3.808300	-11.411000	23.216114	0.000511	20.696641
316.096372	-3.007300	3.807400	-11.449000	23.227561	0.000512	20.703846
317.097279	-2.993000	3.809000	-11.398000	23.215494	0.000513	20.716884
318.093201	-2.998600	3.807600	-11.417000	23.248915	0.000513	20.702960
319.099326	-2.996600	3.808100	-11.410000	23.231090	0.000512	20.708331
320.093039	-2.986600	3.808500	-11.374000	23.265874	0.000514	20.709051
321.094751	-3.019000	3.806500	-11.490000	23.311815	0.000516	20.696297
322.096323	-2.991100	3.808000	-11.389000	23.317051	0.000515	20.721461
323.104091	-2.997900	3.807300	-11.413000	23.332362	0.000514	20.724004
324.093886	-3.019500	3.806400	-11.493000	23.348079	0.000516	20.729325
325.092993	-2.998400	3.807900	-11.417000	23.342703	0.000516	20.707815
326.092049	-2.985900	3.806100	-11.363000	23.361627	0.000515	20.722040
327.096447	-2.985300	3.806200	-11.362000	23.378265	0.000515	20.714534
328.095966	-3.005900	3.806900	-11.443000	23.388599	0.000516	20.708770
329.097958	-2.994300	3.805900	-11.395000	23.370826	0.000517	20.713241
330.105936	-2.998600	3.803800	-11.405000	23.388452	0.000517	20.708622
331.099852	-2.985900	3.805100	-11.360000	23.402055	0.000516	20.708981
332.099411	-2.979300	3.806100	-11.338000	23.370328	0.000516	20.715588
333.102199	-3.023300	3.803500	-11.498000	23.384583	0.000517	20.703322
334.097003	-2.993500	3.804300	-11.387000	23.367927	0.000517	20.731675
335.096364	-2.995900	3.805400	-11.400000	23.358024	0.000518	20.727439
336.100844	-2.998700	3.805200	-11.409000	23.355154	0.000517	20.728355
337.098837	-3.000800	3.803200	-11.411000	23.384786	0.000517	20.714432
338.097272	-2.975400	3.804000	-11.317000	23.360495	0.000517	20.708577
339.100006	-2.998300	3.803800	-11.404000	23.385291	0.000519	20.720628
340.098104	-2.994700	3.803500	-11.390000	23.407133	0.000519	20.709328
341.101097	-2.998500	3.801800	-11.398000	23.417768	0.000520	20.725679
342.097655	-3.004900	3.802800	-11.427000	23.418640	0.000518	20.727028
343.101229	-2.998200	3.801800	-11.398000	23.445384	0.000519	20.728703
344.101494	-2.962900	3.802900	-11.266000	23.438411	0.000519	20.720765
345.098635	-2.983800	3.802800	-11.345000	23.452381	0.000521	20.723389
346.100482	-2.998100	3.800600	-11.394000	23.442559	0.000520	20.728243
347.100181	-2.986100	3.802000	-11.352000	23.447111	0.000520	20.719528
348.104318	-3.020900	3.800300	-11.479000	23.438123	0.000522	20.708622
349.113115	-3.013200	3.799100	-11.447000	23.480876	0.000520	20.724449
350.102729	-3.015100	3.800900	-11.460000	23.481552	0.000523	20.734137
351.105582	-2.995900	3.800100	-11.384000	23.468535	0.000522	20.728201
352.109035	-3.004800	3.800100	-11.418000	23.459824	0.000520	20.706191
353.106881	-2.998400	3.800200	-11.394000	23.475564	0.000521	20.722444
354.102465	-2.993000	3.800100	-11.373000	23.496728	0.000524	20.728959
355.107263	-2.993600	3.797800	-11.369000	23.487568	0.000522	20.720726
356.103865	-3.003700	3.798800	-11.410000	23.525736	0.000522	20.722949
357.106032	-3.002900	3.797700	-11.403000	23.530620	0.000522	20.739226
358.107932	-2.992300	3.799000	-11.366000	23.487207	0.000521	20.724632
359.112045	-3.007000	3.798000	-11.420000	23.497761	0.000522	20.721460
360.108753	-3.032200	3.797700	-11.515000	23.478994	0.000523	20.714976
361.108470	-3.014000	3.797400	-11.445000	23.501658	0.000522	20.736746
362.108163	-2.996600	3.797900	-11.379000	23.498248	0.000524	20.709145
363.109809	-3.003600	3.798800	-11.410000	23.553917	0.000523	20.728439
364.119804	-3.007400	3.796500	-11.417000	23.536016	0.000524	20.736574
365.113142	-3.006500	3.797700	-11.417000	23.547025	0.000524	20.735756
366.112540	-2.996900	3.795300	-11.373000	23.554698	0.000523	20.738232
367.110777	-3.012000	3.796000	-11.433000	23.561590	0.000525	20.738977
368.111491	-2.988700	3.795200	-11.342000	23.547088	0.000525	20.723490
369.112659	-2.972400	3.795800	-11.281000	23.559736	0.000523	20.733799
370.111541	-2.997600	3.795000	-11.375000	23.561727	0.000525	20.718724
371.113275	-2.997100	3.795100	-11.373000	23.558374	0.000525	20.718682
372.115967	-3.000800	3.795800	-11.390000	23.582773	0.000527	20.761635
373.111268	-2.962800	3.796200	-11.246000	23.604180	0.000527	20.731885
374.115870	-2.997700	3.793900	-11.372000	23.630894	0.000524	20.725001
375.117960	-3.012900	3.793700	-11.430000	23.644537	0.000526	20.744843
376.111472	-2.992800	3.794700	-11.356000	23.640662	0.000526	20.725784
377.112901	-3.021900	3.793900	-11.464000	23.661196	0.000528	20.721239
378.116599	-3.009000	3.793300	-11.413000	23.636927	0.000528	20.742430
379.113988	-3.002700	3.793000	-11.388000	23.616313	0.000528	20.736936
380.112377	-2.993100	3.792400	-11.350000	23.656627	0.000528	20.710494
381.116205	-2.986000	3.793200	-11.326000	23.653008	0.000525	20.735791
382.114986	-3.005900	3.792200	-11.398000	23.654084	0.000526	20.745405
383.117767	-2.995900	3.791300	-11.358000	23.627303	0.000529	20.748903
384.118015	-2.981200	3.792900	-11.307000	23.646450	0.000528	20.729216
385.119264	-3.009500	3.792300	-11.412000	23.661259	0.000529	20.764926
386.120595	-3.002300	3.791200	-11.381000	23.646572	0.000529	20.727442
387.120058	-2.986300	3.790900	-11.320000	23.635628	0.000527	20.739230
388.119953	-2.999500	3.791900	-11.373000	23.658421	0.000529	20.726992
389.122328	-2.985300	3.791900	-11.318000	23.686308	0.000530	20.735510
390.118692	-3.018500	3.791100	-11.442000	23.699280	0.000530	20.746146
391.117402	-3.003500	3.790600	-11.384000	23.708259	0.000528	20.750880
392.118510	-2.990000	3.790800	-11.334000	23.723978	0.000531	20.726810
393.116574	-3.017100	3.789500	-11.432000	23.700804	0.000529	20.742932
394.119774	-2.999700	3.789400	-11.366000	23.709121	0.000530	20.740364
395.120791	-3.005100	3.789500	-11.387000	23.696996	0.000531	20.741959
396.122431	-2.995400	3.788900	-11.348000	23.731601	0.000530	20.733979
397.120518	-2.989900	3.789500	-11.329000	23.752557	0.000528	20.752145
398.119127	-2.987400	3.789100	-11.319000	23.759731	0.000532	20.731836
399.125555	-2.994700	3.787700	-11.342000	23.780367	0.000530	20.756321
400.121576	-2.990000	3.788400	-11.326000	23.774398	0.000532	20.749388
401.126810	-3.013000	3.786600	-11.408000	23.781068	0.000532	20.762714
402.125948	-3.014500	3.787300	-11.416000	23.748265	0.000529	20.772025
403.123052	-3.005200	3.787600	-11.381000	23.773705	0.000531	20.742528
404.124248	-2.991000	3.787900	-11.329000	23.791325	0.000530	20.758773
405.124956	-2.978500	3.787900	-11.281000	23.803424	0.000532	20.752886
406.124400	-3.008100	3.786400	-11.389000	23.831853	0.000532	20.764323
407.126700	-2.987400	3.786100	-11.310000	23.815548	0.000531	20.756508
408.125723	-2.981300	3.787100	-11.289000	23.806822	0.000532	20.777631
409.122006	-2.982400	3.787100	-11.294000	23.804531	0.000534	20.763954
410.126178	-2.997600	3.785000	-11.344000	23.795952	0.000531	20.768629
411.123130	-3.004800	3.784600	-11.371000	23.805729	0.000534	20.768948
412.129627	-2.990000	3.785800	-11.319000	23.776816	0.000532	20.762718
413.123328	-2.982500	3.785600	-11.289000	23.781292	0.000533	20.761516
414.123776	-2.971400	3.785700	-11.248000	23.763599	0.000533	20.760846
415.127537	-2.979000	3.785700	-11.277000	23.773292	0.000532	20.765823
416.129992	-2.992100	3.785300	-11.326000	23.784063	0.000535	20.740586
417.129092	-3.030000	3.782100	-11.458000	23.818136	0.000533	20.758629
418.126205	-3.007700	3.783100	-11.378000	23.852142	0.000532	20.754320
419.122700	-2.988800	3.783900	-11.308000	23.861158	0.000535	20.769051
420.131374	-3.003600	3.781700	-11.358000	23.878059	0.000534	20.768454
421.126469	-3.020500	3.781500	-11.421000	23.869701	0.000533	20.784730
422.125694	-3.007500	3.781600	-11.371000	23.857260	0.000535	20.772728
423.127229	-2.998500	3.783200	-11.343000	23.867116	0.000535	20.776922
424.122895	-2.998200	3.781200	-11.335000	23.873484	0.000537	20.751538
425.134785	-2.978200	3.783300	-11.267000	23.890539	0.000535	20.768640
426.128590	-3.003500	3.780300	-11.353000	23.891215	0.000535	20.769792
427.130287	-2.991000	3.780900	-11.308000	23.902220	0.000535	20.776560
428.126484	-2.998900	3.781200	-11.337000	23.912991	0.000534	20.766023
429.126477	-3.011800	3.780700	-11.386000	23.984144	0.000536	20.768622
430.133584	-2.996700	3.780800	-11.328000	23.970537	0.000535	20.767305
431.128605	-3.013300	3.780200	-11.390000	23.920017	0.000534	20.768327
432.130302	-2.994700	3.780700	-11.321000	23.912150	0.000536	20.785569
433.126445	-3.011200	3.778700	-11.378000	23.942444	0.000535	20.786549
434.129478	-3.014600	3.779900	-11.394000	23.946366	0.000536	20.766775
435.126612	-3.028400	3.779000	-11.443000	23.924868	0.000538	20.796900
436.131344	-3.022600	3.777800	-11.418000	23.902318	0.000536	20.784245
437.131628	-2.990500	3.779000	-11.300000	23.883656	0.000534	20.762212
438.129831	-3.018700	3.777000	-11.401000	23.914140	0.000538	20.766701
439.131807	-2.989400	3.778800	-11.296000	23.897387	0.000536	20.793999
440.126433	-2.999600	3.778600	-11.333000	23.913513	0.000536	20.775556
441.131614	-3.005300	3.778700	-11.354000	23.926182	0.000536	20.779251
442.128224	-3.005000	3.778800	-11.355000	23.957788	0.000536	20.771590
443.127287	-2.993200	3.777900	-11.306000	23.948153	0.000537	20.795593
444.131277	-2.999300	3.776400	-11.326000	23.937253	0.000538	20.775654
445.128957	-2.987000	3.777700	-11.283000	23.958114	0.000539	20.786616
446.128086	-2.994300	3.776700	-11.308000	23.983989	0.000538	20.789805
447.130082	-2.997300	3.775900	-11.317000	23.997211	0.000536	20.778408
448.128850	-2.989100	3.776500	-11.288000	23.991635	0.000538	20.795102
449.130966	-3.013400	3.775300	-11.376000	24.016442	0.000539	20.791530
450.135744	-3.000700	3.776000	-11.330000	24.048911	0.000535	20.789004
451.130413	-3.012900	3.774900	-11.372000	24.023975	0.000539	20.792920
452.132732	-2.994100	3.774000	-11.299000	24.034744	0.000537	20.783332
453.129961	-2.993900	3.773900	-11.297000	24.049751	0.000539	20.787950
454.134554	-3.006900	3.774600	-11.349000	24.047355	0.000541	20.790289
455.132638	-2.994500	3.773300	-11.298000	24.072021	0.000538	20.782310
456.134360	-3.001600	3.772800	-11.323000	24.103837	0.000539	20.806632
457.132381	-2.998500	3.773000	-11.313000	24.119259	0.000539	20.797918
458.135145	-3.016500	3.773600	-11.382000	24.133613	0.000538	20.797616
459.134835	-3.016500	3.771200	-11.374000	24.111296	0.000541	20.793250
460.134928	-2.987700	3.772900	-11.272000	24.068715	0.000540	20.817400
461.137434	-2.993500	3.771700	-11.290000	24.088865	0.000537	20.812480
462.135601	-2.980600	3.773200	-11.245000	24.077543	0.000540	20.802073
463.138671	-3.014800	3.770500	-11.367000	24.089657	0.000541	20.802842
464.135167	-3.003100	3.772100	-11.327000	24.088452	0.000538	20.777926
465.140236	-3.011200	3.771200	-11.355000	24.109278	0.000541	20.808770
466.137959	-3.036000	3.770300	-11.446000	24.107706	0.000539	20.813357
467.140470	-2.994200	3.771500	-11.292000	24.151819	0.000540	20.801177
468.141420	-2.990300	3.770500	-11.274000	24.160518	0.000537	20.793306
469.144135	-2.983000	3.770300	-11.246000	24.186445	0.000540	20.792758
470.141738	-2.984800	3.771600	-11.257000	24.170291	0.000540	20.798367
471.138578	-2.999000	3.768600	-11.301000	24.150909	0.000539	20.810695
472.140686	-3.007800	3.769700	-11.337000	24.142252	0.000541	20.825720
473.141115	-3.001600	3.770200	-11.316000	24.142595	0.000540	20.806150
474.143364	-2.994500	3.769200	-11.286000	24.161726	0.000541	20.808742
475.140955	-3.023000	3.767900	-11.390000	24.194173	0.000541	20.820898
476.144279	-3.019900	3.768000	-11.378000	24.187106	0.000539	20.815233
477.144431	-3.011900	3.768000	-11.348000	24.225201	0.000543	20.803656
478.142010	-2.997000	3.767000	-11.289000	24.226311	0.000540	20.815675
479.149893	-2.987200	3.767800	-11.255000	24.221836	0.000540	20.829204
480.142049	-2.990100	3.765900	-11.259000	24.209545	0.000541	20.824463
481.145870	-3.007500	3.767200	-11.329000	24.250377	0.000540	20.825590
482.148576	-2.997300	3.767200	-11.290000	24.224444	0.000542	20.823286
483.144341	-2.999800	3.766200	-11.297000	24.260255	0.000541	20.801359
484.144120	-3.004000	3.766800	-11.314000	24.248111	0.000539	20.834697
485.148395	-3.008500	3.766300	-11.329000	24.258413	0.000541	20.805202
486.151443	-3.000100	3.765100	-11.295000	24.249733	0.000542	20.840116
487.146944	-2.994400	3.765700	-11.275000	24.239603	0.000541	20.838490
488.150169	-3.005200	3.764800	-11.313000	24.213383	0.000540	20.838269
489.145524	-3.000400	3.765500	-11.297000	24.208607	0.000542	20.848177
490.154162	-2.998800	3.765100	-11.290000	24.195500	0.000542	20.829815
491.145124	-3.002700	3.765700	-11.306000	24.238696	0.000541	20.828098
492.151603	-2.996300	3.764800	-11.280000	24.198123	0.000540	20.833868
493.150421	-3.019900	3.762800	-11.363000	24.230040	0.000542	20.831744
494.150590	-2.986200	3.763800	-11.239000	24.272534	0.000540	20.830272
495.150377	-2.983400	3.763400	-11.227000	24.284880	0.000542	20.827483
496.152152	-2.984000	3.763500	-11.229000	24.265997	0.000542	20.830353
497.151962	-2.999400	3.763100	-11.286000	24.278312	0.000540	20.832748
498.152752	-3.001700	3.763500	-11.296000	24.306232	0.000544	20.848426
499.155509	-3.011200	3.762200	-11.328000	24.303028	0.000541	20.829566
500.165687	-3.017500	3.762100	-11.352000	24.290339	0.000543	20.850976
501.153409	-2.995700	3.762800	-11.271000	24.281789	0.000542	20.833865
502.154626	-3.016200	3.762000	-11.346000	24.303949	0.000542	20.833335
503.149837	-3.006800	3.761800	-11.310000	24.285822	0.000541	20.821790
504.150188	-3.018700	3.761100	-11.353000	24.279702	0.000541	20.843625
505.152658	-3.010800	3.761100	-11.323000	24.297916	0.000543	20.848620
506.154468	-2.974300	3.760900	-11.185000	24.336830	0.000543	20.844507
507.155587	-2.995700	3.760900	-11.266000	24.357228	0.000542	20.853589
508.157223	-3.011900	3.759100	-11.321000	24.314866	0.000539	20.844760
509.153196	-2.985100	3.761100	-11.227000	24.284646	0.000542	20.835783
510.151913	-2.983600	3.760500	-11.219000	24.301687	0.000543	20.818264
511.155155	-3.006300	3.759500	-11.301000	24.305647	0.000543	20.818444
512.160676	-2.980700	3.760500	-11.208000	24.302542	0.000543	20.846622
513.155160	-2.988000	3.759400	-11.232000	24.274800	0.000542	20.835864
514.157939	-3.009300	3.758300	-11.308000	24.281947	0.000541	20.844929
515.162016	-3.013600	3.758300	-11.325000	24.299510	0.000541	20.849270
516.160550	-3.009900	3.758200	-11.311000	24.313991	0.000541	20.852417
517.155566	-2.997500	3.758000	-11.264000	24.331830	0.000540	20.831432
518.158993	-3.004600	3.757800	-11.289000	24.322016	0.000542	20.834389
519.155702	-3.006100	3.757100	-11.293000	24.346392	0.000543	20.828970
520.154786	-3.004300	3.756700	-11.286000	24.347785	0.000541	20.837006
521.158596	-2.991900	3.756500	-11.238000	24.397575	0.000541	20.833374
522.159489	-2.997300	3.756800	-11.259000	24.413049	0.000542	20.822346
523.154385	-3.014300	3.756100	-11.321000	24.435736	0.000542	20.813337
524.157082	-3.008700	3.756200	-11.301000	24.431514	0.000541	20.822852
525.165819	-3.007700	3.756000	-11.296000	24.412136	0.000543	20.829016
526.163274	-2.997200	3.756200	-11.256000	24.410382	0.000539	20.828205
527.166575	-2.992500	3.754700	-11.235000	24.403334	0.000541	20.823031
528.160633	-3.002600	3.754800	-11.274000	24.424284	0.000540	20.818918
529.156003	-3.000800	3.755700	-11.269000	24.430240	0.000541	20.832953
530.161985	-2.992300	3.754900	-11.235000	24.435911	0.000542	20.826789
531.158224	-2.997300	3.753200	-11.249000	24.411065	0.000543	20.831735
532.157206	-3.011700	3.753600	-11.304000	24.373026	0.000542	20.831980
533.158976	-2.985600	3.754300	-11.208000	24.374931	0.000542	20.822512
534.158402	-2.988400	3.752900	-11.214000	24.381712	0.000543	20.812246
535.158494	-3.010000	3.753500	-11.297000	24.369511	0.000542	20.793842
536.157886	-3.027300	3.751900	-11.356000	24.402442	0.000541	20.818343
537.158553	-3.006800	3.751900	-11.281000	24.391197	0.000542	20.825079
538.158739	-2.985600	3.754000	-11.207000	24.369942	0.000543	20.822249
539.158755	-3.004800	3.751700	-11.272000	24.388375	0.000543	20.821300
540.158708	-3.010000	3.751800	-11.292000	24.429641	0.000541	20.847051
541.158316	-2.989700	3.753300	-11.219000	24.437301	0.000541	20.799261
542.162084	-2.968300	3.751400	-11.134000	24.429389	0.000541	20.815505
543.162285	-2.955100	3.752300	-11.087000	24.419366	0.000542	20.795967
544.163985	-2.999300	3.749500	-11.246000	24.421004	0.000544	20.815154
545.160704	-2.977300	3.752200	-11.171000	24.449117	0.000540	20.802106
546.160499	-3.000500	3.749000	-11.248000	24.477319	0.000541	20.812383
547.161518	-2.989200	3.750400	-11.210000	24.442868	0.000541	20.814803
548.163770	-2.971400	3.752400	-11.149000	24.395352	0.000541	20.805067
549.160872	-2.992600	3.750100	-11.221000	24.401693	0.000543	20.801470
550.162240	-2.986600	3.750600	-11.201000	24.445647	0.000541	20.806686
551.161607	-2.996900	3.749100	-11.235000	24.476139	0.000543	20.797923
552.161565	-3.023200	3.748100	-11.330000	24.485053	0.000540	20.798330
553.167250	-3.003100	3.748900	-11.257000	24.463803	0.000542	20.790287
554.164332	-3.003000	3.748100	-11.255000	24.483620	0.000542	20.788833
555.159924	-3.022800	3.748800	-11.331000	24.496633	0.000543	20.806155
556.163021	-2.995500	3.748700	-11.228000	24.501334	0.000542	20.801863
557.175973	-2.972900	3.749200	-11.145000	24.472449	0.000539	20.786634
558.163712	-2.983100	3.747200	-11.177000	24.470143	0.000543	20.811821
559.163136	-2.972200	3.747900	-11.139000	24.483579	0.000542	20.775989
560.158512	-3.013500	3.746400	-11.289000	24.493129	0.000540	20.783674
561.164127	-2.987100	3.746400	-11.190000	24.537195	0.000541	20.769564
562.158340	-2.972000	3.747000	-11.135000	24.539158	0.000540	20.800458
563.164301	-3.008400	3.746200	-11.269000	24.538556	0.000542	20.806018
564.166121	-3.003300	3.746700	-11.252000	24.569459	0.000541	20.787238
565.160335	-3.009600	3.745600	-11.271000	24.542988	0.000541	20.804301
566.163883	-2.990400	3.745400	-11.200000	24.550280	0.000541	20.794073
567.171728	-3.002100	3.744800	-11.241000	24.530936	0.000542	20.801691
568.163191	-3.013000	3.746000	-11.286000	24.545383	0.000542	20.803858
569.161483	-3.028600	3.743200	-11.336000	24.556105	0.000542	20.801340
570.167899	-3.010800	3.743700	-11.270000	24.560235	0.000541	20.793157
571.165591	-2.999000	3.744000	-11.227000	24.536110	0.000540	20.796451
572.162721	-2.990500	3.743400	-11.194000	24.566004	0.000540	20.788039
573.169111	-2.996800	3.743300	-11.217000	24.557701	0.000540	20.783027
574.168457	-3.023700	3.742100	-11.313000	24.564097	0.000543	20.799876
575.167912	-2.996900	3.743100	-11.217000	24.578364	0.000540	20.776259
576.164478	-3.000800	3.741900	-11.229000	24.561457	0.000541	20.774468
577.167541	-2.994600	3.742200	-11.206000	24.551988	0.000540	20.786304
578.167878	-2.995500	3.742900	-11.211000	24.542586	0.000540	20.773551
579.170675	-2.999800	3.742000	-11.223000	24.541574	0.000540	20.779175
580.170921	-2.997000	3.742900	-11.217000	24.590469	0.000540	20.794569
581.166965	-2.984600	3.742700	-11.169000	24.559956	0.000539	20.781970
582.165154	-3.005200	3.742100	-11.245000	24.593686	0.000539	20.795426
583.177658	-2.993900	3.741200	-11.200000	24.573920	0.000540	20.774170
584.183347	-2.993000	3.741500	-11.196000	24.574458	0.000540	20.787513
585.170598	-2.987800	3.740600	-11.174000	24.591656	0.000539	20.780587
586.169953	-3.024300	3.739300	-11.308000	24.566495	0.000539	20.777626
587.169173	-3.019700	3.740000	-11.292000	24.558339	0.000539	20.794573
588.170218	-3.025200	3.739400	-11.311000	24.580476	0.000541	20.766524
589.170100	-3.010300	3.739300	-11.255000	24.625246	0.000540	20.765453
590.170340	-2.997200	3.740400	-11.209000	24.608494	0.000540	20.778515
591.166711	-3.019500	3.738600	-11.288000	24.609684	0.000539	20.774968
592.170010	-2.996900	3.739900	-11.207000	24.627200	0.000538	20.771206
593.167413	-3.006300	3.739100	-11.240000	24.608949	0.000539	20.775179
594.170074	-3.022500	3.737900	-11.297000	24.606310	0.000541	20.770634
595.172184	-2.992900	3.738100	-11.186000	24.595081	0.000538	20.765056
596.180463	-3.004500	3.737600	-11.229000	24.609583	0.000538	20.782453
597.170853	-3.014900	3.736400	-11.264000	24.617910	0.000540	20.784645
598.172343	-2.995800	3.737600	-11.196000	24.633224	0.000539	20.764923
599.177699	-3.000800	3.736700	-11.212000	24.647400	0.000539	20.772510
600.169569	-3.011100	3.736400	-11.250000	24.639220	0.000539	20.757189
601.190610	-2.986900	3.736700	-11.160000	24.619976	0.000538	20.786718
602.176075	-3.003500	3.736500	-11.221000	24.622118	0.000538	20.766107
603.175008	-3.006900	3.735900	-11.232000	24.583971	0.000539	20.754857
604.172873	-2.995200	3.736600	-11.192000	24.551217	0.000539	20.779841
605.177806	-3.000600	3.735400	-11.208000	24.543761	0.000540	20.778998
606.174164	-3.008300	3.734700	-11.234000	24.555184	0.000537	20.762483
607.177848	-2.990700	3.733600	-11.165000	24.583489	0.000540	20.751054
608.177077	-3.009900	3.735200	-11.242000	24.585810	0.000539	20.773298
609.172572	-3.015900	3.733000	-11.258000	24.583822	0.000538	20.776993
610.172728	-2.993900	3.734300	-11.179000	24.620810	0.000540	20.761476
611.173804	-2.989300	3.734000	-11.161000	24.604075	0.000538	20.765547
612.173982	-2.998300	3.733400	-11.193000	24.647157	0.000538	20.762308
613.170748	-3.012000	3.733300	-11.243000	24.643857	0.000539	20.759471
614.174445	-2.999900	3.733200	-11.199000	24.659377	0.000538	20.747068
615.177189	-2.986700	3.733200	-11.149000	24.715841	0.000538	20.762952
616.173752	-2.998400	3.732700	-11.191000	24.703059	0.000539	20.739219
617.176975	-2.996300	3.732900	-11.184000	24.718210	0.000540	20.744941
618.178707	-3.015900	3.732600	-11.255000	24.671033	0.000539	20.749756
619.175550	-2.984900	3.733500	-11.143000	24.675398	0.000539	20.749395
620.173073	-2.981300	3.732700	-11.127000	24.644586	0.000538	20.738865
621.174175	-2.966300	3.732500	-11.069000	24.663340	0.000537	20.744407
622.171374	-3.008200	3.731700	-11.225000	24.685262	0.000536	20.772096
623.176291	-3.021400	3.730900	-11.272000	24.707249	0.000537	20.767133
624.175510	-3.007400	3.729200	-11.214000	24.698377	0.000538	20.747323
625.176172	-2.997900	3.730400	-11.182000	24.732201	0.000538	20.749498
626.186534	-3.015600	3.730000	-11.247000	24.704404	0.000536	20.754320
627.184608	-3.000600	3.730000	-11.190000	24.673674	0.000536	20.749087
628.179291	-2.987100	3.729400	-11.139000	24.660157	0.000535	20.751645
629.176404	-2.987900	3.729800	-11.142000	24.678707	0.000535	20.747026
630.174756	-2.988400	3.729400	-11.144000	24.688092	0.000536	20.755494
631.179936	-2.993300	3.728700	-11.160000	24.716165	0.000536	20.747630
632.179488	-2.990800	3.728500	-11.150000	24.698812	0.000536	20.744915
633.176558	-2.984700	3.729100	-11.129000	24.686412	0.000535	20.741006
634.177725	-2.997000	3.728700	-11.174000	24.667071	0.000534	20.741512
635.181955	-2.980800	3.728500	-11.113000	24.684089	0.000537	20.753848
636.179331	-3.000600	3.728300	-11.186000	24.712838	0.000534	20.739075
637.179209	-2.983200	3.726800	-11.116000	24.731420	0.000534	20.740652
638.182462	-3.015100	3.726700	-11.235000	24.773625	0.000535	20.734169
639.185467	-3.017800	3.725500	-11.242000	24.817849	0.000536	20.724970
640.179932	-2.981300	3.727400	-11.111000	24.807787	0.000534	20.741900
641.180540	-2.963200	3.728000	-11.046000	24.837063	0.000535	20.728606
642.177963	-2.987900	3.726500	-11.133000	24.842406	0.000534	20.748669
643.179154	-2.979500	3.726400	-11.101000	24.824688	0.000535	20.742267
644.181158	-2.994800	3.724900	-11.154000	24.788309	0.000534	20.749853
645.179236	-3.001200	3.725700	-11.180000	24.818505	0.000534	20.708558
646.180372	-2.997500	3.725400	-11.166000	24.836514	0.000534	20.737540
647.183068	-2.994400	3.725000	-11.153000	24.825606	0.000533	20.745559
648.181297	-3.007500	3.724300	-11.201000	24.820703	0.000534	20.739215
649.180444	-3.008900	3.723300	-11.202000	24.816588	0.000533	20.739827
650.179507	-2.997600	3.724800	-11.164000	24.816799	0.000534	20.757108
651.183058	-3.001600	3.725100	-11.180000	24.783082	0.000534	20.732279
652.184879	-3.015500	3.724200	-11.230000	24.782088	0.000534	20.746456
653.185343	-3.002400	3.723900	-11.179000	24.796767	0.000534	20.723253
654.187528	-3.012500	3.724100	-11.218000	24.823900	0.000533	20.759020
655.181724	-3.004200	3.723900	-11.186000	24.840240	0.000533	20.727054
656.185827	-2.996800	3.723500	-11.158000	24.837658	0.000534	20.731100
657.190740	-3.007400	3.723600	-11.198000	24.840752	0.000532	20.723774
658.190407	-2.999700	3.723900	-11.170000	24.862876	0.000532	20.709467
659.183340	-3.008200	3.722000	-11.195000	24.886341	0.000532	20.722113
660.186440	-3.012800	3.722300	-11.214000	24.873928	0.000533	20.740002
661.183380	-3.025300	3.720600	-11.255000	24.829753	0.000531	20.735496
662.186392	-3.021600	3.720800	-11.242000	24.851364	0.000534	20.727786
663.185945	-3.016100	3.720900	-11.222000	24.857261	0.000532	20.703831
664.187359	-3.010100	3.720300	-11.198000	24.849604	0.000532	20.741193
665.187037	-3.003500	3.720400	-11.173000	24.875661	0.000531	20.724671
666.183799	-3.025500	3.719800	-11.253000	24.879000	0.000533	20.716167
667.200531	-2.986900	3.720400	-11.111000	24.846248	0.000532	20.705106
668.184471	-2.994200	3.720200	-11.137000	24.830436	0.000532	20.717688
669.187294	-2.973200	3.721800	-11.064000	24.802194	0.000533	20.719216
670.184865	-3.012900	3.719500	-11.205000	24.798699	0.000533	20.731830
671.188170	-2.992100	3.720100	-11.130000	24.822021	0.000531	20.716354
672.187252	-2.991700	3.719000	-11.125000	24.827298	0.000530	20.725919
673.187783	-3.005400	3.719000	-11.176000	24.841349	0.000531	20.726745
674.189606	-2.980600	3.719100	-11.084000	24.841447	0.000529	20.717833
675.186814	-2.977500	3.719400	-11.074000	24.855303	0.000531	20.697124
676.188550	-2.990300	3.720100	-11.124000	24.852541	0.000529	20.720433
677.192323	-3.013700	3.717200	-11.202000	24.861819	0.000530	20.697974
678.187135	-2.979200	3.718300	-11.076000	24.859880	0.000530	20.709780
679.186528	-2.984800	3.718600	-11.097000	24.861581	0.000530	20.712910
680.188260	-2.976500	3.718300	-11.067000	24.842659	0.000530	20.711937
681.185390	-2.997900	3.716700	-11.141000	24.827019	0.000530	20.709991
682.193443	-3.004000	3.716100	-11.162000	24.871373	0.000528	20.706141
683.193151	-3.003400	3.717800	-11.166000	24.864091	0.000530	20.717325
684.188456	-2.981100	3.716900	-11.079000	24.846855	0.000530	20.711406
685.193337	-3.021200	3.715700	-11.225000	24.855163	0.000529	20.723538
686.193022	-2.999600	3.715500	-11.143000	24.876244	0.000528	20.707711
687.188369	-2.996700	3.715400	-11.133000	24.892860	0.000530	20.714431
688.189616	-2.993600	3.715400	-11.121000	24.863594	0.000528	20.725361
689.194431	-2.986900	3.715800	-11.097000	24.839215	0.000528	20.712748
690.199634	-3.010900	3.714900	-11.185000	24.833896	0.000529	20.713573
691.188949	-3.004200	3.714200	-11.157000	24.864360	0.000529	20.713327
692.193725	-2.978200	3.714900	-11.063000	24.812831	0.000529	20.707605
693.196839	-2.991600	3.712800	-11.106000	24.831134	0.000526	20.719811
694.194658	-2.987400	3.715300	-11.098000	24.877059	0.000526	20.713745
695.193614	-2.976800	3.713900	-11.055000	24.907889	0.000528	20.679252
696.192082	-2.992000	3.714600	-11.113000	24.941161	0.000527	20.707433
697.194818	-2.983600	3.715300	-11.083000	24.960946	0.000527	20.702161
698.193923	-3.016100	3.712300	-11.196000	24.974050	0.000528	20.694925
699.190912	-2.992500	3.712300	-11.109000	24.889587	0.000527	20.708300
700.194158	-3.010200	3.711200	-11.171000	24.878330	0.000525	20.693207
701.190184	-3.006500	3.713000	-11.161000	24.861395	0.000526	20.700394
702.196620	-2.992700	3.712300	-11.109000	24.858504	0.000527	20.706976
703.194632	-2.999600	3.712700	-11.135000	24.838613	0.000525	20.699340
704.197951	-3.004900	3.712100	-11.154000	24.820415	0.000524	20.700991
705.193335	-3.001300	3.711100	-11.137000	24.850578	0.000526	20.707556
706.194047	-2.988800	3.711600	-11.092000	24.919349	0.000524	20.703559
707.192246	-3.007800	3.710800	-11.161000	24.917940	0.000525	20.695979
708.192511	-3.001000	3.709700	-11.133000	24.887117	0.000524	20.688276
709.196059	-3.015300	3.710100	-11.186000	24.899449	0.000525	20.686903
710.194246	-3.013700	3.708900	-11.176000	24.900916	0.000525	20.700230
711.194217	-3.006800	3.710500	-11.156000	24.891922	0.000524	20.704954
712.198040	-2.978600	3.709200	-11.048000	24.878467	0.000524	20.703303
713.194587	-3.006500	3.708600	-11.148000	24.889854	0.000526	20.710939
714.197871	-3.012100	3.709100	-11.171000	24.884444	0.000524	20.705510
715.200726	-2.989300	3.708600	-11.085000	24.925863	0.000525	20.698242
716.201622	-2.974500	3.709000	-11.032000	24.902592	0.000526	20.691480
717.202393	-2.991500	3.708400	-11.093000	24.914631	0.000523	20.686967
718.201288	-3.001800	3.707900	-11.130000	24.954117	0.000524	20.702419
719.203270	-3.000300	3.706900	-11.121000	24.947381	0.000521	20.685699
720.204354	-2.994600	3.706700	-11.099000	24.931270	0.000523	20.698928
721.204997	-3.027500	3.706600	-11.221000	24.907177	0.000522	20.709360
722.202501	-3.024500	3.707300	-11.212000	24.923012	0.000524	20.702018
723.205562	-2.990300	3.707100	-11.084000	24.875623	0.000522	20.697129
724.204193	-3.000000	3.706100	-11.117000	24.861457	0.000522	20.711362
725.200315	-2.977800	3.707400	-11.039000	24.857538	0.000523	20.687987
726.201367	-3.000700	3.706000	-11.119000	24.846241	0.000522	20.704625
727.200614	-3.003200	3.705100	-11.125000	24.852740	0.000521	20.684120
728.205701	-3.000400	3.704900	-11.115000	24.889306	0.000520	20.717502
729.208183	-3.003400	3.705800	-11.128000	24.899983	0.000520	20.706881
730.204541	-3.010400	3.705700	-11.154000	24.901824	0.000522	20.695925
731.207634	-2.983400	3.704900	-11.053000	24.870473	0.000520	20.704289
732.208411	-3.012200	3.703900	-11.156000	24.882137	0.000521	20.697029
733.206724	-2.999200	3.705300	-11.112000	24.893002	0.000519	20.703193
734.205409	-2.987800	3.704600	-11.068000	24.898752	0.000521	20.684781
735.201255	-3.006400	3.705700	-11.139000	24.911263	0.000520	20.693545
736.205846	-3.013100	3.702900	-11.155000	24.963693	0.000521	20.690218
737.202533	-2.987400	3.705000	-11.068000	24.997085	0.000521	20.674422
738.206566	-3.003000	3.701600	-11.115000	25.029141	0.000519	20.680046
739.204656	-3.003800	3.703400	-11.123000	25.054819	0.000518	20.676425
740.203045	-2.996200	3.702900	-11.094000	25.036698	0.000521	20.693324
741.208917	-2.995300	3.703100	-11.091000	25.038392	0.000522	20.682221
742.209390	-3.014500	3.700900	-11.156000	25.043197	0.000518	20.690837
743.206628	-2.986700	3.702600	-11.058000	25.067409	0.000518	20.688115
744.205237	-3.016700	3.701900	-11.166000	25.045152	0.000519	20.689007
745.215587	-2.986200	3.703000	-11.056000	25.031038	0.000518	20.691434
746.209756	-2.990400	3.702400	-11.071000	25.002206	0.000519	20.695211
747.208983	-3.000300	3.701000	-11.104000	24.967421	0.000518	20.705815
748.215013	-3.005400	3.701300	-11.123000	24.969489	0.000518	20.701727
749.207111	-3.010700	3.702200	-11.145000	24.977666	0.000516	20.699977
750.213093	-2.998300	3.700500	-11.094000	24.999323	0.000517	20.672874
751.208975	-3.009200	3.699300	-11.131000	25.020205	0.000515	20.699054
752.206533	-2.996700	3.699500	-11.086000	24.975028	0.000518	20.693061
753.209400	-2.995200	3.699900	-11.081000	24.999274	0.000516	20.679464
754.214460	-3.002800	3.700100	-11.110000	25.053841	0.000517	20.694884
755.208159	-2.976000	3.700600	-11.012000	25.032266	0.000518	20.684607
756.213315	-3.001500	3.700200	-11.104000	25.049939	0.000516	20.692865
757.209271	-3.013000	3.698200	-11.141000	25.054337	0.000513	20.692064
758.212500	-3.012000	3.697800	-11.137000	25.061056	0.000515	20.686953
759.214231	-3.023900	3.698900	-11.184000	25.075576	0.000516	20.684934
760.214270	-3.010400	3.698400	-11.133000	25.084169	0.000514	20.706837
761.212752	-3.018300	3.697500	-11.160000	25.088998	0.000515	20.686078
762.215091	-3.007000	3.696300	-11.114000	25.076374	0.000514	20.693796
763.214263	-3.002800	3.698000	-11.103000	25.077938	0.000515	20.683511
764.212358	-2.978100	3.697800	-11.011000	25.116572	0.000514	20.675351
765.211901	-3.000000	3.697000	-11.090000	25.035947	0.000514	20.698260
766.213272	-2.992700	3.697400	-11.064000	25.059093	0.000512	20.707744
767.212539	-2.991800	3.697400	-11.061000	25.041787	0.000513	20.690371
768.212824	-3.000700	3.695400	-11.088000	25.016654	0.000512	20.684582
769.213929	-3.008300	3.696100	-11.118000	25.043481	0.000513	20.720048
770.214525	-3.004900	3.695200	-11.103000	25.057326	0.000514	20.696486
771.214880	-2.987800	3.695300	-11.040000	25.062025	0.000513	20.680339
772.213137	-3.004100	3.695100	-11.099000	25.064313	0.000515	20.717726
773.212640	-2.997200	3.695500	-11.076000	25.084257	0.000514	20.689855
774.216334	-2.971500	3.696100	-10.982000	25.088672	0.000513	20.703297
775.217094	-3.024200	3.693100	-11.168000	25.092532	0.000512	20.699110
776.218314	-2.991000	3.695000	-11.050000	25.059394	0.000512	20.701882
777.215581	-3.003600	3.692600	-11.091000	25.080006	0.000513	20.707400
778.216378	-3.016000	3.693100	-11.138000	25.070356	0.000512	20.704825
779.214543	-3.009600	3.692200	-11.111000	25.030898	0.000511	20.685604
780.216988	-3.028300	3.693600	-11.184000	25.021304	0.000510	20.714383
781.216391	-3.007200	3.692700	-11.104000	25.050069	0.000512	20.707695
782.213091	-2.990000	3.692800	-11.040000	25.029065	0.000511	20.696567
783.220069	-3.008100	3.692200	-11.105000	25.038341	0.000508	20.700189
784.214486	-3.005800	3.692500	-11.098000	25.039905	0.000511	20.689904
785.221419	-3.010600	3.691600	-11.114000	25.048904	0.000509	20.707000
786.220558	-2.994800	3.692000	-11.055000	25.110268	0.000508	20.698897
787.213768	-2.998500	3.691400	-11.068000	25.107531	0.000509	20.699943
788.217417	-2.994200	3.691500	-11.052000	25.147980	0.000509	20.699771
789.219338	-3.005200	3.690600	-11.090000	25.125602	0.000509	20.707653
790.219011	-2.992500	3.690800	-11.044000	25.065004	0.000509	20.709410
791.221168	-2.999000	3.690600	-11.067000	25.054832	0.000507	20.713425
792.219740	-3.004500	3.691200	-11.089000	25.025448	0.000506	20.699101
793.217968	-3.030400	3.689900	-11.181000	25.016253	0.000507	20.705993
794.218047	-3.001800	3.690700	-11.078000	25.007155	0.000506	20.709663
795.222080	-3.005000	3.691100	-11.091000	25.066600	0.000509	20.708167
796.220151	-2.996700	3.690000	-11.056000	25.031474	0.000508	20.704202
797.221951	-3.009100	3.687100	-11.094000	25.034039	0.000507	20.702983
798.227787	-2.995700	3.688400	-11.047000	25.033518	0.000505	20.706727
799.223442	-2.981000	3.688500	-10.995000	25.013076	0.000505	20.710391
800.220040	-2.990500	3.688600	-11.030000	25.024624	0.000507	20.712499
801.220671	-2.995800	3.688100	-11.048000	25.058829	0.000504	20.707479
802.225057	-2.971200	3.688600	-10.959000	25.115990	0.000506	20.715548
803.221192	-2.980500	3.687400	-10.989000	25.120469	0.000504	20.704870
804.223102	-2.988700	3.688600	-11.023000	25.129271	0.000505	20.728408
805.226964	-3.000700	3.687500	-11.064000	25.136307	0.000505	20.706072
806.223088	-3.004400	3.686200	-11.074000	25.126462	0.000505	20.716578
807.225075	-3.004800	3.687000	-11.077000	25.157211	0.000505	20.715678
808.221872	-2.974100	3.687900	-10.966000	25.130615	0.000505	20.719324
809.222123	-3.006100	3.686400	-11.081000	25.140933	0.000505	20.716880
810.221526	-3.013600	3.685700	-11.106000	25.124678	0.000505	20.710519
811.228467	-3.005300	3.683800	-11.070000	25.086150	0.000503	20.717836
812.228219	-3.008700	3.686200	-11.090000	25.094155	0.000503	20.725398
813.220723	-2.992300	3.685300	-11.026000	25.093610	0.000505	20.723428
814.224433	-2.995800	3.685100	-11.039000	25.082102	0.000503	20.739378
815.224551	-2.976500	3.685300	-10.968000	25.119816	0.000504	20.721285
816.224792	-2.984200	3.685500	-10.997000	25.123244	0.000503	20.725202
817.227125	-3.001900	3.684100	-11.058000	25.112755	0.000504	20.708981
818.223772	-2.987600	3.684300	-11.005000	25.157447	0.000502	20.724924
819.227911	-2.979900	3.684000	-10.977000	25.159644	0.000500	20.720492
820.232728	-3.020200	3.683300	-11.124000	25.197054	0.000502	20.733393
821.226293	-3.011300	3.683000	-11.089000	25.226791	0.000502	20.708244
822.226694	-3.004600	3.682500	-11.064000	25.237605	0.000500	20.712463
823.226952	-2.997700	3.683400	-11.041000	25.204985	0.000500	20.735666
824.231194	-3.018900	3.683200	-11.118000	25.207175	0.000501	20.727433
825.229660	-3.004800	3.681800	-11.063000	25.214096	0.000500	20.741494
826.227169	-2.987300	3.681900	-10.998000	25.209845	0.000499	20.719207
827.224766	-3.008800	3.681600	-11.077000	25.158047	0.000499	20.729320
828.226430	-2.992300	3.682100	-11.018000	25.176296	0.000499	20.726303
829.230798	-3.012900	3.682100	-11.093000	25.190513	0.000498	20.728723
830.227822	-3.030700	3.680300	-11.153000	25.187239	0.000496	20.739661
831.228210	-3.006900	3.681200	-11.068000	25.227758	0.000501	20.727234
832.229182	-3.015400	3.679800	-11.095000	25.203427	0.000495	20.709444
833.228220	-3.003600	3.682500	-11.060000	25.185879	0.000498	20.721699
834.229275	-3.021100	3.679400	-11.115000	25.128411	0.000501	20.754572
835.232892	-3.006900	3.680900	-11.066000	25.167247	0.000502	20.745669
836.227054	-3.016600	3.679800	-11.099000	25.201472	0.000497	20.746838
837.229846	-3.003600	3.678400	-11.048000	25.226755	0.000497	20.743772
838.231278	-2.988500	3.680700	-10.999000	25.197376	0.000499	20.717120
839.226865	-2.995700	3.679300	-11.022000	25.188158	0.000498	20.718771
840.230655	-2.999500	3.678700	-11.033000	25.182490	0.000497	20.749118
841.230827	-2.994600	3.679000	-11.017000	25.180349	0.000498	20.746494
842.229288	-2.985300	3.677300	-10.976000	25.193003	0.000497	20.752560
843.229685	-3.003200	3.678200	-11.046000	25.241127	0.000495	20.743502
844.228601	-3.000000	3.678100	-11.033000	25.237471	0.000497	20.755005
845.229175	-2.989700	3.678000	-10.995000	25.236925	0.000495	20.756354
846.237135	-2.991300	3.677700	-11.000000	25.251045	0.000497	20.731648
847.233658	-3.011100	3.676000	-11.068000	25.256516	0.000495	20.748047
848.230177	-3.018900	3.676500	-11.098000	25.256289	0.000494	20.726481
849.234663	-3.008000	3.677000	-11.060000	25.235484	0.000496	20.742578
850.235114	-3.032500	3.675100	-11.144000	25.190145	0.000493	20.743052
851.230773	-3.017100	3.674300	-11.085000	25.160894	0.000493	20.734549
852.234075	-3.002700	3.675700	-11.036000	25.172124	0.000493	20.739185
853.233606	-2.983500	3.676500	-10.968000	25.219784	0.000493	20.750998
854.235929	-2.989500	3.676200	-10.989000	25.211601	0.000492	20.757482
855.232403	-2.994300	3.675900	-11.005000	25.209719	0.000494	20.735677
856.237360	-3.012700	3.675000	-11.071000	25.211413	0.000491	20.752551
857.233647	-2.990600	3.674500	-10.988000	25.196317	0.000491	20.752094
858.234981	-3.029000	3.674200	-11.127000	25.186259	0.000493	20.755273
859.238440	-3.028500	3.674700	-11.128000	25.167538	0.000492	20.755919
860.231161	-2.985900	3.674100	-10.969000	25.148100	0.000491	20.746362
861.234034	-3.015900	3.674200	-11.080000	25.156895	0.000493	20.742863
862.235138	-3.000400	3.674100	-11.023000	25.167147	0.000491	20.769751
863.237512	-3.020300	3.673100	-11.092000	25.193319	0.000491	20.771844
864.236323	-2.995900	3.673000	-11.003000	25.219506	0.000492	20.755460
865.238023	-3.008000	3.673000	-11.048000	25.241752	0.000492	20.755984
866.241253	-2.991300	3.671900	-10.983000	25.255073	0.000491	20.770781
867.239517	-2.993500	3.672600	-10.993000	25.271162	0.000490	20.754691
868.238559	-2.984100	3.672200	-10.957000	25.265292	0.000489	20.754013
869.237747	-2.996900	3.671000	-11.001000	25.303202	0.000489	20.775955
870.235944	-3.004000	3.671800	-11.029000	25.272562	0.000489	20.758468
871.237373	-2.994800	3.672500	-10.998000	25.272163	0.000489	20.758542
872.239254	-2.998500	3.670900	-11.007000	25.268882	0.000490	20.763782
873.237402	-3.016000	3.670000	-11.067000	25.224464	0.000487	20.781776
874.237786	-3.008100	3.670300	-11.040000	25.213455	0.000489	20.772145
875.238063	-3.008400	3.669700	-11.039000	25.193814	0.000486	20.752426
876.238651	-2.989000	3.671500	-10.973000	25.214343	0.000487	20.772088
877.239617	-3.000900	3.668800	-11.009000	25.204880	0.000487	20.758320
878.243145	-3.018000	3.668900	-11.072000	25.218332	0.000487	20.766610
879.243050	-2.966800	3.670200	-10.887000	25.235782	0.000486	20.776543
880.239970	-3.010800	3.668400	-11.044000	25.239462	0.000488	20.784979
881.242072	-2.996800	3.668200	-10.992000	25.244493	0.000486	20.786712
882.243837	-2.977500	3.668200	-10.921000	25.249639	0.000487	20.762955
883.245675	-3.005300	3.668600	-11.023000	25.278227	0.000485	20.760837
884.244181	-3.016100	3.666600	-11.058000	25.302931	0.000486	20.783270
885.248283	-3.008000	3.667800	-11.031000	25.339920	0.000484	20.768726
886.246901	-3.014300	3.667000	-11.052000	25.308882	0.000483	20.802521
887.247667	-3.015100	3.666000	-11.053000	25.301595	0.000482	20.777661
888.256929	-2.987200	3.665900	-10.949000	25.280677	0.000484	20.784160
889.245037	-3.007700	3.666700	-11.027000	25.260174	0.000483	20.769264
890.247691	-2.981400	3.666000	-10.929000	25.247032	0.000483	20.761285
891.249241	-3.007000	3.665200	-11.020000	25.288094	0.000483	20.769795
892.249459	-3.001900	3.666500	-11.005000	25.290358	0.000485	20.785819
893.251852	-3.011100	3.664200	-11.032000	25.303759	0.000481	20.766083
894.252311	-2.998500	3.666000	-10.992000	25.318024	0.000482	20.783251
895.251278	-3.005900	3.664600	-11.015000	25.331206	0.000481	20.791745
896.255283	-3.004400	3.663700	-11.006000	25.351805	0.000483	20.793462
897.252691	-3.005800	3.664000	-11.013000	25.358318	0.000483	20.790045
898.261055	-2.987500	3.665100	-10.948000	25.380129	0.000483	20.769270
899.251654	-2.982400	3.664100	-10.927000	25.329251	0.000480	20.776506
900.252633	-2.992400	3.663600	-10.961000	25.328412	0.000483	20.797474
901.252961	-3.010200	3.662100	-11.023000	25.276049	0.000479	20.783306
902.253242	-2.987900	3.663100	-10.944000	25.264267	0.000479	20.788547
903.253529	-2.974800	3.663400	-10.897000	25.293400	0.000479	20.790296
904.255550	-2.998100	3.663100	-10.981000	25.251125	0.000480	20.782938
905.257820	-2.986700	3.662000	-10.936000	25.272653	0.000481	20.774681
906.252613	-3.004100	3.660400	-10.995000	25.268598	0.000480	20.793370
907.251177	-2.968300	3.661500	-10.867000	25.247036	0.000478	20.767453
908.258246	-2.992800	3.661400	-10.956000	25.294466	0.000478	20.762916
909.252799	-2.959900	3.662400	-10.840000	25.259494	0.000477	20.792289
910.252634	-3.004200	3.661700	-10.999000	25.244560	0.000481	20.796262
911.253963	-2.988600	3.661400	-10.942000	25.215808	0.000477	20.784465
912.253160	-2.994300	3.659500	-10.956000	25.250683	0.000477	20.786762
913.255123	-2.976400	3.660500	-10.894000	25.273628	0.000477	20.796997
914.251488	-3.004000	3.660500	-10.995000	25.335842	0.000477	20.777434
915.255794	-3.001300	3.660700	-10.986000	25.347281	0.000477	20.774695
916.253345	-3.008400	3.660000	-11.010000	25.344252	0.000475	20.807689
917.257238	-3.002100	3.659200	-10.984000	25.383544	0.000476	20.801624
918.254519	-2.998200	3.659900	-10.972000	25.366626	0.000475	20.803127
919.252148	-3.021600	3.659300	-11.055000	25.368336	0.000474	20.800103
920.256990	-2.985300	3.659200	-10.923000	25.372194	0.000474	20.789279
921.255201	-2.984000	3.657600	-10.913000	25.404435	0.000476	20.813591
922.254646	-2.990900	3.658100	-10.940000	25.356220	0.000475	20.789834
923.254747	-2.980500	3.657100	-10.899000	25.396358	0.000475	20.802636
924.254981	-3.007300	3.657700	-10.999000	25.317847	0.000474	20.811048
925.254550	-2.995600	3.656600	-10.952000	25.343673	0.000473	20.806634
926.258711	-2.980000	3.657200	-10.897000	25.370598	0.000473	20.801426
927.258494	-2.987700	3.656200	-10.922000	25.397408	0.000474	20.812225
928.255322	-2.979200	3.656800	-10.893000	25.370565	0.000472	20.788591
929.260812	-3.000100	3.655100	-10.965000	25.381231	0.000472	20.799300
930.256484	-2.990800	3.655400	-10.931000	25.400168	0.000474	20.813574
931.256337	-2.976400	3.656600	-10.882000	25.361349	0.000474	20.818691
932.257933	-3.007200	3.654700	-10.989000	25.363938	0.000471	20.788574
933.260348	-3.000300	3.655900	-10.968000	25.322829	0.000470	20.818421
934.254548	-2.974300	3.656100	-10.873000	25.297059	0.000471	20.805349
935.262126	-2.980500	3.654000	-10.889000	25.317219	0.000470	20.805202
936.258254	-3.025100	3.652700	-11.048000	25.321819	0.000470	20.808872
937.263980	-2.997100	3.654600	-10.953000	25.311625	0.000469	20.819500
938.260404	-2.998000	3.654000	-10.954000	25.309866	0.000471	20.822001
939.259126	-2.986400	3.654100	-10.912000	25.322999	0.000468	20.803893
940.259034	-2.985600	3.654300	-10.910000	25.328903	0.000470	20.830683
941.256202	-3.014700	3.652700	-11.011000	25.326500	0.000471	20.812624
942.261559	-2.993800	3.653300	-10.937000	25.316884	0.000470	20.818142
943.257241	-3.001200	3.652200	-10.960000	25.310997	0.000467	20.812706
944.260413	-2.998500	3.652700	-10.952000	25.358335	0.000467	20.805708
945.260901	-2.990100	3.652500	-10.920000	25.391943	0.000467	20.808635
946.260280	-2.980000	3.652100	-10.882000	25.379593	0.000466	20.831794
947.259520	-2.991100	3.651700	-10.921000	25.357536	0.000467	20.830510
948.260945	-2.986700	3.651500	-10.904000	25.353107	0.000466	20.841235
949.264970	-3.005900	3.650100	-10.972000	25.333949	0.000465	20.817733
950.261347	-2.995100	3.650500	-10.933000	25.352317	0.000466	20.821951
951.267622	-3.021000	3.650300	-11.026000	25.396086	0.000464	20.816114
952.263535	-3.025500	3.648400	-11.037000	25.383459	0.000466	20.843262
953.265800	-3.002700	3.650200	-10.960000	25.351950	0.000464	20.822531
954.265698	-3.012100	3.649200	-10.991000	25.322476	0.000464	20.846041
955.266574	-2.996900	3.649900	-10.937000	25.345322	0.000463	20.824885
956.275859	-2.990300	3.649600	-10.913000	25.315890	0.000466	20.828523
957.265452	-3.009300	3.648800	-10.979000	25.321116	0.000462	20.821443
958.270032	-2.994300	3.649000	-10.925000	25.337946	0.000465	20.811314
959.264488	-2.996500	3.647600	-10.929000	25.325065	0.000464	20.820666
960.264604	-2.977500	3.648500	-10.863000	25.307030	0.000462	20.807774
961.264579	-2.970400	3.648600	-10.836000	25.332213	0.000462	20.806507
962.270642	-2.984000	3.648300	-10.885000	25.402843	0.000461	20.791130
963.266403	-2.989600	3.648700	-10.907000	25.422276	0.000462	20.831980
964.269090	-3.015800	3.645800	-10.994000	25.430507	0.000460	20.819382
965.269907	-3.020900	3.646000	-11.013000	25.413630	0.000461	20.817608
966.269569	-3.037500	3.645700	-11.073000	25.386323	0.000461	20.784025
967.270231	-3.027000	3.645400	-11.034000	25.395246	0.000457	20.828072
968.275519	-3.006300	3.644800	-10.956000	25.385998	0.000459	20.817363
969.276581	-3.005300	3.645100	-10.953000	25.398559	0.000460	20.813381
970.268155	-2.974500	3.646400	-10.846000	25.414272	0.000461	20.836745
971.271789	-3.015100	3.643500	-10.984000	25.454562	0.000459	20.817460
972.275270	-2.982000	3.644400	-10.867000	25.504311	0.000458	20.802459
973.270468	-3.003700	3.644000	-10.945000	25.467116	0.000459	20.804461
974.275837	-2.994800	3.643500	-10.910000	25.432874	0.000459	20.791414
975.272621	-3.025700	3.643800	-11.025000	25.436383	0.000459	20.802998
976.275050	-2.997300	3.643700	-10.921000	25.399722	0.000456	20.789419
977.270576	-3.041500	3.642000	-11.076000	25.395953	0.000458	20.788478
978.274451	-2.963500	3.644400	-10.798000	25.399380	0.000457	20.807093
979.277350	-3.001400	3.641800	-10.929000	25.421354	0.000458	20.787906
980.282118	-3.005100	3.643200	-10.947000	25.446404	0.000455	20.794569
981.272663	-2.982900	3.643300	-10.866000	25.479407	0.000456	20.792149
982.271968	-3.011100	3.640800	-10.961000	25.508014	0.000454	20.783418
983.276743	-3.015800	3.640900	-10.979000	25.461440	0.000454	20.771261
984.275674	-3.003600	3.641500	-10.936000	25.443449	0.000455	20.782592
985.275911	-3.002300	3.641600	-10.931000	25.400902	0.000456	20.783017
986.274648	-2.995600	3.641000	-10.906000	25.402466	0.000454	20.795493
987.274070	-3.007100	3.640100	-10.945000	25.412927	0.000453	20.778022
988.282876	-3.009800	3.640700	-10.957000	25.382388	0.000451	20.776281
989.276794	-2.997200	3.638600	-10.905000	25.404208	0.000453	20.801509
990.278719	-3.000600	3.638400	-10.916000	25.420808	0.000454	20.784039
991.276741	-2.995800	3.639900	-10.904000	25.448472	0.000451	20.773885
992.274532	-2.993500	3.639100	-10.893000	25.473448	0.000452	20.799441
993.279691	-2.984700	3.638600	-10.858000	25.489331	0.000452	20.785993
994.278114	-3.008900	3.637900	-10.945000	25.486294	0.000452	20.792427
995.274439	-3.000600	3.637600	-10.913000	25.471640	0.000451	20.799048
996.277696	-2.992700	3.637200	-10.884000	25.466943	0.000450	20.785322
997.277246	-3.024300	3.636800	-10.998000	25.472544	0.000451	20.788575
998.279902	-2.988200	3.637600	-10.868000	25.492920	0.000452	20.777269
999.282898	-3.017000	3.636400	-10.970000	25.500475	0.000451	20.775847
1000.277596	-3.021100	3.636600	-10.986000	25.503056	0.000451	20.765162
1001.281891	-2.993900	3.636300	-10.885000	25.530790	0.000448	20.788747
1002.282396	-3.004300	3.636000	-10.923000	25.509820	0.000449	20.756308
1003.278219	-2.996500	3.635100	-10.891000	25.487807	0.000450	20.780670
1004.280238	-3.011500	3.635300	-10.946000	25.472739	0.000449	20.786875
1005.281220	-2.984500	3.637600	-10.854000	25.465070	0.000449	20.781070
1006.287066	-3.002400	3.635700	-10.915000	25.500808	0.000450	20.771914
1007.286779	-3.000300	3.635500	-10.906000	25.476581	0.000448	20.772241
1008.281084	-3.009100	3.634700	-10.936000	25.510626	0.000446	20.771816
1009.285159	-2.994100	3.634000	-10.879000	25.488955	0.000448	20.773761
1010.283906	-3.020500	3.634200	-10.975000	25.489932	0.000447	20.760043
1011.281642	-3.021500	3.632600	-10.975000	25.458687	0.000447	20.756642
1012.291059	-3.019600	3.633600	-10.970000	25.441444	0.000447	20.745965
1013.288151	-2.993300	3.634000	-10.876000	25.469010	0.000446	20.768431
1014.285090	-3.001800	3.631900	-10.901000	25.512172	0.000446	20.753454
1015.284697	-3.007600	3.633400	-10.927000	25.515159	0.000444	20.774946
1016.285174	-2.993600	3.632400	-10.873000	25.503933	0.000446	20.760353
1017.283755	-2.996500	3.631700	-10.882000	25.454152	0.000444	20.783857
1018.288761	-3.009300	3.631500	-10.927000	25.486414	0.000444	20.754140
1019.282808	-2.996100	3.630500	-10.876000	25.461235	0.000444	20.751140
1020.283944	-3.011200	3.631600	-10.934000	25.454730	0.000444	20.764522
1021.290802	-3.015700	3.631500	-10.950000	25.411663	0.000444	20.770114
1022.290392	-2.984900	3.630100	-10.835000	25.402781	0.000442	20.748867
1023.292223	-2.995800	3.629400	-10.873000	25.407511	0.000443	20.769264
1024.287507	-2.992700	3.629600	-10.861000	25.432904	0.000441	20.751140
1025.287030	-2.993800	3.629200	-10.864000	25.456195	0.000444	20.774055
1026.294502	-2.982200	3.629300	-10.822000	25.413877	0.000442	20.768544
1027.286217	-2.992900	3.629000	-10.861000	25.426765	0.000442	20.742605
1028.289139	-2.999500	3.629300	-10.885000	25.420928	0.000443	20.768986
1029.285698	-3.019200	3.627200	-10.951000	25.452662	0.000441	20.769084
1030.285113	-3.022300	3.627600	-10.962000	25.477777	0.000440	20.745466
1031.286108	-3.012400	3.626100	-10.922000	25.428671	0.000441	20.765382
1032.285580	-3.030700	3.627000	-10.992000	25.412567	0.000440	20.751107
1033.288687	-2.998500	3.626700	-10.874000	25.446939	0.000441	20.739155
1034.292259	-3.011300	3.625100	-10.915000	25.433791	0.000440	20.750609
1035.286710	-3.010100	3.626000	-10.913000	25.473878	0.000439	20.743921
1036.293130	-3.014200	3.626300	-10.929000	25.474196	0.000439	20.759414
1037.289152	-2.978900	3.626400	-10.801000	25.443186	0.000440	20.761465
1038.294451	-3.007700	3.626200	-10.906000	25.484062	0.000438	20.744665
1039.291430	-3.012100	3.624300	-10.915000	25.445067	0.000437	20.754819
1040.291947	-2.996900	3.624700	-10.862000	25.433206	0.000439	20.739115
1041.304473	-3.004700	3.625500	-10.893000	25.444196	0.000439	20.774334
1042.296610	-3.024600	3.624700	-10.961000	25.468872	0.000438	20.754067
1043.293092	-3.006600	3.623600	-10.894000	25.516308	0.000436	20.753814
1044.295157	-3.000300	3.623900	-10.872000	25.545109	0.000437	20.741960
1045.290033	-2.994100	3.623000	-10.846000	25.562864	0.000435	20.737031
1046.297226	-3.007000	3.622500	-10.892000	25.541731	0.000437	20.732403
1047.299578	-2.972500	3.623300	-10.769000	25.519833	0.000435	20.745500
1048.293738	-2.987900	3.622800	-10.823000	25.528870	0.000436	20.741298
1049.297897	-3.006300	3.621600	-10.887000	25.543181	0.000434	20.738600
1050.296484	-2.996400	3.622400	-10.853000	25.487165	0.000434	20.740195
1051.296184	-2.988500	3.621500	-10.822000	25.511987	0.000435	20.760854
1052.295414	-2.996000	3.622300	-10.851000	25.566609	0.000433	20.736050
1053.290944	-2.986900	3.622100	-10.818000	25.558712	0.000433	20.740922
1054.297289	-3.006000	3.621500	-10.884000	25.555717	0.000432	20.734121
1055.297003	-3.011600	3.621200	-10.905000	25.522790	0.000431	20.745150
1056.291160	-2.997000	3.619800	-10.847000	25.522187	0.000432	20.740752
1057.295812	-2.984700	3.619400	-10.802000	25.525786	0.000432	20.747211
1058.303408	-3.012400	3.619400	-10.902000	25.550842	0.000433	20.745820
1059.297387	-3.008600	3.618700	-10.886000	25.584331	0.000430	20.748633
1060.296192	-2.965300	3.618500	-10.730000	25.627293	0.000431	20.747211
1061.295572	-2.993700	3.620000	-10.837000	25.582092	0.000430	20.736901
1062.300411	-3.007900	3.618100	-10.882000	25.529262	0.000428	20.743589
1063.297862	-2.972900	3.619500	-10.758000	25.558315	0.000428	20.741946
1064.295807	-2.977900	3.618500	-10.775000	25.529034	0.000428	20.743360
1065.300862	-2.994300	3.617500	-10.830000	25.527349	0.000428	20.747358
1066.295455	-3.009300	3.618400	-10.888000	25.505647	0.000429	20.742633
1067.291560	-2.997700	3.616200	-10.839000	25.467279	0.000430	20.739191
1068.295496	-2.983000	3.617000	-10.789000	25.514236	0.000427	20.737507
1069.295557	-3.020600	3.614800	-10.917000	25.540610	0.000428	20.725587
1070.296003	-2.995700	3.617300	-10.835000	25.589289	0.000430	20.729430
1071.295347	-3.007300	3.615000	-10.871000	25.587344	0.000428	20.740753
1072.299921	-3.012300	3.615500	-10.890000	25.617062	0.000426	20.732193
1073.294896	-3.011300	3.614700	-10.884000	25.574670	0.000425	20.730395
1074.301517	-3.019900	3.613700	-10.912000	25.547717	0.000425	20.731302
1075.297265	-2.995700	3.614300	-10.826000	25.531013	0.000424	20.746770
1076.299550	-2.992100	3.614600	-10.815000	25.526438	0.000427	20.745021
1077.297709	-2.986700	3.614100	-10.793000	25.573334	0.000423	20.736166
1078.297512	-3.008400	3.612000	-10.865000	25.584567	0.000423	20.740810
1079.297356	-2.990400	3.612900	-10.802000	25.593286	0.000424	20.750040
1080.293323	-2.980100	3.613200	-10.766000	25.607620	0.000424	20.750686
1081.298404	-3.006600	3.611700	-10.858000	25.541302	0.000421	20.735292
1082.295228	-2.994200	3.613900	-10.819000	25.525949	0.000422	20.738839
1083.300657	-3.003900	3.611900	-10.849000	25.508154	0.000422	20.712907
1084.300531	-3.004800	3.611800	-10.851000	25.504230	0.000421	20.723666
1085.300948	-3.000000	3.611300	-10.834000	25.492891	0.000423	20.737409
1086.301043	-2.976200	3.611400	-10.747000	25.526275	0.000422	20.725889
1087.302699	-2.985800	3.611600	-10.782000	25.543492	0.000419	20.744603
1088.300967	-3.029300	3.609700	-10.933000	25.583753	0.000420	20.738095
1089.299810	-2.995300	3.610900	-10.814000	25.575923	0.000420	20.725489
1090.302247	-2.992400	3.610900	-10.803000	25.573244	0.000417	20.739395
1091.301471	-3.012000	3.607600	-10.866000	25.557892	0.000418	20.743891
1092.304133	-2.988100	3.609900	-10.786000	25.543377	0.000418	20.740695
1093.301516	-3.014000	3.609000	-10.877000	25.533585	0.000419	20.742714
1094.303254	-2.989500	3.609200	-10.789000	25.563410	0.000418	20.738054
1095.306616	-2.988200	3.608500	-10.782000	25.551233	0.000417	20.704485
1096.304762	-2.999400	3.608000	-10.821000	25.557679	0.000418	20.734195
1097.307725	-3.012100	3.606200	-10.861000	25.562457	0.000415	20.723819
1098.311481	-3.010400	3.607000	-10.857000	25.551965	0.000417	20.737939
1099.308767	-2.990200	3.607000	-10.784000	25.543271	0.000415	20.722095
1100.308970	-2.986100	3.608100	-10.774000	25.552168	0.000416	20.721547
1101.310395	-2.986500	3.608800	-10.776000	25.550157	0.000416	20.729485
1102.308151	-2.997300	3.606600	-10.808000	25.576450	0.000415	20.733131
1103.313951	-2.990400	3.605300	-10.780000	25.599478	0.000414	20.735396
1104.307529	-2.984000	3.606000	-10.759000	25.595440	0.000418	20.733237
1105.309710	-3.011800	3.605400	-10.857000	25.600935	0.000413	20.717417
1106.315664	-3.024000	3.604400	-10.899000	25.641617	0.000412	20.732673
1107.314878	-3.000900	3.604900	-10.816000	25.653940	0.000415	20.722290
1108.311922	-3.007600	3.605000	-10.841000	25.606559	0.000414	20.719273
1109.313087	-2.994500	3.603400	-10.790000	25.596400	0.000412	20.719976
1110.317091	-3.015500	3.603500	-10.865000	25.613071	0.000414	20.720123
1111.311610	-2.990400	3.604400	-10.778000	25.638719	0.000414	20.701785
1112.312254	-3.008100	3.603000	-10.837000	25.631572	0.000413	20.724480
1113.314431	-2.991100	3.603200	-10.777000	25.642552	0.000413	20.719861
1114.310080	-3.005200	3.602700	-10.826000	25.604490	0.000410	20.710082
1115.309329	-2.994800	3.602900	-10.789000	25.639597	0.000412	20.729696
1116.312376	-2.986100	3.602200	-10.756000	25.648201	0.000411	20.737389
1117.308424	-3.017400	3.600300	-10.862000	25.690209	0.000411	20.726949
1118.319122	-3.024400	3.600700	-10.889000	25.671015	0.000410	20.714309
1119.312220	-2.999000	3.601800	-10.801000	25.624449	0.000410	20.704523
1120.311410	-3.008900	3.600200	-10.831000	25.632898	0.000408	20.689774
1121.320719	-3.001000	3.600400	-10.804000	25.595121	0.000410	20.730546
1122.317793	-2.984400	3.600600	-10.744000	25.574055	0.000407	20.699903
1123.314342	-3.003700	3.599200	-10.810000	25.616928	0.000408	20.721152
1124.322847	-3.011100	3.599900	-10.839000	25.632279	0.000409	20.727087
1125.316591	-3.007400	3.598200	-10.821000	25.648054	0.000408	20.733922
1126.313719	-3.021900	3.599500	-10.876000	25.597123	0.000407	20.703157
1127.318147	-3.007100	3.599300	-10.822000	25.646597	0.000407	20.704007
1128.317169	-3.033800	3.597900	-10.915000	25.586387	0.000407	20.701383
1129.316841	-2.994000	3.597300	-10.770000	25.584408	0.000406	20.703663
1130.314911	-2.997800	3.599100	-10.788000	25.576651	0.000407	20.723849
1131.320746	-3.003300	3.597800	-10.804000	25.608828	0.000407	20.721552
1132.317012	-2.992400	3.598300	-10.767000	25.642470	0.000407	20.694646
1133.317523	-3.002600	3.598000	-10.802000	25.650024	0.000405	20.704130
1134.319177	-2.979100	3.598100	-10.718000	25.661997	0.000404	20.693869
1135.322328	-3.003600	3.596300	-10.801000	25.685780	0.000405	20.704007
1136.318603	-2.990100	3.596400	-10.752000	25.637236	0.000405	20.707882
1137.317338	-2.976100	3.595800	-10.701000	25.655599	0.000406	20.704988
1138.315873	-2.991400	3.594900	-10.752000	25.623488	0.000403	20.698816
1139.317635	-3.000400	3.594800	-10.785000	25.618417	0.000403	20.712690
1140.320768	-2.998100	3.595100	-10.777000	25.584873	0.000402	20.687059
1141.316904	-3.025600	3.593400	-10.870000	25.583180	0.000403	20.694368
1142.326352	-2.991300	3.594100	-10.750000	25.607811	0.000404	20.703934
1143.319512	-2.989800	3.594300	-10.745000	25.592850	0.000404	20.701236
1144.317475	-3.017100	3.593700	-10.841000	25.635518	0.000403	20.705683
1145.323395	-2.991300	3.593600	-10.749000	25.635242	0.000401	20.694973
1146.319898	-3.002300	3.592300	-10.784000	25.632010	0.000401	20.718282
1147.318939	-2.976200	3.592500	-10.691000	25.584970	0.000400	20.701857
1148.321589	-3.012100	3.591100	-10.816000	25.590294	0.000399	20.727120
1149.321126	-2.993600	3.591100	-10.749000	25.634119	0.000399	20.712338
1150.319076	-3.019400	3.590200	-10.839000	25.625726	0.000400	20.706754
1151.326004	-3.013400	3.591500	-10.821000	25.663364	0.000398	20.709943
1152.326047	-2.999800	3.591500	-10.772000	25.708831	0.000397	20.693968
1153.319843	-3.022400	3.591000	-10.851000	25.708383	0.000400	20.687828
1154.321824	-3.018100	3.590200	-10.835000	25.664007	0.000397	20.702054
1155.320616	-3.003500	3.589100	-10.779000	25.703215	0.000398	20.704449
1156.326798	-2.991300	3.590500	-10.740000	25.741973	0.000395	20.676521
1157.327278	-3.005800	3.589100	-10.787000	25.755011	0.000398	20.713802
1158.322019	-2.991900	3.589300	-10.738000	25.722016	0.000397	20.698203
1159.323262	-2.991800	3.587500	-10.732000	25.679880	0.000396	20.699029
1160.323011	-2.971500	3.589700	-10.666000	25.631075	0.000396	20.687468
1161.321556	-2.970300	3.589900	-10.662000	25.586070	0.000397	20.708178
1162.328989	-2.988800	3.588600	-10.725000	25.611117	0.000393	20.679751
1163.325215	-2.996600	3.587900	-10.751000	25.628137	0.000393	20.693527
1164.327847	-2.966300	3.590000	-10.649000	25.646004	0.000394	20.684444
1165.331103	-3.001000	3.587500	-10.765000	25.656267	0.000394	20.697124
1166.330484	-2.983400	3.587700	-10.702000	25.616725	0.000394	20.699610
1167.324607	-2.998000	3.586700	-10.752000	25.588179	0.000393	20.688008
1168.322349	-2.986300	3.585500	-10.707000	25.650888	0.000393	20.694092
1169.324272	-3.000300	3.586400	-10.759000	25.666296	0.000392	20.708146
1170.325089	-3.003700	3.585200	-10.768000	25.663456	0.000393	20.714302
1171.325143	-3.017700	3.585500	-10.819000	25.652646	0.000393	20.687797
1172.323120	-3.001800	3.584000	-10.758000	25.629595	0.000390	20.697362
1173.322720	-2.998600	3.583500	-10.745000	25.629066	0.000392	20.688295
1174.325806	-3.020000	3.584100	-10.823000	25.659972	0.000391	20.694681
1175.325035	-2.982500	3.583900	-10.689000	25.655601	0.000388	20.680332
1176.322812	-3.009700	3.583100	-10.783000	25.659353	0.000387	20.688843
1177.327188	-2.985500	3.584300	-10.700000	25.639046	0.000389	20.698793
1178.322392	-2.987000	3.584100	-10.705000	25.700018	0.000388	20.690332
1179.324462	-3.003700	3.581600	-10.757000	25.678603	0.000389	20.691582
1180.329397	-2.999600	3.582400	-10.745000	25.674526	0.000387	20.718309
1181.324398	-3.001400	3.582500	-10.751000	25.667697	0.000386	20.710975
1182.329950	-3.013600	3.581700	-10.793000	25.657474	0.000387	20.676523
1183.328475	-3.017500	3.581100	-10.805000	25.635489	0.000387	20.697592
1184.327268	-2.994900	3.580000	-10.720000	25.667461	0.000387	20.691771
1185.326576	-3.005600	3.580600	-10.761000	25.678774	0.000386	20.681796
1186.329108	-2.990900	3.580800	-10.708000	25.690951	0.000387	20.683120
1187.329215	-3.001700	3.579300	-10.743000	25.702045	0.000386	20.707542
1188.329267	-2.978500	3.580800	-10.665000	25.692937	0.000385	20.689857
1189.328588	-3.018300	3.578800	-10.800000	25.685083	0.000385	20.695245
1190.328260	-3.002900	3.580300	-10.750000	25.665328	0.000387	20.684887
1191.335161	-3.006300	3.578500	-10.757000	25.662814	0.000387	20.703225
1192.327510	-3.012700	3.578800	-10.781000	25.658687	0.000382	20.710935
1193.333145	-3.008300	3.578200	-10.764000	25.665353	0.000384	20.696292
1194.327640	-2.998200	3.578400	-10.728000	25.661894	0.000385	20.700879
1195.329618	-2.980800	3.577400	-10.663000	25.642734	0.000384	20.681159
1196.331591	-2.979400	3.577400	-10.657000	25.635058	0.000382	20.707591
1197.329985	-2.975600	3.577300	-10.643000	25.627228	0.000384	20.696881
1198.332150	-2.970100	3.578000	-10.626000	25.621660	0.000382	20.704092
1199.335919	-3.000000	3.576200	-10.728000	25.637215	0.000381	20.702645
1200.330356	-2.990900	3.577300	-10.698000	25.650654	0.000381	20.707608
1201.331616	-3.003000	3.575500	-10.737000	25.631696	0.000381	20.727450
1202.332664	-3.002900	3.574100	-10.732000	25.630101	0.000380	20.697871
1203.329628	-2.994600	3.576100	-10.708000	25.655017	0.000380	20.710094
1204.330688	-3.008800	3.574300	-10.753000	25.692678	0.000379	20.695762
1205.331769	-3.009600	3.574800	-10.758000	25.695332	0.000380	20.705067
1206.335894	-3.014800	3.573000	-10.771000	25.681519	0.000380	20.682657
1207.335427	-3.011300	3.574600	-10.762000	25.654537	0.000380	20.708664
1208.333765	-2.976600	3.573300	-10.636000	25.682432	0.000380	20.695428
1209.339935	-2.999600	3.573600	-10.719000	25.672095	0.000377	20.706383
1210.335189	-2.990600	3.572800	-10.685000	25.650728	0.000377	20.707683
1211.338418	-2.992000	3.572900	-10.689000	25.668782	0.000377	20.705901
1212.338674	-2.981500	3.571600	-10.648000	25.678753	0.000378	20.690310
1213.339260	-2.999200	3.572200	-10.713000	25.689904	0.000378	20.700088
1214.334811	-2.984000	3.572300	-10.659000	25.701779	0.000377	20.722449
1215.343989	-2.996100	3.571700	-10.700000	25.721378	0.000375	20.705149
1216.337403	-2.995000	3.571400	-10.695000	25.679640	0.000376	20.698788
1217.334772	-2.999400	3.570400	-10.708000	25.674146	0.000376	20.705599
1218.340602	-3.004100	3.569600	-10.723000	25.656004	0.000374	20.706343
1219.334737	-2.989800	3.570100	-10.673000	25.717276	0.000374	20.701029
1220.338622	-2.989400	3.570500	-10.673000	25.763017	0.000373	20.703351
1221.335454	-2.980700	3.570400	-10.641000	25.774663	0.000373	20.722163
1222.334524	-2.964000	3.570200	-10.581000	25.739154	0.000372	20.695977
1223.339595	-3.018400	3.568200	-10.769000	25.727646	0.000374	20.689633
1224.339633	-2.993900	3.569700	-10.687000	25.750427	0.000371	20.702085
1225.336051	-3.014800	3.569400	-10.760000	25.764361	0.000373	20.720823
1226.338383	-3.001300	3.568400	-10.709000	25.764060	0.000372	20.705821
1227.339188	-2.993900	3.568800	-10.683000	25.740115	0.000372	20.708797
1228.336229	-3.010600	3.567300	-10.739000	25.678812	0.000372	20.718821
1229.338706	-2.992700	3.566300	-10.672000	25.730796	0.000371	20.707023
1230.336598	-2.999300	3.567600	-10.699000	25.691534	0.000372	20.718796
1231.343590	-2.964000	3.567400	-10.573000	25.751877	0.000372	20.727250
1232.340637	-2.995900	3.566700	-10.685000	25.729763	0.000371	20.721159
1233.337190	-2.984500	3.565800	-10.640000	25.729071	0.000371	20.713351
1234.342574	-2.997800	3.566600	-10.691000	25.683403	0.000370	20.696403
1235.347126	-3.027800	3.564500	-10.792000	25.725141	0.000368	20.740225
1236.338840	-3.016700	3.565000	-10.754000	25.768838	0.000369	20.714415
1237.340776	-3.019800	3.564200	-10.762000	25.809213	0.000370	20.721781
1238.339790	-3.002900	3.564000	-10.701000	25.840684	0.000367	20.728739
1239.335703	-3.004900	3.563400	-10.706000	25.838853	0.000371	20.731166
1240.339848	-3.013000	3.563000	-10.734000	25.830943	0.000369	20.723694
1241.343401	-2.997000	3.563800	-10.680000	25.851533	0.000370	20.747698
1242.345348	-2.986700	3.563400	-10.642000	25.810866	0.000367	20.708267
1243.343941	-3.001600	3.563500	-10.696000	25.758788	0.000369	20.710957
1244.342158	-3.033400	3.560300	-10.798000	25.740052	0.000368	20.729598
1245.342627	-3.009400	3.560700	-10.715000	25.767033	0.000367	20.729672
1246.341331	-3.030100	3.561200	-10.790000	25.744391	0.000364	20.738224
1247.344539	-2.999700	3.560700	-10.680000	25.743122	0.000364	20.721775
1248.344506	-2.980000	3.560600	-10.609000	25.767025	0.000364	20.736777
1249.345645	-2.991100	3.562200	-10.654000	25.780543	0.000364	20.733285
1250.343666	-3.012900	3.560200	-10.725000	25.793671	0.000363	20.731300
1251.353132	-3.010500	3.559900	-10.716000	25.828105	0.000364	20.720843
1252.344312	-2.988600	3.560600	-10.640000	25.778339	0.000363	20.743874
1253.345666	-3.044500	3.558200	-10.832000	25.761492	0.000363	20.736908
1254.347250	-3.002200	3.558500	-10.682000	25.759075	0.000363	20.737326
1255.347642	-3.001900	3.559000	-10.683000	25.747176	0.000361	20.744340
1256.346411	-3.014800	3.558300	-10.727000	25.725185	0.000363	20.716560
1257.349247	-2.984600	3.559200	-10.623000	25.712716	0.000362	20.738650
1258.354965	-3.007000	3.557500	-10.697000	25.722744	0.000361	20.730230
1259.349527	-2.992200	3.558400	-10.646000	25.767841	0.000359	20.740441
1260.349666	-3.001500	3.557900	-10.678000	25.800257	0.000361	20.751192
1261.345299	-3.008800	3.557200	-10.702000	25.772155	0.000358	20.750465
1262.351212	-2.988800	3.556400	-10.628000	25.745867	0.000360	20.721213
1263.353772	-2.981100	3.555800	-10.598000	25.774849	0.000361	20.735627
1264.351364	-2.995700	3.556300	-10.652000	25.782263	0.000361	20.734539
1265.349081	-2.998200	3.555400	-10.659000	25.773905	0.000359	20.738472
1266.350858	-3.004300	3.555100	-10.680000	25.790891	0.000359	20.739413
1267.348810	-2.973400	3.555700	-10.572000	25.818163	0.000357	20.739307
1268.354284	-3.022500	3.554300	-10.741000	25.804597	0.000358	20.743697
1269.355358	-2.988500	3.554500	-10.621000	25.781663	0.000360	20.726349
1270.351619	-3.000400	3.554100	-10.663000	25.806705	0.000358	20.732538
1271.351862	-3.015300	3.553600	-10.715000	25.807211	0.000357	20.742056
1272.350991	-3.019300	3.551000	-10.720000	25.809815	0.000357	20.739456
1273.354804	-3.009500	3.553600	-10.694000	25.793196	0.000356	20.745996
1274.355132	-2.998100	3.551300	-10.645000	25.833538	0.000356	20.744321
1275.350699	-2.967200	3.552800	-10.540000	25.780241	0.000355	20.731559
1276.350368	-2.977700	3.551100	-10.573000	25.729211	0.000355	20.739097
1277.352628	-3.009500	3.552200	-10.690000	25.736267	0.000355	20.747608
1278.350065	-2.978600	3.551400	-10.577000	25.753733	0.000356	20.740495
1279.353006	-2.961900	3.552200	-10.521000	25.752732	0.000354	20.750396
1280.351998	-2.975700	3.550000	-10.563000	25.757225	0.000354	20.741158
1281.349474	-2.979900	3.550700	-10.579000	25.753686	0.000353	20.745663
1282.351664	-2.993600	3.550300	-10.627000	25.767823	0.000354	20.749906
1283.352756	-2.997000	3.549200	-10.636000	25.808068	0.000353	20.757142
1284.351168	-2.978500	3.549800	-10.572000	25.803120	0.000352	20.758336
1285.353440	-3.007900	3.547600	-10.670000	25.770843	0.000352	20.739189
1286.350783	-2.994000	3.547900	-10.621000	25.776133	0.000350	20.756832
1287.351182	-2.981100	3.548200	-10.576000	25.772601	0.000351	20.749017
1288.352818	-3.007500	3.547200	-10.667000	25.811137	0.000353	20.765915
1289.350351	-2.989700	3.548100	-10.607000	25.855572	0.000352	20.755549
1290.354594	-3.012100	3.547100	-10.683000	25.854009	0.000350	20.760618
1291.366614	-2.995900	3.546400	-10.624000	25.874924	0.000350	20.775464
1292.351276	-3.011800	3.547100	-10.682000	25.862246	0.000351	20.762254
1293.353503	-3.006100	3.546600	-10.661000	25.821237	0.000349	20.761836
1294.361168	-2.981800	3.547800	-10.578000	25.832631	0.000348	20.756212
1295.360630	-2.979100	3.547800	-10.568000	25.784208	0.000348	20.761150
1296.359060	-2.998300	3.546200	-10.632000	25.787642	0.000348	20.743736
1297.357343	-3.003400	3.544800	-10.646000	25.769152	0.000348	20.778744
1298.355251	-3.011700	3.543600	-10.671000	25.718789	0.000349	20.757079
1299.358304	-3.016000	3.543900	-10.688000	25.699728	0.000347	20.755003
1300.353279	-3.005900	3.543400	-10.650000	25.730754	0.000347	20.762459
1301.359814	-2.984100	3.544300	-10.576000	25.754235	0.000345	20.773242
1302.359735	-3.001400	3.543900	-10.636000	25.761291	0.000347	20.772744
1303.355992	-2.988500	3.543100	-10.588000	25.775753	0.000346	20.782055
1304.361443	-2.996700	3.543600	-10.618000	25.761389	0.000345	20.765729
1305.359999	-2.993000	3.543800	-10.605000	25.768494	0.000346	20.764806
1306.364789	-3.007700	3.541700	-10.651000	25.812141	0.000345	20.781148
1307.359349	-2.992700	3.542600	-10.601000	25.821077	0.000343	20.777323
1308.356899	-2.989000	3.542900	-10.588000	25.809309	0.000344	20.783993
1309.359098	-2.985600	3.542400	-10.574000	25.807990	0.000348	20.776505
1310.358490	-2.997500	3.542000	-10.617000	25.781239	0.000346	20.780453
1311.357794	-3.011600	3.540700	-10.662000	25.776137	0.000343	20.781018
1312.362105	-3.004200	3.539700	-10.633000	25.787881	0.000343	20.773849
1313.361569	-2.993300	3.541800	-10.601000	25.778993	0.000343	20.777249
1314.357724	-2.992900	3.540100	-10.594000	25.775014	0.000343	20.777045
1315.367862	-2.991700	3.539700	-10.588000	25.786864	0.000341	20.779939
1316.361041	-2.996900	3.538300	-10.602000	25.806461	0.000342	20.774495
1317.362996	-3.000400	3.539200	-10.618000	25.851702	0.000341	20.793388
1318.360243	-3.002400	3.537800	-10.621000	25.791958	0.000340	20.791221
1319.361584	-2.992300	3.538500	-10.587000	25.820175	0.000341	20.777839
1320.362580	-2.998000	3.538600	-10.608000	25.810164	0.000341	20.782482
1321.360166	-2.982200	3.538500	-10.551000	25.766534	0.000339	20.796977
1322.364497	-3.004700	3.538800	-10.632000	25.773492	0.000340	20.790216
1323.360004	-3.002100	3.536400	-10.616000	25.785269	0.000341	20.788295
1324.361779	-3.011000	3.536100	-10.647000	25.803646	0.000340	20.781624
1325.363351	-3.013700	3.536400	-10.656000	25.836061	0.000338	20.789056
1326.363455	-2.985000	3.538400	-10.561000	25.835572	0.000339	20.788565
1327.366028	-3.005000	3.534900	-10.621000	25.885548	0.000337	20.799414
1328.361743	-3.013400	3.534800	-10.651000	25.883433	0.000338	20.787805
1329.358809	-2.996400	3.535800	-10.594000	25.870713	0.000336	20.802529
1330.362054	-3.008600	3.534000	-10.632000	25.816978	0.000336	20.780791
1331.364983	-2.989800	3.535800	-10.570000	25.842361	0.000336	20.788746
1332.363622	-3.001500	3.534500	-10.608000	25.812372	0.000336	20.790390
1333.368898	-2.989100	3.532800	-10.559000	25.785344	0.000336	20.785999
1334.360339	-2.994600	3.533900	-10.582000	25.753001	0.000337	20.800453
1335.361192	-2.999800	3.532600	-10.596000	25.763655	0.000335	20.806412
1336.367275	-3.028200	3.531100	-10.691000	25.778085	0.000334	20.815217
1337.362341	-2.979500	3.533900	-10.529000	25.833809	0.000335	20.817138
1338.369244	-2.991400	3.532100	-10.564000	25.815889	0.000333	20.787284
1339.364378	-2.980700	3.532700	-10.529000	25.778151	0.000332	20.792050
1340.362409	-3.019800	3.531100	-10.662000	25.770843	0.000334	20.829753
1341.363147	-2.996500	3.530100	-10.577000	25.804504	0.000336	20.806193
1342.368499	-3.001000	3.531100	-10.595000	25.814710	0.000333	20.811230
1343.375207	-3.017300	3.530100	-10.650000	25.856743	0.000333	20.799400
1344.368143	-3.017900	3.529100	-10.649000	25.812244	0.000334	20.802589
1345.364417	-3.022800	3.528300	-10.665000	25.813139	0.000334	20.811549
1346.367990	-2.981400	3.529400	-10.522000	25.818454	0.000331	20.820680
1347.367641	-3.008600	3.528800	-10.616000	25.831492	0.000329	20.803906
1348.370234	-3.013700	3.527700	-10.630000	25.843317	0.000332	20.808672
1349.368511	-3.012500	3.526600	-10.622000	25.857127	0.000332	20.827286
1350.368735	-3.045500	3.528300	-10.744000	25.903089	0.000333	20.787163
1351.364972	-2.985700	3.528400	-10.534000	25.882818	0.000331	20.824171
1352.367451	-2.981400	3.527200	-10.515000	25.885048	0.000329	20.825463
1353.364842	-3.000100	3.526600	-10.579000	25.840925	0.000329	20.800105
1354.369139	-2.994600	3.527200	-10.562000	25.811985	0.000330	20.799958
1355.365071	-2.988300	3.527300	-10.540000	25.786960	0.000329	20.818916
1356.367358	-2.998500	3.525700	-10.571000	25.804628	0.000326	20.820068
1357.370615	-3.003700	3.525200	-10.587000	25.803058	0.000329	20.839353
1358.366508	-2.998700	3.525500	-10.571000	25.868098	0.000329	20.812703
1359.373896	-2.988800	3.525700	-10.536000	25.891128	0.000326	20.818295
1360.367458	-2.992500	3.525300	-10.548000	25.932060	0.000328	20.816742
1361.368423	-2.985000	3.524100	-10.518000	25.920757	0.000326	20.819137
1362.375615	-3.012000	3.524600	-10.615000	25.882649	0.000325	20.839648
1363.373115	-3.003100	3.524800	-10.585000	25.889949	0.000327	20.827067
1364.376204	-2.992600	3.523100	-10.541000	25.918072	0.000326	20.815017
1365.370293	-3.006800	3.522100	-10.589000	25.906500	0.000327	20.821410
1366.376661	-2.998000	3.522600	-10.560000	25.906997	0.000325	20.821434
1367.372279	-2.991600	3.521900	-10.535000	25.930197	0.000324	20.824353
1368.374210	-2.982400	3.522200	-10.504000	25.954169	0.000325	20.820461
1369.374514	-2.980500	3.522900	-10.499000	25.961777	0.000324	20.837113
1370.379475	-3.002800	3.520200	-10.569000	25.967702	0.000325	20.822677
1371.370505	-2.969900	3.521700	-10.458000	25.992471	0.000325	20.817216
1372.375380	-3.006200	3.519900	-10.580000	26.004944	0.000324	20.820265
1373.379047	-3.020700	3.519000	-10.629000	25.978564	0.000324	20.830271
1374.376022	-3.017900	3.519800	-10.621000	25.940181	0.000324	20.836280
1375.380589	-3.012300	3.519400	-10.600000	25.889589	0.000322	20.834293
1376.371603	-3.001000	3.518700	-10.559000	25.863549	0.000322	20.829944
1377.375547	-3.007500	3.519300	-10.583000	25.882209	0.000322	20.834465
1378.375958	-2.986500	3.518900	-10.508000	25.906280	0.000321	20.845370
1379.372386	-2.975200	3.518700	-10.467000	25.897410	0.000322	20.839778
1380.378108	-3.013000	3.516700	-10.595000	25.896840	0.000320	20.848214
1381.378661	-3.003000	3.518100	-10.563000	25.917982	0.000322	20.820616
1382.373228	-2.980700	3.517500	-10.484000	25.935543	0.000320	20.832094
1383.372305	-3.000100	3.517400	-10.551000	25.942891	0.000319	20.851329
1384.377615	-2.999800	3.517300	-10.551000	25.973145	0.000321	20.840948
1385.370782	-2.998200	3.515600	-10.539000	25.907045	0.000319	20.853725
1386.377836	-3.015700	3.514400	-10.598000	25.915387	0.000318	20.848828
1387.373525	-2.987500	3.515100	-10.501000	25.917104	0.000317	20.865251
1388.373581	-2.978600	3.515800	-10.472000	25.931605	0.000319	20.824819
1389.378191	-2.996900	3.515500	-10.534000	25.951802	0.000319	20.836575
1390.377644	-3.014800	3.513700	-10.592000	25.954878	0.000320	20.839665
1391.375616	-2.996000	3.515200	-10.531000	25.939206	0.000319	20.844782
1392.375059	-3.017200	3.512200	-10.596000	25.962975	0.000317	20.849221
1393.375193	-3.000100	3.513400	-10.539000	25.936293	0.000316	20.848020
1394.376931	-2.982700	3.514100	-10.481000	25.901122	0.000317	20.833550
1395.376273	-2.984800	3.513200	-10.485000	25.902286	0.000316	20.847047
1396.376604	-2.986500	3.513300	-10.492000	25.840577	0.000314	20.846222
1397.378992	-3.004800	3.512000	-10.552000	25.834587	0.000315	20.867705
1398.376086	-2.993900	3.512900	-10.517000	25.837021	0.000315	20.845020
1399.382296	-2.991400	3.512400	-10.506000	25.857985	0.000313	20.836682
1400.379515	-2.984200	3.511300	-10.478000	25.839381	0.000315	20.859718
1401.380543	-3.000100	3.512200	-10.536000	25.858929	0.000313	20.870820
1402.379745	-2.990900	3.512100	-10.504000	25.819035	0.000314	20.839756
1403.382688	-3.015900	3.510800	-10.587000	25.850181	0.000313	20.847334
1404.377284	-3.014200	3.509300	-10.576000	25.858425	0.000312	20.857038
1405.380456	-3.001700	3.511400	-10.539000	25.893335	0.000314	20.853702
1406.379864	-3.000900	3.509700	-10.530000	25.922102	0.000314	20.851781
1407.379498	-3.021000	3.509500	-10.601000	25.950958	0.000314	20.855166
1408.383448	-3.032100	3.506900	-10.632000	25.951796	0.000310	20.855060
1409.381967	-2.998500	3.508700	-10.521000	25.980764	0.000310	20.869464
1410.380811	-3.002000	3.508200	-10.531000	25.924024	0.000311	20.859875
1411.382915	-3.022800	3.508000	-10.604000	25.900848	0.000311	20.877843
1412.380723	-2.979800	3.508200	-10.452000	25.926863	0.000309	20.873158
1413.388037	-2.976500	3.508300	-10.441000	25.957208	0.000311	20.890841
1414.382208	-2.991700	3.508600	-10.496000	25.975940	0.000309	20.877418
1415.381109	-3.008300	3.505800	-10.546000	25.950373	0.000310	20.861691
1416.382232	-2.986100	3.506600	-10.470000	25.899375	0.000308	20.870674
1417.381427	-3.013800	3.505600	-10.564000	25.892995	0.000309	20.863791
1418.384018	-3.005700	3.504400	-10.532000	25.889488	0.000309	20.860742
1419.383563	-2.980500	3.504600	-10.444000	25.867060	0.000306	20.869505
1420.383707	-2.969600	3.504700	-10.406000	25.862616	0.000309	20.849395
1421.381045	-3.018200	3.504200	-10.576000	25.894956	0.000306	20.875718
1422.383016	-3.009400	3.503300	-10.542000	25.903200	0.000307	20.860293
1423.384881	-2.993500	3.503400	-10.486000	25.911972	0.000307	20.845398
1424.387777	-3.028400	3.501900	-10.604000	25.949283	0.000305	20.873870
1425.386650	-2.985300	3.504100	-10.460000	25.969503	0.000306	20.844875
1426.383180	-2.972800	3.503600	-10.414000	25.998708	0.000305	20.857620
1427.389903	-2.995500	3.502800	-10.491000	26.026625	0.000304	20.858168
1428.385871	-3.009900	3.501500	-10.538000	25.991059	0.000303	20.855151
1429.384619	-3.024400	3.501000	-10.587000	25.987560	0.000304	20.866334
1430.384974	-2.989900	3.502800	-10.472000	25.978903	0.000305	20.875654
1431.386652	-3.009100	3.501700	-10.536000	25.994949	0.000303	20.842465
1432.384852	-2.998300	3.501200	-10.496000	25.989391	0.000303	20.857269
1433.382873	-3.004000	3.499800	-10.512000	25.968454	0.000302	20.855200
1434.388428	-2.986800	3.499800	-10.452000	25.972946	0.000304	20.842644
1435.394479	-3.010500	3.498600	-10.531000	25.997285	0.000302	20.841018
1436.380321	-2.967600	3.500000	-10.386000	26.010499	0.000301	20.868991
1437.387352	-2.993300	3.498000	-10.469000	26.023957	0.000302	20.842212
1438.386699	-2.994200	3.499100	-10.476000	26.048026	0.000301	20.855487
1439.384024	-3.017400	3.497800	-10.553000	26.000630	0.000302	20.836318
1440.385188	-3.003800	3.496700	-10.503000	25.985779	0.000300	20.843683
1441.385459	-2.986800	3.498300	-10.447000	26.010191	0.000301	20.832648
1442.390723	-3.024800	3.496400	-10.574000	25.984909	0.000300	20.843757
1443.388693	-3.028500	3.495000	-10.583000	25.991061	0.000300	20.832395
1444.385064	-3.015100	3.497100	-10.543000	26.011631	0.000299	20.811336
1445.389745	-2.998100	3.496000	-10.480000	26.016277	0.000300	20.834021
1446.393991	-3.010600	3.496600	-10.525000	26.029841	0.000298	20.824890
1447.390491	-3.018900	3.495200	-10.551000	26.039069	0.000298	20.827049
1448.389113	-3.002000	3.495000	-10.490000	26.031948	0.000298	20.810886
1449.386149	-2.996500	3.495700	-10.474000	26.026921	0.000296	20.842344
1450.399035	-2.999200	3.493100	-10.476000	26.069198	0.000297	20.821760
1451.386387	-2.993400	3.495500	-10.462000	26.033706	0.000299	20.837782
1452.389439	-3.023500	3.494400	-10.565000	26.046612	0.000296	20.838421
1453.388242	-3.012300	3.493300	-10.521000	26.028850	0.000297	20.837170
1454.391025	-3.002000	3.493600	-10.487000	26.020974	0.000296	20.828309
1455.386263	-3.001400	3.493600	-10.485000	26.042886	0.000294	20.818556
1456.390001	-2.993300	3.492700	-10.454000	26.044123	0.000295	20.824066
1457.391280	-3.008300	3.493200	-10.508000	25.990021	0.000295	20.825661
1458.390552	-3.008900	3.490600	-10.502000	25.969036	0.000292	20.823069
1459.393040	-2.997200	3.491200	-10.462000	25.995059	0.000295	20.831195
1460.392353	-3.016300	3.490000	-10.526000	26.022830	0.000296	20.815949
1461.393208	-2.996600	3.490100	-10.457000	26.090558	0.000294	20.811927
1462.392242	-3.003800	3.490100	-10.482000	26.094553	0.000293	20.830640
1463.396127	-3.017600	3.489900	-10.530000	26.097035	0.000294	20.834556
1464.392811	-2.990300	3.490600	-10.438000	26.080665	0.000292	20.821427
1465.393412	-3.005500	3.489400	-10.485000	26.024612	0.000292	20.812999
1466.390753	-3.006100	3.489300	-10.489000	26.008437	0.000292	20.830886
1467.395980	-2.963700	3.489600	-10.341000	25.982676	0.000293	20.828712
1468.395626	-3.001700	3.487000	-10.466000	25.980543	0.000292	20.816138
1469.390107	-2.977800	3.489100	-10.389000	25.914167	0.000289	20.822000
1470.394175	-3.042100	3.486300	-10.605000	25.911783	0.000290	20.831932
1471.397549	-2.998600	3.487100	-10.456000	25.924453	0.000288	20.819057
1472.401914	-3.020600	3.486800	-10.532000	25.996313	0.000291	20.804007
1473.392715	-3.021900	3.487400	-10.537000	26.005476	0.000290	20.812738
1474.393870	-2.972700	3.487300	-10.366000	26.032848	0.000290	20.812738
1475.396046	-2.992100	3.486400	-10.431000	26.021424	0.000290	20.807424
1476.394159	-2.997600	3.486400	-10.449000	26.024157	0.000289	20.818231
1477.397883	-2.977000	3.486900	-10.380000	26.025857	0.000289	20.803344
1478.402257	-3.012700	3.485000	-10.499000	26.075230	0.000290	20.814544
1479.398736	-3.002600	3.484500	-10.461000	26.100534	0.000287	20.828115
1480.393857	-2.969500	3.485500	-10.349000	26.071007	0.000288	20.826896
1481.399950	-2.992000	3.484300	-10.424000	26.061024	0.000287	20.807857
1482.393860	-2.988200	3.483100	-10.408000	26.054368	0.000288	20.808282
1483.395494	-2.999200	3.484600	-10.450000	26.067931	0.000286	20.810530
1484.396671	-3.008300	3.482500	-10.475000	25.996792	0.000286	20.804488
1485.397390	-3.006500	3.483800	-10.473000	26.005686	0.000287	20.831441
1486.394702	-3.009500	3.483000	-10.481000	25.986035	0.000286	20.815018
1487.398672	-2.997000	3.483000	-10.438000	26.015817	0.000284	20.783773
1488.396266	-3.009300	3.482200	-10.478000	25.986280	0.000285	20.816686
1489.394831	-3.005500	3.480400	-10.459000	26.034320	0.000285	20.806631
1490.398610	-2.996700	3.480800	-10.430000	26.062415	0.000282	20.806410
1491.398139	-3.002500	3.479900	-10.447000	26.093707	0.000284	20.796126
1492.398878	-2.981100	3.480200	-10.374000	26.043986	0.000283	20.802592
1493.404679	-3.016700	3.478500	-10.492000	26.018526	0.000282	20.796452
1494.398969	-2.974600	3.481800	-10.356000	25.999022	0.000284	20.808151
1495.397175	-2.995400	3.480600	-10.425000	26.030943	0.000284	20.799445
1496.402028	-3.019900	3.479500	-10.507000	26.070633	0.000284	20.795226
1497.410733	-3.005900	3.478800	-10.456000	25.974286	0.000282	20.798946
1498.399507	-3.020100	3.477700	-10.502000	25.926138	0.000283	20.790878
1499.402721	-2.990400	3.478900	-10.403000	25.895988	0.000282	20.813220
1500.403409	-3.001900	3.478400	-10.440000	25.911710	0.000282	20.811470
1501.406586	-3.006600	3.476900	-10.452000	25.924429	0.000278	20.810972
1502.403734	-3.000300	3.477800	-10.433000	25.980592	0.000281	20.801489
1503.404181	-3.000600	3.477700	-10.434000	26.059349	0.000280	20.793846
1504.402138	-3.015000	3.475900	-10.478000	26.014467	0.000280	20.810392
1505.402675	-2.994000	3.476600	-10.409000	26.000431	0.000279	20.805773
1506.403451	-2.999600	3.475300	-10.424000	26.028722	0.000281	20.799111
1507.405551	-3.014800	3.475300	-10.475000	26.013303	0.000278	20.811119
1508.406538	-2.981500	3.475200	-10.360000	26.040724	0.000278	20.803108
1509.402554	-2.996300	3.476200	-10.415000	26.043971	0.000278	20.795465
1510.407599	-3.006200	3.475700	-10.446000	26.061806	0.000277	20.792996
1511.402401	-2.989200	3.474200	-10.384000	26.075076	0.000278	20.801113
1512.405971	-3.024600	3.473800	-10.506000	26.052668	0.000278	20.807048
1513.414591	-3.014300	3.472400	-10.467000	26.046233	0.000277	20.789677
1514.405443	-3.012800	3.472900	-10.462000	26.028299	0.000276	20.794418
1515.406032	-2.980600	3.473100	-10.351000	26.008901	0.000274	20.801007
1516.404451	-3.003700	3.473100	-10.431000	26.051790	0.000275	20.803795
1517.402092	-2.999400	3.472100	-10.414000	26.006192	0.000276	20.778370
1518.405364	-2.996400	3.472000	-10.403000	26.007153	0.000273	20.808733
1519.407121	-2.971500	3.471800	-10.315000	26.029610	0.000274	20.808537
1520.409702	-2.963600	3.472900	-10.290000	26.073694	0.000277	20.810156
1521.408472	-3.002200	3.470100	-10.417000	26.051717	0.000275	20.789497
1522.414990	-2.992700	3.471000	-10.387000	26.047176	0.000275	20.793944
1523.408964	-2.994700	3.470000	-10.391000	26.038797	0.000273	20.805913
1524.407499	-2.980400	3.469600	-10.339000	26.057576	0.000275	20.775943
1525.408339	-2.998000	3.470000	-10.402000	26.065256	0.000274	20.801678
1526.408524	-3.025500	3.468200	-10.492000	26.041156	0.000273	20.814922
1527.408191	-2.979400	3.469900	-10.337000	26.043474	0.000272	20.794018
1528.408705	-2.998800	3.468200	-10.400000	26.002636	0.000271	20.807041
1529.409178	-3.001600	3.469600	-10.414000	26.035078	0.000271	20.787952
1530.409833	-3.030100	3.467700	-10.506000	26.052416	0.000272	20.784984
1531.410776	-3.011300	3.468000	-10.443000	26.050155	0.000270	20.780815
1532.410711	-3.011600	3.467200	-10.440000	25.992034	0.000272	20.787379
1533.433133	-3.019900	3.466900	-10.469000	26.010806	0.000270	20.775894
1534.409986	-3.005800	3.466600	-10.419000	26.034305	0.000268	20.793814
1535.417579	-2.997200	3.466700	-10.390000	26.042051	0.000269	20.807286
1536.415032	-3.005100	3.466200	-10.416000	26.044964	0.000268	20.776547
1537.415054	-3.002700	3.465500	-10.405000	26.030334	0.000270	20.786979
1538.413209	-3.003400	3.466000	-10.409000	26.013019	0.000270	20.776221
1539.413746	-3.005500	3.464100	-10.410000	26.047568	0.000269	20.791492
1540.417594	-3.021900	3.464800	-10.469000	26.016917	0.000270	20.789146
1541.415699	-3.013500	3.465300	-10.442000	26.031742	0.000269	20.782704
1542.417273	-2.997200	3.463300	-10.378000	26.040538	0.000269	20.783955
1543.412361	-2.989800	3.463200	-10.354000	26.076616	0.000267	20.791281
1544.413809	-2.986800	3.463700	-10.344000	26.090756	0.000267	20.775142
1545.414423	-2.991500	3.464600	-10.362000	26.094759	0.000265	20.780112
1546.415213	-2.987300	3.463200	-10.345000	26.045973	0.000264	20.786571
1547.414578	-2.988200	3.464000	-10.350000	26.066258	0.000265	20.778977
1548.417801	-3.021800	3.461400	-10.459000	26.042516	0.000264	20.778356
1549.414327	-2.990400	3.461900	-10.351000	26.033199	0.000264	20.775633
1550.414224	-3.011500	3.462100	-10.425000	26.030140	0.000267	20.774457
1551.419419	-3.017400	3.461900	-10.445000	26.010596	0.000266	20.770467
1552.417880	-3.031600	3.459800	-10.488000	25.994249	0.000265	20.781070
1553.421838	-3.014800	3.460300	-10.431000	26.009197	0.000262	20.768587
1554.419494	-2.996200	3.460000	-10.366000	26.047895	0.000265	20.767639
1555.421006	-3.018800	3.460000	-10.444000	26.045804	0.000263	20.783556
1556.421095	-2.998000	3.459400	-10.371000	26.090213	0.000263	20.796408
1557.418709	-3.007800	3.459700	-10.405000	26.088797	0.000261	20.784080
1558.422791	-3.004600	3.459700	-10.393000	26.074665	0.000261	20.773673
1559.422361	-2.985700	3.459600	-10.328000	26.084340	0.000262	20.758738
1560.422470	-2.977500	3.459500	-10.299000	26.086773	0.000259	20.773985
1561.421827	-2.981200	3.457700	-10.307000	26.103705	0.000260	20.781989
1562.420643	-2.984400	3.457900	-10.319000	26.106536	0.000262	20.784360
1563.423032	-2.997400	3.456000	-10.359000	26.102020	0.000262	20.790728
1564.423267	-2.984000	3.456300	-10.313000	26.098189	0.000262	20.765541
1565.424909	-2.986400	3.456600	-10.322000	26.077767	0.000259	20.762565
1566.423266	-2.996400	3.455900	-10.354000	26.055873	0.000259	20.764275
1567.420740	-2.979900	3.457400	-10.302000	26.038664	0.000259	20.790133
1568.423618	-2.984000	3.455200	-10.309000	26.063644	0.000259	20.766393
1569.423451	-2.986900	3.454600	-10.317000	26.089599	0.000256	20.765919
1570.425716	-3.011300	3.454600	-10.402000	26.109582	0.000258	20.766557
1571.424099	-2.977500	3.455500	-10.287000	26.106003	0.000257	20.761064
1572.429887	-3.012500	3.453800	-10.404000	26.107013	0.000258	20.779623
1573.428760	-3.021400	3.452800	-10.431000	26.094719	0.000258	20.766796
1574.427768	-3.007200	3.453100	-10.384000	26.166519	0.000255	20.776353
1575.427402	-2.999900	3.452400	-10.356000	26.175183	0.000256	20.775102
1576.428321	-3.005700	3.454000	-10.381000	26.087926	0.000255	20.764238
1577.424103	-2.995400	3.453900	-10.345000	26.087609	0.000256	20.750168
1578.428010	-2.987600	3.453100	-10.315000	26.083312	0.000256	20.770034
1579.429393	-2.995600	3.451900	-10.340000	26.096201	0.000254	20.767336
1580.428125	-3.010900	3.451600	-10.391000	26.079579	0.000254	20.765334
1581.425968	-3.011400	3.451600	-10.393000	26.073843	0.000254	20.760044
1582.426596	-3.017600	3.449800	-10.410000	26.125345	0.000255	20.785715
1583.427304	-3.020700	3.450700	-10.422000	26.157881	0.000254	20.769569
1584.431996	-3.041600	3.449800	-10.492000	26.174721	0.000255	20.762784
1585.432317	-2.989800	3.451500	-10.317000	26.175697	0.000253	20.764238
1586.429646	-3.001000	3.450000	-10.352000	26.185469	0.000253	20.768368
1587.425669	-3.016200	3.449600	-10.404000	26.225779	0.000253	20.740122
1588.430436	-3.023700	3.448800	-10.428000	26.228033	0.000251	20.766570
1589.430574	-3.014800	3.448900	-10.397000	26.230515	0.000250	20.755312
1590.429717	-2.992800	3.449400	-10.322000	26.210704	0.000251	20.772390
1591.434505	-3.000200	3.448600	-10.346000	26.178538	0.000251	20.754290
1592.427223	-3.012700	3.449000	-10.390000	26.147370	0.000252	20.761853
1593.432768	-3.008600	3.446400	-10.368000	26.156059	0.000248	20.755885
1594.430725	-2.981300	3.447600	-10.278000	26.130546	0.000250	20.749215
1595.437770	-3.006600	3.446500	-10.362000	26.114079	0.000248	20.752109
1596.429840	-3.006900	3.444900	-10.357000	26.130651	0.000249	20.744578
1597.428895	-2.992800	3.445900	-10.312000	26.177555	0.000247	20.758519
1598.430951	-2.989700	3.446600	-10.303000	26.181264	0.000248	20.757978
1599.433824	-3.003300	3.445300	-10.346000	26.107724	0.000248	20.751888
1600.433629	-2.997100	3.446000	-10.327000	26.112118	0.000249	20.762941
1601.433458	-2.998500	3.443900	-10.325000	26.111573	0.000247	20.744375
1602.434458	-2.990400	3.445100	-10.302000	26.129602	0.000247	20.752534
1603.434328	-3.019400	3.444300	-10.399000	26.150602	0.000247	20.768894
1604.431646	-3.011200	3.443300	-10.367000	26.137446	0.000246	20.773218
1605.436681	-3.024000	3.443800	-10.413000	26.126494	0.000248	20.756049
1606.437881	-3.048900	3.442300	-10.494000	26.055678	0.000244	20.765501
1607.432323	-3.024000	3.441200	-10.405000	26.019542	0.000248	20.741996
1608.439176	-3.013300	3.441900	-10.371000	26.045914	0.000244	20.754268
1609.447392	-3.003000	3.442300	-10.337000	26.099939	0.000246	20.747384
1610.433784	-3.018500	3.440900	-10.385000	26.123974	0.000246	20.747352
1611.441476	-2.983100	3.440600	-10.263000	26.126284	0.000245	20.735923
1612.444886	-3.000400	3.440600	-10.322000	26.106563	0.000245	20.736495
1613.438801	-2.975000	3.441100	-10.236000	26.076337	0.000245	20.736945
1614.439104	-3.011000	3.441100	-10.361000	26.070593	0.000245	20.751089
1615.437640	-2.996000	3.440800	-10.307000	26.100763	0.000244	20.748686
1616.435815	-3.016200	3.439600	-10.373000	26.119688	0.000244	20.755848
1617.441208	-2.998000	3.439700	-10.311000	26.110225	0.000245	20.744443
1618.434354	-3.015900	3.438300	-10.368000	26.152345	0.000243	20.736031
1619.435523	-2.981300	3.439200	-10.252000	26.158626	0.000242	20.749930
1620.442336	-2.998400	3.438400	-10.309000	26.155243	0.000243	20.747478
1621.437580	-2.996400	3.439500	-10.305000	26.198979	0.000241	20.768668
1622.438401	-3.014500	3.438900	-10.365000	26.189755	0.000241	20.737586
1623.439516	-3.002200	3.436700	-10.317000	26.187241	0.000244	20.731741
1624.436015	-3.004000	3.436700	-10.322000	26.176633	0.000242	20.739574
1625.435843	-3.002700	3.437000	-10.319000	26.169426	0.000242	20.741340
1626.433654	-2.996200	3.436000	-10.294000	26.192295	0.000239	20.741087
1627.434546	-3.000900	3.436800	-10.313000	26.176619	0.000239	20.736714
1628.433949	-2.984300	3.437300	-10.258000	26.194444	0.000240	20.727125
1629.436694	-2.982200	3.436700	-10.248000	26.172616	0.000238	20.734589
1630.438275	-2.987700	3.435700	-10.264000	26.164140	0.000241	20.743141
1631.440946	-3.023300	3.434700	-10.383000	26.190882	0.000238	20.718803
1632.448509	-2.992300	3.433400	-10.273000	26.166524	0.000238	20.727044
1633.441564	-2.993900	3.434900	-10.283000	26.180697	0.000236	20.745554
1634.441879	-2.999700	3.434200	-10.300000	26.196439	0.000237	20.724388
1635.441337	-2.993500	3.433000	-10.274000	26.140311	0.000236	20.714929
1636.439702	-2.982500	3.433600	-10.240000	26.119077	0.000236	20.732000
1637.441335	-2.983600	3.432300	-10.240000	26.064385	0.000236	20.729204
1638.438190	-3.012300	3.431600	-10.337000	25.999227	0.000234	20.713998
1639.443992	-2.990700	3.432300	-10.264000	25.985614	0.000240	20.733987
1640.438737	-2.997600	3.432200	-10.287000	26.043393	0.000234	20.717595
1641.442440	-2.988700	3.433100	-10.260000	26.002930	0.000236	20.735737
1642.448631	-2.996600	3.430900	-10.280000	25.964328	0.000235	20.723980
1643.442494	-3.001600	3.431600	-10.300000	26.017650	0.000236	20.723025
1644.445833	-3.012900	3.431300	-10.336000	26.053338	0.000234	20.732803
1645.440455	-3.025600	3.429000	-10.374000	26.124204	0.000235	20.722452
1646.443166	-3.001700	3.430400	-10.296000	26.127500	0.000234	20.727187
1647.442139	-3.038500	3.428000	-10.415000	26.129493	0.000236	20.702160
1648.445518	-2.977500	3.430200	-10.212000	26.155243	0.000233	20.739417
1649.444800	-3.006700	3.428500	-10.307000	26.098617	0.000233	20.720924
1650.444821	-3.000300	3.428600	-10.286000	26.089479	0.000232	20.719804
1651.444754	-2.999400	3.429000	-10.284000	26.094817	0.000233	20.717580
1652.445741	-2.971300	3.428000	-10.185000	26.063476	0.000230	20.704580
1653.448466	-3.009100	3.426700	-10.310000	26.097421	0.000233	20.718774
1654.445367	-2.988700	3.426700	-10.241000	26.121512	0.000232	20.697934
1655.446898	-2.978300	3.428500	-10.209000	26.183125	0.000234	20.727130
1656.445224	-2.976100	3.427300	-10.199000	26.208321	0.000231	20.714517
1657.445416	-2.969400	3.427700	-10.178000	26.210363	0.000230	20.719413
1658.442723	-3.014500	3.426400	-10.328000	26.196777	0.000231	20.719511
1659.447826	-2.983400	3.426100	-10.220000	26.207158	0.000229	20.731840
1660.445754	-2.989000	3.426300	-10.241000	26.214822	0.000230	20.713937
1661.452569	-3.007100	3.425700	-10.301000	26.199657	0.000230	20.719561
1662.450994	-2.985600	3.425800	-10.227000	26.234346	0.000230	20.707003
1663.448806	-3.007300	3.424500	-10.298000	26.229767	0.000229	20.708092
1664.445627	-3.017300	3.423400	-10.328000	26.193980	0.000229	20.728555
1665.444666	-3.030700	3.422500	-10.372000	26.205623	0.000228	20.702795
1666.446759	-2.995700	3.424900	-10.259000	26.195787	0.000229	20.724207
1667.449231	-3.042400	3.422700	-10.412000	26.198317	0.000228	20.703515
1668.449300	-3.012100	3.424700	-10.315000	26.154312	0.000228	20.714772
1669.454013	-3.021600	3.421600	-10.338000	26.115813	0.000228	20.723504
1670.452712	-2.989600	3.422800	-10.232000	26.180534	0.000227	20.731165
1671.448880	-2.992100	3.423100	-10.242000	26.175483	0.000225	20.724666
1672.455998	-2.982000	3.421100	-10.201000	26.153280	0.000227	20.713261
1673.455429	-3.003900	3.420200	-10.273000	26.154671	0.000224	20.735049
1674.450594	-2.983000	3.421500	-10.206000	26.127124	0.000223	20.711161
1675.457472	-2.991900	3.420600	-10.233000	26.091603	0.000224	20.714350
1676.455879	-3.007000	3.419500	-10.282000	26.128589	0.000223	20.710262
1677.454028	-2.998700	3.420100	-10.255000	26.140452	0.000223	20.711276
1678.459477	-3.000800	3.420900	-10.265000	26.188834	0.000223	20.720065
1679.455166	-3.016100	3.420000	-10.314000	26.238518	0.000221	20.710721
1680.452348	-2.975100	3.418900	-10.171000	26.299530	0.000224	20.718930
1681.455398	-2.981300	3.418800	-10.191000	26.293071	0.000222	20.725716
1682.455065	-2.985200	3.418600	-10.205000	26.290988	0.000221	20.711768
1683.451346	-3.006700	3.418400	-10.277000	26.215128	0.000221	20.708080
1684.457282	-3.010800	3.416000	-10.284000	26.160312	0.000221	20.718905
1685.454418	-2.984000	3.417700	-10.197000	26.163689	0.000222	20.716608
1686.455440	-3.004900	3.416900	-10.267000	26.132936	0.000221	20.693766
1687.455357	-2.997900	3.416800	-10.243000	26.177079	0.000222	20.725797
1688.455881	-3.025700	3.415400	-10.332000	26.236207	0.000220	20.712667
1689.454885	-3.009800	3.416400	-10.282000	26.233474	0.000220	20.715136
1690.462100	-2.993800	3.416200	-10.227000	26.205887	0.000221	20.705906
1691.454663	-2.995900	3.414900	-10.230000	26.148938	0.000217	20.708898
1692.452817	-2.992200	3.414600	-10.216000	26.123359	0.000217	20.701213
1693.459140	-3.022100	3.413200	-10.314000	26.137669	0.000217	20.707532
1694.456393	-3.001200	3.414800	-10.247000	26.154080	0.000218	20.703159
1695.465192	-2.986700	3.414600	-10.198000	26.119161	0.000218	20.706952
1696.459360	-2.987600	3.415900	-10.204000	26.106297	0.000219	20.712046
1697.458990	-2.992900	3.414400	-10.218000	26.134163	0.000219	20.715864
1698.457183	-2.999100	3.412500	-10.233000	26.188778	0.000217	20.705783
1699.458731	-2.989800	3.412600	-10.202000	26.209620	0.000218	20.712502
1700.457491	-2.998000	3.413400	-10.233000	26.184067	0.000216	20.706264
1701.463586	-2.996300	3.411600	-10.222000	26.203161	0.000217	20.705063
1702.458858	-2.995200	3.412200	-10.219000	26.231374	0.000217	20.703068
1703.457746	-3.010400	3.410400	-10.266000	26.257479	0.000217	20.714603
1704.462832	-2.993100	3.411400	-10.210000	26.235523	0.000216	20.726679
1705.459706	-3.004200	3.409500	-10.242000	26.185979	0.000215	20.710082
1706.462031	-2.983300	3.411600	-10.176000	26.151165	0.000216	20.734371
1707.466507	-3.007400	3.408900	-10.251000	26.183717	0.000212	20.731993
1708.459740	-3.007500	3.409200	-10.252000	26.246407	0.000214	20.702053
1709.466958	-3.004400	3.409000	-10.241000	26.261904	0.000212	20.712411
1710.462702	-3.036700	3.409600	-10.352000	26.286333	0.000215	20.723212
1711.464143	-3.002600	3.408000	-10.232000	26.290359	0.000212	20.731052
1712.466043	-2.995900	3.409600	-10.214000	26.213346	0.000214	20.713402
1713.466633	-2.977700	3.409200	-10.151000	26.246976	0.000212	20.725861
1714.464257	-3.011500	3.408300	-10.264000	26.211148	0.000213	20.716409
1715.461715	-2.994400	3.408800	-10.206000	26.172123	0.000212	20.714178
1716.464792	-2.982100	3.408300	-10.162000	26.174563	0.000211	20.724217
1717.460628	-2.982700	3.408100	-10.163000	26.171798	0.000212	20.729499
1718.461476	-3.007400	3.406200	-10.243000	26.125831	0.000209	20.734993
1719.463562	-2.986700	3.407700	-10.177000	26.161466	0.000212	20.725755
1720.465822	-3.014500	3.407000	-10.270000	26.199264	0.000211	20.723433
1721.464885	-3.003200	3.405600	-10.227000	26.202640	0.000211	20.709756
1722.467079	-2.998200	3.404400	-10.206000	26.173986	0.000209	20.735017
1723.466988	-2.983400	3.405900	-10.160000	26.164640	0.000208	20.723254
1724.463989	-3.010400	3.404400	-10.248000	26.126491	0.000209	20.706731
1725.466851	-3.010700	3.403900	-10.247000	26.162158	0.000209	20.715544
1726.462588	-2.993100	3.403700	-10.187000	26.186988	0.000210	20.719158
1727.469474	-3.008600	3.404000	-10.240000	26.246287	0.000209	20.715210
1728.467709	-3.037400	3.402400	-10.332000	26.303825	0.000208	20.712340
1729.481651	-2.992400	3.403600	-10.184000	26.206205	0.000208	20.692474
1730.468994	-2.981500	3.402300	-10.143000	26.195083	0.000206	20.718284
1731.468005	-3.010400	3.402200	-10.241000	26.164038	0.000208	20.732607
1732.471046	-3.009200	3.401400	-10.235000	26.151021	0.000207	20.728062
1733.467584	-2.999900	3.402900	-10.208000	26.100229	0.000208	20.738666
1734.469329	-3.022700	3.400300	-10.277000	26.101222	0.000207	20.705048
1735.474457	-2.984800	3.401500	-10.153000	26.120146	0.000206	20.727858
1736.477169	-2.994800	3.402000	-10.187000	26.163364	0.000205	20.714859
1737.470913	-2.976400	3.401100	-10.122000	26.229570	0.000206	20.733974
1738.474517	-2.998500	3.400200	-10.195000	26.207784	0.000204	20.728677
1739.473965	-3.008900	3.400700	-10.231000	26.201944	0.000204	20.719014
1740.472498	-2.992200	3.400300	-10.172000	26.181133	0.000202	20.722758
1741.476588	-2.995500	3.400200	-10.184000	26.163317	0.000203	20.729038
1742.477175	-2.991900	3.398900	-10.168000	26.223429	0.000202	20.731595
1743.475291	-2.990300	3.399100	-10.164000	26.224771	0.000203	20.750489
1744.483290	-3.014600	3.397700	-10.242000	26.224918	0.000203	20.723608
1745.478041	-3.017600	3.397600	-10.251000	26.202685	0.000202	20.743467
1746.474388	-3.015700	3.397100	-10.243000	26.237829	0.000202	20.741799
1747.485841	-3.019600	3.396500	-10.255000	26.254978	0.000199	20.737696
1748.479477	-3.002600	3.397600	-10.201000	26.317884	0.000202	20.738325
1749.477630	-2.996400	3.396000	-10.175000	26.332583	0.000202	20.733183
1750.481215	-2.978300	3.395700	-10.113000	26.290991	0.000200	20.741170
1751.483262	-2.995200	3.395100	-10.168000	26.271272	0.000199	20.719930
1752.479043	-2.973800	3.396900	-10.101000	26.245965	0.000200	20.751398
1753.486032	-3.005100	3.395700	-10.203000	26.213726	0.000198	20.740812
1754.480699	-3.008100	3.396500	-10.216000	26.202262	0.000202	20.733559
1755.484947	-3.014100	3.394600	-10.231000	26.144215	0.000199	20.734974
1756.480539	-2.958200	3.395000	-10.041000	26.195324	0.000198	20.736070
1757.481633	-2.979300	3.394100	-10.111000	26.202433	0.000198	20.743688
1758.479961	-3.019400	3.394100	-10.247000	26.270923	0.000198	20.738072
1759.479839	-2.982000	3.393200	-10.117000	26.327736	0.000198	20.758658
1760.481131	-2.980900	3.393300	-10.114000	26.362103	0.000199	20.750998
1761.483704	-3.004100	3.393000	-10.192000	26.316405	0.000198	20.746797
1762.481576	-3.008100	3.392300	-10.203000	26.309678	0.000196	20.726758
1763.496042	-3.002300	3.392700	-10.185000	26.276455	0.000196	20.736519
1764.484081	-2.990800	3.392800	-10.146000	26.306749	0.000196	20.732350
1765.480282	-3.017000	3.391900	-10.231000	26.322336	0.000195	20.734738
1766.482947	-2.971600	3.392300	-10.080000	26.297760	0.000197	20.738964
1767.480578	-2.999700	3.391200	-10.172000	26.292074	0.000195	20.746526
1768.483356	-3.008500	3.389500	-10.195000	26.212041	0.000196	20.736274
1769.484955	-2.990800	3.390200	-10.138000	26.182429	0.000193	20.728802
1770.481015	-3.000500	3.390400	-10.172000	26.194698	0.000194	20.754408
1771.487028	-3.036100	3.388700	-10.287000	26.249016	0.000194	20.774853
1772.483559	-2.977800	3.390200	-10.094000	26.274959	0.000194	20.755880
1773.489556	-3.003700	3.388800	-10.178000	26.237587	0.000193	20.745349
1774.487600	-2.995600	3.388900	-10.151000	26.218038	0.000193	20.741826
1775.490593	-3.037200	3.387700	-10.288000	26.242232	0.000192	20.741482
1776.488033	-3.033000	3.388500	-10.277000	26.279775	0.000192	20.734166
1777.488388	-2.979900	3.387900	-10.094000	26.328347	0.000192	20.768756
1778.489753	-3.018100	3.386800	-10.220000	26.318732	0.000190	20.770473
1779.486691	-3.004400	3.387800	-10.177000	26.312746	0.000190	20.738851
1780.490523	-2.997100	3.386400	-10.149000	26.292434	0.000191	20.756845
1781.487792	-2.984800	3.387800	-10.111000	26.319872	0.000191	20.741745
1782.489216	-2.983000	3.386900	-10.101000	26.274026	0.000191	20.764899
1783.492960	-2.987400	3.385700	-10.113000	26.282721	0.000190	20.737601
1784.487864	-2.989500	3.386300	-10.123000	26.254160	0.000188	20.746831
1785.491833	-2.982400	3.386800	-10.100000	26.269681	0.000187	20.765275
1786.486129	-2.996300	3.383300	-10.136000	26.297494	0.000188	20.772837
1787.484015	-2.991800	3.385400	-10.128000	26.295331	0.000189	20.751696
1788.484386	-2.994600	3.383100	-10.130000	26.331034	0.000188	20.764344
1789.493241	-3.009000	3.384300	-10.183000	26.352198	0.000188	20.769967
1790.485980	-3.000100	3.383000	-10.149000	26.338380	0.000189	20.759398
1791.491532	-2.984900	3.383700	-10.099000	26.345537	0.000187	20.751892
1792.492030	-2.997000	3.382600	-10.137000	26.378904	0.000186	20.783057
1793.489986	-3.008800	3.383600	-10.179000	26.372177	0.000186	20.764442
1794.489254	-2.983600	3.383000	-10.091000	26.394018	0.000184	20.765056
1795.494364	-2.995800	3.382500	-10.133000	26.374204	0.000187	20.748461
1796.493626	-3.002800	3.380400	-10.149000	26.394661	0.000184	20.773763
1797.490072	-2.993600	3.381900	-10.123000	26.313636	0.000184	20.777205
1798.492833	-2.964200	3.382700	-10.025000	26.282343	0.000185	20.780844
1799.491526	-3.020800	3.380800	-10.211000	26.344174	0.000184	20.761902
1800.496038	-3.020300	3.380000	-10.208000	26.308628	0.000184	20.767430
1801.495743	-2.982600	3.381600	-10.085000	26.359207	0.000184	20.754726
1802.497432	-3.010800	3.380300	-10.176000	26.343362	0.000186	20.761087
1803.489945	-2.995500	3.379300	-10.123000	26.361168	0.000184	20.771870
1804.497454	-3.002100	3.379400	-10.145000	26.350977	0.000184	20.749773
1805.494618	-3.021100	3.377600	-10.203000	26.385564	0.000184	20.764620
1806.492621	-3.005500	3.378300	-10.153000	26.378382	0.000182	20.760247
1807.492099	-3.021100	3.376900	-10.201000	26.337997	0.000181	20.773713
1808.497863	-3.000200	3.378600	-10.136000	26.340105	0.000182	20.780098
1809.494696	-2.980900	3.378300	-10.070000	26.314547	0.000181	20.790923
1810.496265	-3.007700	3.375400	-10.152000	26.305534	0.000182	20.767166
1811.498714	-3.018000	3.376600	-10.190000	26.348233	0.000181	20.778310
1812.495667	-2.986100	3.377800	-10.085000	26.366926	0.000181	20.751104
1813.496661	-3.000500	3.376000	-10.129000	26.426662	0.000180	20.794073
1814.496940	-3.001800	3.375500	-10.131000	26.431177	0.000180	20.796714
1815.493703	-3.001800	3.375000	-10.129000	26.404923	0.000181	20.768430
1816.496579	-2.990100	3.375700	-10.093000	26.426973	0.000178	20.789170
1817.500512	-2.996500	3.375100	-10.113000	26.464380	0.000177	20.753748
1818.502577	-2.981300	3.376000	-10.064000	26.446723	0.000179	20.782468
1819.494152	-2.980000	3.374900	-10.056000	26.468357	0.000179	20.785247
1820.495089	-3.003800	3.373200	-10.131000	26.474231	0.000180	20.763175
1821.500248	-2.991400	3.375300	-10.096000	26.455508	0.000177	20.799833
1822.495167	-3.003700	3.374500	-10.135000	26.436313	0.000177	20.771057
1823.498714	-3.002600	3.373400	-10.129000	26.438413	0.000176	20.783125
1824.502264	-3.008800	3.372000	-10.145000	26.487491	0.000176	20.802108
1825.498424	-3.011500	3.372600	-10.156000	26.502611	0.000176	20.783167
1826.499186	-2.975600	3.372400	-10.034000	26.536144	0.000176	20.785105
1827.500117	-3.001100	3.372900	-10.121000	26.484053	0.000175	20.798178
1828.501341	-2.985000	3.373000	-10.068000	26.448005	0.000177	20.795136
1829.496460	-2.972700	3.371800	-10.023000	26.384409	0.000173	20.801866
1830.496308	-2.981200	3.372000	-10.051000	26.395633	0.000176	20.801768
1831.499875	-2.984300	3.372300	-10.062000	26.418889	0.000174	20.774881
1832.499505	-2.996300	3.370900	-10.099000	26.456035	0.000173	20.811742
1833.496787	-3.008700	3.369900	-10.138000	26.481306	0.000172	20.803004
1834.502340	-2.999600	3.369500	-10.107000	26.495458	0.000174	20.811064
1835.497706	-3.009100	3.368000	-10.134000	26.508194	0.000173	20.805849
1836.499524	-2.992000	3.370100	-10.081000	26.535529	0.000173	20.822419
1837.500764	-2.992300	3.370100	-10.083000	26.513107	0.000171	20.822640
1838.500015	-2.971700	3.368900	-10.010000	26.506748	0.000173	20.789696
1839.501322	-3.010100	3.366700	-10.133000	26.500413	0.000172	20.791389
1840.503049	-2.997900	3.368600	-10.097000	26.482089	0.000173	20.800471
1841.506410	-2.999000	3.367400	-10.098000	26.499647	0.000171	20.803422
1842.498637	-2.999500	3.366500	-10.097000	26.537035	0.000171	20.787897
1843.501743	-3.003300	3.366500	-10.109000	26.522657	0.000169	20.808532
1844.506413	-2.995600	3.366300	-10.083000	26.513638	0.000170	20.817010
1845.504832	-3.016700	3.364400	-10.148000	26.497680	0.000170	20.802867
1846.509902	-3.015000	3.365000	-10.145000	26.474143	0.000169	20.781105
1847.507230	-2.998500	3.364900	-10.089000	26.484398	0.000170	20.800422
1848.499732	-3.000800	3.365700	-10.099000	26.484594	0.000167	20.819585
1849.511957	-3.005600	3.364700	-10.112000	26.504130	0.000169	20.812195
1850.507198	-2.998400	3.364200	-10.086000	26.521063	0.000168	20.824948
1851.501952	-2.993000	3.364000	-10.068000	26.510018	0.000167	20.811475
1852.505811	-3.015200	3.364500	-10.143000	26.447952	0.000167	20.797928
1853.505790	-3.018100	3.362400	-10.147000	26.396248	0.000166	20.808549
1854.501423	-2.993800	3.364400	-10.072000	26.403227	0.000166	20.801813
1855.504899	-3.005200	3.362900	-10.105000	26.467765	0.000169	20.823058
1856.510220	-2.999700	3.361000	-10.080000	26.519194	0.000166	20.809318
1857.504567	-3.023700	3.361900	-10.165000	26.555001	0.000166	20.808328
1858.505752	-3.004100	3.362100	-10.099000	26.600535	0.000165	20.788667
1859.505227	-3.010400	3.360000	-10.114000	26.621956	0.000165	20.814467
1860.515128	-2.997600	3.361300	-10.075000	26.620583	0.000166	20.808820
1861.505868	-2.984100	3.361100	-10.029000	26.599504	0.000166	20.820821
1862.506933	-2.973800	3.362000	-9.996100	26.540648	0.000164	20.824245
1863.509961	-3.014800	3.359900	-10.129000	26.533083	0.000163	20.802417
1864.513376	-2.988200	3.360400	-10.040000	26.551479	0.000164	20.808107
1865.506331	-2.996600	3.359400	-10.065000	26.559124	0.000162	20.809628
1866.508502	-2.994600	3.359500	-10.059000	26.593834	0.000164	20.828397
1867.500796	-2.995600	3.358300	-10.059000	26.575609	0.000163	20.818612
1868.503867	-3.008600	3.358200	-10.103000	26.580675	0.000161	20.807109
1869.510665	-2.995200	3.358000	-10.057000	26.591923	0.000162	20.814622
1870.505581	-2.997900	3.358200	-10.066000	26.581277	0.000161	20.836636
1871.506025	-3.004300	3.358100	-10.088000	26.573876	0.000160	20.834413
1872.504805	-3.000400	3.358700	-10.077000	26.581130	0.000159	20.828903
1873.505843	-2.994500	3.356900	-10.051000	26.564044	0.000160	20.843495
1874.506047	-3.017300	3.356200	-10.126000	26.561245	0.000160	20.830725
1875.508428	-3.003200	3.356800	-10.080000	26.551780	0.000162	20.822633
1876.505774	-3.007900	3.355700	-10.093000	26.524917	0.000159	20.838779
1877.503925	-3.003100	3.355500	-10.077000	26.531724	0.000160	20.819543
1878.505908	-2.995900	3.355900	-10.054000	26.518841	0.000157	20.829352
1879.503307	-2.989900	3.356200	-10.034000	26.527706	0.000157	20.840159
1880.504543	-3.027400	3.353800	-10.152000	26.601419	0.000157	20.826539
1881.503621	-3.008700	3.353200	-10.088000	26.587342	0.000158	20.840363
1882.502623	-3.006900	3.354700	-10.086000	26.561644	0.000156	20.826858
1883.505005	-2.993100	3.353900	-10.037000	26.505413	0.000157	20.831976
1884.504580	-3.002600	3.352200	-10.064000	26.464355	0.000159	20.820105
1885.505352	-3.008300	3.351200	-10.080000	26.562895	0.000155	20.821478
1886.503207	-2.978100	3.352900	-9.983500	26.583048	0.000157	20.858331
1887.502527	-2.994300	3.352800	-10.038000	26.531064	0.000155	20.844008
1888.511949	-3.014200	3.352100	-10.103000	26.525249	0.000155	20.837690
1889.507845	-3.013100	3.351600	-10.098000	26.490178	0.000156	20.833732
1890.507077	-3.024300	3.349900	-10.130000	26.433783	0.000154	20.834420
1891.512660	-2.989800	3.352800	-10.023000	26.403346	0.000153	20.847924
1892.507348	-2.999500	3.351500	-10.052000	26.453474	0.000154	20.837616
1893.517056	-2.971600	3.351600	-9.958900	26.528796	0.000154	20.842677
1894.517248	-2.998200	3.350000	-10.042000	26.587237	0.000154	20.838835
1895.509058	-2.994500	3.350400	-10.033000	26.611789	0.000153	20.828428
1896.508699	-2.992400	3.349400	-10.022000	26.552032	0.000153	20.838533
1897.515502	-3.021800	3.348800	-10.117000	26.527098	0.000151	20.842867
1898.507779	-2.990700	3.349500	-10.017000	26.537905	0.000152	20.844721
1899.514791	-3.002000	3.348800	-10.052000	26.593704	0.000152	20.857189
1900.515303	-2.961100	3.349400	-9.917400	26.600951	0.000151	20.833180
1901.514019	-2.992300	3.347200	-10.015000	26.557262	0.000152	20.850428
1902.518386	-3.018400	3.348200	-10.105000	26.601992	0.000151	20.849399
1903.516873	-3.012200	3.346200	-10.078000	26.667976	0.000150	20.870212
1904.512390	-3.004400	3.346400	-10.053000	26.682272	0.000149	20.842860
1905.515023	-3.006500	3.347000	-10.062000	26.737875	0.000149	20.851345
1906.515726	-3.003800	3.347000	-10.052000	26.712058	0.000151	20.857631
1907.511477	-3.010600	3.346000	-10.073000	26.740306	0.000149	20.857582
1908.515661	-2.994400	3.345900	-10.019000	26.755667	0.000147	20.859749
1909.513740	-3.016100	3.346100	-10.091000	26.752788	0.000149	20.864915
1910.512967	-2.982800	3.345300	-9.977600	26.717588	0.000146	20.850864
1911.515671	-2.990200	3.344000	-9.998500	26.721012	0.000147	20.857150
1912.515633	-2.994900	3.345400	-10.017000	26.646070	0.000147	20.849139
1913.512553	-2.984900	3.345000	-9.984200	26.649330	0.000148	20.879915
1914.514725	-2.990600	3.343100	-9.997000	26.607792	0.000145	20.862815
1915.515239	-3.005800	3.342400	-10.045000	26.582988	0.000146	20.854003
1916.515731	-2.992600	3.341900	-10.000000	26.640557	0.000142	20.874415
1917.515684	-2.995700	3.344500	-10.018000	26.683997	0.000144	20.841750
1918.530779	-2.988800	3.344300	-9.994000	26.699879	0.000145	20.865776
1919.518728	-2.998400	3.342400	-10.021000	26.697870	0.000143	20.862808
1920.515379	-2.986500	3.342200	-9.981000	26.751318	0.000144	20.872445
1921.523799	-3.017400	3.341700	-10.082000	26.743366	0.000146	20.861133
1922.519684	-3.014600	3.340900	-10.070000	26.725354	0.000143	20.854878
1923.517496	-3.007500	3.341800	-10.049000	26.718671	0.000142	20.863331
1924.516894	-3.016100	3.340100	-10.073000	26.674858	0.000143	20.856269
1925.517070	-3.000800	3.341400	-10.026000	26.676126	0.000142	20.874612
1926.515634	-2.990500	3.340300	-9.988000	26.682142	0.000142	20.857902
1927.520014	-2.982700	3.338900	-9.957800	26.759806	0.000141	20.846842
1928.519814	-3.013200	3.339100	-10.060000	26.796511	0.000141	20.871416
1929.518817	-2.995300	3.338500	-9.999200	26.805681	0.000141	20.866411
1930.518289	-2.995900	3.338900	-10.003000	26.767157	0.000141	20.867507
1931.518597	-2.993600	3.338300	-9.992300	26.745487	0.000138	20.857101
1932.521001	-3.000500	3.337300	-10.013000	26.776337	0.000141	20.857298
1933.514888	-3.014700	3.337300	-10.060000	26.824740	0.000139	20.850488
1934.519971	-3.007700	3.337700	-10.038000	26.845213	0.000137	20.850210
1935.522046	-3.017200	3.338200	-10.071000	26.840270	0.000136	20.849508
1936.517494	-3.005000	3.336800	-10.026000	26.754441	0.000140	20.831017
1937.518523	-3.017700	3.336400	-10.067000	26.759408	0.000137	20.836011
1938.518784	-2.996300	3.337100	-9.998300	26.758228	0.000136	20.852841
1939.517763	-3.018300	3.336400	-10.069000	26.677125	0.000138	20.863289
1940.520184	-3.018900	3.334800	-10.067000	26.658462	0.000135	20.836942
1941.521991	-3.033200	3.333600	-10.110000	26.653445	0.000136	20.855131
1942.519818	-2.967900	3.335800	-9.899700	26.692445	0.000135	20.847397
1943.521221	-3.020900	3.334200	-10.071000	26.696885	0.000135	20.851387
1944.522670	-2.989100	3.334700	-9.967300	26.754933	0.000135	20.822503
1945.518653	-3.006000	3.333400	-10.019000	26.761162	0.000133	20.818808
1946.520835	-2.998400	3.335600	-10.000000	26.728100	0.000133	20.822078
1947.521401	-2.988000	3.333900	-9.961000	26.732338	0.000131	20.816856
1948.522295	-3.007200	3.332600	-10.020000	26.726434	0.000133	20.855963
1949.526580	-2.992400	3.332900	-9.971500	26.739817	0.000134	20.823901
1950.521855	-2.970500	3.333600	-9.901100	26.791799	0.000132	20.836808
1951.522540	-2.979800	3.333500	-9.932500	26.778276	0.000132	20.830325
1952.525201	-2.986400	3.331300	-9.947700	26.739003	0.000132	20.821660
1953.523366	-2.984000	3.331600	-9.940700	26.753037	0.000131	20.832450
1954.520420	-2.980000	3.332500	-9.929900	26.723178	0.000131	20.822820
1955.525506	-2.994800	3.330700	-9.973800	26.749882	0.000130	20.814106
1956.520335	-2.995200	3.331200	-9.976300	26.747849	0.000131	20.812536
1957.528020	-2.990800	3.330500	-9.960400	26.713574	0.000130	20.812216
1958.525123	-2.985900	3.329100	-9.939500	26.714745	0.000130	20.815289
1959.523938	-2.983800	3.330400	-9.936600	26.704393	0.000129	20.823375
1960.527987	-2.991500	3.329800	-9.959600	26.736911	0.000131	20.804384
1961.519876	-3.008300	3.327400	-10.008000	26.735748	0.000130	20.842568
1962.524526	-2.985000	3.330000	-9.938900	26.716453	0.000128	20.826490
1963.523339	-2.997200	3.328700	-9.975700	26.751433	0.000126	20.824200
1964.523800	-2.997800	3.329500	-9.979500	26.761784	0.000130	20.820856
1965.524640	-2.995800	3.328200	-9.969500	26.798268	0.000127	20.809649
1966.525161	-3.009700	3.328300	-10.016000	26.805520	0.000127	20.836380
1967.525896	-3.015900	3.326100	-10.030000	26.855280	0.000127	20.799168
1968.524627	-2.998400	3.326700	-9.973500	26.898590	0.000129	20.818061
1969.523648	-2.974000	3.327000	-9.893700	26.828352	0.000126	20.779679
1970.522387	-2.995600	3.326400	-9.964000	26.805440	0.000125	20.785565
1971.531608	-3.006200	3.324900	-9.994400	26.816164	0.000125	20.791607
1972.523922	-2.993200	3.326400	-9.955700	26.832345	0.000125	20.806927
1973.527203	-2.988100	3.325300	-9.935500	26.894468	0.000125	20.797321
1974.526315	-2.971100	3.324800	-9.877300	26.905436	0.000125	20.803608
1975.527774	-3.007500	3.324200	-9.997000	26.852053	0.000123	20.784543
1976.528561	-3.011100	3.322000	-10.002000	26.850240	0.000125	20.798842
1977.525272	-2.979200	3.324500	-9.902800	26.829173	0.000125	20.799945
1978.525249	-2.997300	3.322700	-9.958400	26.845622	0.000124	20.809846
1979.528636	-2.990500	3.323100	-9.936600	26.844141	0.000125	20.789390
1980.524348	-2.991000	3.322800	-9.937700	26.819392	0.000123	20.787265
1981.522718	-2.991000	3.323000	-9.938500	26.797178	0.000124	20.787690
1982.528089	-2.999400	3.321900	-9.962700	26.805985	0.000122	20.795122
1983.527278	-3.001200	3.322800	-9.971200	26.830280	0.000123	20.794894
1984.529466	-3.015500	3.321000	-10.013000	26.819189	0.000122	20.813140
1985.527586	-3.011200	3.321300	-10.000000	26.773372	0.000122	20.786988
1986.530471	-3.015800	3.319000	-10.008000	26.792382	0.000122	20.787135
1987.526998	-3.021600	3.319800	-10.030000	26.826881	0.000121	20.793373
1988.530218	-3.006100	3.319700	-9.978500	26.820272	0.000119	20.788150
1989.526141	-2.971300	3.319000	-9.861000	26.824694	0.000120	20.802080
1990.526067	-2.994000	3.318900	-9.935600	26.818913	0.000117	20.796741
1991.528708	-3.017000	3.318300	-10.010000	26.809003	0.000118	20.787725
1992.531426	-3.004800	3.318400	-9.969600	26.847599	0.000118	20.778643
1993.529998	-2.999700	3.317600	-9.951000	26.900535	0.000116	20.779714
1994.531623	-3.016300	3.317900	-10.006000	26.913683	0.000115	20.803365
1995.526609	-2.995600	3.317700	-9.938000	26.877007	0.000117	20.795410
1996.534958	-3.020100	3.318200	-10.021000	26.878788	0.000116	20.776813
1997.529651	-3.010400	3.316500	-9.982900	26.816719	0.000115	20.795010
1998.531751	-2.987900	3.317200	-9.910700	26.877814	0.000114	20.776307
1999.530456	-3.015500	3.314700	-9.994600	26.822850	0.000116	20.773198
2000.527409	-3.008100	3.315700	-9.972300	26.829176	0.000115	20.771024
2001.532263	-3.014900	3.314700	-9.992500	26.847892	0.000114	20.801223
2002.531730	-3.009600	3.316100	-9.978200	26.898024	0.000114	20.788094
2003.530817	-2.999100	3.315700	-9.943700	26.892715	0.000113	20.778014
2004.530518	-3.018100	3.314300	-10.002000	26.910316	0.000112	20.768685
2005.528116	-3.017600	3.314000	-9.999400	26.907039	0.000111	20.782935
2006.529389	-3.001100	3.313800	-9.944500	26.920120	0.000112	20.795140
2007.533148	-3.002500	3.314100	-9.949200	26.895705	0.000111	20.783865
2008.533922	-3.003700	3.312000	-9.947700	26.934794	0.000109	20.785239
2009.536778	-3.017000	3.312400	-9.992200	26.953857	0.000111	20.780227
2010.538197	-2.999200	3.313000	-9.935000	26.957028	0.000111	20.792425
2011.538403	-3.003300	3.312200	-9.946500	26.965156	0.000110	20.765510
2012.537601	-3.011800	3.311200	-9.971700	27.007120	0.000109	20.787322
2013.534755	-2.998700	3.312200	-9.930600	27.019110	0.000110	20.757653
2014.534167	-2.973600	3.311000	-9.844900	27.036653	0.000109	20.764864
2015.533582	-2.990400	3.311100	-9.900600	27.045587	0.000107	20.792815
2016.539270	-2.982900	3.311300	-9.876000	27.066744	0.000109	20.777108
2017.535877	-3.019200	3.309300	-9.990400	27.008647	0.000106	20.776529
2018.536949	-2.990100	3.311000	-9.899200	27.013313	0.000106	20.779799
2019.538879	-3.013500	3.308800	-9.969600	26.995752	0.000106	20.770674
2020.536807	-3.013200	3.308100	-9.966700	26.921797	0.000105	20.779756
2021.538725	-3.011300	3.309000	-9.963700	26.860056	0.000106	20.763192
2022.536706	-3.018000	3.308100	-9.983600	26.878674	0.000107	20.759627
2023.536522	-3.004500	3.306800	-9.934300	26.887528	0.000103	20.781334
2024.534180	-2.999600	3.306600	-9.917600	26.918179	0.000106	20.799352
2025.540812	-2.987600	3.308000	-9.881900	26.930592	0.000107	20.755409
2026.536634	-3.003500	3.306900	-9.931400	27.014976	0.000105	20.795221
2027.538048	-2.986200	3.306500	-9.872100	27.067530	0.000105	20.771735
2028.538096	-2.982600	3.307100	-9.862800	27.104434	0.000103	20.771390
2029.540848	-2.991800	3.305500	-9.888500	27.130712	0.000102	20.769845
2030.543611	-2.984800	3.305400	-9.865100	27.101605	0.000102	20.751475
2031.537789	-3.003900	3.304800	-9.926300	27.034412	0.000102	20.772567
2032.550006	-3.006800	3.304500	-9.934300	27.019404	0.000100	20.756052
2033.536340	-3.021400	3.303400	-9.979500	27.009650	0.000100	20.766631
2034.538471	-3.000800	3.305400	-9.917900	27.016446	0.000101	20.761138
2035.538710	-2.988900	3.304100	-9.873700	27.064097	0.000100	20.763541
2036.539826	-3.025800	3.303000	-9.993800	27.085418	9.974981E-5	20.750369
2037.539768	-3.004700	3.303200	-9.924600	27.097750	9.856173E-5	20.758030
2038.549898	-3.009600	3.301500	-9.935300	27.079192	9.859473E-5	20.755013
2039.542670	-3.004800	3.301100	-9.917900	27.102171	9.885875E-5	20.758209
2040.543407	-2.997300	3.302600	-9.898500	27.034450	9.701061E-5	20.750794
2041.543592	-2.987000	3.301000	-9.859000	27.030629	9.585553E-5	20.759754
2042.544342	-3.031800	3.300700	-10.006000	27.069225	9.912277E-5	20.751627
2043.544232	-3.008900	3.300700	-9.929900	27.073346	9.651558E-5	20.754823
2044.548515	-2.987800	3.301600	-9.863800	27.091562	9.753865E-5	20.744219
2045.546885	-2.990800	3.300400	-9.870400	27.103477	9.658158E-5	20.761420
2046.543511	-2.983100	3.301200	-9.846800	27.077743	9.565751E-5	20.756400
2047.547012	-3.014800	3.299500	-9.946700	27.097893	9.542650E-5	20.759597
2048.545112	-2.994600	3.298500	-9.877100	27.063826	9.552551E-5	20.768483
2049.555800	-3.003800	3.299100	-9.909200	27.019953	9.555851E-5	20.741431
2050.548496	-3.004000	3.299100	-9.909500	26.988866	9.585553E-5	20.753791
2051.545102	-2.987800	3.300000	-9.859200	27.011547	9.489846E-5	20.755263
2052.551565	-2.995900	3.297500	-9.878700	27.015312	9.242328E-5	20.739134
2053.545654	-2.994700	3.298300	-9.876700	26.999117	9.354536E-5	20.758410
2054.552142	-2.988000	3.298300	-9.854900	27.013733	9.278631E-5	20.755091
2055.548468	-3.005300	3.297200	-9.908200	26.992394	9.215926E-5	20.749752
2056.545658	-2.990600	3.296200	-9.856800	27.070870	9.239028E-5	20.746644
2057.548843	-3.005300	3.296500	-9.906200	27.128276	9.311633E-5	20.751747
2058.551337	-3.025900	3.294900	-9.968900	27.124260	9.014611E-5	20.742017
2059.549634	-3.005000	3.294500	-9.898700	27.102500	9.074016E-5	20.751427
2060.547095	-3.002800	3.294200	-9.890300	27.072522	8.984909E-5	20.726492
2061.550990	-3.003200	3.295000	-9.895000	27.070343	9.143321E-5	20.754648
2062.551366	-3.008800	3.294600	-9.911100	27.113368	9.074016E-5	20.749081
2063.545875	-3.018100	3.293000	-9.937400	27.163023	8.889202E-5	20.768202
2064.554361	-2.987000	3.293600	-9.836700	27.173020	9.011311E-5	20.723728
2065.552595	-3.013000	3.292600	-9.920000	27.254734	8.819897E-5	20.751392
2066.552526	-2.995100	3.293800	-9.864200	27.291575	8.849599E-5	20.755260
2067.554488	-3.001200	3.292700	-9.881700	27.251410	8.710989E-5	20.735246
2068.560242	-3.018000	3.292300	-9.935800	27.178465	8.618582E-5	20.743904
2069.553982	-2.996500	3.292600	-9.865200	27.163655	8.559178E-5	20.744182
2070.549816	-3.004200	3.291900	-9.888500	27.124973	8.651585E-5	20.747476
2071.549572	-2.982000	3.291100	-9.813400	27.101002	8.549277E-5	20.759878
2072.550286	-3.022400	3.289800	-9.941600	27.072267	8.694488E-5	20.730030
2073.551320	-3.004400	3.291900	-9.889100	27.088126	8.555878E-5	20.724642
2074.555155	-2.993000	3.291500	-9.850700	27.128297	8.516275E-5	20.738017
2075.551587	-2.989900	3.288700	-9.831700	27.114210	8.380965E-5	20.723848
2076.551787	-2.979800	3.288800	-9.798200	27.098376	8.328161E-5	20.745857
2077.551715	-2.989200	3.289300	-9.830800	27.150340	8.569079E-5	20.743592
2078.551764	-2.997100	3.290100	-9.859800	27.204473	8.278657E-5	20.736398
2079.554232	-3.000200	3.290000	-9.870000	27.202692	8.206052E-5	20.745987
2080.550242	-2.994900	3.289400	-9.850000	27.179568	8.186251E-5	20.738376
2081.552193	-3.002800	3.288100	-9.872500	27.186957	8.169749E-5	20.751024
2082.559064	-2.994800	3.287100	-9.843600	27.155868	8.196151E-5	20.714537
2083.553469	-3.001600	3.287000	-9.865800	27.128255	8.090544E-5	20.739398
2084.550172	-2.987000	3.286500	-9.816000	27.122671	8.060842E-5	20.737575
2085.552756	-3.011500	3.286000	-9.895100	27.140684	8.107045E-5	20.736251
2086.553911	-2.967800	3.285800	-9.750600	27.139993	7.975035E-5	20.730813
2087.552565	-2.991900	3.285900	-9.830500	27.151876	7.932132E-5	20.729489
2088.558524	-2.990900	3.285000	-9.824400	27.172919	8.074042E-5	20.739749
2089.553945	-3.003600	3.284700	-9.865200	27.136797	7.912331E-5	20.749886
2090.557150	-3.012900	3.283900	-9.892400	27.153860	7.981636E-5	20.741916
2091.560735	-3.018700	3.283100	-9.910100	27.131060	7.833125E-5	20.723725
2092.555876	-3.002300	3.283600	-9.858300	27.144634	7.760520E-5	20.749707
2093.556801	-3.007300	3.283800	-9.874500	27.107917	7.714316E-5	20.723683
2094.558042	-3.018400	3.282100	-9.904800	27.100838	7.803423E-5	20.743117
2095.556345	-3.005100	3.283300	-9.866000	27.092450	7.678014E-5	20.722352
2096.556653	-3.000500	3.282200	-9.847100	27.126775	7.678014E-5	20.743125
2097.555672	-3.004900	3.282300	-9.861500	27.138676	7.687914E-5	20.728067
2098.561012	-2.979200	3.281300	-9.774900	27.191612	7.753919E-5	20.717772
2099.558916	-3.010500	3.281200	-9.877000	27.170496	7.516302E-5	20.707912
2100.557782	-3.007800	3.280100	-9.865100	27.199529	7.720917E-5	20.712458
2101.560945	-2.992300	3.281400	-9.818000	27.232307	7.516302E-5	20.723617
2102.560906	-3.016000	3.280100	-9.892000	27.285022	7.628510E-5	20.703146
2103.558599	-3.015800	3.279400	-9.888700	27.359106	7.486600E-5	20.714607
2104.563672	-3.004100	3.280900	-9.855100	27.348485	7.654912E-5	20.707241
2105.563595	-3.016300	3.278300	-9.888000	27.379097	7.559205E-5	20.721917
2106.560601	-2.985100	3.279200	-9.787500	27.291084	7.645011E-5	20.700708
2107.562079	-2.994300	3.278300	-9.815100	27.295382	7.308386E-5	20.713094
2108.562367	-2.992900	3.278100	-9.809600	27.265605	7.430495E-5	20.725816
2109.563025	-3.010000	3.276500	-9.861300	27.206307	7.262183E-5	20.721646
2110.564729	-3.006000	3.277600	-9.851600	27.177729	7.463498E-5	20.705229
2111.567048	-3.004600	3.276500	-9.842800	27.200510	7.116972E-5	20.705384
2112.563328	-2.999400	3.276400	-9.826100	27.191724	7.225880E-5	20.729265
2113.563751	-3.014200	3.276100	-9.874700	27.195667	7.278684E-5	20.717582
2114.565519	-3.016100	3.275100	-9.878100	27.203143	7.239081E-5	20.704713
2115.560766	-2.999100	3.276300	-9.825000	27.177037	7.044367E-5	20.712595
2116.564530	-2.995000	3.274900	-9.807700	27.228470	7.001464E-5	20.712170
2117.563251	-3.014100	3.273600	-9.865300	27.256460	7.074069E-5	20.725626
2118.565929	-2.985100	3.274800	-9.774800	27.266946	6.915658E-5	20.718629
2119.565500	-2.966400	3.275000	-9.713800	27.340266	6.955261E-5	20.707509
2120.563372	-3.003500	3.273000	-9.829900	27.392406	7.074069E-5	20.707804
2121.563646	-2.999100	3.273600	-9.816700	27.438376	6.912357E-5	20.726550
2122.565743	-2.984300	3.274600	-9.771800	27.487017	6.882655E-5	20.709578
2123.564537	-3.018800	3.271700	-9.875400	27.497385	6.935459E-5	20.721907
2124.564480	-3.002000	3.272100	-9.821400	27.530049	6.889256E-5	20.707354
2125.562847	-3.000900	3.271600	-9.815800	27.576711	6.717643E-5	20.699300
2126.566299	-3.010400	3.269500	-9.841400	27.509768	7.054268E-5	20.711130
2127.568392	-2.991600	3.271200	-9.785000	27.474268	6.559232E-5	20.718563
2128.565974	-3.008400	3.269800	-9.835500	27.452637	6.678040E-5	20.705809
2129.565965	-2.988700	3.269700	-9.771300	27.419369	6.678040E-5	20.706480
2130.568779	-3.006600	3.269400	-9.828800	27.426195	6.684641E-5	20.719037
2131.567227	-3.039300	3.268200	-9.931800	27.412178	6.473425E-5	20.720108
2132.567297	-2.993400	3.269700	-9.786600	27.415281	6.658239E-5	20.704737
2133.565496	-3.009400	3.267500	-9.832200	27.435572	6.661539E-5	20.695752
2134.564210	-2.994500	3.266600	-9.781000	27.460852	6.651638E-5	20.696055
2135.564493	-2.969100	3.267600	-9.701300	27.487066	6.549331E-5	20.701566
2136.568501	-2.996500	3.267300	-9.788900	27.485847	6.483326E-5	20.702236
2137.574532	-2.996400	3.265600	-9.784200	27.481110	6.328215E-5	20.713592
2138.571665	-3.015400	3.264600	-9.842900	27.496833	6.301813E-5	20.686261
2139.570807	-2.991300	3.266100	-9.768400	27.538330	6.265510E-5	20.709047
2140.570231	-2.968200	3.267100	-9.696700	27.463389	6.334815E-5	20.688650
2141.572719	-2.998000	3.266800	-9.793200	27.424229	6.093898E-5	20.706627
2142.576848	-2.997600	3.263700	-9.782400	27.372750	6.206106E-5	20.704151
2143.575681	-2.994800	3.264700	-9.776000	27.381600	6.466825E-5	20.714951
2144.572351	-3.009600	3.263800	-9.821700	27.398998	6.361217E-5	20.724393
2145.574640	-2.996400	3.263600	-9.777300	27.391352	6.334815E-5	20.717175
2146.571557	-3.002500	3.263700	-9.798400	27.424840	6.222607E-5	20.695861
2147.573380	-3.001000	3.263100	-9.791200	27.479333	6.011392E-5	20.718917
2148.576801	-2.989300	3.262200	-9.751200	27.491212	6.136801E-5	20.720912
2149.577371	-2.983000	3.262600	-9.731200	27.437534	6.024592E-5	20.711003
2150.575562	-3.010100	3.261300	-9.816300	27.393757	5.777074E-5	20.702998
2151.575736	-3.005400	3.260900	-9.799200	27.430635	6.080697E-5	20.705011
2152.573788	-3.005800	3.260200	-9.798500	27.412132	6.027893E-5	20.709630
2153.576557	-2.998300	3.259500	-9.770800	27.444205	5.922285E-5	20.702542
2154.579915	-3.011600	3.258800	-9.813500	27.465187	6.116999E-5	20.707055
2155.579804	-2.992800	3.258900	-9.751800	27.517824	6.004791E-5	20.711175
2156.584444	-2.982000	3.258600	-9.716700	27.562562	5.839779E-5	20.697392
2157.579419	-3.029300	3.258400	-9.869300	27.586578	5.806777E-5	20.714445
2158.583058	-2.993700	3.258500	-9.753900	27.589821	5.869481E-5	20.692102
2159.578125	-2.997300	3.257900	-9.763200	27.610985	5.922285E-5	20.702018
2160.575755	-2.995900	3.256900	-9.756200	27.607257	5.786975E-5	20.684989
2161.579420	-3.000800	3.256700	-9.771500	27.641534	5.575760E-5	20.689134
2162.581912	-2.996200	3.256800	-9.757800	27.649820	5.595561E-5	20.680876
2163.580215	-3.010200	3.255200	-9.798100	27.633150	5.664866E-5	20.706303
2164.578199	-3.018600	3.255900	-9.827700	27.576602	5.509755E-5	20.709623
2165.580632	-2.999800	3.255900	-9.766100	27.546344	5.757273E-5	20.715689
2166.577469	-3.013300	3.254900	-9.806600	27.448220	5.466852E-5	20.704684
2167.577647	-3.020200	3.255700	-9.831900	27.463123	5.582360E-5	20.715885
2168.577099	-3.008900	3.253100	-9.787600	27.412564	5.559258E-5	20.710065
2169.579970	-3.008100	3.253600	-9.786100	27.386495	5.404147E-5	20.707547
2170.576093	-3.019700	3.252600	-9.821700	27.404803	5.529556E-5	20.711741
2171.578459	-2.993300	3.253000	-9.737000	27.464537	5.285338E-5	20.714937
2172.579479	-2.984900	3.251900	-9.705500	27.509229	5.183031E-5	20.699208
2173.578321	-2.946900	3.252800	-9.584400	27.484227	5.212733E-5	20.709141
2174.577935	-2.982700	3.252700	-9.700900	27.578707	5.235835E-5	20.694195
2175.580159	-2.997200	3.251500	-9.744400	27.620769	5.235835E-5	20.709493
2176.578835	-2.982300	3.250800	-9.693400	27.613197	5.351343E-5	20.694287
2177.579406	-2.989900	3.251100	-9.719500	27.609833	5.272137E-5	20.704652
2178.579695	-3.016100	3.248900	-9.798100	27.637157	5.328241E-5	20.692790
2179.581021	-2.983400	3.250300	-9.694900	27.638675	5.011418E-5	20.716605
2180.583471	-3.014200	3.249300	-9.792700	27.629561	5.067522E-5	20.714073
2181.581823	-2.973000	3.250000	-9.661600	27.614562	5.107125E-5	20.708937
2182.580507	-2.998700	3.249800	-9.744400	27.652675	4.955314E-5	20.714571
2183.581715	-2.996300	3.248900	-9.733700	27.676487	5.051021E-5	20.718618
2184.586105	-3.003600	3.248500	-9.756500	27.663391	5.126927E-5	20.688842
2185.582576	-2.997900	3.246100	-9.730800	27.562995	5.057622E-5	20.701147
2186.583605	-3.025900	3.247200	-9.825100	27.540269	4.767200E-5	20.700093
2187.587642	-3.000700	3.246300	-9.740300	27.570227	4.790302E-5	20.725021
2188.584029	-3.030400	3.246600	-9.837400	27.581984	4.720997E-5	20.720254
2189.579086	-3.017000	3.244900	-9.788400	27.561965	4.796902E-5	20.720026
2190.582079	-2.980600	3.246200	-9.674000	27.489658	4.826605E-5	20.714606
2191.584027	-3.008500	3.244800	-9.761100	27.482393	4.866208E-5	20.714884
2192.583957	-2.975300	3.245000	-9.654600	27.555311	4.661593E-5	20.712383
2193.586748	-2.984500	3.243900	-9.680200	27.505081	4.872808E-5	20.714476
2194.586722	-3.012500	3.243600	-9.770000	27.528735	4.681394E-5	20.708877
2195.587854	-3.015000	3.243800	-9.778900	27.572880	4.687994E-5	20.705877
2196.587533	-2.998200	3.242100	-9.719700	27.530442	4.651692E-5	20.715811
2197.584158	-3.001000	3.242900	-9.730500	27.551373	4.654992E-5	20.683288
2198.583261	-3.006200	3.241500	-9.743900	27.628332	4.552685E-5	20.716155
2199.584833	-2.999300	3.241400	-9.721200	27.663868	4.671493E-5	20.716825
2200.598623	-3.002600	3.241500	-9.732500	27.646604	4.717697E-5	20.717946
2201.589270	-3.014800	3.240400	-9.768100	27.675170	4.437176E-5	20.710180
2202.590891	-2.998600	3.240000	-9.714400	27.663854	4.414074E-5	20.731985
2203.588232	-2.981100	3.241500	-9.662700	27.638684	4.301866E-5	20.700966
2204.591543	-3.013900	3.237900	-9.756400	27.585428	4.410774E-5	20.720875
2205.589117	-3.000200	3.238100	-9.713500	27.541455	4.377772E-5	20.709347
2206.590621	-3.014400	3.238100	-9.760300	27.643836	4.308467E-5	20.707099
2207.591043	-3.036200	3.237900	-9.829900	27.689885	4.480079E-5	20.713608
2208.586775	-2.988600	3.240100	-9.682700	27.713378	4.212760E-5	20.725396
2209.586267	-2.997000	3.236500	-9.698400	27.716247	4.189658E-5	20.721644
2210.591604	-3.002700	3.236500	-9.717300	27.664740	4.199559E-5	20.725290
2211.594295	-3.011300	3.235400	-9.741500	27.682793	4.278764E-5	20.718325
2212.590861	-2.998000	3.236100	-9.700500	27.773901	4.093951E-5	20.720868
2213.588065	-3.005700	3.234600	-9.721300	27.755948	4.120353E-5	20.730777
2214.586102	-3.018100	3.234400	-9.760300	27.725866	4.070849E-5	20.707141
2215.587687	-2.998000	3.234700	-9.696700	27.668803	4.100551E-5	20.730801
2216.597481	-3.008500	3.232900	-9.725200	27.666862	4.225961E-5	20.725055
2217.592516	-2.991300	3.233500	-9.671800	27.718125	4.265564E-5	20.741553
2218.591087	-3.001100	3.232600	-9.700800	27.789344	4.143455E-5	20.737833
2219.600943	-2.971800	3.232100	-9.603700	27.771587	4.179757E-5	20.713323
2220.590712	-3.004900	3.231500	-9.710000	27.768680	3.952041E-5	20.724148
2221.594331	-3.029900	3.231600	-9.790400	27.777963	3.975142E-5	20.733017
2222.598273	-2.987500	3.231900	-9.654600	27.773667	4.004844E-5	20.732487
2223.594776	-3.006700	3.230600	-9.713300	27.710376	3.942140E-5	20.730910
2224.593321	-3.002600	3.230600	-9.699600	27.729248	3.965241E-5	20.738047
2225.596414	-3.007000	3.230500	-9.713300	27.760443	3.981743E-5	20.748577
2226.594643	-2.982800	3.230400	-9.634500	27.776291	4.011445E-5	20.731809
2227.592750	-3.023300	3.229500	-9.762700	27.817630	3.892636E-5	20.728841
2228.596124	-2.997200	3.231900	-9.686000	27.857613	3.826631E-5	20.748219
2229.596960	-2.998000	3.228200	-9.677200	27.855826	4.064249E-5	20.736463
2230.595733	-2.981000	3.230500	-9.629300	27.895854	3.991643E-5	20.731229
2231.595963	-2.995900	3.227800	-9.668300	27.887894	3.994944E-5	20.743607
2232.597651	-2.968700	3.227000	-9.578600	27.915266	3.737525E-5	20.723741
2233.593795	-2.996600	3.227600	-9.670900	27.946480	3.922338E-5	20.727183
2234.596176	-2.983100	3.225400	-9.620200	27.935945	4.097251E-5	20.736495
2235.597282	-2.996700	3.226000	-9.666300	27.943580	3.839832E-5	20.751292
2236.593336	-2.989600	3.225300	-9.641700	27.927441	3.892636E-5	20.756385
2237.599493	-3.005600	3.225100	-9.692200	27.942370	3.872835E-5	20.748177
2238.606190	-3.013200	3.225500	-9.718200	27.941176	3.763927E-5	20.751717
2239.600574	-3.016400	3.224100	-9.724500	27.874134	3.780428E-5	20.725016
2240.601133	-3.029300	3.222400	-9.760800	27.840042	3.777128E-5	20.750449
2241.606201	-3.006200	3.222900	-9.687100	27.878779	3.958641E-5	20.754822
2242.604287	-3.013100	3.222700	-9.709700	27.872843	3.648418E-5	20.748373
2243.606791	-3.004000	3.221900	-9.677500	27.840293	3.470205E-5	20.753547
2244.601712	-2.991800	3.221800	-9.638200	27.821448	3.592314E-5	20.747857
2245.599726	-2.991800	3.221800	-9.637900	27.837044	3.499907E-5	20.742216
2246.602305	-3.005700	3.221000	-9.680200	27.850731	3.556011E-5	20.748879
2247.605164	-3.007400	3.219400	-9.681000	27.869056	3.605515E-5	20.727492
2248.606859	-2.987700	3.219400	-9.617100	27.861543	3.833232E-5	20.737475
2249.603949	-3.011800	3.218700	-9.693500	27.897696	3.453704E-5	20.734981
2250.602652	-2.992200	3.218500	-9.629800	27.944861	3.480106E-5	20.753530
2251.602386	-3.003800	3.217200	-9.662600	27.942272	3.397600E-5	20.746656
2252.604027	-3.014500	3.217300	-9.697700	27.904194	3.483406E-5	20.766652
2253.603004	-2.970800	3.217600	-9.557800	27.886788	3.470205E-5	20.740597
2254.602367	-2.998800	3.218300	-9.649800	27.866854	3.216086E-5	20.748511
2255.604938	-2.998600	3.217200	-9.646700	27.897274	3.648418E-5	20.737875
2256.611235	-3.018600	3.214700	-9.703400	27.912869	3.328295E-5	20.750253
2257.600969	-2.999100	3.215500	-9.642400	27.881054	3.572513E-5	20.770863
2258.601561	-2.980400	3.216700	-9.586500	27.807314	3.295292E-5	20.747383
2259.603555	-2.985900	3.214600	-9.597300	27.853949	3.351396E-5	20.742634
2260.601361	-2.989500	3.214200	-9.608500	27.831262	3.219387E-5	20.755837
2261.604341	-2.998200	3.214100	-9.636200	27.835177	2.998270E-5	20.755985
2262.608366	-2.988600	3.215100	-9.608100	27.852089	3.189685E-5	20.766367
2263.603071	-2.975000	3.216400	-9.567700	27.850846	3.140181E-5	20.765117
2264.606977	-2.984100	3.212600	-9.585500	27.891313	3.117079E-5	20.763171
2265.609416	-3.023600	3.211500	-9.709800	27.872064	3.077476E-5	20.742848
2266.605956	-3.024500	3.211900	-9.714000	27.875191	3.225987E-5	20.766385
2267.607472	-3.015800	3.210200	-9.679800	27.927029	3.209486E-5	20.771144
2268.610317	-3.002800	3.212100	-9.644400	27.963652	3.084077E-5	20.748261
2269.609285	-2.978000	3.210700	-9.560800	27.947530	2.701249E-5	20.766648
2270.608398	-3.010300	3.209200	-9.660000	27.867744	3.087377E-5	20.761734
2271.610464	-2.990600	3.212200	-9.605900	27.861392	2.942166E-5	20.753919
2272.608524	-3.007800	3.209500	-9.653000	27.889042	2.820057E-5	20.762307
2273.607111	-3.011300	3.208300	-9.660500	27.915123	2.965268E-5	20.769117
2274.609123	-3.012400	3.207200	-9.661100	27.905321	2.958668E-5	20.757828
2275.609540	-2.976200	3.207400	-9.544600	27.891366	2.810157E-5	20.776974
2276.611531	-2.969800	3.207800	-9.524800	27.861166	2.780454E-5	20.737095
2277.612421	-2.970000	3.207200	-9.524400	27.845196	2.628643E-5	20.789302
2278.613174	-3.005000	3.205300	-9.630700	27.910510	2.965268E-5	20.779647
2279.612276	-3.008900	3.206000	-9.645300	27.970540	2.843159E-5	20.751401
2280.615172	-2.979800	3.204600	-9.547600	28.017028	2.496634E-5	20.762634
2281.615165	-2.988200	3.205500	-9.576000	28.086612	2.628643E-5	20.774832
2282.613625	-2.977300	3.204800	-9.540600	28.050636	2.744152E-5	20.779868
2283.618371	-2.980400	3.203400	-9.546900	27.997254	2.955367E-5	20.784930
2284.613771	-2.993800	3.202500	-9.587100	27.875836	2.473532E-5	20.755654
2285.619613	-2.984400	3.203400	-9.559200	27.914798	2.496634E-5	20.774006
2286.612631	-2.981300	3.203400	-9.548100	27.916885	2.453730E-5	20.783219
2287.614698	-3.009100	3.200100	-9.628300	27.915667	2.777154E-5	20.784364
2288.614654	-3.002900	3.200300	-9.609500	27.963872	2.361324E-5	20.816287
2289.609681	-2.967500	3.203200	-9.505100	28.007405	2.473532E-5	20.767646
2290.614363	-2.974400	3.201800	-9.523100	27.992770	2.440530E-5	20.782787
2291.617426	-3.009000	3.200000	-9.628100	27.973642	2.549438E-5	20.776809
2292.611989	-2.987200	3.200600	-9.559800	28.012147	2.589040E-5	20.787118
2293.612139	-2.958600	3.198600	-9.462200	28.022583	2.460331E-5	20.784821
2294.616127	-2.992000	3.197500	-9.566000	28.006145	2.414128E-5	20.785818
2295.616134	-3.005900	3.197000	-9.609000	28.032346	2.259016E-5	20.775208
2296.612919	-2.984800	3.199400	-9.549100	28.039167	2.278818E-5	20.774488
2297.613427	-2.994500	3.195600	-9.568600	28.020326	2.516435E-5	20.773539
2298.615809	-2.977800	3.195900	-9.516300	28.088454	2.463631E-5	20.805136
2299.612334	-2.989600	3.195100	-9.551800	28.107522	2.272217E-5	20.783553
2300.615759	-2.990600	3.195700	-9.555700	28.126638	2.014798E-5	20.775770
2301.617723	-2.978000	3.194600	-9.512800	28.166421	2.341522E-5	20.781207
2302.618788	-2.992100	3.194300	-9.556900	28.144755	2.216113E-5	20.797328
2303.616111	-2.992600	3.193900	-9.557100	28.033822	2.176510E-5	20.782383
2304.611529	-3.002600	3.192500	-9.584600	27.991898	2.117106E-5	20.792341
2305.611735	-3.036300	3.192000	-9.690400	27.963683	2.044500E-5	20.776743
2306.616394	-2.992900	3.191100	-9.549300	27.897584	2.094004E-5	20.798881
2307.615499	-3.023300	3.190700	-9.645600	27.980998	2.034600E-5	20.760505
2308.614679	-2.984100	3.189700	-9.517600	28.070172	2.189711E-5	20.813284
2309.615350	-3.028400	3.189500	-9.658200	28.127067	2.054401E-5	20.779047
2310.619999	-2.993300	3.189000	-9.543900	28.058299	2.110505E-5	20.798487
2311.616193	-2.965000	3.189300	-9.455300	28.053986	1.866287E-5	20.790353
2312.617088	-3.000000	3.188400	-9.564400	28.006930	1.978496E-5	20.807472
2313.616531	-2.966700	3.188300	-9.457900	27.985115	2.216113E-5	20.784091
2314.612001	-3.000600	3.186700	-9.561400	27.995283	1.981796E-5	20.820404
2315.619358	-2.988800	3.187800	-9.526200	28.012063	2.011498E-5	20.798414
2316.617225	-2.967800	3.186100	-9.454300	28.078462	2.103905E-5	20.802189
2317.621739	-3.001100	3.185800	-9.559500	28.102784	1.889389E-5	20.812449
2318.618248	-2.975900	3.185100	-9.477800	28.170730	1.985096E-5	20.807356
2319.618082	-2.968500	3.186500	-9.458400	28.208603	1.938893E-5	20.804233
2320.619852	-2.989900	3.182700	-9.515300	28.176950	1.955394E-5	20.800816
2321.615763	-2.968200	3.182900	-9.446700	28.168863	1.849786E-5	20.793623
2322.620151	-2.985600	3.182600	-9.500900	28.190186	2.087404E-5	20.803236
2323.614835	-3.008800	3.181700	-9.572500	28.197893	1.846486E-5	20.818107
2324.632082	-2.974300	3.181700	-9.462000	28.226070	1.994997E-5	20.787680
2325.615785	-2.995200	3.180500	-9.525400	28.231219	2.041200E-5	20.799502
2326.619884	-2.995900	3.180000	-9.525500	28.168734	2.136907E-5	20.804872
2327.623417	-2.986800	3.180700	-9.499100	28.118687	1.856387E-5	20.832724
2328.621927	-2.991200	3.178900	-9.507000	28.152794	2.004897E-5	20.804946
2329.622077	-2.997200	3.177600	-9.523000	28.167045	1.876188E-5	20.789422
2330.626791	-3.009000	3.178800	-9.564200	28.207403	1.853086E-5	20.818198
2331.621955	-2.998800	3.178000	-9.529700	28.249806	1.744178E-5	20.809206
2332.622137	-2.991300	3.177000	-9.502500	28.264178	1.727677E-5	20.795702
2333.626577	-3.013000	3.175500	-9.566600	28.254411	1.826684E-5	20.800092
2334.625960	-2.986800	3.176200	-9.485900	28.241290	1.780481E-5	20.814857
2335.617411	-2.991600	3.174800	-9.496800	28.233089	1.684774E-5	20.821299
2336.629831	-3.001500	3.173900	-9.525800	28.204133	1.635270E-5	20.800208
2337.619665	-2.977400	3.175000	-9.452200	28.175526	1.678173E-5	20.810762
2338.622648	-2.989400	3.173100	-9.484600	28.154974	1.559365E-5	20.819469
2339.624171	-2.985500	3.173700	-9.474600	28.186418	1.727677E-5	20.824572
2340.621186	-2.961800	3.173100	-9.396600	28.230462	1.562665E-5	20.839990
2341.623106	-2.993300	3.170300	-9.488600	28.257850	1.565965E-5	20.810667
2342.628180	-3.002100	3.170500	-9.517300	28.268528	1.430655E-5	20.831375
2343.620446	-3.019000	3.168600	-9.564600	28.210870	1.562665E-5	20.826430
2344.624117	-2.989000	3.168900	-9.470100	28.184966	1.506561E-5	20.806516
2345.625226	-2.994000	3.169400	-9.487700	28.237114	1.562665E-5	20.810179
2346.624106	-2.974900	3.169400	-9.427700	28.236734	1.536263E-5	20.811692
2347.632399	-3.007600	3.166900	-9.523600	28.291931	1.480159E-5	20.818903
2348.625203	-3.008300	3.166400	-9.524700	28.328754	1.622069E-5	20.838434
2349.624359	-2.968900	3.165700	-9.397900	28.369203	1.486759E-5	20.823212
2350.623497	-3.000800	3.165400	-9.498300	28.347956	1.519762E-5	20.817466
2351.626949	-2.992600	3.164600	-9.469500	28.333156	1.447156E-5	20.810150
2352.628198	-2.979000	3.165100	-9.427900	28.303994	1.400953E-5	20.811608
2353.622824	-3.003200	3.162600	-9.497100	28.273579	1.496660E-5	20.826977
2354.623747	-3.001300	3.161200	-9.486700	28.267432	1.486759E-5	20.836435
2355.625033	-3.008300	3.160800	-9.507200	28.259695	1.298646E-5	20.835758
2356.626158	-3.022700	3.160300	-9.552100	28.279694	1.146834E-5	20.841668
2357.624250	-3.017400	3.160500	-9.535500	28.286751	1.196338E-5	20.844032
2358.628898	-2.992100	3.159900	-9.453400	28.255345	1.206239E-5	20.842283
2359.627473	-3.003300	3.158900	-9.487200	28.244011	1.130333E-5	20.838932
2360.622922	-3.002600	3.157000	-9.477800	28.182063	1.334948E-5	20.861912
2361.627120	-3.010300	3.157500	-9.504700	28.196081	1.404253E-5	20.852791
2362.627563	-3.014900	3.156300	-9.514700	28.262412	1.163336E-5	20.856510
2363.623249	-2.987500	3.155600	-9.426400	28.339888	1.407554E-5	20.850593
2364.625257	-3.003900	3.155000	-9.476300	28.274925	1.216140E-5	20.823117
2365.626940	-3.007100	3.153500	-9.481300	28.277859	9.554203E-6	20.849304
2366.627970	-3.007400	3.154100	-9.484400	28.263536	1.272244E-5	20.862383
2367.626682	-3.005400	3.152900	-9.474600	28.263152	1.080830E-5	20.834497
2368.624461	-2.999400	3.152200	-9.453900	28.232638	1.127033E-5	20.843129
2369.627357	-2.999800	3.150400	-9.449200	28.271053	1.074229E-5	20.860469
2370.625105	-2.984500	3.150500	-9.402000	28.274423	1.209539E-5	20.842999
2371.634588	-3.017600	3.149600	-9.502800	28.307234	9.983235E-6	20.847112
2372.627485	-2.998600	3.149800	-9.444200	28.297736	1.219440E-5	20.835178
2373.628613	-2.999300	3.148400	-9.441800	28.271290	8.366116E-6	20.865923
2374.630151	-3.006600	3.147500	-9.462600	28.248619	1.061028E-5	20.844994
2375.633396	-2.997300	3.147400	-9.432600	28.261254	1.037926E-5	20.846336
2376.631480	-3.026900	3.147000	-9.524700	28.260490	8.663138E-6	20.846989
2377.630982	-3.017000	3.143800	-9.483900	28.213646	9.917230E-6	20.868104
2378.633134	-2.984400	3.144800	-9.383900	28.197829	8.663138E-6	20.838430
2379.633783	-2.990000	3.145000	-9.402200	28.217089	8.630135E-6	20.846915
2380.638531	-2.991900	3.143400	-9.404000	28.328750	7.409045E-6	20.857870
2381.631021	-3.005300	3.141800	-9.441700	28.332315	8.828150E-6	20.856244
2382.635098	-2.991200	3.141200	-9.394800	28.372649	9.488198E-6	20.839484
2383.631720	-2.980900	3.140000	-9.359300	28.377009	8.828150E-6	20.858572
2384.634973	-2.981500	3.140500	-9.362000	28.367071	8.003089E-6	20.855204
2385.638787	-3.006900	3.138200	-9.434600	28.342040	8.861152E-6	20.848967
2386.637916	-3.002600	3.138500	-9.422700	28.315920	6.022943E-6	20.842582
2387.637023	-3.000800	3.138100	-9.415000	28.274276	7.574058E-6	20.852809
2388.633527	-2.992700	3.136400	-9.385700	28.298765	8.300111E-6	20.846645
2389.634553	-2.987200	3.134400	-9.362100	28.322586	8.861152E-6	20.856879
2390.635359	-2.974600	3.135700	-9.324900	28.258913	7.640062E-6	20.843031
2391.637137	-2.994400	3.134300	-9.384200	28.332287	6.385970E-6	20.851474
2392.638387	-3.000500	3.133200	-9.400100	28.297042	6.187956E-6	20.852022
2393.635475	-3.003200	3.131000	-9.402600	28.275759	5.890934E-6	20.845293
2394.637064	-2.982300	3.131600	-9.336900	28.334471	6.253960E-6	20.870267
2395.636189	-3.020300	3.130100	-9.452600	28.368791	6.914009E-6	20.856461
2396.636242	-2.997500	3.129900	-9.380500	28.369317	9.521201E-6	20.850354
2397.636289	-2.985400	3.129400	-9.342100	28.374553	6.154953E-6	20.852307
2398.639095	-3.011100	3.129200	-9.421400	28.372345	5.230885E-6	20.834911
2399.638206	-3.011200	3.129000	-9.421900	28.385181	4.405824E-6	20.844043
2400.642644	-3.008600	3.125900	-9.404100	28.402433	4.735849E-6	20.836758
2401.640270	-2.995300	3.125700	-9.361400	28.466673	3.844783E-6	20.837436
2402.637298	-3.004800	3.124500	-9.387200	28.468214	4.405824E-6	20.846575
2403.637374	-2.998100	3.123800	-9.364600	28.466202	5.428900E-6	20.847867
2404.641395	-2.983100	3.124200	-9.319200	28.407344	4.867858E-6	20.827954
2405.641056	-2.994300	3.122300	-9.348400	28.404421	3.316744E-6	20.841131
2406.646059	-3.018100	3.120300	-9.416900	28.441864	3.613766E-6	20.840429
2407.641767	-2.994500	3.120800	-9.343100	28.470415	4.900861E-6	20.814653
2408.639544	-3.014800	3.118000	-9.399500	28.379227	3.184734E-6	20.837099
2409.643559	-3.007800	3.118100	-9.377500	28.361961	3.184734E-6	20.832042
2410.640918	-3.003800	3.118500	-9.366000	28.368090	1.204589E-6	20.832523
2411.641479	-2.993900	3.117000	-9.331000	28.414909	2.458681E-6	20.815657
2412.645122	-2.979300	3.115700	-9.281900	28.483459	2.557688E-6	20.821151
2413.644099	-2.988400	3.115400	-9.309500	28.472557	2.128657E-6	20.816335
2414.643429	-2.988800	3.114600	-9.307800	28.400246	2.029649E-6	20.815117
2415.645288	-2.995400	3.113500	-9.325800	28.402098	2.095654E-6	20.816033
2416.646861	-2.992500	3.112400	-9.313300	28.468912	2.425679E-6	20.809346
2417.647513	-2.985200	3.111500	-9.287900	28.480317	1.105581E-6	20.805184
2418.642023	-2.992200	3.110100	-9.304800	28.433483	1.105581E-6	20.804015
2419.642934	-3.012700	3.107800	-9.361800	28.442258	-4.785352E-7	20.814748
2420.641212	-3.029000	3.107700	-9.411800	28.451571	6.105450E-7	20.808953
2421.645841	-3.014700	3.106500	-9.364400	28.498338	1.369601E-6	20.820487
2422.645849	-2.989100	3.107100	-9.286100	28.576267	1.237591E-6	20.799396
2423.649445	-3.015200	3.103900	-9.358000	28.582551	2.425679E-6	20.826587
2424.644695	-3.006100	3.103700	-9.329000	28.554317	1.798632E-6	20.791989
2425.647090	-2.990300	3.103500	-9.279500	28.528513	-4.785352E-7	20.828115
2426.645053	-3.018400	3.102900	-9.364200	28.581575	2.260666E-6	20.813750
2427.653664	-3.000400	3.099900	-9.299600	28.610959	1.501611E-6	20.798774
2428.644846	-3.007900	3.099600	-9.321800	28.621365	4.785352E-7	20.802142
2429.651350	-3.030400	3.096800	-9.384100	28.641187	3.135231E-7	20.798398
2430.649061	-3.024000	3.096900	-9.364600	28.594952	3.448754E-6	20.810154
2431.647706	-3.011800	3.097700	-9.328700	28.605920	2.326671E-6	20.801285
2432.645161	-3.022400	3.095800	-9.354400	28.583287	-5.115377E-7	20.812630
2433.641482	-3.003100	3.095300	-9.294600	28.570122	-2.805207E-7	20.806958
2434.645052	-2.988900	3.095100	-9.249900	28.552256	-2.145158E-7	20.809827
2435.641598	-3.003100	3.093600	-9.289600	28.603078	-1.534613E-6	20.794630
2436.645666	-3.031300	3.092000	-9.371400	28.665593	-8.745644E-7	20.805911
2437.646866	-3.010000	3.090600	-9.301700	28.658483	-2.590691E-6	20.802543
2438.643988	-2.991800	3.090600	-9.245800	28.631032	-6.435474E-7	20.785326
2439.648365	-3.014400	3.088600	-9.309900	28.587542	4.455328E-7	20.787992
2440.647548	-2.988100	3.089300	-9.230300	28.618743	-7.755571E-7	20.781009
2441.647728	-3.011900	3.086900	-9.296700	28.699641	-2.145158E-7	20.797531
2442.644642	-2.985800	3.087800	-9.218700	28.682426	1.485109E-7	20.785881
2443.649104	-3.007000	3.085100	-9.275800	28.692360	-1.468608E-6	20.788775
2444.646616	-3.007400	3.083700	-9.273500	28.721895	4.455328E-7	20.779643
2445.650851	-3.025300	3.082700	-9.326200	28.782228	-5.115377E-7	20.793474
2446.649007	-2.995400	3.083200	-9.234000	28.805268	-9.405693E-7	20.802933
2447.653410	-3.025300	3.080800	-9.319300	28.730522	-2.722700E-6	20.792126
2448.650654	-2.993900	3.080900	-9.223100	28.737387	-1.336598E-6	20.776756
2449.652931	-2.960700	3.080000	-9.117900	28.764121	-1.534613E-6	20.778080
2450.652396	-2.970400	3.079100	-9.145400	28.721285	-2.854710E-6	20.797995
2451.653938	-2.987900	3.078100	-9.196300	28.663334	-1.963645E-6	20.794626
2452.652463	-3.013100	3.074700	-9.262700	28.670256	-2.755703E-6	20.793538
2453.655242	-3.030500	3.072600	-9.310700	28.647181	-4.306817E-6	20.789263
2454.658372	-3.009500	3.072200	-9.244800	28.579315	-1.897640E-6	20.782077
2455.655783	-2.983500	3.072200	-9.165700	28.567667	-3.250739E-6	20.787890
2456.669390	-2.974500	3.071400	-9.134900	28.592773	-2.194662E-6	20.776665
2457.653155	-3.009900	3.069200	-9.237000	28.601101	-1.534613E-6	20.783630
2458.656591	-3.027300	3.068500	-9.288900	28.654055	-3.217737E-6	20.772952
2459.655258	-3.009300	3.067300	-9.229000	28.730860	-1.105581E-6	20.782509
2460.654662	-2.994900	3.065600	-9.180200	28.775969	-5.296890E-6	20.788118
2461.657319	-2.992500	3.065300	-9.171700	28.764996	-3.217737E-6	20.770427
2462.657425	-3.010700	3.063300	-9.222000	28.737426	-3.514759E-6	20.783907
2463.658998	-3.006700	3.062100	-9.206100	28.752465	-4.306817E-6	20.795262
2464.658657	-2.984700	3.060300	-9.133500	28.830302	-1.485109E-7	20.762243
2465.659612	-2.999200	3.061500	-9.181100	28.877216	-2.524686E-6	20.780107
2466.656901	-2.996200	3.059000	-9.164200	28.887602	-3.679771E-6	20.775397
2467.657975	-3.022900	3.057700	-9.241700	28.788825	-4.636841E-6	20.778308
2468.657630	-3.010300	3.057200	-9.202200	28.730229	-4.075800E-6	20.773813
2469.656821	-2.998800	3.055600	-9.161200	28.732809	-2.557688E-6	20.786843
2470.659264	-3.017500	3.054700	-9.216500	28.752921	-4.273815E-6	20.784342
2471.657189	-2.992200	3.052200	-9.131200	28.747987	-1.963645E-6	20.799287
2472.659474	-3.008100	3.052300	-9.181100	28.781433	-3.646769E-6	20.787932
2473.663747	-3.002700	3.049700	-9.156900	28.760624	-4.075800E-6	20.762229
2474.659335	-3.001600	3.049400	-9.152400	28.714370	-3.844783E-6	20.783917
2475.658844	-2.994400	3.049600	-9.130500	28.747297	-4.537834E-6	20.784367
2476.659212	-3.004700	3.047500	-9.154900	28.797137	-5.296890E-6	20.766767
2477.659137	-2.998800	3.045900	-9.132600	28.860024	-3.580764E-6	20.776538
2478.656670	-3.017800	3.043600	-9.183900	28.932488	-5.197883E-6	20.781262
2479.659779	-3.008900	3.043700	-9.157100	28.958049	-3.415752E-6	20.774297
2480.661983	-3.004100	3.042500	-9.139400	29.018093	-6.550982E-6	20.766988
2481.661001	-3.011400	3.040100	-9.154200	28.993419	-5.362895E-6	20.772000
2482.665423	-3.020200	3.039100	-9.177400	28.953594	-5.230885E-6	20.750842
2483.661128	-2.975800	3.039500	-9.044100	28.875344	-6.715995E-6	20.770160
2484.662516	-3.002900	3.036700	-9.117200	28.836724	-4.867859E-6	20.765393
2485.661921	-2.982700	3.036100	-9.054600	28.729573	-5.296890E-6	20.764617
2486.665789	-2.970700	3.034400	-9.013600	28.656614	-6.055946E-6	20.765573
2487.663112	-3.015300	3.033100	-9.144300	28.643401	-7.046019E-6	20.777869
2488.666552	-3.011100	3.032400	-9.129800	28.705785	-6.154953E-6	20.782857
2489.665459	-3.004600	3.030400	-9.104500	28.751673	-3.415752E-6	20.781188
2490.666254	-3.033900	3.029300	-9.189700	28.692555	-6.055946E-6	20.751987
2491.665757	-3.012800	3.028900	-9.125000	28.699097	-6.121951E-6	20.763792
2492.665807	-2.996600	3.027200	-9.071000	28.658246	-3.712773E-6	20.756785
2493.666794	-2.986100	3.025500	-9.033600	28.716870	-5.890934E-6	20.774108
2494.664335	-2.997500	3.024800	-9.066100	28.745017	-3.745776E-6	20.767371
2495.666425	-2.997700	3.023600	-9.063300	28.683772	-6.022944E-6	20.773012
2496.663793	-2.986900	3.021300	-9.023700	28.656956	-7.442048E-6	20.764494
2497.667370	-3.009200	3.020300	-9.087800	28.726724	-8.168102E-6	20.772179
2498.666135	-2.998400	3.019300	-9.052500	28.756289	-6.220958E-6	20.767821
2499.664295	-2.998900	3.017300	-9.046600	28.732771	-5.890934E-6	20.764045
2500.667160	-2.992200	3.017700	-9.028900	28.731041	-5.791927E-6	20.758983
2501.664431	-3.004100	3.015400	-9.057200	28.795327	-6.154953E-6	20.765418
2502.665944	-2.980000	3.014000	-8.980900	28.817004	-5.791927E-6	20.759753
2503.666444	-2.987400	3.013100	-8.999700	28.814553	-7.409046E-6	20.759654
2504.665478	-3.020300	3.009900	-9.090100	28.848766	-5.857931E-6	20.777999
2505.663319	-3.002400	3.009900	-9.035700	28.800027	-5.461902E-6	20.783429
2506.665949	-3.006600	3.008600	-9.044500	28.770324	-5.890934E-6	20.764888
2507.666996	-2.989700	3.006300	-8.986400	28.838234	-5.857931E-6	20.764069
2508.667421	-2.975200	3.005300	-8.940400	28.939597	-6.748997E-6	20.771354
2509.670852	-3.014000	3.003700	-9.052600	28.932659	-5.560910E-6	20.770054
2510.669537	-2.980200	3.003000	-8.948700	28.931669	-6.253961E-6	20.735391
2511.668658	-2.995000	3.000500	-8.985000	28.986335	-5.263888E-6	20.769131
2512.669470	-3.018600	2.999100	-9.052300	28.942769	-5.032871E-6	20.753213
2513.670367	-2.994300	2.998600	-8.977500	28.890569	-7.079021E-6	20.745194
2514.665950	-3.011800	2.996500	-9.024000	28.922354	-7.739070E-6	20.755404
2515.668285	-2.987700	2.995800	-8.950100	28.931045	-8.564131E-6	20.761316
2516.673508	-3.006600	2.993600	-9.000100	28.914119	-6.022944E-6	20.762281
2517.667890	-2.992600	2.993000	-8.955100	28.897433	-8.531128E-6	20.761119
2518.671423	-2.986200	2.992700	-8.935400	28.866314	-6.022944E-6	20.746363
2519.673416	-2.999500	2.990400	-8.968500	28.934339	-6.649990E-6	20.746616
2520.669988	-2.990500	2.989400	-8.938600	28.974563	-7.475051E-6	20.752053
2521.669955	-2.998500	2.988100	-8.958700	28.924902	-7.442048E-6	20.745643
2522.672929	-3.018900	2.986000	-9.012900	28.907830	-5.725922E-6	20.730814
2523.669439	-3.020100	2.984800	-9.014000	28.907683	-7.607060E-6	20.749159
2524.672560	-3.006500	2.983600	-8.968700	28.904462	-7.244034E-6	20.754923
2525.673252	-3.003200	2.980400	-8.950000	28.950066	-5.098876E-6	20.751555
2526.674958	-3.007700	2.978000	-8.956100	28.927182	-8.597133E-6	20.742725
2527.677190	-3.002300	2.979800	-8.945200	28.859383	-6.649990E-6	20.737958
2528.675806	-3.003400	2.976700	-8.938900	28.847787	-5.923936E-6	20.765158
2529.673606	-3.023300	2.973400	-8.989000	28.810456	-6.253961E-6	20.755053
2530.672774	-2.983400	2.974300	-8.872700	28.867904	-7.145026E-6	20.752233
2531.683239	-2.983400	2.973000	-8.869000	28.951795	-6.220958E-6	20.746184
2532.676436	-2.997700	2.971800	-8.907800	28.961061	-5.725922E-6	20.750778
2533.679057	-3.035000	2.968600	-9.008700	29.008172	-7.805075E-6	20.740870
2534.682015	-3.016700	2.967200	-8.950900	28.941050	-5.527907E-6	20.768551
2535.679140	-3.002300	2.966100	-8.904500	28.894278	-7.343041E-6	20.738973
2536.675557	-3.016900	2.964900	-8.943900	28.841221	-8.102097E-6	20.735784
2537.679406	-3.021100	2.962300	-8.948300	28.816990	-7.640063E-6	20.749781
2538.679756	-3.007600	2.961300	-8.906100	28.834649	-7.475051E-6	20.747656
2539.676299	-3.017500	2.960400	-8.932400	28.966935	-8.795148E-6	20.735359
2540.679889	-3.007700	2.959600	-8.900800	28.988932	-6.782000E-6	20.733339
2541.680779	-3.023400	2.956600	-8.936700	28.959185	-8.663138E-6	20.744147
2542.684656	-3.005000	2.956100	-8.882000	28.952872	-8.498126E-6	20.739683
2543.684156	-2.994600	2.954600	-8.847000	28.972394	-7.013017E-6	20.739911
2544.681522	-3.023900	2.952700	-8.927500	28.976850	-9.488199E-6	20.760996
2545.684584	-2.971400	2.952100	-8.771300	29.004818	-6.253961E-6	20.753139
2546.684274	-3.006200	2.948600	-8.862600	29.039943	-7.211031E-6	20.736845
2547.684196	-2.988400	2.948000	-8.809200	28.958105	-6.682992E-6	20.730730
2548.682356	-2.991500	2.946700	-8.814300	29.011389	-7.673065E-6	20.762605
2549.683737	-3.016000	2.944600	-8.880100	29.056058	-7.475051E-6	20.733167
2550.683974	-2.992600	2.943000	-8.806000	28.996006	-7.277036E-6	20.750898
2551.688682	-2.991300	2.941700	-8.798100	28.927716	-8.663138E-6	20.723346
2552.683841	-2.981800	2.940900	-8.768200	28.901415	-7.112024E-6	20.735731
2553.682978	-3.025900	2.938700	-8.891400	28.897374	-8.366116E-6	20.728341
2554.683949	-3.014100	2.937400	-8.852200	28.916995	-9.719216E-6	20.722029
2555.683675	-2.985900	2.937000	-8.768200	28.871958	-5.362895E-6	20.710796
2556.685270	-2.985700	2.933700	-8.758600	28.939482	-5.890934E-6	20.725717
2557.686091	-3.005200	2.932100	-8.810800	29.068129	-5.725922E-6	20.724941
2558.687380	-2.976800	2.931900	-8.726900	29.005467	-7.442048E-6	20.731506
2559.687846	-2.981600	2.929500	-8.732700	28.962438	-5.758924E-6	20.718499
2560.685184	-3.036300	2.926000	-8.882400	29.044844	-5.263888E-6	20.751267
2561.686197	-2.987700	2.925400	-8.739300	29.033152	-5.329893E-6	20.727157
2562.684697	-2.964800	2.923300	-8.665700	29.040333	-6.517980E-6	20.728703
2563.685738	-3.001200	2.921200	-8.766600	29.030475	-4.867859E-6	20.729202
2564.687974	-2.980600	2.920300	-8.702700	29.049414	-4.174807E-6	20.730266
2565.684821	-2.977500	2.919800	-8.693000	29.093599	-7.673065E-6	20.735433
2566.681800	-2.999200	2.917400	-8.749200	29.143210	-6.352968E-6	20.719040
2567.687312	-2.975400	2.916200	-8.676000	29.163297	-6.088948E-6	20.722686
2568.686151	-2.996700	2.912300	-8.726600	29.178550	-6.220958E-6	20.732841
2569.684780	-2.978400	2.911600	-8.671400	29.185925	-7.112024E-6	20.717986
2570.685710	-2.995600	2.909600	-8.713600	29.173837	-5.791927E-6	20.724772
2571.685625	-3.005600	2.908200	-8.738900	29.157020	-7.805075E-6	20.723947
2572.686830	-3.006400	2.906500	-8.737600	29.097406	-7.013017E-6	20.718404
2573.688234	-3.006200	2.903600	-8.728400	29.075508	-4.405824E-6	20.715306
2574.685372	-3.001600	2.902400	-8.711100	29.096733	-5.890934E-6	20.740961
2575.695406	-3.003400	2.899500	-8.707300	29.043111	-9.818223E-6	20.731502
2576.690793	-3.000600	2.900000	-8.701300	29.059833	-5.197883E-6	20.717530
2577.689238	-3.010000	2.896600	-8.718100	29.002186	-6.682992E-6	20.716346
2578.688654	-3.011200	2.895900	-8.719300	29.038276	-7.541055E-6	20.717621
2579.689091	-3.006000	2.894500	-8.699200	29.112927	-4.339820E-6	20.701801
2580.693371	-2.952600	2.892700	-8.539800	29.098737	-7.046019E-6	20.700779
2581.693092	-3.000700	2.888900	-8.667500	29.055835	-8.201104E-6	20.717769
2582.697976	-3.008500	2.888500	-8.689000	28.999387	-7.772072E-6	20.719690
2583.689882	-2.978800	2.886600	-8.597800	28.971394	-6.055946E-6	20.716616
2584.697950	-2.979500	2.885300	-8.595500	29.054025	-7.739070E-6	20.713100
2585.698208	-3.005400	2.882100	-8.660900	29.117570	-7.145026E-6	20.724498
2586.697543	-2.957200	2.882900	-8.524200	29.160091	-7.904082E-6	20.721825
2587.696725	-2.997300	2.877000	-8.622300	29.172527	-8.102097E-6	20.739574
2588.698255	-2.974300	2.877000	-8.556800	29.164106	-9.257182E-6	20.730614
2589.696288	-2.980500	2.876000	-8.571300	29.194269	-6.649990E-6	20.726869
2590.699518	-2.992600	2.874000	-8.600200	29.149965	-6.583985E-6	20.718734
2591.696090	-2.988300	2.871700	-8.580500	29.178124	-6.550982E-6	20.726248
2592.694114	-3.016900	2.868800	-8.653500	29.133050	-7.673065E-6	20.706904
2593.695111	-3.003800	2.866800	-8.610500	29.125124	-7.871080E-6	20.710297
2594.697237	-2.983800	2.866300	-8.551600	29.175252	-7.244034E-6	20.692531
2595.692060	-3.000000	2.864600	-8.593200	29.258948	-6.484978E-6	20.706226
2596.698414	-2.993600	2.862400	-8.568200	29.325959	-8.300111E-6	20.711172
2597.699051	-2.979100	2.859900	-8.519300	29.306670	-7.871080E-6	20.719233
2598.695216	-3.015400	2.857300	-8.614300	29.306962	-7.376043E-6	20.709570
2599.695768	-3.013800	2.854300	-8.601000	29.264246	-6.682992E-6	20.720101
2600.698683	-2.992600	2.853100	-8.536600	29.355152	-7.541055E-6	20.723525
2601.695724	-2.994400	2.851400	-8.536700	29.421306	-7.937085E-6	20.711966
2602.696052	-2.985300	2.848100	-8.501300	29.379169	-7.904082E-6	20.697944
2603.697426	-3.011300	2.846500	-8.570900	29.298396	-7.772072E-6	20.707101
2604.693140	-2.984700	2.846500	-8.495000	29.210511	-8.267109E-6	20.715735
2605.694953	-2.987800	2.841900	-8.489900	29.101467	-9.026165E-6	20.706848
2606.695180	-3.004800	2.840600	-8.534100	29.111226	-7.442048E-6	20.712415
2607.699710	-3.019000	2.838900	-8.570200	29.114911	-9.719216E-6	20.709490
2608.695033	-2.989300	2.836600	-8.479000	29.080315	-9.455196E-6	20.724892
2609.699234	-2.999100	2.833600	-8.497900	29.155580	-8.432121E-6	20.714909
2610.699436	-3.040000	2.829800	-8.601900	29.138641	-7.508053E-6	20.716806
2611.694968	-2.992200	2.828800	-8.463400	29.171579	-6.517980E-6	20.699261
2612.694942	-3.016100	2.826900	-8.524700	29.234677	-6.980014E-6	20.700733
2613.695903	-3.024100	2.824300	-8.539700	29.306889	-6.121951E-6	20.709971
2614.699325	-3.008700	2.823300	-8.493300	29.354455	-8.861153E-6	20.711443
2615.693745	-2.958600	2.820100	-8.342800	29.457431	-5.230885E-6	20.710445
2616.697500	-3.001300	2.817000	-8.454100	29.504049	-7.277036E-6	20.728039
2617.701818	-3.027000	2.814500	-8.519400	29.525289	-9.521201E-6	20.725268
2618.698086	-3.006800	2.812100	-8.454800	29.459385	-8.762145E-6	20.700561
2619.694700	-2.999700	2.809600	-8.427500	29.321920	-8.762145E-6	20.732707
2620.696235	-3.007200	2.807800	-8.443100	29.268236	-7.211031E-6	20.712268
2621.697191	-2.992900	2.805400	-8.395300	29.297804	-6.154953E-6	20.713617
2622.700535	-3.008400	2.802400	-8.430400	29.370433	-7.673065E-6	20.700519
2623.699211	-3.025300	2.799400	-8.468500	29.332828	-8.861153E-6	20.711457
2624.696288	-3.023100	2.797000	-8.454100	29.447517	-8.300111E-6	20.718945
2625.698729	-2.999800	2.794400	-8.382000	29.553477	-5.824929E-6	20.706739
2626.702702	-2.993000	2.791800	-8.355000	29.549965	-6.121951E-6	20.690870
2627.702610	-3.005600	2.789900	-8.384900	29.599652	-8.267109E-6	20.707768
2628.698963	-3.014400	2.786100	-8.397700	29.531638	-8.036092E-6	20.714597
2629.702890	-3.012200	2.782600	-8.380900	29.528352	-7.739070E-6	20.730726
2630.700933	-3.009600	2.780700	-8.368000	29.514735	-6.352968E-6	20.714154
2631.700666	-3.011100	2.777200	-8.361300	29.495944	-8.135099E-6	20.704695
2632.702456	-2.993400	2.774300	-8.303800	29.479285	-9.224179E-6	20.727259
2633.701587	-3.003700	2.771100	-8.322800	29.500948	-1.011525E-5	20.738190
2634.699736	-3.000600	2.768800	-8.307100	29.482059	-7.805075E-6	20.698285
2635.700344	-3.009600	2.765200	-8.321300	29.527742	-8.267109E-6	20.714463
2636.701189	-2.976900	2.763300	-8.225000	29.508829	-8.102097E-6	20.722900
2637.702905	-2.985900	2.759600	-8.237800	29.507882	-9.158175E-6	20.724790
2638.703347	-2.974100	2.757400	-8.199200	29.537101	-7.112024E-6	20.703982
2639.702993	-3.000300	2.753500	-8.260200	29.545237	-8.696141E-6	20.726883
2640.708282	-2.981700	2.749500	-8.197100	29.498498	-9.026165E-6	20.732401
2641.708938	-2.951400	2.748700	-8.111300	29.498620	-8.432121E-6	20.714505
2642.708820	-3.004300	2.744300	-8.244100	29.554992	-8.036092E-6	20.727235
2643.710596	-2.998900	2.740800	-8.218200	29.482676	-7.607060E-6	20.722616
2644.707955	-2.995800	2.736200	-8.196400	29.413616	-8.927158E-6	20.719862
2645.708331	-3.016000	2.733200	-8.242500	29.400053	-7.574058E-6	20.713304
2646.709294	-3.020600	2.730200	-8.246700	29.424387	-9.983235E-6	20.728822
2647.709795	-3.007000	2.726400	-8.197300	29.527355	-6.616987E-6	20.729721
2648.710881	-3.014300	2.723200	-8.208200	29.631182	-5.791927E-6	20.720589
2649.711442	-2.977500	2.720800	-8.100500	29.718684	-1.008224E-5	20.735313
2650.709868	-2.995100	2.714600	-8.129700	29.831273	-8.597133E-6	20.726501
2651.711433	-3.005600	2.712400	-8.150900	29.794722	-8.465124E-6	20.714776
2652.709536	-3.005100	2.707900	-8.136400	29.709877	-1.004924E-5	20.712208
2653.713360	-3.019500	2.704400	-8.165200	29.626583	-9.257182E-6	20.724962
2654.717964	-3.010500	2.699700	-8.125800	29.587844	-8.465124E-6	20.712935
2655.709337	-2.975900	2.697000	-8.025300	29.645867	-7.937085E-6	20.708366
2656.715083	-3.006400	2.692200	-8.092900	29.717280	-6.451975E-6	20.702602
2657.714046	-2.982900	2.687600	-8.015000	29.826731	-6.451975E-6	20.713859
2658.713435	-2.999000	2.684200	-8.048600	29.892716	-5.659917E-6	20.733455
2659.714173	-3.016400	2.679800	-8.082100	29.934174	-7.970087E-6	20.734484
2660.713267	-2.993500	2.675700	-8.009000	29.828521	-6.451975E-6	20.699068
2661.710435	-2.981200	2.671200	-7.962200	29.820363	-7.838077E-6	20.713129
2662.717836	-2.992300	2.666800	-7.978400	29.784178	-7.673065E-6	20.715998
2663.713968	-3.012700	2.661600	-8.017400	29.785815	-8.069094E-6	20.729978
2664.713559	-2.979000	2.657200	-7.915200	29.806085	-6.154953E-6	20.726234
2665.715892	-2.985200	2.653400	-7.920100	29.854698	-8.597133E-6	20.715032
2666.710441	-3.056800	2.646500	-8.087700	29.878784	-6.914009E-6	20.718457
2667.717695	-2.980100	2.644300	-7.880000	29.876537	-8.333114E-6	20.726149
2668.709583	-3.012600	2.639200	-7.949700	29.902521	-8.234107E-6	20.735282
2669.715719	-3.044100	2.631600	-8.009100	29.966005	-8.267109E-6	20.723434
2670.714204	-3.006100	2.629700	-7.903800	29.899780	-7.079021E-6	20.716870
2671.714715	-2.998400	2.623000	-7.864400	29.846822	-7.145026E-6	20.732697
2672.712566	-3.004300	2.619000	-7.867700	29.798760	-8.102097E-6	20.749669
2673.713267	-3.024500	2.612000	-7.899600	29.742627	-7.574058E-6	20.723891
2674.713963	-2.999500	2.609500	-7.825900	29.671759	-7.508053E-6	20.737316
2675.714260	-3.002400	2.602800	-7.814200	29.683321	-6.385970E-6	20.709142
2676.715187	-2.994100	2.597900	-7.777700	29.756614	-4.801854E-6	20.739890
2677.713460	-2.991600	2.591200	-7.750600	29.732055	-8.564131E-6	20.734095
2678.719290	-2.991800	2.585000	-7.732700	29.732142	-7.904082E-6	20.716164
2679.713260	-3.024500	2.579400	-7.799300	29.673103	-7.475051E-6	20.726343
2680.715771	-3.021200	2.573800	-7.775200	29.602377	-7.508053E-6	20.743708
2681.711477	-3.012200	2.567900	-7.734200	29.626841	-7.871080E-6	20.739448
2682.715157	-2.972400	2.563700	-7.618800	29.737388	-4.801854E-6	20.730937
2683.712275	-2.978000	2.555800	-7.610600	29.837108	-6.815002E-6	20.724797
2684.717735	-3.027900	2.550200	-7.720400	29.803274	-6.980014E-6	20.723874
2685.715888	-3.006000	2.544400	-7.647900	29.858025	-5.032871E-6	20.726448
2686.717119	-2.990800	2.538500	-7.591200	29.924722	-6.550982E-6	20.741548
2687.720772	-3.004800	2.531200	-7.605000	30.053476	-7.442048E-6	20.737207
2688.720742	-3.010000	2.525300	-7.601300	30.036202	-5.362895E-6	20.737330
2689.724368	-2.998900	2.518000	-7.550600	29.967589	-5.791927E-6	20.743052
2690.721004	-2.999200	2.513500	-7.537800	29.881511	-4.636841E-6	20.743020
2691.722182	-2.982500	2.508000	-7.478600	29.882337	-6.616987E-6	20.732472
2692.721136	-3.033000	2.500000	-7.582200	29.965378	-5.362895E-6	20.757891
