LabVIEW Measurement	
Writer_Version	2
Reader_Version	2
Separator	Tab
Decimal_Separator	.
Multi_Headings	No
X_Columns	One
Time_Pref	Absolute
Operator	admin
Description	Clolumns are: time, Current, Voltage, Power, Battery Temp, and Chamber Temp
Date	2024/07/11
Time	12:30:41.8315839767456054687
***End_of_Header***	
	
Channels	6						
Samples	1	1	1	1	1	1	
Date	2024/07/18	2024/07/18	2024/07/18	2024/07/18	2024/07/18	2024/07/18	
Time	19:40:47.5372319221496582031	19:40:47.5433702468872070313	19:40:47.5492911338806152344	19:40:47.5224857330322265625	19:40:47.5224857330322265625	19:40:47.5224857330322265625	
X_Dimension	Time	Time	Time	Time	Time	Time	
X0	0.0000000000000000E+0	0.0000000000000000E+0	0.0000000000000000E+0	0.0000000000000000E+0	0.0000000000000000E+0	0.0000000000000000E+0	
Delta_X	1.000000	1.000000	1.000000	1.000000	1.000000	1.000000	
***End_of_Header***							
X_Value	Untitled	Untitled 1	Untitled 2	Untitled 3	Untitled 4	Untitled 5	Comment
0.000000	-0.005825	4.066500	-0.023676	20.801365	0.000324	20.724076
1.001580	-3.017400	3.949000	-11.915000	20.814540	0.000325	20.758116
2.002150	-3.015000	3.942400	-11.885000	20.806631	0.000324	20.739300
3.004118	-3.017800	3.940000	-11.889000	20.833984	0.000325	20.749110
4.002182	-3.020500	3.935200	-11.885000	20.823402	0.000325	20.725250
5.001097	-3.033100	3.933100	-11.928000	20.790585	0.000323	20.731788
6.005231	-3.014800	3.931500	-11.852000	20.811552	0.000325	20.738057
7.002957	-3.002000	3.929500	-11.795000	20.832809	0.000325	20.719959
8.003523	-2.990500	3.927200	-11.743000	20.812824	0.000325	20.719413
9.002548	-3.004600	3.926500	-11.797000	20.821581	0.000324	20.715842
10.003095	-2.988800	3.927000	-11.736000	20.843618	0.000321	20.736933
11.007339	-2.985200	3.924400	-11.714000	20.820913	0.000323	20.736038
12.002978	-2.986500	3.923500	-11.717000	20.831168	0.000324	20.744871
13.003131	-3.003900	3.922700	-11.782000	20.864731	0.000324	20.717743
14.003430	-2.983800	3.920900	-11.698000	20.845195	0.000325	20.751312
15.003027	-2.979800	3.919900	-11.680000	20.853729	0.000324	20.719068
16.005013	-2.967300	3.919500	-11.629000	20.849688	0.000324	20.738736
17.001671	-2.962200	3.919200	-11.608000	20.846319	0.000324	20.733944
18.003051	-2.985800	3.917500	-11.696000	20.843420	0.000323	20.719190
19.003433	-2.989700	3.917100	-11.710000	20.873193	0.000323	20.721464
20.003378	-3.000000	3.914400	-11.742000	20.867231	0.000322	20.733046
21.006630	-3.006400	3.914700	-11.768000	20.877439	0.000324	20.720495
22.005641	-2.997900	3.913800	-11.732000	20.889242	0.000323	20.742731
23.003447	-2.997700	3.915200	-11.736000	20.869555	0.000322	20.734422
24.003911	-2.985600	3.912600	-11.680000	20.886103	0.000323	20.719201
25.006069	-3.005700	3.911900	-11.757000	20.912405	0.000323	20.708522
26.003376	-3.001000	3.910400	-11.734000	20.902000	0.000322	20.738420
27.004582	-2.996000	3.908700	-11.710000	20.902377	0.000321	20.720305
28.004310	-2.993000	3.910500	-11.702000	20.937314	0.000324	20.714941
29.005899	-2.985800	3.909900	-11.674000	20.940162	0.000326	20.736283
30.006215	-2.992000	3.909000	-11.695000	20.923967	0.000324	20.734785
31.006141	-3.010700	3.908400	-11.766000	20.927588	0.000322	20.728923
32.010983	-3.014800	3.908100	-11.781000	20.943136	0.000322	20.725981
33.005051	-2.998500	3.908100	-11.718000	20.936721	0.000324	20.720987
34.005981	-3.020100	3.907100	-11.799000	20.937925	0.000323	20.714604
35.006031	-3.002300	3.907000	-11.728000	20.950125	0.000323	20.702149
36.005507	-2.965200	3.905800	-11.580000	20.942490	0.000322	20.706841
37.007333	-3.006300	3.904700	-11.738000	20.956037	0.000326	20.711856
38.013038	-3.021600	3.904800	-11.798000	20.980320	0.000323	20.734247
39.010856	-2.996900	3.905200	-11.702000	20.975780	0.000322	20.703626
40.010769	-3.011900	3.904500	-11.759000	20.992499	0.000325	20.721771
41.014195	-2.988000	3.904200	-11.665000	20.986558	0.000325	20.703500
42.010404	-3.010600	3.903700	-11.751000	20.984461	0.000324	20.703299
43.013626	-3.005200	3.902700	-11.727000	21.003050	0.000323	20.713832
44.011034	-3.001100	3.903100	-11.712000	21.001179	0.000326	20.686828
45.011934	-2.993700	3.902700	-11.682000	20.996912	0.000325	20.684931
46.013888	-3.017200	3.902200	-11.773000	21.021740	0.000323	20.711188
47.013819	-3.010500	3.902200	-11.747000	21.020469	0.000327	20.707071
48.014465	-2.999700	3.902300	-11.705000	21.029803	0.000327	20.704079
49.014709	-3.005200	3.900300	-11.721000	21.044394	0.000326	20.706345
50.013365	-3.009500	3.899800	-11.736000	21.031519	0.000327	20.695364
51.014951	-3.004000	3.900100	-11.715000	21.037186	0.000327	20.716207
52.014734	-2.995500	3.900400	-11.683000	21.051631	0.000327	20.724965
53.014953	-2.994700	3.899600	-11.677000	21.054525	0.000329	20.691347
54.016500	-2.990600	3.900000	-11.663000	21.057621	0.000329	20.709618
55.016338	-2.993000	3.900200	-11.673000	21.057344	0.000328	20.694642
56.015246	-2.980600	3.899800	-11.623000	21.082267	0.000327	20.689224
57.019041	-3.001900	3.898400	-11.702000	21.065378	0.000330	20.707894
58.016212	-2.994300	3.899800	-11.676000	21.085913	0.000330	20.699509
59.019978	-2.997100	3.898500	-11.683000	21.081743	0.000332	20.707667
60.019266	-3.010600	3.897500	-11.732000	21.078727	0.000328	20.699434
61.019936	-3.014500	3.896200	-11.744000	21.108738	0.000329	20.698633
62.019393	-3.004400	3.897000	-11.708000	21.090276	0.000332	20.706719
63.020801	-3.011100	3.897200	-11.734000	21.114103	0.000331	20.710164
64.022551	-2.991500	3.896800	-11.656000	21.128047	0.000330	20.697084
65.022866	-3.001400	3.896400	-11.694000	21.125400	0.000333	20.703920
66.019514	-3.000800	3.896000	-11.690000	21.142242	0.000333	20.690895
67.019353	-3.019900	3.896600	-11.766000	21.142590	0.000333	20.710211
68.025033	-3.007200	3.895800	-11.714000	21.144612	0.000332	20.724562
69.021839	-3.005800	3.895700	-11.709000	21.137901	0.000335	20.699355
70.024343	-3.012400	3.895700	-11.735000	21.153568	0.000336	20.690370
71.020685	-2.995600	3.896100	-11.670000	21.137276	0.000334	20.692565
72.019857	-3.018400	3.894500	-11.754000	21.173250	0.000334	20.692040
73.020265	-3.004100	3.895000	-11.700000	21.173947	0.000334	20.715973
74.022000	-2.998800	3.894800	-11.679000	21.175968	0.000335	20.701873
75.021927	-2.984900	3.894100	-11.623000	21.186170	0.000337	20.693111
76.022026	-2.969700	3.895600	-11.568000	21.173221	0.000338	20.678734
77.022562	-2.995800	3.893700	-11.664000	21.203980	0.000337	20.689590
78.022188	-2.990600	3.894600	-11.647000	21.215503	0.000339	20.684047
79.023125	-3.011500	3.893000	-11.723000	21.202005	0.000339	20.696624
80.024270	-3.000800	3.894100	-11.685000	21.210260	0.000339	20.690657
81.025450	-3.021800	3.892200	-11.761000	21.195488	0.000338	20.703381
82.023798	-3.017900	3.892800	-11.747000	21.229916	0.000339	20.700838
83.023933	-3.022600	3.893800	-11.769000	21.244785	0.000340	20.692478
84.025064	-3.022900	3.892200	-11.764000	21.230667	0.000342	20.687363
85.023631	-3.008200	3.891200	-11.705000	21.258204	0.000341	20.705429
86.026309	-3.003800	3.891500	-11.688000	21.252265	0.000342	20.680045
87.023835	-3.008400	3.892000	-11.708000	21.249773	0.000343	20.682294
88.024162	-3.017300	3.892500	-11.745000	21.246430	0.000344	20.680846
89.024128	-2.996300	3.891500	-11.659000	21.275094	0.000343	20.665424
90.025150	-2.989200	3.892000	-11.633000	21.281478	0.000342	20.680347
91.027027	-2.995200	3.891400	-11.654000	21.269155	0.000342	20.684614
92.027695	-2.983000	3.891800	-11.607000	21.276340	0.000344	20.703183
93.025936	-3.011000	3.890900	-11.715000	21.293058	0.000344	20.692407
94.027212	-2.991000	3.890900	-11.637000	21.297097	0.000346	20.702612
95.029622	-3.013500	3.890700	-11.724000	21.319997	0.000344	20.688063
96.025662	-3.005600	3.890000	-11.690000	21.325860	0.000344	20.705785
97.028309	-2.979600	3.891000	-11.593000	21.314360	0.000347	20.690485
98.028008	-3.002100	3.891200	-11.681000	21.327781	0.000346	20.696326
99.029105	-3.001600	3.889400	-11.674000	21.322916	0.000347	20.689561
100.033387	-3.006500	3.888800	-11.691000	21.332969	0.000349	20.705785
101.031507	-3.005800	3.890300	-11.693000	21.353923	0.000349	20.691185
102.034696	-3.011400	3.887800	-11.707000	21.348961	0.000349	20.705188
103.031617	-3.018900	3.887300	-11.735000	21.353277	0.000351	20.696703
104.030525	-3.021500	3.887800	-11.746000	21.352002	0.000350	20.683099
105.032264	-3.000700	3.887400	-11.664000	21.352279	0.000351	20.687169
106.031413	-3.008700	3.888600	-11.698000	21.364274	0.000349	20.691584
107.031299	-2.984400	3.888400	-11.603000	21.367520	0.000351	20.704315
108.031376	-3.009100	3.888000	-11.699000	21.389919	0.000352	20.689267
109.031084	-3.021200	3.886900	-11.742000	21.393983	0.000352	20.699972
110.031042	-3.023900	3.886500	-11.751000	21.414261	0.000351	20.692284
111.034419	-2.984500	3.887800	-11.602000	21.404531	0.000355	20.688239
112.031221	-2.995700	3.887500	-11.645000	21.408423	0.000355	20.687392
113.033565	-2.987100	3.886500	-11.609000	21.395078	0.000354	20.701542
114.031202	-2.983200	3.887100	-11.595000	21.440250	0.000356	20.678931
115.032640	-3.014100	3.885400	-11.710000	21.434441	0.000356	20.709158
116.033243	-2.991400	3.885200	-11.621000	21.438727	0.000357	20.684995
117.033158	-2.983100	3.887200	-11.596000	21.443193	0.000357	20.698000
118.033198	-2.987200	3.886000	-11.607000	21.446087	0.000358	20.689041
119.036028	-3.018400	3.885600	-11.727000	21.448855	0.000359	20.693233
120.033073	-3.001300	3.886700	-11.664000	21.470377	0.000359	20.712398
121.033334	-3.017900	3.885800	-11.726000	21.475518	0.000359	20.694781
122.037184	-3.013100	3.886200	-11.709000	21.489235	0.000359	20.702817
123.033859	-3.014100	3.884900	-11.708000	21.482827	0.000361	20.703044
124.037678	-3.016600	3.883700	-11.715000	21.497219	0.000360	20.699426
125.035303	-2.995900	3.885300	-11.638000	21.510559	0.000362	20.703292
126.034714	-2.995400	3.884200	-11.634000	21.498217	0.000362	20.701848
127.035667	-2.974400	3.886100	-11.558000	21.515549	0.000363	20.687420
128.035214	-2.986400	3.883800	-11.598000	21.523160	0.000363	20.701675
129.036608	-2.999000	3.883800	-11.646000	21.520690	0.000365	20.703471
130.036410	-3.007800	3.884200	-11.681000	21.539741	0.000363	20.707362
131.035968	-3.017000	3.882800	-11.713000	21.543934	0.000365	20.710135
132.035282	-2.985800	3.883600	-11.595000	21.542663	0.000366	20.703647
133.036288	-2.991800	3.883700	-11.618000	21.552517	0.000365	20.702602
134.035279	-3.023100	3.881900	-11.735000	21.566057	0.000366	20.701453
135.038774	-3.009200	3.883500	-11.685000	21.553239	0.000368	20.716602
136.037810	-3.022300	3.882400	-11.732000	21.563017	0.000368	20.700307
137.037468	-3.006900	3.882700	-11.674000	21.570426	0.000367	20.696815
138.038360	-3.027500	3.882900	-11.754000	21.565738	0.000369	20.709194
139.036784	-3.022300	3.882600	-11.734000	21.579777	0.000370	20.687680
140.040578	-2.995500	3.881500	-11.626000	21.587811	0.000371	20.717532
141.037851	-3.017300	3.880700	-11.708000	21.608534	0.000371	20.696068
142.037941	-3.036500	3.880300	-11.782000	21.592050	0.000372	20.693798
143.037750	-2.993300	3.881600	-11.618000	21.615142	0.000372	20.708372
144.037766	-2.988900	3.881800	-11.601000	21.634346	0.000372	20.715736
145.041467	-3.011600	3.881300	-11.688000	21.626794	0.000373	20.693004
146.042414	-2.998000	3.881800	-11.636000	21.619905	0.000374	20.711242
147.038178	-2.990900	3.880600	-11.606000	21.609036	0.000375	20.720281
148.039394	-3.008000	3.879900	-11.670000	21.642752	0.000377	20.726046
149.045090	-2.998600	3.881500	-11.639000	21.639834	0.000378	20.709374
150.040346	-3.024100	3.878700	-11.729000	21.650208	0.000374	20.710272
151.042267	-3.010100	3.879100	-11.675000	21.674795	0.000377	20.723499
152.040379	-3.015300	3.879600	-11.697000	21.679009	0.000377	20.694523
153.042674	-2.976300	3.879100	-11.545000	21.703520	0.000377	20.727591
154.041726	-2.998100	3.879300	-11.629000	21.684971	0.000379	20.717087
155.042603	-3.000500	3.878900	-11.637000	21.688811	0.000378	20.707654
156.044018	-2.999600	3.878400	-11.632000	21.699784	0.000378	20.710100
157.042779	-3.013400	3.879400	-11.689000	21.702702	0.000379	20.733885
158.041764	-3.000200	3.879300	-11.637000	21.725640	0.000379	20.703734
159.041514	-3.004800	3.878200	-11.652000	21.726936	0.000382	20.709299
160.043318	-2.992300	3.879200	-11.607000	21.731376	0.000383	20.729391
161.042633	-2.986900	3.877600	-11.581000	21.731376	0.000382	20.716588
162.046113	-3.015900	3.878100	-11.695000	21.721624	0.000385	20.716311
163.042454	-2.955900	3.878600	-11.463000	21.718085	0.000384	20.716563
164.043038	-2.988500	3.878800	-11.590000	21.732643	0.000381	20.736349
165.044968	-2.981700	3.879000	-11.565000	21.727083	0.000385	20.710394
166.043144	-2.998800	3.876500	-11.624000	21.752394	0.000382	20.718183
167.046527	-3.014500	3.875500	-11.681000	21.753912	0.000385	20.708321
168.044339	-2.987700	3.876500	-11.581000	21.759249	0.000386	20.707499
169.044709	-3.007600	3.876900	-11.660000	21.784857	0.000387	20.708472
170.045348	-3.021100	3.875200	-11.706000	21.767371	0.000389	20.727008
171.045771	-3.022500	3.875600	-11.713000	21.771089	0.000388	20.712237
172.047546	-2.993800	3.875500	-11.602000	21.785151	0.000389	20.724889
173.047052	-2.978600	3.877100	-11.547000	21.779290	0.000389	20.728981
174.046586	-2.977400	3.875100	-11.536000	21.784551	0.000388	20.717650
175.047427	-3.007600	3.874100	-11.651000	21.811576	0.000389	20.711982
176.049515	-3.003900	3.873700	-11.636000	21.802051	0.000390	20.711457
177.048736	-3.012600	3.874700	-11.672000	21.792224	0.000391	20.707311
178.050633	-3.005500	3.874800	-11.645000	21.807585	0.000393	20.731696
179.049165	-2.989200	3.873100	-11.577000	21.843484	0.000393	20.713099
180.049090	-2.985300	3.874200	-11.565000	21.820096	0.000394	20.733787
181.050656	-2.982700	3.875000	-11.557000	21.804613	0.000394	20.718764
182.049316	-2.991200	3.873700	-11.586000	21.825005	0.000393	20.737278
183.050847	-3.003100	3.873100	-11.631000	21.846197	0.000393	20.731936
184.050406	-3.016600	3.872900	-11.683000	21.833134	0.000392	20.738776
185.051195	-2.992700	3.873000	-11.590000	21.862279	0.000395	20.718160
186.052092	-2.989200	3.874700	-11.582000	21.895115	0.000393	20.734433
187.051818	-2.974000	3.873800	-11.520000	21.880775	0.000395	20.746158
188.051962	-2.973500	3.873200	-11.516000	21.861977	0.000396	20.725445
189.054794	-2.991800	3.872700	-11.585000	21.875090	0.000399	20.725294
190.051553	-3.007200	3.872500	-11.645000	21.873221	0.000396	20.733380
191.051394	-3.009100	3.871600	-11.649000	21.896185	0.000397	20.733133
192.055002	-3.013300	3.871900	-11.666000	21.890295	0.000398	20.725815
193.052732	-3.003100	3.871800	-11.627000	21.903459	0.000399	20.709592
194.053947	-3.006900	3.871800	-11.641000	21.911511	0.000398	20.729508
195.050954	-2.998700	3.871100	-11.607000	21.938835	0.000400	20.741211
196.051641	-3.002700	3.871200	-11.623000	21.918940	0.000399	20.726986
197.053255	-3.017400	3.870900	-11.679000	21.930158	0.000401	20.728258
198.054923	-2.992100	3.872100	-11.584000	21.935070	0.000401	20.738866
199.058051	-2.988700	3.871200	-11.569000	21.939556	0.000402	20.730553
200.053381	-2.978300	3.871200	-11.528000	21.950598	0.000404	20.725010
201.055494	-3.009300	3.869400	-11.643000	21.950451	0.000403	20.743830
202.055354	-2.994800	3.870400	-11.590000	21.943718	0.000404	20.710537
203.056146	-3.024000	3.869400	-11.700000	21.983654	0.000405	20.717322
204.054643	-3.006600	3.869000	-11.631000	21.979865	0.000404	20.729651
205.055655	-2.997700	3.869400	-11.598000	21.987594	0.000403	20.742131
206.054923	-2.994200	3.868300	-11.582000	21.987888	0.000408	20.731045
207.054916	-3.001500	3.868800	-11.612000	21.996590	0.000406	20.745446
208.055166	-3.003200	3.868000	-11.615000	22.027352	0.000407	20.754430
209.053754	-3.004000	3.869800	-11.624000	21.979190	0.000407	20.744150
210.060262	-3.008600	3.867700	-11.636000	22.005715	0.000406	20.725182
211.055115	-3.013000	3.868100	-11.653000	21.985646	0.000408	20.751560
212.055202	-2.992400	3.868300	-11.575000	22.006088	0.000408	20.744049
213.055223	-3.005700	3.867700	-11.625000	22.017054	0.000409	20.742698
214.055374	-2.999700	3.866600	-11.598000	22.018676	0.000411	20.745744
215.054690	-2.976000	3.868000	-11.510000	22.034507	0.000409	20.737885
216.060335	-2.985600	3.868600	-11.549000	22.025006	0.000411	20.753029
217.056496	-3.013800	3.864500	-11.645000	22.041809	0.000411	20.733340
218.056963	-2.993800	3.868000	-11.579000	22.051756	0.000409	20.754678
219.059628	-3.000200	3.867800	-11.603000	22.043033	0.000412	20.742152
220.057263	-3.013300	3.866000	-11.648000	22.054673	0.000415	20.746219
221.060630	-2.998200	3.865700	-11.589000	22.062402	0.000415	20.731670
222.057634	-2.997200	3.864500	-11.582000	22.075513	0.000416	20.743848
223.057240	-3.006900	3.865200	-11.622000	22.095828	0.000413	20.748065
224.057473	-3.001700	3.864200	-11.598000	22.085957	0.000414	20.767107
225.058198	-2.991000	3.865400	-11.561000	22.077260	0.000413	20.757926
226.060364	-2.996800	3.865400	-11.583000	22.086506	0.000416	20.752958
227.057381	-3.015000	3.864600	-11.651000	22.102434	0.000416	20.745669
228.057994	-2.983100	3.864300	-11.526000	22.120481	0.000418	20.750935
229.059430	-2.997600	3.863600	-11.580000	22.126563	0.000418	20.754179
230.058940	-2.976500	3.864400	-11.502000	22.140925	0.000420	20.746273
231.058853	-3.002800	3.864000	-11.601000	22.130351	0.000417	20.749911
232.059858	-2.977300	3.863600	-11.502000	22.143160	0.000418	20.772219
233.058888	-2.979000	3.863500	-11.508000	22.147552	0.000419	20.761916
234.059493	-3.015600	3.862800	-11.647000	22.137506	0.000422	20.771299
235.063611	-2.997700	3.862800	-11.579000	22.142195	0.000421	20.762243
236.061218	-2.991600	3.863100	-11.556000	22.145984	0.000422	20.764140
237.063847	-2.965100	3.863700	-11.455000	22.139928	0.000420	20.757128
238.062427	-2.977800	3.863000	-11.502000	22.168218	0.000423	20.769331
239.062973	-2.980700	3.860900	-11.508000	22.194512	0.000422	20.755354
240.063378	-3.014900	3.860600	-11.638000	22.182924	0.000421	20.780736
241.064935	-3.009900	3.860400	-11.619000	22.178335	0.000422	20.766184
242.065104	-3.011300	3.861400	-11.626000	22.187509	0.000423	20.774895
243.068515	-3.017100	3.860600	-11.646000	22.185719	0.000423	20.772629
244.065587	-3.002800	3.859600	-11.589000	22.200149	0.000423	20.754359
245.067467	-3.011200	3.860300	-11.623000	22.214628	0.000424	20.771227
246.070746	-3.010900	3.859600	-11.621000	22.200002	0.000426	20.753737
247.067674	-3.009800	3.859600	-11.615000	22.220487	0.000425	20.750540
248.070930	-3.005900	3.859700	-11.601000	22.205781	0.000423	20.769482
249.068460	-3.033000	3.859500	-11.705000	22.246931	0.000425	20.774647
250.069015	-2.979200	3.859000	-11.495000	22.246432	0.000426	20.786950
251.070347	-2.990800	3.859200	-11.541000	22.263179	0.000429	20.759621
252.070650	-3.003200	3.860600	-11.593000	22.250992	0.000429	20.805740
253.073564	-2.985000	3.859900	-11.521000	22.277633	0.000428	20.782155
254.069775	-2.992700	3.858000	-11.545000	22.270332	0.000429	20.769155
255.069885	-3.016800	3.858100	-11.638000	22.280926	0.000428	20.756054
256.070216	-3.016100	3.857900	-11.635000	22.279724	0.000429	20.776662
257.071126	-2.986800	3.859400	-11.526000	22.292187	0.000430	20.782977
258.070411	-3.002500	3.858800	-11.585000	22.288345	0.000432	20.779604
259.074223	-3.023200	3.857300	-11.660000	22.290135	0.000430	20.772387
260.072365	-2.995500	3.857900	-11.556000	22.314586	0.000432	20.781698
261.070351	-3.001500	3.857500	-11.577000	22.330862	0.000431	20.786616
262.071808	-3.012200	3.856100	-11.615000	22.314909	0.000433	20.765900
263.073735	-2.969900	3.856700	-11.453000	22.322313	0.000432	20.777582
264.073905	-3.004500	3.855600	-11.583000	22.342470	0.000433	20.788282
265.071768	-2.990000	3.856100	-11.529000	22.370310	0.000434	20.787237
266.071494	-2.997500	3.854800	-11.553000	22.355456	0.000434	20.769517
267.074263	-3.029800	3.854500	-11.677000	22.349774	0.000435	20.769517
268.071979	-2.994900	3.856300	-11.548000	22.344812	0.000433	20.777826
269.075466	-2.985400	3.854800	-11.507000	22.353189	0.000436	20.792377
270.072368	-3.004100	3.854900	-11.580000	22.371878	0.000433	20.786436
271.074504	-3.019400	3.853600	-11.635000	22.359660	0.000436	20.788900
272.075420	-2.977000	3.855000	-11.475000	22.372125	0.000437	20.782891
273.075222	-2.978300	3.853600	-11.476000	22.390391	0.000437	20.795966
274.076146	-2.989500	3.853600	-11.519000	22.369359	0.000437	20.787708
275.075171	-3.003500	3.853500	-11.573000	22.350118	0.000436	20.798786
276.075525	-2.996700	3.853000	-11.545000	22.373646	0.000437	20.779672
277.074759	-2.981200	3.853300	-11.487000	22.379353	0.000438	20.790603
278.074208	-3.017900	3.851900	-11.624000	22.403473	0.000437	20.782987
279.076046	-3.015800	3.853300	-11.619000	22.401008	0.000435	20.806124
280.077134	-3.001200	3.851700	-11.559000	22.397195	0.000440	20.796616
281.077391	-3.025500	3.852400	-11.655000	22.411002	0.000439	20.802855
282.077276	-2.988700	3.851900	-11.511000	22.411375	0.000438	20.795643
283.078642	-3.015900	3.851200	-11.614000	22.381721	0.000440	20.803405
284.077507	-3.009400	3.850700	-11.588000	22.413570	0.000442	20.798789
285.078200	-2.983700	3.850200	-11.487000	22.436222	0.000438	20.799188
286.076416	-3.004100	3.850400	-11.566000	22.452073	0.000438	20.804630
287.076991	-2.995700	3.849600	-11.531000	22.430791	0.000441	20.796595
288.081110	-2.996700	3.849500	-11.535000	22.454193	0.000440	20.805805
289.077360	-2.992600	3.850400	-11.522000	22.453794	0.000439	20.807777
290.084559	-3.000100	3.849800	-11.549000	22.445846	0.000442	20.801239
291.078008	-2.990200	3.849000	-11.508000	22.453594	0.000445	20.819429
292.078608	-2.987300	3.850600	-11.501000	22.472008	0.000443	20.838344
293.078638	-3.015100	3.849200	-11.605000	22.473576	0.000443	20.807672
294.077870	-2.997600	3.847500	-11.532000	22.483723	0.000444	20.796972
295.078866	-2.997700	3.849800	-11.539000	22.495430	0.000441	20.815808
296.081752	-2.988700	3.848100	-11.500000	22.508715	0.000446	20.787862
297.078366	-3.011400	3.847700	-11.586000	22.519454	0.000444	20.809522
298.079768	-3.022100	3.847100	-11.626000	22.518059	0.000443	20.812392
299.084215	-2.982600	3.847600	-11.475000	22.545618	0.000445	20.823398
300.079869	-2.999200	3.847000	-11.537000	22.525483	0.000443	20.806078
301.083993	-3.004500	3.847200	-11.558000	22.524088	0.000445	20.826965
302.080563	-2.977500	3.848000	-11.457000	22.529791	0.000447	20.798538
303.080042	-2.993600	3.846900	-11.515000	22.549352	0.000445	20.809594
304.080948	-2.979100	3.847400	-11.460000	22.536368	0.000446	20.818402
305.080719	-2.986600	3.846000	-11.485000	22.539460	0.000446	20.819601
306.080660	-2.992900	3.845500	-11.508000	22.517230	0.000449	20.812037
307.080302	-2.988500	3.846300	-11.494000	22.542397	0.000446	20.827759
308.080775	-2.997600	3.845500	-11.527000	22.541397	0.000449	20.822489
309.079813	-3.004300	3.844600	-11.550000	22.583356	0.000450	20.815201
310.080877	-3.010700	3.844200	-11.573000	22.554925	0.000449	20.839357
311.081141	-2.995000	3.844300	-11.513000	22.566036	0.000447	20.812554
312.082231	-3.003300	3.844500	-11.545000	22.596909	0.000449	20.823085
313.083053	-3.003100	3.843900	-11.543000	22.607743	0.000448	20.829669
314.082673	-2.997100	3.843600	-11.519000	22.607223	0.000450	20.830571
315.083527	-3.013900	3.842400	-11.580000	22.620973	0.000449	20.836282
316.084033	-2.992400	3.842800	-11.498000	22.621271	0.000450	20.805761
317.087846	-2.980300	3.842600	-11.451000	22.598971	0.000450	20.834633
318.084116	-2.996400	3.843100	-11.514000	22.634049	0.000449	20.822827
319.085534	-2.995700	3.841900	-11.508000	22.644539	0.000451	20.837126
320.086024	-3.011900	3.841600	-11.569000	22.633027	0.000452	20.827967
321.085738	-3.001100	3.841000	-11.526000	22.653228	0.000453	20.819752
322.088822	-3.002300	3.841500	-11.532000	22.673512	0.000451	20.833430
323.088884	-3.016100	3.839800	-11.580000	22.657808	0.000452	20.857054
324.088701	-2.983900	3.841300	-11.461000	22.656266	0.000451	20.825639
325.088979	-2.979700	3.840200	-11.441000	22.653372	0.000452	20.817999
326.090666	-2.993200	3.839800	-11.492000	22.665776	0.000451	20.835165
327.087807	-2.972200	3.841300	-11.416000	22.649782	0.000453	20.843800
328.090252	-2.972300	3.841200	-11.416000	22.659174	0.000451	20.818121
329.089557	-2.967700	3.839300	-11.393000	22.676040	0.000454	20.821264
330.087789	-3.008700	3.839300	-11.550000	22.665651	0.000452	20.839306
331.088530	-3.005500	3.839800	-11.539000	22.638915	0.000454	20.839080
332.090379	-2.995800	3.839000	-11.500000	22.681394	0.000454	20.845592
333.087661	-2.982200	3.838300	-11.446000	22.686178	0.000453	20.845642
334.088286	-2.994200	3.837800	-11.489000	22.694243	0.000455	20.827169
335.089214	-2.972700	3.838200	-11.408000	22.663004	0.000456	20.834285
336.089480	-2.984800	3.838700	-11.456000	22.648677	0.000457	20.837478
337.089281	-3.008600	3.836800	-11.542000	22.674935	0.000455	20.823002
338.090397	-3.000100	3.837100	-11.511000	22.677105	0.000454	20.843193
339.092176	-2.990400	3.835900	-11.470000	22.666687	0.000458	20.842241
340.089177	-2.997000	3.836900	-11.498000	22.680067	0.000457	20.845211
341.089983	-3.021000	3.835500	-11.587000	22.698675	0.000456	20.825445
342.090058	-3.000700	3.836300	-11.510000	22.691152	0.000458	20.821228
343.089179	-3.000200	3.835300	-11.505000	22.697628	0.000458	20.824870
344.089351	-2.999500	3.835600	-11.504000	22.710882	0.000457	20.819180
345.093006	-3.001200	3.836000	-11.511000	22.729243	0.000456	20.823821
346.090505	-3.001700	3.834000	-11.508000	22.724811	0.000456	20.828390
347.090258	-3.000000	3.835800	-11.507000	22.737663	0.000458	20.808548
348.090700	-2.994600	3.835300	-11.484000	22.761506	0.000460	20.838595
349.090200	-3.005600	3.834100	-11.523000	22.768530	0.000460	20.816709
350.092749	-3.008600	3.833900	-11.533000	22.785918	0.000460	20.809945
351.091955	-3.015200	3.833000	-11.556000	22.766512	0.000458	20.821325
352.091119	-3.016200	3.832300	-11.558000	22.765267	0.000460	20.818182
353.091478	-3.019400	3.832900	-11.572000	22.777800	0.000461	20.806554
354.091393	-2.994300	3.833200	-11.476000	22.800491	0.000458	20.825965
355.093297	-2.987500	3.833400	-11.451000	22.791577	0.000461	20.826993
356.092509	-2.991600	3.832700	-11.465000	22.763801	0.000461	20.847532
357.093086	-3.004600	3.832600	-11.514000	22.792176	0.000460	20.836601
358.092774	-2.999600	3.832100	-11.494000	22.809215	0.000459	20.822377
359.093701	-2.994600	3.831200	-11.472000	22.773795	0.000461	20.815818
360.091701	-2.971800	3.831500	-11.385000	22.818162	0.000460	20.802416
361.092535	-2.998900	3.830900	-11.487000	22.833157	0.000462	20.808429
362.092529	-3.007000	3.830500	-11.518000	22.819757	0.000459	20.813972
363.094074	-3.011800	3.829400	-11.532000	22.838166	0.000461	20.817241
364.097031	-3.010900	3.829800	-11.530000	22.815971	0.000462	20.807808
365.094151	-3.023000	3.829000	-11.574000	22.816268	0.000461	20.806209
366.098383	-2.996300	3.829000	-11.471000	22.821027	0.000462	20.832313
367.094613	-3.001100	3.829200	-11.491000	22.865772	0.000463	20.808386
368.094286	-3.011400	3.827800	-11.526000	22.857873	0.000464	20.807585
369.095976	-3.013400	3.828000	-11.533000	22.858199	0.000460	20.816921
370.095959	-3.005500	3.826800	-11.501000	22.867242	0.000462	20.798954
371.095385	-2.997600	3.827500	-11.473000	22.888339	0.000462	20.792588
372.098751	-3.002900	3.827300	-11.493000	22.874567	0.000464	20.818146
373.095093	-3.007400	3.827500	-11.510000	22.879451	0.000461	20.797908
374.096643	-3.011900	3.828000	-11.529000	22.903940	0.000463	20.803476
375.099934	-3.012100	3.826000	-11.524000	22.881168	0.000464	20.817647
376.097266	-2.998100	3.827400	-11.473000	22.901519	0.000462	20.794413
377.099144	-2.999200	3.826700	-11.477000	22.920576	0.000464	20.819669
378.097445	-3.011700	3.825900	-11.522000	22.916991	0.000465	20.806120
379.097827	-2.982600	3.825700	-11.410000	22.884435	0.000465	20.822816
380.097304	-2.972400	3.825400	-11.370000	22.896141	0.000467	20.811310
381.098321	-2.997300	3.824400	-11.462000	22.910064	0.000465	20.807241
382.100804	-2.992600	3.825600	-11.447000	22.918432	0.000464	20.806141
383.098013	-3.012800	3.823400	-11.517000	22.915022	0.000464	20.788501
384.099328	-3.002800	3.823200	-11.479000	22.901620	0.000466	20.811583
385.100854	-3.004200	3.823400	-11.485000	22.868587	0.000463	20.807887
386.099728	-3.013600	3.823500	-11.522000	22.865969	0.000467	20.794833
387.100159	-2.991100	3.823400	-11.435000	22.895664	0.000465	20.801824
388.102387	-2.988700	3.822600	-11.424000	22.910433	0.000465	20.804291
389.100538	-2.996600	3.822400	-11.453000	22.901290	0.000466	20.777114
390.102311	-2.993900	3.822200	-11.443000	22.885596	0.000465	20.788892
391.104644	-3.010600	3.821800	-11.505000	22.906370	0.000466	20.795480
392.101623	-2.992000	3.821300	-11.431000	22.933770	0.000465	20.812973
393.105189	-2.989100	3.820800	-11.420000	22.938305	0.000468	20.785749
394.102279	-3.009300	3.820200	-11.495000	22.958724	0.000466	20.775386
395.101673	-3.006500	3.820400	-11.485000	22.978550	0.000468	20.816587
396.100878	-3.021300	3.820100	-11.540000	23.015043	0.000466	20.798149
397.102578	-3.001900	3.820700	-11.468000	23.011551	0.000466	20.782796
398.106489	-2.980300	3.819600	-11.383000	23.018700	0.000467	20.795649
399.106595	-2.985100	3.820000	-11.402000	23.038898	0.000465	20.771316
400.103689	-2.989800	3.819500	-11.418000	23.012322	0.000467	20.793526
401.103113	-2.990300	3.820500	-11.423000	23.007289	0.000466	20.796069
402.105875	-2.996300	3.819300	-11.443000	23.014957	0.000470	20.786209
403.103457	-2.991600	3.817600	-11.419000	22.997150	0.000466	20.810566
404.108088	-3.016000	3.816900	-11.511000	23.014807	0.000468	20.790325
405.104052	-2.995500	3.817900	-11.436000	22.995873	0.000466	20.800753
406.103474	-2.987200	3.816800	-11.401000	23.005636	0.000468	20.789671
407.103284	-3.003600	3.817700	-11.466000	23.024167	0.000469	20.793066
408.104699	-2.992500	3.817100	-11.422000	23.017316	0.000467	20.789046
409.106688	-3.008400	3.817400	-11.483000	23.032334	0.000468	20.779912
410.105299	-3.001700	3.815700	-11.453000	23.024386	0.000467	20.788069
411.105609	-2.989100	3.815600	-11.403000	23.041995	0.000468	20.759720
412.108303	-3.018100	3.813700	-11.509000	23.058859	0.000469	20.774721
413.105803	-3.010900	3.813400	-11.480000	23.081745	0.000467	20.764462
414.108741	-3.005400	3.815200	-11.465000	23.084359	0.000468	20.763287
415.106839	-3.010100	3.814500	-11.481000	23.089241	0.000467	20.785249
416.108030	-2.985400	3.815200	-11.388000	23.048370	0.000469	20.775116
417.108384	-2.997900	3.814600	-11.434000	23.072303	0.000469	20.768751
418.107973	-2.975500	3.813700	-11.347000	23.058131	0.000470	20.773043
419.108424	-2.990400	3.814200	-11.405000	23.092579	0.000466	20.775791
420.113514	-2.999600	3.814400	-11.441000	23.090012	0.000469	20.765633
421.108156	-3.019100	3.812700	-11.510000	23.102591	0.000469	20.765435
422.109435	-2.992800	3.814200	-11.414000	23.105652	0.000468	20.786047
423.115411	-3.017200	3.812800	-11.503000	23.102638	0.000467	20.769275
424.110581	-3.007800	3.812500	-11.466000	23.105652	0.000469	20.779409
425.114008	-3.021000	3.812100	-11.515000	23.121716	0.000468	20.787444
426.111771	-3.004600	3.812100	-11.454000	23.115313	0.000468	20.759691
427.112233	-2.985800	3.811200	-11.378000	23.132574	0.000466	20.780781
428.113829	-2.996300	3.811700	-11.420000	23.092876	0.000469	20.775615
429.112680	-3.026500	3.811300	-11.534000	23.108291	0.000465	20.745542
430.116559	-2.980500	3.810400	-11.356000	23.109890	0.000469	20.762317
431.113621	-2.998100	3.810400	-11.422000	23.129713	0.000466	20.774595
432.112833	-3.009600	3.808800	-11.461000	23.120673	0.000467	20.763165
433.113999	-3.003600	3.808900	-11.439000	23.139801	0.000467	20.775694
434.113740	-2.980900	3.808800	-11.353000	23.145278	0.000469	20.769803
435.114095	-3.002100	3.809100	-11.435000	23.144335	0.000468	20.758901
436.113866	-3.025600	3.809000	-11.524000	23.133402	0.000469	20.772602
437.114494	-3.007600	3.808000	-11.452000	23.144507	0.000468	20.773299
438.115147	-2.994100	3.809200	-11.404000	23.132983	0.000468	20.767914
439.116119	-2.988800	3.807000	-11.378000	23.124713	0.000470	20.766265
440.115965	-2.987600	3.807200	-11.374000	23.133854	0.000468	20.770683
441.118938	-2.989300	3.806900	-11.379000	23.130516	0.000467	20.767339
442.116418	-2.983900	3.806800	-11.358000	23.143020	0.000467	20.775601
443.118267	-2.988700	3.805300	-11.372000	23.141604	0.000468	20.751422
444.116781	-2.987300	3.806100	-11.369000	23.142869	0.000469	20.766915
445.117418	-3.006500	3.805700	-11.441000	23.121433	0.000467	20.744012
446.119146	-2.989700	3.804600	-11.375000	23.143425	0.000469	20.755144
447.122122	-2.988200	3.805300	-11.369000	23.131746	0.000469	20.753398
448.119491	-3.010400	3.803400	-11.449000	23.140833	0.000471	20.745434
449.120250	-2.999600	3.804700	-11.411000	23.137897	0.000471	20.749605
450.121695	-3.023900	3.803400	-11.501000	23.149028	0.000469	20.756965
451.119855	-3.008700	3.804200	-11.444000	23.159294	0.000468	20.781478
452.122711	-3.019600	3.803500	-11.483000	23.146615	0.000468	20.745538
453.120767	-3.001000	3.802700	-11.411000	23.156007	0.000468	20.745466
454.120970	-3.013300	3.802800	-11.457000	23.184397	0.000468	20.751157
455.122493	-2.988200	3.801400	-11.359000	23.197918	0.000467	20.759965
456.121604	-3.008200	3.801600	-11.435000	23.200287	0.000467	20.738630
457.125502	-2.982300	3.802000	-11.338000	23.206836	0.000469	20.742348
458.120414	-2.999600	3.800800	-11.400000	23.212317	0.000466	20.779610
459.121895	-2.993200	3.801300	-11.377000	23.207112	0.000468	20.768230
460.120879	-2.998900	3.801300	-11.398000	23.215256	0.000470	20.769279
461.126154	-3.008300	3.801200	-11.434000	23.221583	0.000467	20.749066
462.122045	-2.989300	3.800100	-11.359000	23.235626	0.000467	20.766459
463.125201	-2.998100	3.800400	-11.392000	23.282462	0.000467	20.757921
464.121383	-3.000300	3.799500	-11.399000	23.277760	0.000469	20.763639
465.122053	-2.986500	3.799100	-11.346000	23.301613	0.000468	20.750560
466.121389	-3.016400	3.798000	-11.456000	23.285452	0.000469	20.755701
467.122288	-3.010500	3.798100	-11.433000	23.272179	0.000466	20.742399
468.124269	-3.028600	3.797600	-11.500000	23.260727	0.000466	20.738034
469.121604	-2.990300	3.798200	-11.356000	23.252634	0.000465	20.772124
470.121282	-3.010300	3.798200	-11.433000	23.293394	0.000467	20.757971
471.123550	-3.019200	3.796900	-11.462000	23.295935	0.000467	20.757673
472.123687	-3.002600	3.797100	-11.400000	23.273846	0.000466	20.747862
473.123857	-3.000600	3.797300	-11.392000	23.293964	0.000464	20.720608
474.121774	-3.006000	3.796800	-11.412000	23.268441	0.000467	20.734859
475.123687	-2.989300	3.795300	-11.344000	23.255663	0.000466	20.763305
476.122568	-2.996700	3.796800	-11.377000	23.264602	0.000467	20.760884
477.123074	-3.002500	3.796300	-11.398000	23.281681	0.000466	20.737222
478.122058	-2.997800	3.795600	-11.377000	23.274584	0.000469	20.750025
479.125677	-3.014000	3.794100	-11.434000	23.279814	0.000466	20.744360
480.124248	-2.990300	3.794400	-11.345000	23.279287	0.000465	20.740987
481.124840	-2.991600	3.794100	-11.350000	23.257473	0.000466	20.747101
482.128914	-3.003600	3.793200	-11.392000	23.264247	0.000465	20.743458
483.126251	-2.999400	3.793200	-11.377000	23.311928	0.000465	20.732922
484.129986	-2.992600	3.794600	-11.355000	23.296613	0.000466	20.732746
485.125956	-3.007700	3.793300	-11.408000	23.307666	0.000466	20.740505
486.127553	-3.007900	3.792900	-11.407000	23.309630	0.000464	20.721136
487.128099	-2.992400	3.791900	-11.346000	23.294666	0.000466	20.723209
488.128274	-3.003300	3.790100	-11.382000	23.299770	0.000463	20.720263
489.128132	-2.990400	3.791900	-11.338000	23.320784	0.000466	20.709080
490.130355	-3.025900	3.791000	-11.471000	23.323447	0.000466	20.728346
491.129294	-2.980900	3.792400	-11.303000	23.304519	0.000463	20.716962
492.129196	-2.971900	3.791200	-11.267000	23.353223	0.000466	20.711720
493.129532	-2.990200	3.790300	-11.333000	23.337658	0.000466	20.746856
494.128074	-2.992900	3.790300	-11.342000	23.326651	0.000465	20.748153
495.130970	-3.027000	3.788800	-11.467000	23.349159	0.000465	20.732778
496.129417	-2.976300	3.790200	-11.279000	23.361678	0.000464	20.731101
497.131179	-2.990600	3.789600	-11.332000	23.317479	0.000461	20.734219
498.129983	-2.997300	3.789100	-11.356000	23.302415	0.000462	20.715327
499.130411	-2.986700	3.789100	-11.315000	23.308214	0.000463	20.719243
500.129330	-2.989900	3.788200	-11.326000	23.283161	0.000462	20.729696
501.130182	-2.983100	3.787700	-11.298000	23.287416	0.000461	20.724477
502.129021	-3.005800	3.787000	-11.382000	23.291376	0.000461	20.729869
503.131035	-2.997900	3.787300	-11.353000	23.268588	0.000462	20.717461
504.131097	-2.996800	3.786800	-11.347000	23.269580	0.000460	20.721775
505.130077	-3.006300	3.786800	-11.383000	23.280588	0.000462	20.699614
506.133702	-3.011100	3.786900	-11.402000	23.287731	0.000462	20.711041
507.131102	-3.019500	3.785600	-11.429000	23.271846	0.000462	20.720252
508.131555	-3.009500	3.786200	-11.394000	23.304290	0.000462	20.707722
509.133356	-3.003400	3.785000	-11.367000	23.343453	0.000463	20.713308
510.130971	-3.017600	3.784500	-11.419000	23.378512	0.000463	20.707668
511.136025	-3.000700	3.784600	-11.356000	23.383343	0.000463	20.727210
512.131548	-2.983500	3.785400	-11.293000	23.372383	0.000462	20.704370
513.131748	-3.010900	3.783400	-11.390000	23.392729	0.000462	20.704374
514.132227	-3.011600	3.782900	-11.391000	23.378659	0.000461	20.711135
515.131953	-3.003700	3.782800	-11.362000	23.372756	0.000462	20.717547
516.132450	-3.009900	3.782300	-11.384000	23.366434	0.000461	20.718323
517.135493	-3.002400	3.783500	-11.359000	23.386282	0.000461	20.712611
518.132290	-2.992000	3.783400	-11.319000	23.392077	0.000462	20.717946
519.132613	-2.999400	3.783000	-11.345000	23.387303	0.000461	20.713161
520.136642	-2.999200	3.781300	-11.341000	23.373555	0.000461	20.713606
521.132003	-3.004500	3.781500	-11.360000	23.381924	0.000460	20.730056
522.134042	-2.999600	3.780700	-11.340000	23.377763	0.000460	20.705021
523.132114	-3.004800	3.780500	-11.358000	23.390715	0.000460	20.701407
524.132858	-2.995900	3.781600	-11.328000	23.379257	0.000459	20.696561
525.131697	-3.006100	3.780400	-11.364000	23.358743	0.000459	20.708717
526.132919	-3.023600	3.779300	-11.426000	23.373709	0.000459	20.718977
527.133834	-3.024400	3.779400	-11.429000	23.398929	0.000460	20.691147
528.132955	-2.983200	3.779400	-11.273000	23.367405	0.000460	20.712184
529.133636	-2.988000	3.779400	-11.292000	23.388299	0.000461	20.711789
530.133595	-2.987000	3.778700	-11.286000	23.372813	0.000460	20.687256
531.132612	-2.993100	3.778600	-11.309000	23.412773	0.000461	20.689850
532.132429	-2.991100	3.778400	-11.301000	23.415139	0.000458	20.686056
533.133132	-2.991700	3.778300	-11.302000	23.469489	0.000458	20.700232
534.132794	-3.008400	3.779000	-11.367000	23.466228	0.000457	20.700757
535.133134	-3.025300	3.776100	-11.423000	23.438143	0.000458	20.705322
536.137034	-3.009300	3.777100	-11.366000	23.429255	0.000457	20.688352
537.135719	-2.995500	3.775800	-11.309000	23.441282	0.000459	20.699934
538.140317	-2.999700	3.776600	-11.328000	23.441483	0.000457	20.698238
539.136174	-2.994800	3.776500	-11.310000	23.485719	0.000457	20.704173
540.136394	-2.993100	3.776400	-11.302000	23.446783	0.000455	20.712087
541.135848	-2.987800	3.775600	-11.281000	23.452162	0.000459	20.719376
542.136358	-2.990400	3.775100	-11.288000	23.416458	0.000456	20.671256
543.135682	-2.978000	3.775700	-11.244000	23.413594	0.000458	20.690199
544.139533	-3.001800	3.774400	-11.329000	23.446859	0.000456	20.698885
545.135833	-3.006800	3.774600	-11.348000	23.445189	0.000457	20.706221
546.136366	-2.980800	3.774300	-11.249000	23.489830	0.000457	20.686006
547.139069	-3.008600	3.773300	-11.351000	23.468117	0.000458	20.697434
548.136693	-2.998900	3.773100	-11.315000	23.474589	0.000456	20.713879
549.138648	-3.012900	3.772900	-11.366000	23.469088	0.000456	20.693665
550.135286	-3.014200	3.772700	-11.370000	23.475635	0.000458	20.673673
551.136618	-3.003000	3.771800	-11.325000	23.449392	0.000455	20.700951
552.135279	-3.019100	3.772500	-11.388000	23.468239	0.000455	20.693288
553.135241	-2.997900	3.771100	-11.305000	23.486512	0.000457	20.694060
554.136444	-3.001100	3.770800	-11.316000	23.500727	0.000454	20.694560
555.135741	-2.981200	3.770900	-11.241000	23.492138	0.000454	20.699226
556.136037	-2.990300	3.771300	-11.277000	23.463508	0.000455	20.674320
557.136197	-3.001700	3.770200	-11.316000	23.488303	0.000457	20.705815
558.136265	-2.983400	3.770600	-11.249000	23.470052	0.000453	20.700322
559.137135	-2.991900	3.769300	-11.277000	23.503910	0.000452	20.697750
560.138749	-3.011800	3.769600	-11.353000	23.512152	0.000453	20.678035
561.138946	-3.006900	3.768200	-11.330000	23.509883	0.000454	20.673864
562.139279	-2.988600	3.768700	-11.261000	23.536397	0.000456	20.684796
563.140563	-2.980900	3.769300	-11.235000	23.524719	0.000454	20.693479
564.138956	-3.004800	3.767600	-11.319000	23.552103	0.000454	20.684419
565.141923	-2.991100	3.767900	-11.269000	23.559026	0.000456	20.685669
566.141368	-3.008700	3.768000	-11.336000	23.548667	0.000454	20.685715
567.141979	-2.998900	3.767300	-11.296000	23.580558	0.000456	20.688288
568.141119	-2.999400	3.766800	-11.298000	23.607841	0.000456	20.681024
569.141174	-3.011200	3.766500	-11.341000	23.595268	0.000454	20.694025
570.146526	-3.022400	3.766100	-11.382000	23.569726	0.000453	20.684067
571.147422	-2.985400	3.767500	-11.246000	23.543088	0.000453	20.674432
572.143184	-3.012900	3.765800	-11.345000	23.535444	0.000453	20.678624
573.142113	-3.005500	3.764700	-11.314000	23.527951	0.000453	20.682967
574.145498	-2.990400	3.765400	-11.259000	23.548760	0.000454	20.676325
575.143600	-2.992100	3.766200	-11.269000	23.550107	0.000453	20.692376
576.145986	-2.989300	3.765200	-11.255000	23.525335	0.000452	20.692200
577.143746	-2.974800	3.765600	-11.201000	23.535792	0.000452	20.681343
578.143978	-3.006100	3.764400	-11.315000	23.528718	0.000453	20.689901
579.143876	-2.959000	3.765000	-11.140000	23.518011	0.000453	20.685331
580.143223	-3.006900	3.764200	-11.317000	23.503322	0.000450	20.681987
581.146035	-2.985100	3.763600	-11.233000	23.533997	0.000451	20.674802
582.143818	-2.983600	3.763200	-11.225000	23.534419	0.000450	20.677597
583.143775	-2.987300	3.763300	-11.241000	23.553884	0.000450	20.671978
584.143757	-2.998800	3.763200	-11.284000	23.579627	0.000450	20.691621
585.144863	-2.996500	3.762200	-11.273000	23.555006	0.000449	20.684958
586.145474	-3.003800	3.762400	-11.301000	23.563119	0.000449	20.673174
587.146382	-2.996300	3.762200	-11.272000	23.554655	0.000449	20.697409
588.146840	-2.973800	3.762800	-11.189000	23.524956	0.000452	20.686129
589.146738	-3.001700	3.760200	-11.287000	23.509371	0.000448	20.703699
590.145965	-2.984800	3.762200	-11.228000	23.552118	0.000449	20.700082
591.148623	-3.007400	3.761800	-11.311000	23.554683	0.000448	20.691747
592.147260	-3.004900	3.760600	-11.299000	23.538945	0.000448	20.687824
593.147662	-2.998400	3.760700	-11.274000	23.584253	0.000451	20.712382
594.146722	-2.984400	3.761000	-11.223000	23.589255	0.000448	20.702223
595.146720	-3.012400	3.759000	-11.322000	23.539494	0.000448	20.703548
596.150446	-3.007900	3.759000	-11.306000	23.551265	0.000448	20.711556
597.148284	-3.007200	3.758600	-11.302000	23.600983	0.000450	20.704971
598.151014	-2.991400	3.759700	-11.246000	23.581591	0.000449	20.696435
599.147071	-2.995300	3.758000	-11.255000	23.578176	0.000449	20.710083
600.148333	-3.011200	3.757800	-11.315000	23.577133	0.000448	20.701924
601.148440	-3.000200	3.758400	-11.273000	23.570880	0.000448	20.698027
602.148002	-2.976100	3.758000	-11.183000	23.567197	0.000450	20.691489
603.150094	-2.996000	3.756500	-11.253000	23.608597	0.000447	20.700276
604.152908	-2.988000	3.756300	-11.223000	23.594257	0.000447	20.702496
605.150815	-2.994700	3.756900	-11.250000	23.595078	0.000446	20.696680
606.149039	-2.984800	3.756100	-11.210000	23.609192	0.000446	20.693285
607.153748	-2.996500	3.755100	-11.252000	23.591667	0.000446	20.696579
608.150039	-2.992800	3.755900	-11.240000	23.605957	0.000447	20.710431
609.153066	-2.990600	3.755700	-11.231000	23.573869	0.000445	20.703394
610.149882	-3.000700	3.756400	-11.271000	23.563062	0.000445	20.716269
611.150094	-2.988600	3.754600	-11.221000	23.596522	0.000445	20.712827
612.153399	-3.000800	3.754900	-11.267000	23.591796	0.000445	20.701924
613.152774	-3.030800	3.752900	-11.373000	23.560202	0.000444	20.692063
614.154028	-3.015000	3.754600	-11.320000	23.572199	0.000444	20.697926
615.152567	-3.007400	3.754300	-11.289000	23.596597	0.000443	20.709109
616.152469	-3.006500	3.753400	-11.284000	23.652379	0.000445	20.719039
617.152803	-3.016100	3.753600	-11.320000	23.629802	0.000442	20.698300
618.152471	-3.014300	3.752700	-11.311000	23.611632	0.000440	20.710431
619.158984	-2.997900	3.753400	-11.251000	23.605957	0.000443	20.713751
620.151357	-3.006400	3.752500	-11.281000	23.601499	0.000442	20.693633
621.151881	-3.013900	3.752400	-11.308000	23.598636	0.000444	20.722060
622.152564	-2.978900	3.752800	-11.178000	23.570884	0.000441	20.715101
623.151680	-2.995400	3.751900	-11.237000	23.568669	0.000442	20.707191
624.151966	-3.002600	3.750800	-11.261000	23.575413	0.000441	20.699252
625.155224	-2.970000	3.751100	-11.140000	23.602373	0.000443	20.712055
626.151526	-2.971600	3.751600	-11.147000	23.611983	0.000442	20.703196
627.151330	-2.982300	3.750800	-11.185000	23.632844	0.000443	20.722688
628.155463	-2.989400	3.750800	-11.212000	23.664060	0.000444	20.705143
629.152823	-2.985100	3.750400	-11.194000	23.649549	0.000443	20.710036
630.155110	-3.005600	3.749600	-11.268000	23.638893	0.000440	20.721639
631.150341	-2.975300	3.749200	-11.154000	23.636381	0.000440	20.715328
632.151184	-2.972600	3.749100	-11.144000	23.622296	0.000442	20.710216
633.152805	-3.008400	3.749400	-11.279000	23.631802	0.000439	20.711685
634.151312	-3.019500	3.747600	-11.315000	23.631451	0.000442	20.726507
635.155243	-3.021700	3.748400	-11.326000	23.640315	0.000440	20.723540
636.152128	-3.022800	3.749100	-11.330000	23.643497	0.000438	20.735739
637.153922	-3.005800	3.748300	-11.266000	23.610740	0.000438	20.706692
638.155698	-3.010600	3.746600	-11.279000	23.640960	0.000440	20.731773
639.155000	-3.001800	3.746600	-11.245000	23.654973	0.000437	20.738236
640.155944	-3.001700	3.746300	-11.244000	23.640960	0.000438	20.730351
641.157429	-3.017900	3.747000	-11.306000	23.666597	0.000438	20.721438
642.156020	-3.000600	3.746200	-11.239000	23.654622	0.000438	20.734090
643.156328	-3.002900	3.746300	-11.249000	23.628982	0.000439	20.720713
644.156909	-3.004500	3.745700	-11.253000	23.667693	0.000439	20.731073
645.155136	-3.001400	3.745900	-11.242000	23.688051	0.000438	20.710704
646.158614	-3.008700	3.743600	-11.263000	23.680982	0.000438	20.728748
647.154803	-2.998300	3.744900	-11.227000	23.661914	0.000435	20.742823
648.155403	-3.003700	3.744200	-11.246000	23.667138	0.000436	20.723877
649.156323	-3.013000	3.744600	-11.282000	23.705522	0.000437	20.735807
650.156542	-2.985700	3.743900	-11.177000	23.694744	0.000438	20.728795
651.159663	-2.988000	3.745000	-11.190000	23.700269	0.000437	20.729119
652.160151	-3.015300	3.742700	-11.284000	23.701735	0.000435	20.747184
653.157160	-3.017600	3.743400	-11.294000	23.731558	0.000433	20.759067
654.156997	-3.014300	3.741300	-11.276000	23.712938	0.000434	20.732811
655.161293	-2.993000	3.742500	-11.200000	23.720405	0.000434	20.736504
656.158446	-2.997200	3.741800	-11.214000	23.744223	0.000433	20.724822
657.160611	-2.978300	3.742300	-11.145000	23.759281	0.000433	20.734705
658.159338	-2.993000	3.742500	-11.200000	23.776629	0.000436	20.738347
659.159008	-2.984400	3.743000	-11.169000	23.767246	0.000434	20.724197
660.160054	-3.003600	3.740900	-11.234000	23.791066	0.000436	20.717260
661.159095	-3.009000	3.741000	-11.256000	23.794398	0.000435	20.715385
662.164054	-2.999600	3.741400	-11.222000	23.793431	0.000433	20.742866
663.160624	-2.982400	3.741800	-11.159000	23.768242	0.000434	20.736576
664.161722	-2.995700	3.740800	-11.205000	23.772448	0.000432	20.730362
665.162237	-2.991300	3.741300	-11.190000	23.800797	0.000433	20.728440
666.161682	-2.995700	3.740300	-11.204000	23.825537	0.000434	20.735229
667.163825	-2.988900	3.740300	-11.178000	23.810925	0.000435	20.740492
668.165875	-2.984800	3.740100	-11.163000	23.812870	0.000431	20.737226
669.162840	-2.980900	3.739500	-11.146000	23.799303	0.000432	20.754918
670.162325	-2.987600	3.740100	-11.174000	23.809907	0.000434	20.744688
671.163746	-3.005500	3.738200	-11.233000	23.820035	0.000433	20.718331
672.163202	-3.002100	3.739000	-11.224000	23.806296	0.000431	20.717832
673.163202	-3.018400	3.738400	-11.283000	23.822005	0.000431	20.743067
674.162774	-3.013400	3.738500	-11.265000	23.794918	0.000431	20.731554
675.162355	-3.037500	3.736600	-11.349000	23.804276	0.000431	20.741412
676.164667	-3.003900	3.736700	-11.224000	23.822098	0.000431	20.748377
677.163742	-2.985000	3.738300	-11.158000	23.786531	0.000429	20.720774
678.167133	-2.980000	3.737200	-11.135000	23.784715	0.000429	20.755464
679.166779	-3.016100	3.735900	-11.267000	23.781010	0.000430	20.741792
680.163599	-3.007300	3.736800	-11.237000	23.810276	0.000429	20.733677
681.163724	-3.004800	3.736400	-11.226000	23.805873	0.000428	20.745859
682.165405	-3.004200	3.735100	-11.220000	23.817667	0.000431	20.739666
683.165509	-2.980800	3.737100	-11.139000	23.804480	0.000427	20.752996
684.166741	-2.979200	3.736000	-11.130000	23.827701	0.000429	20.749253
685.165359	-2.985300	3.735800	-11.151000	23.857396	0.000429	20.775235
686.166345	-2.981000	3.736200	-11.137000	23.859409	0.000428	20.745011
687.164929	-2.981700	3.736000	-11.138000	23.843532	0.000425	20.753747
688.166698	-2.981400	3.734100	-11.132000	23.825935	0.000428	20.753647
689.171653	-3.002000	3.734600	-11.210000	23.816950	0.000426	20.769294
690.167922	-3.008300	3.733600	-11.231000	23.809638	0.000424	20.773342
691.169053	-3.009300	3.734800	-11.238000	23.807937	0.000425	20.744609
692.168085	-2.975500	3.734100	-11.110000	23.857890	0.000425	20.750600
693.168574	-2.963200	3.733800	-11.063000	23.859581	0.000424	20.757038
694.168783	-2.989900	3.733500	-11.162000	23.847709	0.000425	20.766471
695.171034	-2.988000	3.732900	-11.153000	23.843679	0.000424	20.760059
696.167651	-2.984000	3.733400	-11.140000	23.841888	0.000424	20.765375
697.168586	-3.005900	3.731200	-11.214000	23.829965	0.000424	20.779974
698.172367	-2.984600	3.732400	-11.139000	23.831757	0.000424	20.761381
699.167914	-2.980100	3.731600	-11.119000	23.841741	0.000421	20.769969
700.170380	-3.005500	3.732000	-11.215000	23.822224	0.000422	20.767943
701.168843	-3.014700	3.731000	-11.247000	23.836858	0.000423	20.746581
702.169000	-3.013600	3.730200	-11.240000	23.834343	0.000421	20.769664
703.169907	-3.004500	3.730100	-11.206000	23.867194	0.000423	20.762774
704.169311	-2.998000	3.730400	-11.183000	23.884167	0.000422	20.773156
705.171985	-3.017400	3.729000	-11.251000	23.864407	0.000420	20.748600
706.171299	-3.015600	3.730400	-11.248000	23.842877	0.000421	20.763048
707.171086	-2.987500	3.730800	-11.145000	23.841856	0.000420	20.785732
708.171809	-3.004600	3.730200	-11.207000	23.873513	0.000419	20.758679
709.173002	-3.016000	3.728900	-11.245000	23.903601	0.000421	20.781263
710.171943	-2.998600	3.728500	-11.179000	23.901011	0.000420	20.757803
711.172797	-2.971700	3.729200	-11.081000	23.878167	0.000420	20.774726
712.171445	-3.001900	3.727800	-11.190000	23.857532	0.000419	20.773476
713.172089	-2.995800	3.729000	-11.171000	23.851930	0.000418	20.769754
714.174431	-3.001100	3.726700	-11.183000	23.866492	0.000420	20.777244
715.172963	-2.987300	3.727900	-11.135000	23.870794	0.000417	20.775868
716.177510	-3.020000	3.727400	-11.255000	23.882018	0.000418	20.775742
717.174708	-2.999300	3.727400	-11.178000	23.888684	0.000419	20.789066
718.174339	-3.020300	3.726000	-11.252000	23.897246	0.000417	20.772520
719.175569	-3.024700	3.726700	-11.271000	23.888756	0.000419	20.775861
720.175604	-2.989300	3.727200	-11.141000	23.865908	0.000416	20.770969
721.174203	-3.016400	3.725900	-11.238000	23.840624	0.000418	20.807256
722.177415	-2.993000	3.726300	-11.152000	23.846990	0.000416	20.780923
723.174932	-2.972700	3.725700	-11.075000	23.839571	0.000415	20.794821
724.174777	-2.988700	3.725400	-11.133000	23.872622	0.000416	20.772485
725.176647	-3.011100	3.724300	-11.213000	23.872249	0.000417	20.782069
726.174909	-2.995000	3.725800	-11.159000	23.854850	0.000417	20.765570
727.178219	-2.996400	3.725100	-11.161000	23.881853	0.000416	20.785061
728.174291	-3.007700	3.725800	-11.206000	23.887600	0.000416	20.778020
729.176503	-2.994600	3.724400	-11.152000	23.899023	0.000416	20.790898
730.176284	-3.001200	3.724400	-11.177000	23.881001	0.000413	20.778991
731.176963	-2.994400	3.724600	-11.152000	23.911809	0.000415	20.779062
732.178995	-2.965300	3.724900	-11.044000	23.895005	0.000416	20.783549
733.177808	-2.976100	3.724000	-11.081000	23.893984	0.000413	20.780155
734.177394	-2.984400	3.723400	-11.111000	23.875320	0.000413	20.798424
735.177085	-2.994900	3.723700	-11.150000	23.840324	0.000411	20.785144
736.179467	-3.022700	3.723100	-11.252000	23.825711	0.000412	20.790407
737.177754	-3.005400	3.722100	-11.186000	23.835488	0.000412	20.780769
738.180527	-3.015500	3.721200	-11.220000	23.868962	0.000411	20.791100
739.178418	-3.012600	3.722800	-11.214000	23.888747	0.000411	20.771110
740.178368	-2.987500	3.722300	-11.120000	23.898874	0.000412	20.795490
741.180850	-3.013500	3.720900	-11.212000	23.923133	0.000412	20.792789
742.180412	-3.003100	3.719700	-11.170000	23.936200	0.000412	20.779814
743.183996	-2.997500	3.720900	-11.153000	23.901034	0.000411	20.799079
744.179460	-2.981900	3.720400	-11.092000	23.933482	0.000411	20.814546
745.178682	-2.987400	3.720600	-11.114000	23.897445	0.000412	20.785523
746.180638	-3.004100	3.720800	-11.177000	23.912376	0.000411	20.783425
747.181789	-2.999800	3.720100	-11.159000	23.922353	0.000410	20.780153
748.182803	-3.011100	3.719900	-11.200000	23.921554	0.000409	20.799740
749.184107	-2.995300	3.718900	-11.138000	23.945619	0.000408	20.791630
750.182186	-3.006700	3.718800	-11.180000	23.918419	0.000409	20.831684
751.182740	-2.978600	3.720100	-11.080000	23.916102	0.000409	20.826990
752.186325	-3.000700	3.717800	-11.155000	23.923986	0.000407	20.787007
753.183867	-3.010300	3.717400	-11.190000	23.892306	0.000408	20.791274
754.186651	-2.998400	3.719000	-11.150000	23.956985	0.000409	20.793070
755.182888	-3.012500	3.718100	-11.199000	23.948868	0.000408	20.803897
756.185774	-3.011700	3.717300	-11.195000	23.943817	0.000408	20.800729
757.185767	-2.993100	3.716800	-11.123000	23.940583	0.000409	20.811710
758.184242	-2.983800	3.718600	-11.095000	23.930402	0.000409	20.814777
759.188376	-2.994500	3.717800	-11.131000	23.919502	0.000408	20.790571
760.187967	-3.005800	3.716700	-11.171000	23.905091	0.000406	20.815474
761.188457	-2.984400	3.717200	-11.092000	23.956856	0.000408	20.810011
762.189368	-2.989500	3.716700	-11.110000	23.967380	0.000408	20.814875
763.188513	-2.993200	3.716000	-11.122000	23.992640	0.000406	20.789946
764.190242	-2.977900	3.717200	-11.069000	23.986093	0.000407	20.820363
765.192554	-3.008500	3.716000	-11.179000	23.975666	0.000405	20.821286
766.190111	-3.002400	3.715000	-11.153000	23.982432	0.000406	20.810528
767.190960	-3.004500	3.715400	-11.161000	24.000650	0.000403	20.803193
768.190903	-2.994700	3.714100	-11.122000	23.979423	0.000405	20.801821
769.189147	-3.013800	3.714900	-11.194000	23.999901	0.000404	20.808607
770.192642	-3.011400	3.715600	-11.188000	23.986412	0.000405	20.795553
771.190704	-3.022900	3.713400	-11.224000	24.005750	0.000402	20.806412
772.189810	-3.017400	3.713100	-11.202000	23.951200	0.000403	20.807184
773.191021	-2.986700	3.715200	-11.095000	23.952572	0.000404	20.820413
774.191016	-3.005500	3.714000	-11.162000	23.966309	0.000404	20.804792
775.193382	-2.985300	3.714800	-11.089000	23.973624	0.000401	20.826825
776.191863	-3.020000	3.713200	-11.213000	23.957698	0.000403	20.830769
777.191605	-3.011000	3.712800	-11.178000	23.944982	0.000403	20.823233
778.192482	-2.978300	3.712900	-11.058000	23.989878	0.000403	20.821315
779.194536	-3.011300	3.712600	-11.178000	23.966112	0.000400	20.816922
780.192213	-2.994000	3.711100	-11.110000	23.996175	0.000402	20.826207
781.196051	-3.011600	3.712400	-11.179000	24.000975	0.000402	20.813477
782.194743	-3.030800	3.711600	-11.248000	23.984799	0.000402	20.827601
783.194811	-3.024700	3.711600	-11.225000	23.998189	0.000403	20.816846
784.195081	-3.015300	3.711000	-11.189000	24.010607	0.000401	20.817920
785.194382	-3.011400	3.711400	-11.176000	24.020758	0.000399	20.843747
786.196424	-3.010900	3.710600	-11.172000	24.020608	0.000400	20.798552
787.196874	-3.005800	3.710200	-11.151000	24.022674	0.000399	20.837608
788.197426	-2.987500	3.709900	-11.082000	24.049298	0.000398	20.829221
789.197362	-2.984100	3.710800	-11.072000	24.008440	0.000399	20.809109
790.196912	-2.981900	3.710900	-11.063000	24.014737	0.000400	20.819691
791.197615	-3.007000	3.709800	-11.155000	24.029491	0.000397	20.844918
792.199762	-2.990800	3.710300	-11.096000	24.034763	0.000397	20.815593
793.197162	-2.971600	3.709500	-11.021000	24.022195	0.000398	20.843291
794.197005	-2.993400	3.708800	-11.101000	23.993679	0.000400	20.823230
795.196698	-2.992000	3.708200	-11.094000	23.988801	0.000396	20.846312
796.197220	-2.997800	3.708100	-11.115000	23.983775	0.000397	20.827996
797.199194	-2.997000	3.707400	-11.111000	24.002290	0.000396	20.835184
798.198890	-2.997600	3.707600	-11.113000	24.006492	0.000397	20.846035
799.198784	-2.998000	3.707500	-11.114000	24.047651	0.000397	20.831836
800.198851	-3.011500	3.707800	-11.165000	24.032693	0.000396	20.840069
801.200472	-3.001100	3.707300	-11.125000	24.012983	0.000396	20.840691
802.201644	-2.968000	3.708100	-11.004000	24.005242	0.000396	20.831032
803.201726	-3.002200	3.706700	-11.127000	24.008129	0.000397	20.824444
804.198201	-2.989800	3.707900	-11.085000	24.025817	0.000396	20.819897
805.198714	-2.975800	3.708300	-11.034000	24.047888	0.000396	20.850091
806.200879	-3.003100	3.705400	-11.127000	24.061423	0.000396	20.838536
807.198699	-2.998600	3.705800	-11.111000	24.038607	0.000395	20.846948
808.200374	-3.001900	3.706900	-11.127000	24.004562	0.000393	20.833195
809.197917	-3.010700	3.706300	-11.157000	24.025692	0.000395	20.833522
810.197851	-2.989300	3.705600	-11.076000	24.015086	0.000393	20.849438
811.203231	-3.010800	3.704900	-11.154000	24.010781	0.000393	20.836586
812.200856	-2.993100	3.705100	-11.089000	24.040016	0.000393	20.829870
813.205058	-2.986800	3.704800	-11.065000	24.059500	0.000393	20.848935
814.201013	-3.002900	3.702500	-11.117000	24.076521	0.000394	20.824280
815.202998	-2.974800	3.704900	-11.019000	24.109164	0.000395	20.823354
816.204210	-3.008500	3.703800	-11.142000	24.076195	0.000396	20.808781
817.204150	-2.995400	3.703700	-11.093000	24.090901	0.000392	20.821633
818.203168	-2.991900	3.704500	-11.083000	24.062334	0.000393	20.831389
819.207943	-3.002500	3.703600	-11.119000	24.062584	0.000389	20.825477
820.204074	-3.011200	3.701400	-11.145000	24.076861	0.000391	20.837424
821.204463	-3.010900	3.702600	-11.147000	24.070790	0.000394	20.829439
822.205314	-3.001100	3.702800	-11.111000	24.050016	0.000391	20.816191
823.204797	-2.983900	3.703500	-11.050000	24.005495	0.000392	20.826544
824.206812	-2.998300	3.701400	-11.097000	24.020800	0.000391	20.817237
825.205655	-2.983800	3.702000	-11.045000	24.044565	0.000390	20.818311
826.206230	-2.992300	3.700500	-11.072000	24.041553	0.000390	20.821928
827.208720	-2.983000	3.703000	-11.045000	24.038168	0.000392	20.821853
828.208086	-2.991700	3.701500	-11.073000	24.043394	0.000389	20.816188
829.209803	-2.984200	3.701900	-11.047000	24.058398	0.000388	20.811321
830.210136	-3.001300	3.699400	-11.102000	24.037147	0.000390	20.800441
831.209612	-2.990600	3.700000	-11.064000	24.026276	0.000390	20.809927
832.210984	-2.969700	3.699700	-10.986000	24.042996	0.000391	20.806306
833.210423	-3.001700	3.700300	-11.107000	24.062205	0.000391	20.807553
834.211465	-2.984400	3.698200	-11.036000	24.072506	0.000390	20.816935
835.211419	-3.011900	3.698400	-11.138000	24.116975	0.000389	20.805584
836.211161	-2.987500	3.698600	-11.049000	24.124639	0.000389	20.815642
837.213264	-3.020700	3.698400	-11.171000	24.124342	0.000388	20.828620
838.215470	-2.991500	3.697800	-11.060000	24.142156	0.000388	20.811874
839.214135	-3.009300	3.698300	-11.129000	24.144767	0.000388	20.815441
840.216458	-2.962700	3.698700	-10.957000	24.137830	0.000388	20.810853
841.213383	-3.008400	3.697900	-11.124000	24.113991	0.000388	20.816342
842.213111	-2.994900	3.698300	-11.074000	24.113053	0.000385	20.806392
843.213951	-2.975500	3.697700	-11.001000	24.131737	0.000389	20.816597
844.213591	-2.998700	3.697200	-11.086000	24.111885	0.000387	20.794315
845.216994	-3.007700	3.697300	-11.120000	24.093400	0.000387	20.799010
846.216805	-2.999500	3.698200	-11.091000	24.101337	0.000386	20.812660
847.214740	-3.013800	3.694600	-11.134000	24.081684	0.000386	20.801010
848.213706	-2.990300	3.696600	-11.053000	24.091616	0.000385	20.787737
849.214247	-2.983800	3.696600	-11.029000	24.113266	0.000385	20.794752
850.218806	-2.986100	3.696700	-11.038000	24.150739	0.000387	20.805784
851.215927	-3.004400	3.694600	-11.099000	24.101375	0.000381	20.789939
852.217319	-3.000600	3.694900	-11.086000	24.111457	0.000384	20.795309
853.216913	-3.015600	3.693600	-11.138000	24.120640	0.000384	20.790768
854.216795	-3.017500	3.694900	-11.148000	24.111539	0.000383	20.813883
855.218944	-2.990900	3.695100	-11.051000	24.123483	0.000384	20.795517
856.218533	-2.996400	3.693900	-11.067000	24.180911	0.000383	20.795269
857.217294	-3.002400	3.693500	-11.089000	24.168817	0.000383	20.791673
858.216884	-3.011000	3.693200	-11.120000	24.128365	0.000383	20.779549
859.219166	-2.989300	3.694300	-11.043000	24.145359	0.000381	20.822198
860.219166	-3.005500	3.693000	-11.098000	24.174647	0.000381	20.817435
861.220462	-3.006600	3.693700	-11.103000	24.185695	0.000384	20.801015
862.218828	-2.989600	3.693000	-11.040000	24.174923	0.000382	20.805383
863.218646	-2.996400	3.692300	-11.062000	24.145860	0.000380	20.773863
864.220890	-3.004000	3.693200	-11.093000	24.147307	0.000379	20.818462
865.219053	-2.997600	3.692100	-11.066000	24.197642	0.000381	20.787868
866.221880	-2.984600	3.692500	-11.020000	24.194136	0.000382	20.797154
867.219923	-3.008500	3.692300	-11.107000	24.177615	0.000378	20.794334
868.220177	-3.014400	3.691900	-11.127000	24.175101	0.000379	20.805563
869.219206	-3.007200	3.690300	-11.097000	24.159727	0.000380	20.776865
870.220104	-2.998700	3.689800	-11.064000	24.185455	0.000379	20.786550
871.224696	-2.986500	3.690600	-11.022000	24.187568	0.000381	20.791988
872.223797	-2.992500	3.689800	-11.041000	24.233844	0.000378	20.773920
873.221604	-3.002400	3.690900	-11.080000	24.242529	0.000377	20.786898
874.221415	-2.991400	3.689900	-11.037000	24.193764	0.000378	20.783978
875.224202	-3.014900	3.690200	-11.125000	24.156640	0.000378	20.796529
876.223034	-3.009700	3.689100	-11.101000	24.133077	0.000377	20.779534
877.224476	-2.989100	3.689700	-11.028000	24.155225	0.000376	20.793213
878.223310	-3.011500	3.687400	-11.104000	24.140917	0.000377	20.778388
879.224064	-2.983900	3.689000	-11.007000	24.168436	0.000375	20.811206
880.226390	-2.994400	3.688800	-11.045000	24.197474	0.000377	20.776319
881.222314	-2.976900	3.687800	-10.977000	24.199540	0.000378	20.790720
882.227530	-2.998000	3.687400	-11.054000	24.199562	0.000374	20.780784
883.224982	-3.028100	3.687500	-11.165000	24.266017	0.000376	20.782957
884.226913	-3.018600	3.687800	-11.131000	24.291216	0.000376	20.787372
885.225546	-3.010900	3.685900	-11.097000	24.230836	0.000375	20.766635
886.226720	-3.008100	3.687500	-11.090000	24.218921	0.000375	20.802574
887.227092	-2.987600	3.687500	-11.015000	24.209517	0.000375	20.785554
888.229601	-2.986400	3.687000	-11.010000	24.178317	0.000373	20.778916
889.227264	-3.001000	3.685100	-11.057000	24.173117	0.000374	20.780339
890.227227	-2.991400	3.686600	-11.027000	24.161922	0.000375	20.771006
891.228953	-2.961900	3.685700	-10.915000	24.158566	0.000373	20.791348
892.227349	-2.977400	3.686300	-10.974000	24.168368	0.000371	20.750445
893.230687	-3.016000	3.685100	-11.113000	24.204249	0.000373	20.776003
894.227658	-2.995900	3.685000	-11.038000	24.217413	0.000375	20.799164
895.226927	-2.970800	3.686400	-10.950000	24.227287	0.000373	20.763075
896.228121	-3.031000	3.684700	-11.167000	24.249583	0.000373	20.770266
897.228351	-3.006900	3.682900	-11.073000	24.261479	0.000372	20.780302
898.230693	-2.994700	3.684600	-11.033000	24.224808	0.000372	20.784771
899.228781	-3.006200	3.684300	-11.075000	24.259541	0.000372	20.780255
900.228151	-3.034600	3.682200	-11.173000	24.261908	0.000373	20.785474
901.228202	-2.975500	3.684700	-10.962000	24.251186	0.000369	20.779935
902.231605	-2.997400	3.682800	-11.038000	24.279351	0.000371	20.765039
903.228525	-2.989100	3.683500	-11.009000	24.285277	0.000370	20.761500
904.229384	-2.982300	3.682100	-10.981000	24.293689	0.000370	20.797913
905.229932	-3.004200	3.682800	-11.063000	24.282742	0.000371	20.771759
906.230056	-3.008200	3.681600	-11.074000	24.255429	0.000369	20.763328
907.233840	-2.991000	3.682400	-11.012000	24.247691	0.000369	20.765049
908.230987	-2.989900	3.681800	-11.007000	24.230379	0.000369	20.774712
909.233643	-3.047800	3.679800	-11.214000	24.215228	0.000368	20.768997
910.231340	-2.983400	3.681000	-10.981000	24.189579	0.000369	20.773142
911.231516	-3.017500	3.679200	-11.101000	24.202399	0.000368	20.768457
912.232283	-3.003400	3.680400	-11.053000	24.208720	0.000366	20.767685
913.233147	-3.007800	3.680300	-11.069000	24.196977	0.000369	20.769183
914.232790	-2.990800	3.679600	-11.004000	24.239378	0.000368	20.771410
915.237920	-3.021300	3.679500	-11.116000	24.249753	0.000369	20.775178
916.234475	-3.003400	3.680100	-11.052000	24.227836	0.000366	20.784015
917.234097	-3.001000	3.679800	-11.042000	24.236073	0.000366	20.768568
918.236950	-3.004100	3.679000	-11.051000	24.235629	0.000366	20.780925
919.234926	-3.019300	3.678200	-11.105000	24.238118	0.000364	20.771094
920.237043	-2.987200	3.678600	-10.988000	24.268696	0.000365	20.780430
921.235621	-2.991700	3.680400	-11.009000	24.291736	0.000363	20.760867
922.235153	-2.981900	3.677600	-10.965000	24.324902	0.000365	20.761420
923.234791	-2.992100	3.678400	-11.005000	24.311642	0.000364	20.767559
924.237098	-2.984300	3.677100	-10.972000	24.242354	0.000366	20.779610
925.236219	-2.987500	3.677300	-10.985000	24.254451	0.000363	20.758079
926.236186	-3.007900	3.675300	-11.054000	24.286744	0.000362	20.769136
927.235632	-3.013000	3.676100	-11.075000	24.259281	0.000363	20.772882
928.235380	-2.959400	3.677300	-10.881000	24.226686	0.000365	20.765317
929.236889	-2.997200	3.677200	-11.020000	24.257638	0.000364	20.775501
930.236163	-3.015500	3.676400	-11.086000	24.247711	0.000364	20.755112
931.237950	-3.022700	3.675800	-11.110000	24.272492	0.000364	20.758632
932.238048	-3.013800	3.674700	-11.074000	24.239754	0.000364	20.768942
933.237491	-2.998200	3.674500	-11.016000	24.247120	0.000360	20.768744
934.240743	-3.004800	3.674400	-11.040000	24.233787	0.000361	20.766276
935.239050	-2.982400	3.675000	-10.959000	24.240581	0.000360	20.763607
936.243543	-2.985600	3.675700	-10.973000	24.262823	0.000360	20.749407
937.240934	-3.003600	3.674000	-11.034000	24.235607	0.000360	20.746289
938.240464	-3.005600	3.672900	-11.038000	24.256355	0.000362	20.762835
939.244486	-3.006900	3.673200	-11.043000	24.280936	0.000358	20.763309
940.241527	-3.001000	3.673600	-11.022000	24.277530	0.000360	20.765583
941.243911	-2.996200	3.672400	-11.002000	24.266433	0.000361	20.767727
942.243237	-2.990200	3.673100	-10.982000	24.254468	0.000359	20.774218
943.243215	-2.971300	3.672400	-10.911000	24.229938	0.000357	20.761940
944.241565	-2.981700	3.671000	-10.945000	24.273949	0.000358	20.750610
945.243097	-3.003100	3.671800	-11.025000	24.251510	0.000358	20.744223
946.244437	-2.993900	3.671100	-10.990000	24.277014	0.000357	20.758901
947.242456	-2.981700	3.670900	-10.944000	24.272835	0.000357	20.750916
948.243670	-2.996700	3.672300	-11.004000	24.313389	0.000356	20.763621
949.245831	-3.011600	3.670600	-11.053000	24.268087	0.000357	20.747101
950.246062	-2.985400	3.670000	-10.956000	24.249455	0.000355	20.768241
951.245251	-3.002800	3.669700	-11.019000	24.293197	0.000356	20.747632
952.245699	-2.981300	3.670200	-10.942000	24.305264	0.000355	20.753100
953.246514	-3.007600	3.669200	-11.035000	24.333227	0.000353	20.736579
954.246749	-2.979300	3.671400	-10.936000	24.355919	0.000353	20.768826
955.248402	-2.987600	3.669300	-10.962000	24.333034	0.000354	20.768154
956.248465	-2.995800	3.669300	-10.991000	24.333063	0.000354	20.753958
957.251220	-2.989900	3.668700	-10.968000	24.360978	0.000353	20.747823
958.248940	-3.006900	3.668700	-11.030000	24.345033	0.000353	20.757906
959.247554	-2.991700	3.667800	-10.972000	24.320505	0.000355	20.746576
960.248027	-2.996600	3.668000	-10.991000	24.282196	0.000352	20.744658
961.247303	-3.002900	3.668000	-11.013000	24.305332	0.000352	20.759806
962.250613	-2.995400	3.667200	-10.983000	24.278167	0.000354	20.755316
963.251144	-2.990900	3.666600	-10.964000	24.291854	0.000352	20.743914
964.248943	-2.987500	3.667200	-10.955000	24.330366	0.000352	20.742718
965.249496	-2.999400	3.667000	-10.998000	24.376988	0.000351	20.732588
966.253532	-2.993300	3.666500	-10.974000	24.399374	0.000353	20.738451
967.248324	-2.999200	3.667100	-10.997000	24.409052	0.000349	20.758592
968.251046	-2.993900	3.665300	-10.972000	24.435050	0.000348	20.724455
969.249736	-2.991300	3.664500	-10.961000	24.423682	0.000348	20.747190
970.250774	-3.013300	3.665300	-11.044000	24.411967	0.000348	20.745869
971.250055	-2.990500	3.666100	-10.962000	24.419876	0.000348	20.741475
972.250777	-3.001300	3.664700	-10.997000	24.388979	0.000348	20.726600
973.250217	-2.986400	3.666400	-10.948000	24.361594	0.000348	20.729474
974.249334	-3.002700	3.663700	-11.000000	24.306292	0.000348	20.751286
975.250252	-2.997000	3.664500	-10.982000	24.301691	0.000346	20.759946
976.250745	-2.999500	3.664700	-10.990000	24.319724	0.000347	20.744845
977.250394	-3.010200	3.663500	-11.027000	24.324379	0.000348	20.749989
978.251163	-3.025100	3.661900	-11.076000	24.299800	0.000346	20.739557
979.253012	-2.990500	3.662900	-10.953000	24.312441	0.000348	20.742280
980.251294	-2.998500	3.663200	-10.983000	24.314009	0.000347	20.737689
981.251905	-3.027400	3.662100	-11.085000	24.342691	0.000347	20.735167
982.253161	-3.003600	3.661100	-10.994000	24.365082	0.000346	20.745775
983.250538	-3.017000	3.661700	-11.045000	24.326198	0.000344	20.746124
984.253966	-2.988100	3.661400	-10.940000	24.351822	0.000344	20.753337
985.251387	-3.021900	3.660600	-11.061000	24.332021	0.000343	20.731101
986.252767	-2.991200	3.660800	-10.950000	24.365554	0.000343	20.718273
987.252762	-3.020300	3.660200	-11.054000	24.371029	0.000344	20.723291
988.252274	-3.004900	3.659300	-10.995000	24.357319	0.000343	20.720917
989.255487	-2.991700	3.659900	-10.948000	24.350383	0.000342	20.718226
990.254119	-2.994500	3.660100	-10.959000	24.343615	0.000342	20.729930
991.252079	-2.995600	3.659800	-10.962000	24.374707	0.000344	20.732196
992.253278	-2.992500	3.659900	-10.950000	24.377403	0.000343	20.738221
993.254348	-2.990200	3.659400	-10.941000	24.363693	0.000340	20.726837
994.254460	-2.982400	3.659000	-10.911000	24.372401	0.000341	20.724667
995.255722	-3.006600	3.659200	-11.001000	24.367048	0.000342	20.724038
996.253154	-3.013000	3.657300	-11.019000	24.407502	0.000338	20.728586
997.254090	-3.003600	3.656900	-10.984000	24.417502	0.000341	20.732929
998.255850	-2.987600	3.658300	-10.929000	24.398894	0.000342	20.727063
999.256815	-2.995600	3.657600	-10.955000	24.384865	0.000337	20.732430
1000.257619	-3.007500	3.656300	-10.995000	24.376608	0.000338	20.715137
1001.256609	-3.003500	3.656600	-10.982000	24.332798	0.000340	20.716232
1002.255798	-3.006400	3.655400	-10.988000	24.336876	0.000339	20.717953
1003.257214	-2.987800	3.656000	-10.922000	24.353147	0.000337	20.720051
1004.258174	-3.006100	3.655600	-10.988000	24.355858	0.000336	20.714235
1005.256814	-2.999700	3.656700	-10.967000	24.351608	0.000339	20.733206
1006.259958	-2.982900	3.656500	-10.906000	24.329639	0.000337	20.722548
1007.257490	-2.994400	3.655400	-10.945000	24.355561	0.000336	20.712989
1008.258232	-2.993800	3.655500	-10.943000	24.347325	0.000335	20.724642
1009.259764	-2.985700	3.655400	-10.913000	24.360907	0.000336	20.724516
1010.257209	-2.969300	3.655800	-10.854000	24.395836	0.000337	20.740118
1011.260471	-2.975400	3.654700	-10.873000	24.428971	0.000336	20.726891
1012.258314	-2.979100	3.655000	-10.888000	24.446057	0.000335	20.720798
1013.258751	-2.996800	3.654100	-10.949000	24.423299	0.000334	20.735900
1014.258360	-2.991400	3.651900	-10.923000	24.428720	0.000335	20.716681
1015.259181	-3.005700	3.651700	-10.975000	24.438151	0.000334	20.718082
1016.259923	-3.003500	3.653300	-10.972000	24.475287	0.000336	20.706027
1017.259122	-3.007300	3.651200	-10.979000	24.484990	0.000333	20.715288
1018.260903	-2.987700	3.654000	-10.916000	24.440360	0.000333	20.701806
1019.260290	-3.001200	3.651400	-10.958000	24.439365	0.000334	20.702229
1020.262548	-3.003100	3.651700	-10.966000	24.440113	0.000332	20.720999
1021.260928	-2.997900	3.651100	-10.945000	24.425165	0.000331	20.724495
1022.262484	-2.994900	3.650600	-10.932000	24.428398	0.000330	20.704978
1023.262190	-3.001600	3.651600	-10.959000	24.436805	0.000331	20.739967
1024.262451	-2.968700	3.651300	-10.838000	24.446304	0.000330	20.716304
1025.261681	-3.007900	3.649900	-10.977000	24.468989	0.000330	20.700182
1026.261353	-3.022200	3.650200	-11.031000	24.513396	0.000329	20.719131
1027.264432	-3.000400	3.651500	-10.955000	24.521773	0.000330	20.705725
1028.261920	-3.024000	3.649100	-11.034000	24.515232	0.000329	20.708171
1029.261798	-3.004900	3.648400	-10.962000	24.493371	0.000329	20.704730
1030.262478	-2.991900	3.650100	-10.920000	24.420116	0.000328	20.708523
1031.261451	-3.008300	3.648800	-10.976000	24.392130	0.000327	20.729287
1032.264707	-2.997000	3.647500	-10.931000	24.403971	0.000326	20.713190
1033.262105	-3.009300	3.647500	-10.975000	24.440858	0.000327	20.686182
1034.262506	-2.986800	3.647600	-10.894000	24.475684	0.000328	20.687932
1035.261636	-2.970100	3.649600	-10.839000	24.469566	0.000327	20.717357
1036.263002	-2.989800	3.647100	-10.904000	24.470063	0.000325	20.706950
1037.264997	-3.017300	3.647000	-11.003000	24.481778	0.000325	20.701633
1038.263111	-3.010000	3.647900	-10.978000	24.461857	0.000323	20.700613
1039.261182	-2.991000	3.646200	-10.905000	24.483493	0.000324	20.713312
1040.260443	-3.030900	3.645100	-11.047000	24.457478	0.000326	20.705703
1041.264812	-3.013900	3.644900	-10.984000	24.475086	0.000325	20.698713
1042.261277	-3.020400	3.646000	-11.010000	24.456307	0.000322	20.719703
1043.262476	-2.973500	3.646100	-10.841000	24.442698	0.000325	20.688503
1044.262714	-2.978400	3.646100	-10.858000	24.453321	0.000322	20.703429
1045.262304	-3.000100	3.644300	-10.932000	24.461281	0.000324	20.719476
1046.263463	-2.974100	3.644900	-10.839000	24.472473	0.000325	20.708893
1047.261514	-2.993900	3.643600	-10.908000	24.446504	0.000322	20.704651
1048.266658	-2.992100	3.644400	-10.903000	24.425261	0.000324	20.714634
1049.262358	-2.988300	3.644700	-10.891000	24.449938	0.000324	20.696241
1050.263786	-2.997100	3.643400	-10.918000	24.442995	0.000322	20.716778
1051.263895	-2.980200	3.642700	-10.855000	24.441452	0.000321	20.698633
1052.263796	-3.000800	3.643700	-10.933000	24.424115	0.000320	20.705423
1053.265059	-2.992900	3.642700	-10.901000	24.433296	0.000320	20.705624
1054.269508	-2.998800	3.642700	-10.923000	24.415980	0.000319	20.705322
1055.266762	-3.009200	3.642300	-10.960000	24.435734	0.000321	20.704751
1056.266591	-2.998700	3.641200	-10.917000	24.445881	0.000319	20.702129
1057.271211	-3.016900	3.642600	-10.988000	24.444639	0.000319	20.695192
1058.268462	-3.000700	3.641300	-10.926000	24.432476	0.000318	20.691524
1059.271170	-2.993400	3.641400	-10.899000	24.464238	0.000318	20.706321
1060.268242	-3.029000	3.640500	-11.026000	24.487818	0.000317	20.701055
1061.269294	-3.002600	3.640500	-10.930000	24.461452	0.000316	20.707320
1062.269647	-2.986500	3.640400	-10.871000	24.437148	0.000317	20.696212
1063.270996	-3.011700	3.638400	-10.957000	24.404684	0.000318	20.684030
1064.273286	-2.992600	3.639900	-10.892000	24.397247	0.000318	20.695537
1065.272479	-2.991000	3.639600	-10.886000	24.421473	0.000317	20.697082
1066.272316	-3.003600	3.639700	-10.931000	24.420402	0.000315	20.688420
1067.272847	-2.996600	3.637900	-10.901000	24.452090	0.000315	20.689390
1068.271917	-3.002900	3.638000	-10.924000	24.464184	0.000315	20.697732
1069.273901	-3.001100	3.637700	-10.916000	24.476343	0.000316	20.715147
1070.273691	-2.993200	3.637000	-10.885000	24.420177	0.000314	20.704317
1071.273694	-3.005800	3.637000	-10.931000	24.447786	0.000313	20.709730
1072.274103	-2.997900	3.636900	-10.902000	24.456071	0.000313	20.702395
1073.275596	-2.990500	3.636500	-10.874000	24.488903	0.000311	20.720636
1074.275203	-3.007100	3.635700	-10.931000	24.514473	0.000314	20.718316
1075.277837	-2.995200	3.635700	-10.888000	24.531035	0.000313	20.706957
1076.276033	-3.009000	3.635500	-10.938000	24.535313	0.000313	20.715043
1077.277487	-3.003000	3.634600	-10.913000	24.572546	0.000312	20.708778
1078.278340	-2.999100	3.634000	-10.897000	24.547249	0.000311	20.709001
1079.277595	-3.000800	3.635200	-10.908000	24.536480	0.000310	20.682072
1080.280484	-2.994000	3.634600	-10.881000	24.508347	0.000310	20.720231
1081.280880	-2.966500	3.634900	-10.782000	24.517774	0.000310	20.718783
1082.279536	-2.994100	3.634400	-10.881000	24.565651	0.000312	20.708498
1083.278673	-2.970300	3.634800	-10.795000	24.557073	0.000310	20.696097
1084.282327	-2.984200	3.633800	-10.843000	24.534565	0.000311	20.727570
1085.278732	-3.004300	3.633600	-10.915000	24.552741	0.000307	20.697915
1086.281483	-3.000800	3.632700	-10.900000	24.557868	0.000309	20.730088
1087.280961	-3.001500	3.632000	-10.900000	24.585223	0.000311	20.708221
1088.280411	-2.997500	3.632400	-10.887000	24.580054	0.000309	20.708724
1089.283587	-3.010900	3.630300	-10.930000	24.549981	0.000308	20.710319
1090.280455	-3.010300	3.631000	-10.930000	24.513467	0.000309	20.714935
1091.283762	-3.028800	3.629900	-10.994000	24.555079	0.000306	20.714486
1092.280941	-3.028900	3.630400	-10.995000	24.570323	0.000305	20.722195
1093.281514	-2.988000	3.630700	-10.848000	24.616136	0.000308	20.700358
1094.281301	-2.986300	3.631400	-10.844000	24.607483	0.000306	20.737197
1095.282936	-2.998900	3.629200	-10.883000	24.627527	0.000306	20.703253
1096.282454	-2.993500	3.630000	-10.866000	24.614224	0.000307	20.715036
1097.285109	-3.004300	3.629200	-10.902000	24.562791	0.000308	20.710370
1098.283029	-3.005700	3.628200	-10.904000	24.487199	0.000306	20.714185
1099.282719	-2.995400	3.629300	-10.871000	24.514956	0.000306	20.725439
1100.283432	-2.996900	3.628300	-10.872000	24.559354	0.000304	20.710714
1101.283432	-2.998700	3.628200	-10.879000	24.596163	0.000304	20.705922
1102.286662	-3.000900	3.627200	-10.883000	24.614145	0.000302	20.726812
1103.283123	-3.005800	3.627500	-10.902000	24.630434	0.000305	20.722292
1104.285106	-3.006100	3.625800	-10.899000	24.637525	0.000303	20.722770
1105.285657	-2.997200	3.627100	-10.870000	24.566392	0.000301	20.716354
1106.286650	-3.001300	3.626500	-10.883000	24.577533	0.000301	20.717576
1107.286353	-2.969100	3.627900	-10.771000	24.572460	0.000301	20.720072
1108.285618	-3.009500	3.624800	-10.908000	24.523313	0.000302	20.730979
1109.285703	-2.997900	3.625900	-10.869000	24.546319	0.000300	20.730354
1110.285794	-2.995000	3.625800	-10.858000	24.530122	0.000301	20.725482
1111.289647	-3.010600	3.625200	-10.913000	24.524630	0.000302	20.729930
1112.287388	-2.988700	3.627100	-10.839000	24.553107	0.000299	20.709662
1113.288690	-3.006900	3.624800	-10.899000	24.538038	0.000299	20.731054
1114.286024	-2.992600	3.624800	-10.846000	24.528583	0.000300	20.726783
1115.286341	-2.995400	3.625100	-10.858000	24.554002	0.000300	20.720518
1116.289774	-3.001000	3.623600	-10.873000	24.528661	0.000299	20.733975
1117.287539	-2.994000	3.623100	-10.847000	24.524057	0.000299	20.737890
1118.290513	-3.009200	3.622500	-10.900000	24.518662	0.000298	20.753340
1119.289036	-2.993200	3.622100	-10.841000	24.559973	0.000299	20.727458
1120.288803	-2.998400	3.621800	-10.859000	24.563034	0.000297	20.711562
1121.288803	-2.990500	3.622400	-10.832000	24.590765	0.000299	20.709515
1122.289189	-2.986900	3.621100	-10.815000	24.582234	0.000297	20.717551
1123.289385	-2.987900	3.621600	-10.820000	24.548635	0.000298	20.736471
1124.290695	-2.995500	3.621300	-10.847000	24.580895	0.000295	20.733278
1125.288821	-2.999400	3.621900	-10.863000	24.613050	0.000296	20.734722
1126.289519	-2.980900	3.620700	-10.792000	24.626532	0.000296	20.733551
1127.291467	-2.975900	3.620600	-10.774000	24.622529	0.000294	20.735225
1128.289793	-2.991300	3.620300	-10.829000	24.642029	0.000294	20.723496
1129.291975	-3.007400	3.618500	-10.880000	24.609696	0.000294	20.739891
1130.289923	-3.004500	3.619400	-10.874000	24.594946	0.000293	20.737894
1131.290493	-2.994800	3.618400	-10.836000	24.592487	0.000294	20.733529
1132.291831	-3.028900	3.618300	-10.959000	24.600767	0.000293	20.717655
1133.292879	-3.004500	3.618000	-10.869000	24.613082	0.000294	20.753247
1134.292873	-2.985400	3.617900	-10.800000	24.586816	0.000297	20.743961
1135.295429	-2.982600	3.618800	-10.792000	24.587289	0.000294	20.732107
1136.295192	-2.991200	3.616700	-10.817000	24.613254	0.000292	20.720227
1137.295113	-3.014000	3.615400	-10.895000	24.590446	0.000294	20.750449
1138.294914	-2.987300	3.617500	-10.805000	24.555677	0.000292	20.732157
1139.294304	-3.001600	3.616300	-10.854000	24.556278	0.000293	20.746512
1140.295407	-2.994400	3.616000	-10.827000	24.547940	0.000290	20.748103
1141.296237	-3.001000	3.615900	-10.850000	24.518766	0.000290	20.735900
1142.296767	-3.005800	3.615000	-10.865000	24.527469	0.000292	20.743210
1143.298551	-3.012500	3.615300	-10.891000	24.536624	0.000291	20.749076
1144.295890	-3.021900	3.614200	-10.921000	24.543265	0.000291	20.743886
1145.300054	-2.982600	3.615100	-10.781000	24.517545	0.000289	20.747004
1146.297071	-3.038500	3.613800	-10.979000	24.519510	0.000291	20.738544
1147.296146	-3.012600	3.613600	-10.885000	24.560922	0.000290	20.743110
1148.296736	-3.009100	3.613500	-10.872000	24.599994	0.000293	20.749597
1149.297088	-2.999700	3.612100	-10.835000	24.616580	0.000288	20.748221
1150.296175	-3.005200	3.612800	-10.855000	24.637321	0.000289	20.750068
1151.299922	-2.986800	3.614100	-10.794000	24.620736	0.000289	20.743857
1152.297695	-2.976400	3.613400	-10.754000	24.600835	0.000288	20.725784
1153.297575	-3.009100	3.611400	-10.866000	24.551191	0.000288	20.743304
1154.302131	-2.978400	3.611800	-10.757000	24.512067	0.000288	20.741982
1155.297402	-2.998200	3.611300	-10.825000	24.506249	0.000287	20.750370
1156.300519	-2.996700	3.611400	-10.822000	24.555144	0.000287	20.741579
1157.300511	-2.998000	3.611700	-10.827000	24.564670	0.000285	20.753509
1158.299811	-3.013700	3.610800	-10.881000	24.568250	0.000286	20.756153
1159.300378	-3.006100	3.609400	-10.849000	24.553275	0.000285	20.747291
1160.302592	-2.996700	3.610000	-10.817000	24.563997	0.000284	20.741454
1161.304686	-2.995200	3.608600	-10.808000	24.574612	0.000283	20.758743
1162.304322	-3.009300	3.608200	-10.857000	24.554990	0.000281	20.747589
1163.304427	-2.995200	3.608300	-10.807000	24.598763	0.000281	20.781079
1164.304086	-3.027200	3.608100	-10.922000	24.578142	0.000283	20.773191
1165.303606	-2.994600	3.607600	-10.803000	24.561477	0.000283	20.732760
1166.303495	-2.988400	3.608500	-10.783000	24.597939	0.000282	20.755122
1167.306301	-2.996600	3.607200	-10.808000	24.626714	0.000282	20.742743
1168.305285	-2.995900	3.607100	-10.806000	24.646532	0.000283	20.775432
1169.306011	-3.014100	3.607800	-10.874000	24.610422	0.000281	20.762906
1170.306776	-2.996800	3.607300	-10.808000	24.579134	0.000281	20.775134
1171.305268	-3.027000	3.605700	-10.914000	24.602418	0.000279	20.760090
1172.307405	-2.975800	3.607300	-10.733000	24.623206	0.000280	20.744913
1173.305733	-3.015300	3.605300	-10.870000	24.646536	0.000280	20.759788
1174.305155	-3.004800	3.606200	-10.835000	24.643425	0.000280	20.754296
1175.307297	-3.017300	3.604700	-10.876000	24.686772	0.000277	20.751799
1176.307319	-2.997900	3.605600	-10.808000	24.701370	0.000279	20.751275
1177.306331	-2.982400	3.605700	-10.753000	24.648623	0.000276	20.777056
1178.311147	-3.033300	3.603200	-10.928000	24.634372	0.000279	20.776032
1179.307259	-2.988400	3.604500	-10.771000	24.637608	0.000276	20.761261
1180.306344	-2.999600	3.602600	-10.805000	24.636835	0.000276	20.770443
1181.311960	-2.991700	3.603100	-10.778000	24.634046	0.000276	20.780921
1182.307880	-2.982000	3.605100	-10.750000	24.592884	0.000276	20.779922
1183.312638	-2.991500	3.603700	-10.780000	24.547224	0.000275	20.755920
1184.309016	-2.994200	3.603100	-10.788000	24.546924	0.000276	20.767946
1185.308325	-3.010400	3.603000	-10.845000	24.554607	0.000276	20.760007
1186.308575	-2.975500	3.602000	-10.716000	24.583183	0.000275	20.774929
1187.308771	-3.013100	3.601700	-10.851000	24.566969	0.000276	20.752022
1188.310694	-3.035000	3.600900	-10.928000	24.576119	0.000273	20.755988
1189.309925	-3.033100	3.600500	-10.920000	24.588757	0.000277	20.770565
1190.310555	-2.990000	3.601800	-10.769000	24.613974	0.000275	20.760780
1191.310800	-3.007700	3.601000	-10.829000	24.641506	0.000275	20.776553
1192.311166	-2.998100	3.601400	-10.796000	24.603753	0.000275	20.777077
1193.310923	-2.979200	3.601900	-10.729000	24.638818	0.000276	20.762001
1194.313178	-3.015700	3.599600	-10.854000	24.663465	0.000274	20.764922
1195.311429	-2.984000	3.598800	-10.738000	24.689750	0.000275	20.768539
1196.310803	-3.001500	3.597700	-10.798000	24.717628	0.000270	20.786083
1197.311889	-2.994100	3.598900	-10.775000	24.682688	0.000273	20.782789
1198.310410	-3.001100	3.600000	-10.803000	24.671916	0.000271	20.784783
1199.315063	-3.003300	3.597800	-10.805000	24.676394	0.000271	20.784535
1200.311539	-2.987200	3.598600	-10.749000	24.676473	0.000271	20.772286
1201.311955	-2.984300	3.598900	-10.739000	24.691715	0.000271	20.787107
1202.311546	-3.011800	3.598000	-10.836000	24.723524	0.000274	20.785361
1203.312681	-3.024400	3.596500	-10.876000	24.689453	0.000270	20.786733
1204.313706	-2.999300	3.596500	-10.787000	24.696738	0.000270	20.777447
1205.310682	-3.009600	3.595900	-10.822000	24.691916	0.000269	20.770238
1206.311587	-3.011800	3.596600	-10.830000	24.708400	0.000267	20.783935
1207.311996	-2.992600	3.595600	-10.759000	24.708353	0.000268	20.788630
1208.312649	-2.995400	3.596200	-10.771000	24.664259	0.000269	20.775677
1209.313538	-3.000000	3.596200	-10.787000	24.674060	0.000266	20.774606
1210.315498	-3.005300	3.595100	-10.803000	24.681596	0.000267	20.789280
1211.312729	-2.985400	3.595100	-10.732000	24.713275	0.000267	20.773654
1212.312586	-2.988000	3.594100	-10.737000	24.690051	0.000267	20.788281
1213.313757	-2.993700	3.594300	-10.759000	24.692263	0.000268	20.784811
1214.312654	-2.983000	3.592900	-10.716000	24.666647	0.000265	20.790875
1215.315471	-3.020600	3.592400	-10.851000	24.663661	0.000266	20.790724
1216.312885	-3.001300	3.593700	-10.785000	24.614443	0.000265	20.796812
1217.314259	-2.991300	3.592000	-10.744000	24.641975	0.000263	20.784610
1218.314188	-3.017000	3.592300	-10.837000	24.647420	0.000265	20.804298
1219.313876	-3.006600	3.591800	-10.799000	24.702780	0.000264	20.800106
1220.317050	-3.002200	3.592500	-10.785000	24.672639	0.000264	20.778870
1221.315549	-3.024400	3.590100	-10.857000	24.675202	0.000265	20.777174
1222.313942	-3.015400	3.590200	-10.825000	24.715835	0.000264	20.799930
1223.314014	-3.000500	3.589600	-10.770000	24.669754	0.000263	20.809166
1224.316739	-3.012200	3.590100	-10.813000	24.684008	0.000261	20.809245
1225.315166	-3.019600	3.590200	-10.840000	24.671770	0.000262	20.811662
1226.317896	-2.998500	3.590300	-10.765000	24.663336	0.000262	20.803199
1227.316099	-3.005900	3.591000	-10.792000	24.661571	0.000260	20.797635
1228.316704	-2.988600	3.590000	-10.728000	24.663361	0.000262	20.789000
1229.319115	-3.007000	3.588400	-10.789000	24.656248	0.000262	20.801777
1230.316212	-2.995300	3.588700	-10.748000	24.661073	0.000264	20.804722
1231.320132	-3.017200	3.587300	-10.822000	24.677837	0.000261	20.804474
1232.317852	-2.992800	3.588000	-10.737000	24.666568	0.000262	20.801227
1233.316677	-3.003900	3.587300	-10.775000	24.686317	0.000261	20.787854
1234.318283	-3.026200	3.587000	-10.854000	24.719167	0.000260	20.795214
1235.319005	-3.012200	3.587100	-10.804000	24.764451	0.000260	20.821217
1236.318731	-3.013400	3.586400	-10.806000	24.759580	0.000261	20.816802
1237.322610	-3.015300	3.585000	-10.808000	24.710014	0.000259	20.794090
1238.319119	-2.986100	3.586700	-10.710000	24.741049	0.000261	20.815276
1239.319718	-3.012700	3.585300	-10.801000	24.768700	0.000258	20.800825
1240.319246	-2.995200	3.587000	-10.743000	24.766241	0.000259	20.813056
1241.319459	-2.999100	3.584900	-10.751000	24.778672	0.000258	20.815574
1242.320288	-3.011400	3.584600	-10.794000	24.759050	0.000260	20.782606
1243.321939	-3.013700	3.586000	-10.806000	24.743737	0.000259	20.815128
1244.319711	-2.998300	3.584100	-10.745000	24.754003	0.000259	20.813102
1245.320290	-3.000500	3.583200	-10.750000	24.736793	0.000258	20.815272
1246.319915	-2.969500	3.584100	-10.642000	24.764620	0.000254	20.817593
1247.320160	-2.987900	3.583600	-10.707000	24.744081	0.000256	20.818318
1248.324024	-2.983900	3.584700	-10.695000	24.772802	0.000256	20.813950
1249.320356	-2.975300	3.583300	-10.660000	24.777104	0.000254	20.846716
1250.320219	-3.022000	3.581400	-10.821000	24.752507	0.000255	20.819662
1251.320344	-3.013600	3.580800	-10.790000	24.766356	0.000253	20.812697
1252.320666	-3.010500	3.581900	-10.782000	24.762254	0.000254	20.832287
1253.323550	-2.980600	3.581400	-10.674000	24.776228	0.000252	20.827345
1254.321864	-3.001800	3.580600	-10.748000	24.807962	0.000252	20.840226
1255.321710	-3.007600	3.581000	-10.769000	24.833199	0.000254	20.823828
1256.321147	-3.008600	3.580500	-10.772000	24.832028	0.000253	20.820757
1257.322416	-3.027300	3.579200	-10.834000	24.770630	0.000252	20.826943
1258.321379	-3.010300	3.581100	-10.779000	24.753824	0.000252	20.824302
1259.323477	-3.005600	3.580700	-10.762000	24.753842	0.000253	20.827165
1260.321397	-3.014700	3.578500	-10.787000	24.758223	0.000252	20.821131
1261.321466	-2.989500	3.578800	-10.698000	24.748251	0.000252	20.812072
1262.323811	-2.984400	3.580000	-10.683000	24.698886	0.000252	20.825596
1263.323250	-2.987900	3.578700	-10.691000	24.659763	0.000250	20.816684
1264.327290	-2.999800	3.579100	-10.735000	24.661926	0.000248	20.822172
1265.323967	-3.017800	3.577900	-10.796000	24.677590	0.000248	20.825563
1266.322413	-3.003600	3.577900	-10.746000	24.693012	0.000250	20.822546
1267.324085	-2.986600	3.577900	-10.685000	24.701989	0.000249	20.829184
1268.324411	-2.985800	3.577200	-10.680000	24.737348	0.000247	20.826734
1269.325350	-2.979100	3.576600	-10.654000	24.772337	0.000248	20.824863
1270.328195	-2.987500	3.576300	-10.683000	24.767587	0.000248	20.840010
1271.325091	-3.000400	3.575200	-10.727000	24.749880	0.000249	20.828405
1272.326150	-3.005600	3.576000	-10.747000	24.745849	0.000246	20.849015
1273.327669	-3.005800	3.574900	-10.745000	24.779095	0.000247	20.848240
1274.327606	-2.995000	3.576000	-10.709000	24.784514	0.000248	20.837557
1275.328050	-3.006600	3.574100	-10.745000	24.783741	0.000247	20.842945
1276.326821	-3.001600	3.573700	-10.726000	24.758678	0.000245	20.847191
1277.326606	-2.993300	3.575300	-10.701000	24.740570	0.000245	20.826648
1278.327574	-3.007100	3.573100	-10.744000	24.779961	0.000247	20.866177
1279.326378	-2.997100	3.574600	-10.713000	24.829889	0.000246	20.842317
1280.329329	-2.990800	3.572300	-10.684000	24.777867	0.000243	20.833258
1281.328600	-2.984200	3.573100	-10.662000	24.786322	0.000244	20.840794
1282.328214	-2.988200	3.572900	-10.676000	24.772420	0.000246	20.857661
1283.328267	-3.016200	3.571900	-10.773000	24.744468	0.000245	20.836250
1284.329576	-3.001800	3.572100	-10.722000	24.682570	0.000243	20.830560
1285.328560	-3.010700	3.571700	-10.752000	24.682889	0.000240	20.842733
1286.329329	-2.992500	3.572900	-10.691000	24.690599	0.000240	20.836246
1287.328317	-3.004600	3.570800	-10.728000	24.690421	0.000242	20.817101
1288.328314	-2.985800	3.571000	-10.661000	24.731131	0.000243	20.827608
1289.331810	-2.997500	3.569400	-10.698000	24.746695	0.000241	20.829002
1290.328739	-3.000500	3.569900	-10.710000	24.740900	0.000242	20.838359
1291.331223	-2.963800	3.571600	-10.584000	24.749501	0.000241	20.841301
1292.329185	-3.002300	3.569500	-10.716000	24.784468	0.000243	20.825658
1293.328207	-2.983200	3.570400	-10.649000	24.808088	0.000243	20.849835
1294.327368	-2.995000	3.569400	-10.690000	24.844836	0.000241	20.824128
1295.330108	-2.998400	3.568000	-10.698000	24.857942	0.000242	20.839652
1296.328385	-3.007800	3.568700	-10.733000	24.827924	0.000239	20.846509
1297.332862	-3.024200	3.567900	-10.789000	24.814148	0.000240	20.807554
1298.329784	-3.010500	3.567000	-10.738000	24.792787	0.000239	20.825945
1299.329463	-3.005300	3.567600	-10.721000	24.742557	0.000239	20.829591
1300.334515	-3.002100	3.565900	-10.704000	24.683792	0.000241	20.807130
1301.329204	-2.987000	3.567600	-10.656000	24.701672	0.000240	20.826495
1302.334198	-2.993100	3.565900	-10.672000	24.729152	0.000240	20.826570
1303.330678	-2.995900	3.565300	-10.681000	24.705377	0.000240	20.831161
1304.331675	-2.994500	3.565800	-10.677000	24.720400	0.000237	20.829167
1305.331752	-2.987000	3.566900	-10.653000	24.759517	0.000238	20.819584
1306.331767	-2.975900	3.565700	-10.610000	24.768147	0.000238	20.816390
1307.332795	-3.013400	3.565500	-10.744000	24.794805	0.000238	20.824652
1308.330386	-3.016100	3.564600	-10.750000	24.816464	0.000240	20.808456
1309.330613	-3.006700	3.563400	-10.713000	24.839395	0.000237	20.842375
1310.330338	-2.977300	3.564600	-10.612000	24.818135	0.000235	20.823409
1311.331904	-3.007000	3.563100	-10.714000	24.829621	0.000236	20.823082
1312.331397	-3.016700	3.563900	-10.750000	24.820003	0.000237	20.810585
1313.331551	-2.994100	3.562400	-10.665000	24.806624	0.000238	20.822288
1314.332024	-2.993100	3.563700	-10.665000	24.790585	0.000234	20.810460
1315.332103	-2.983100	3.562300	-10.625000	24.788946	0.000235	20.806918
1316.335034	-2.996700	3.562900	-10.675000	24.786387	0.000234	20.825212
1317.332718	-2.981300	3.561500	-10.617000	24.756993	0.000235	20.823689
1318.337088	-2.985000	3.561700	-10.631000	24.754358	0.000238	20.841433
1319.333309	-3.003200	3.560600	-10.693000	24.761202	0.000233	20.799938
1320.334335	-3.010100	3.560000	-10.715000	24.801409	0.000236	20.812787
1321.334089	-3.008000	3.561400	-10.712000	24.858798	0.000235	20.799260
1322.334026	-3.006300	3.559200	-10.699000	24.852459	0.000233	20.836994
1323.337018	-2.979000	3.560400	-10.605000	24.826700	0.000233	20.805926
1324.337339	-2.998500	3.560800	-10.676000	24.807801	0.000234	20.804030
1325.334941	-2.985000	3.559500	-10.624000	24.823246	0.000236	20.804831
1326.334994	-3.003800	3.559400	-10.691000	24.771146	0.000232	20.805650
1327.336874	-3.014600	3.558800	-10.727000	24.752150	0.000231	20.809346
1328.334578	-2.995400	3.558500	-10.658000	24.761649	0.000234	20.809396
1329.338454	-3.001200	3.558700	-10.679000	24.749816	0.000232	20.795624
1330.336030	-2.988600	3.557500	-10.630000	24.744837	0.000231	20.813861
1331.336739	-2.999000	3.558400	-10.671000	24.715990	0.000231	20.795818
1332.337214	-3.001500	3.557300	-10.676000	24.746655	0.000231	20.793401
1333.336963	-2.990900	3.557700	-10.640000	24.762967	0.000230	20.819727
1334.336421	-3.009900	3.555400	-10.700000	24.799369	0.000232	20.817378
1335.337529	-2.998500	3.556300	-10.663000	24.796763	0.000229	20.800064
1336.337818	-2.998600	3.555500	-10.661000	24.851539	0.000229	20.804777
1337.339589	-2.998800	3.555900	-10.663000	24.864646	0.000231	20.813189
1338.337365	-3.025100	3.554900	-10.753000	24.879738	0.000229	20.788508
1339.339881	-3.011000	3.555400	-10.704000	24.871360	0.000228	20.787686
1340.337400	-2.993400	3.555000	-10.641000	24.871904	0.000230	20.785861
1341.337733	-3.009500	3.554900	-10.697000	24.878819	0.000227	20.785689
1342.337655	-2.982300	3.554700	-10.601000	24.884162	0.000227	20.794371
1343.337869	-3.005500	3.553000	-10.678000	24.841170	0.000227	20.810492
1344.339285	-2.997000	3.554300	-10.651000	24.841417	0.000229	20.797938
1345.339682	-2.992700	3.552900	-10.631000	24.820930	0.000227	20.786386
1346.340535	-3.001800	3.551000	-10.658000	24.791784	0.000230	20.791749
1347.341982	-2.995200	3.553400	-10.642000	24.825526	0.000226	20.777247
1348.345482	-2.994400	3.552200	-10.636000	24.836117	0.000226	20.794515
1349.339567	-3.011900	3.551800	-10.697000	24.881149	0.000229	20.776173
1350.339999	-2.986300	3.552000	-10.607000	24.876475	0.000227	20.795664
1351.340523	-3.004100	3.549800	-10.663000	24.816843	0.000225	20.782758
1352.341657	-2.990200	3.550500	-10.616000	24.819380	0.000225	20.791469
1353.338726	-2.984900	3.551000	-10.599000	24.810551	0.000225	20.800151
1354.340942	-2.993900	3.549800	-10.627000	24.780313	0.000224	20.779762
1355.342331	-3.035700	3.549700	-10.775000	24.782800	0.000224	20.782258
1356.341850	-2.998200	3.550500	-10.645000	24.767728	0.000224	20.778512
1357.341203	-2.996700	3.548200	-10.632000	24.751316	0.000226	20.793337
1358.348611	-2.979700	3.549600	-10.576000	24.744923	0.000226	20.777912
1359.343965	-3.029000	3.547900	-10.745000	24.750565	0.000226	20.786893
1360.344055	-3.009800	3.547400	-10.676000	24.739253	0.000223	20.782180
1361.348336	-2.982000	3.548200	-10.580000	24.783738	0.000224	20.774191
1362.346473	-3.016800	3.548100	-10.702000	24.819173	0.000222	20.760914
1363.344086	-2.996000	3.547600	-10.628000	24.795231	0.000222	20.771026
1364.348145	-2.988800	3.547100	-10.601000	24.794530	0.000221	20.788340
1365.347045	-3.025800	3.546800	-10.731000	24.743080	0.000220	20.787916
1366.344401	-3.007000	3.546700	-10.664000	24.740345	0.000221	20.787069
1367.345842	-2.998600	3.545000	-10.629000	24.763397	0.000220	20.757570
1368.347490	-3.020400	3.545000	-10.706000	24.751563	0.000222	20.785050
1369.349036	-3.028800	3.544800	-10.736000	24.809026	0.000219	20.773016
1370.347466	-2.997200	3.544800	-10.624000	24.819946	0.000220	20.770225
1371.346579	-3.000700	3.544500	-10.634000	24.849464	0.000221	20.779934
1372.350291	-2.988600	3.545400	-10.595000	24.828028	0.000218	20.788293
1373.350270	-2.999200	3.545200	-10.632000	24.810798	0.000221	20.773846
1374.349451	-2.997700	3.545100	-10.627000	24.812687	0.000218	20.781907
1375.349498	-3.001200	3.543500	-10.634000	24.840591	0.000216	20.773400
1376.351978	-2.997700	3.543300	-10.620000	24.878039	0.000221	20.774948
1377.350762	-2.996100	3.542800	-10.613000	24.913045	0.000218	20.774047
1378.353417	-2.998600	3.542500	-10.622000	24.925682	0.000218	20.781041
1379.353134	-3.017400	3.541400	-10.684000	24.935180	0.000218	20.779194
1380.350417	-2.996600	3.541500	-10.611000	24.914691	0.000218	20.759103
1381.353482	-3.007600	3.541800	-10.651000	24.887720	0.000217	20.773759
1382.350255	-2.991000	3.541300	-10.591000	24.864599	0.000218	20.766201
1383.351342	-2.998400	3.542100	-10.620000	24.843958	0.000216	20.760184
1384.353203	-2.995700	3.541400	-10.608000	24.836972	0.000214	20.757914
1385.352540	-2.957700	3.541900	-10.475000	24.825436	0.000215	20.756768
1386.354272	-2.989300	3.540300	-10.582000	24.815368	0.000214	20.768001
1387.352883	-2.986300	3.539000	-10.566000	24.848615	0.000215	20.789040
1388.352959	-2.993900	3.539500	-10.596000	24.864581	0.000216	20.764761
1389.353502	-2.996900	3.538400	-10.602000	24.850261	0.000213	20.769829
1390.354046	-2.982400	3.539600	-10.556000	24.847902	0.000214	20.779790
1391.356705	-3.005700	3.539000	-10.637000	24.810700	0.000215	20.766161
1392.355452	-3.001000	3.538900	-10.619000	24.799336	0.000214	20.741005
1393.355046	-3.003900	3.538500	-10.629000	24.810278	0.000213	20.753409
1394.357969	-2.997200	3.537100	-10.600000	24.830797	0.000214	20.763571
1395.355299	-3.017200	3.537900	-10.674000	24.831245	0.000213	20.760227
1396.357504	-2.988000	3.538100	-10.571000	24.836019	0.000213	20.760751
1397.359138	-2.959100	3.537100	-10.466000	24.835325	0.000212	20.766219
1398.356552	-2.981000	3.537100	-10.543000	24.817025	0.000213	20.757809
1399.357586	-3.004600	3.536300	-10.624000	24.846342	0.000213	20.779646
1400.363101	-3.011500	3.535800	-10.647000	24.841442	0.000213	20.742485
1401.357793	-2.974500	3.535600	-10.515000	24.848682	0.000214	20.752597
1402.358315	-2.988500	3.535400	-10.565000	24.862755	0.000210	20.749177
1403.364991	-3.017800	3.535100	-10.667000	24.873149	0.000211	20.772412
1404.360277	-2.989700	3.534600	-10.566000	24.879666	0.000209	20.752874
1405.357726	-3.025900	3.532900	-10.689000	24.880958	0.000208	20.758912
1406.363671	-3.022100	3.532700	-10.674000	24.943518	0.000212	20.731611
1407.358675	-3.011500	3.533500	-10.640000	24.897321	0.000209	20.742618
1408.361948	-3.025500	3.532900	-10.688000	24.853088	0.000212	20.751329
1409.363821	-2.986800	3.533600	-10.553000	24.854953	0.000212	20.762684
1410.361141	-2.982200	3.532500	-10.534000	24.842072	0.000207	20.757816
1411.363074	-2.994400	3.531500	-10.573000	24.831728	0.000209	20.750754
1412.364333	-3.007400	3.531600	-10.620000	24.829244	0.000207	20.753003
1413.360633	-3.017000	3.530000	-10.649000	24.838346	0.000208	20.753129
1414.365530	-2.994200	3.530300	-10.569000	24.847795	0.000208	20.767828
1415.365344	-3.015300	3.531100	-10.647000	24.868857	0.000206	20.771898
1416.362247	-2.986600	3.529800	-10.541000	24.875049	0.000208	20.744920
1417.364028	-2.957700	3.531000	-10.443000	24.912492	0.000208	20.743146
1418.363416	-2.971900	3.530000	-10.490000	24.901906	0.000207	20.763341
1419.364695	-3.005000	3.528800	-10.603000	24.925051	0.000206	20.764286
1420.365924	-3.007500	3.528300	-10.611000	24.923981	0.000205	20.776963
1421.364274	-2.989900	3.529500	-10.551000	24.951581	0.000207	20.753455
1422.368085	-2.991600	3.528800	-10.556000	24.881513	0.000206	20.733863
1423.364260	-2.987500	3.528700	-10.541000	24.841284	0.000206	20.753707
1424.365612	-2.995900	3.526400	-10.564000	24.843596	0.000204	20.728999
1425.367545	-2.996000	3.527900	-10.568000	24.833102	0.000204	20.744547
1426.364603	-3.022800	3.526800	-10.660000	24.800005	0.000204	20.740254
1427.364293	-3.012500	3.526400	-10.623000	24.819923	0.000203	20.729423
1428.365951	-3.007200	3.527100	-10.606000	24.826438	0.000204	20.733590
1429.363924	-2.997100	3.527100	-10.570000	24.863586	0.000204	20.750485
1430.364683	-3.020400	3.525400	-10.647000	24.835489	0.000204	20.752633
1431.364206	-3.007200	3.526000	-10.603000	24.869577	0.000205	20.757446
1432.364335	-3.022300	3.524000	-10.650000	24.862913	0.000203	20.744594
1433.364274	-2.993900	3.524300	-10.550000	24.869129	0.000204	20.754152
1434.371161	-3.006000	3.523300	-10.590000	24.869652	0.000202	20.721010
1435.368007	-2.999100	3.524500	-10.570000	24.851130	0.000204	20.742725
1436.365919	-2.993300	3.524200	-10.549000	24.870049	0.000202	20.741325
1437.365829	-2.987500	3.523100	-10.525000	24.851474	0.000200	20.742122
1438.369195	-3.012000	3.523300	-10.612000	24.858761	0.000201	20.750384
1439.371171	-2.985600	3.522400	-10.516000	24.895417	0.000202	20.737862
1440.365457	-2.999300	3.521900	-10.562000	24.872984	0.000202	20.732416
1441.369655	-3.027300	3.522800	-10.664000	24.899293	0.000199	20.751710
1442.370722	-3.006000	3.521200	-10.584000	24.936317	0.000199	20.730074
1443.368149	-3.033500	3.521200	-10.681000	24.886713	0.000200	20.718693
1444.370208	-3.002400	3.521700	-10.573000	24.829373	0.000200	20.724207
1445.369150	-2.990100	3.521100	-10.527000	24.841535	0.000198	20.728353
1446.368824	-2.995100	3.519800	-10.541000	24.843299	0.000197	20.735814
1447.371695	-3.020300	3.519100	-10.628000	24.831488	0.000199	20.709734
1448.369901	-2.987500	3.519700	-10.513000	24.771138	0.000196	20.746846
1449.369586	-2.981500	3.519200	-10.491000	24.821989	0.000199	20.733393
1450.371513	-3.015600	3.519300	-10.612000	24.846782	0.000196	20.718445
1451.371941	-3.003100	3.518500	-10.566000	24.855089	0.000199	20.746224
1452.369213	-3.003700	3.517300	-10.564000	24.854215	0.000197	20.731122
1453.369621	-2.982700	3.517000	-10.489000	24.825596	0.000196	20.724211
1454.374826	-3.020600	3.517700	-10.624000	24.859538	0.000196	20.738361
1455.369968	-3.012200	3.517300	-10.593000	24.871026	0.000196	20.730451
1456.370629	-2.997200	3.517600	-10.542000	24.905811	0.000194	20.739284
1457.373732	-2.999500	3.517500	-10.549000	24.913591	0.000196	20.731446
1458.371531	-3.023900	3.515400	-10.629000	24.911902	0.000194	20.687547
1459.372077	-3.001400	3.515100	-10.550000	24.934034	0.000197	20.726359
1460.375402	-3.008800	3.515800	-10.578000	24.939377	0.000195	20.722713
1461.373098	-3.012100	3.516500	-10.591000	24.958123	0.000193	20.710707
1462.376211	-3.023800	3.514500	-10.625000	24.923336	0.000192	20.714199
1463.374850	-3.007400	3.515000	-10.570000	24.887433	0.000193	20.703767
1464.373374	-3.002900	3.514000	-10.551000	24.882111	0.000193	20.727351
1465.373882	-2.999700	3.514500	-10.542000	24.893299	0.000193	20.704913
1466.377335	-2.994000	3.514000	-10.520000	24.910853	0.000195	20.687443
1467.375562	-3.013600	3.512900	-10.586000	24.953989	0.000194	20.715568
1468.375929	-3.017800	3.511900	-10.598000	24.913387	0.000192	20.707532
1469.377821	-3.029400	3.512000	-10.638000	24.863281	0.000191	20.725996
1470.375921	-3.003000	3.513500	-10.550000	24.852240	0.000192	20.706379
1471.377371	-3.005800	3.511200	-10.553000	24.842988	0.000193	20.721750
1472.379449	-2.989400	3.512800	-10.500000	24.884040	0.000192	20.706526
1473.376523	-3.014600	3.511900	-10.586000	24.889036	0.000193	20.706799
1474.379003	-3.007000	3.510700	-10.556000	24.876130	0.000191	20.694793
1475.379675	-3.004700	3.512100	-10.552000	24.918774	0.000193	20.694919
1476.377872	-3.006100	3.509800	-10.550000	24.928143	0.000193	20.708592
1477.378010	-3.012200	3.509100	-10.570000	24.904644	0.000190	20.704446
1478.382677	-2.991400	3.509900	-10.499000	24.887637	0.000188	20.709188
1479.378959	-2.999000	3.509000	-10.523000	24.876592	0.000189	20.699051
1480.381625	-2.990100	3.509700	-10.493000	24.874452	0.000189	20.710654
1481.381963	-3.016600	3.508700	-10.583000	24.887107	0.000188	20.720986
1482.379123	-2.999700	3.507600	-10.520000	24.916097	0.000188	20.705510
1483.379385	-3.018500	3.509200	-10.591000	24.885017	0.000190	20.712723
1484.379904	-3.007600	3.507800	-10.549000	24.900454	0.000187	20.703085
1485.380270	-2.999300	3.507300	-10.518000	24.908957	0.000188	20.718259
1486.381958	-2.993500	3.507500	-10.498000	24.892891	0.000186	20.689804
1487.381922	-2.995200	3.507500	-10.505000	24.909476	0.000186	20.709771
1488.384786	-2.982600	3.507600	-10.461000	24.931923	0.000188	20.711912
1489.381351	-3.023000	3.506200	-10.599000	24.970832	0.000187	20.702600
1490.382629	-2.967600	3.507000	-10.406000	24.966008	0.000185	20.692542
1491.385152	-2.989100	3.506500	-10.480000	24.955640	0.000185	20.683083
1492.383018	-2.992700	3.505200	-10.489000	24.910783	0.000187	20.712030
1493.384279	-2.977400	3.505500	-10.437000	24.941887	0.000184	20.703420
1494.387725	-2.981000	3.505000	-10.447000	24.893772	0.000186	20.705863
1495.384763	-3.000900	3.503200	-10.512000	24.886185	0.000185	20.705360
1496.383519	-2.967400	3.504800	-10.399000	24.864231	0.000184	20.704663
1497.388819	-2.999500	3.503900	-10.510000	24.826163	0.000184	20.695380
1498.387300	-3.001300	3.504500	-10.517000	24.820440	0.000183	20.706233
1499.390053	-2.985800	3.504000	-10.461000	24.868805	0.000184	20.691235
1500.389218	-2.979800	3.504000	-10.440000	24.860945	0.000184	20.696149
1501.388570	-2.997700	3.503300	-10.500000	24.872284	0.000185	20.709426
1502.385353	-3.008000	3.502600	-10.535000	24.865047	0.000184	20.696472
1503.385709	-2.999800	3.500400	-10.500000	24.835183	0.000183	20.714391
1504.386723	-2.993900	3.501600	-10.483000	24.808378	0.000184	20.697920
1505.386542	-2.991900	3.501200	-10.474000	24.817105	0.000182	20.700514
1506.392378	-2.992600	3.502200	-10.480000	24.798729	0.000184	20.699142
1507.388890	-3.008800	3.500600	-10.531000	24.838515	0.000181	20.694500
1508.389090	-3.012500	3.499800	-10.543000	24.856221	0.000182	20.687613
1509.391223	-2.993600	3.499900	-10.477000	24.861815	0.000182	20.687538
1510.390433	-3.010800	3.499400	-10.534000	24.881829	0.000181	20.700988
1511.392532	-2.987700	3.499700	-10.455000	24.851916	0.000182	20.692776
1512.390254	-2.984800	3.499600	-10.444000	24.863179	0.000181	20.705504
1513.394150	-2.990500	3.499400	-10.464000	24.810265	0.000179	20.687010
1514.391373	-2.986200	3.498900	-10.447000	24.883569	0.000179	20.703682
1515.391650	-3.008400	3.496900	-10.519000	24.943415	0.000180	20.691202
1516.393157	-3.007200	3.498200	-10.519000	24.967257	0.000180	20.690003
1517.392106	-2.972500	3.498500	-10.398000	24.925886	0.000180	20.684039
1518.393368	-2.991900	3.497900	-10.465000	24.879414	0.000180	20.683863
1519.392182	-3.012300	3.498200	-10.536000	24.912931	0.000176	20.678148
1520.391485	-3.007600	3.496200	-10.515000	24.953977	0.000179	20.681888
1521.394942	-3.006600	3.496100	-10.510000	24.940005	0.000177	20.707695
1522.392587	-2.990500	3.496700	-10.456000	24.882964	0.000175	20.689324
1523.392214	-2.994100	3.496600	-10.468000	24.880080	0.000176	20.702077
1524.392311	-2.985600	3.495200	-10.435000	24.900297	0.000177	20.701506
1525.393395	-2.983200	3.495400	-10.426000	24.905641	0.000176	20.709240
1526.397831	-2.992100	3.495100	-10.456000	24.844450	0.000176	20.700457
1527.395983	-3.017000	3.492800	-10.537000	24.824203	0.000175	20.680609
1528.395000	-3.001500	3.493600	-10.484000	24.837259	0.000176	20.706991
1529.395609	-2.998600	3.493900	-10.476000	24.836862	0.000177	20.702799
1530.399613	-3.015600	3.492100	-10.530000	24.854364	0.000175	20.684801
1531.396936	-2.976000	3.492200	-10.392000	24.870903	0.000176	20.695711
1532.396850	-2.996600	3.491700	-10.462000	24.911428	0.000173	20.696081
1533.397218	-2.981700	3.492000	-10.411000	24.969158	0.000174	20.703766
1534.398130	-2.997400	3.492500	-10.468000	24.993973	0.000176	20.676988
1535.396733	-2.976600	3.492700	-10.396000	25.017144	0.000176	20.696929
1536.398219	-2.984800	3.491300	-10.420000	25.043718	0.000176	20.696577
1537.397625	-2.988700	3.491300	-10.433000	25.056422	0.000175	20.707433
1538.399734	-2.994900	3.490100	-10.452000	25.008266	0.000175	20.724055
1539.399735	-2.988500	3.490300	-10.430000	25.007446	0.000173	20.721336
1540.396331	-2.988700	3.490500	-10.431000	25.009855	0.000175	20.698147
1541.400464	-2.977700	3.490200	-10.392000	24.990437	0.000174	20.705684
1542.403083	-3.024500	3.488500	-10.551000	24.977210	0.000171	20.693355
1543.397928	-3.006200	3.488500	-10.486000	25.010424	0.000175	20.699193
1544.397594	-3.018500	3.487700	-10.527000	25.033319	0.000174	20.698941
1545.402531	-3.012000	3.487400	-10.503000	25.046474	0.000172	20.706931
1546.399217	-3.010900	3.486800	-10.498000	25.052908	0.000175	20.686835
1547.399451	-2.973600	3.488500	-10.372000	25.066932	0.000171	20.681946
1548.401822	-2.986700	3.487100	-10.414000	25.040058	0.000174	20.697170
1549.403596	-2.985800	3.487800	-10.413000	24.975886	0.000173	20.702933
1550.399904	-3.014200	3.485900	-10.506000	24.957735	0.000171	20.719802
1551.400637	-3.022800	3.486500	-10.538000	24.917133	0.000171	20.693747
1552.399579	-2.986200	3.487300	-10.413000	24.921507	0.000172	20.695766
1553.399562	-3.007600	3.485200	-10.481000	24.925086	0.000170	20.716429
1554.405222	-2.977800	3.485600	-10.379000	24.945947	0.000172	20.713660
1555.401938	-2.999800	3.485100	-10.454000	24.947836	0.000168	20.724092
1556.400614	-3.017700	3.483000	-10.509000	24.968572	0.000170	20.706971
1557.403931	-3.004700	3.484400	-10.469000	24.983091	0.000167	20.721071
1558.399199	-3.009900	3.484100	-10.486000	24.995448	0.000170	20.689375
1559.398561	-3.022900	3.482500	-10.526000	24.991816	0.000170	20.708490
1560.401474	-2.978500	3.484300	-10.376000	25.008946	0.000170	20.706719
1561.403236	-3.011600	3.483400	-10.489000	24.970784	0.000171	20.702552
1562.401722	-3.012500	3.483100	-10.492000	24.924037	0.000167	20.710161
1563.406006	-2.997500	3.482100	-10.436000	24.921947	0.000167	20.711857
1564.403363	-3.000400	3.482000	-10.446000	24.951709	0.000169	20.709486
1565.403851	-3.014800	3.480000	-10.491000	24.916450	0.000167	20.692587
1566.406576	-2.996800	3.481500	-10.433000	24.908545	0.000168	20.710258
1567.402630	-3.022700	3.481100	-10.521000	24.906555	0.000168	20.709683
1568.403673	-3.012800	3.480800	-10.486000	24.935819	0.000168	20.698752
1569.403245	-2.983000	3.480600	-10.382000	24.927438	0.000167	20.725429
1570.405893	-2.992600	3.479500	-10.412000	24.919579	0.000167	20.712798
1571.404680	-2.996900	3.480400	-10.430000	24.912295	0.000167	20.701694
1572.405936	-3.007700	3.479600	-10.465000	24.944219	0.000167	20.709080
1573.404515	-3.009400	3.479500	-10.470000	24.950682	0.000167	20.733587
1574.405658	-2.969100	3.480000	-10.332000	24.964908	0.000167	20.709931
1575.406099	-3.021700	3.478000	-10.509000	25.001575	0.000165	20.709278
1576.406411	-3.026600	3.477900	-10.525000	25.033002	0.000164	20.734661
1577.407557	-2.993800	3.479000	-10.415000	25.015002	0.000167	20.710901
1578.404993	-3.008600	3.477400	-10.461000	25.057515	0.000166	20.695727
1579.406283	-2.991100	3.478000	-10.402000	25.037400	0.000166	20.723428
1580.403797	-3.001400	3.477100	-10.435000	25.028744	0.000164	20.717583
1581.403960	-2.995900	3.477400	-10.417000	25.013009	0.000165	20.714591
1582.405952	-2.996000	3.476900	-10.416000	24.994933	0.000165	20.731536
1583.405239	-3.010700	3.476300	-10.465000	24.981009	0.000166	20.704281
1584.404664	-2.999100	3.476500	-10.426000	25.019246	0.000165	20.711369
1585.405792	-3.006800	3.476700	-10.453000	25.006267	0.000165	20.733903
1586.404971	-2.997300	3.475300	-10.416000	24.982075	0.000162	20.733329
1587.406055	-3.034900	3.475300	-10.546000	24.951968	0.000166	20.723022
1588.406770	-3.002000	3.474600	-10.429000	24.955797	0.000165	20.721176
1589.404920	-3.001400	3.473500	-10.425000	24.966562	0.000165	20.735775
1590.406060	-3.006900	3.473900	-10.445000	24.989058	0.000163	20.721844
1591.408941	-3.027300	3.473200	-10.513000	25.007233	0.000163	20.725864
1592.411379	-2.998200	3.472700	-10.411000	24.955518	0.000165	20.735596
1593.408163	-2.968400	3.473900	-10.311000	24.973269	0.000163	20.725437
1594.408716	-3.037400	3.471000	-10.541000	24.948980	0.000161	20.746103
1595.411199	-3.031900	3.471000	-10.523000	24.986717	0.000160	20.737988
1596.409997	-2.998400	3.473100	-10.413000	25.012126	0.000161	20.726507
1597.408980	-2.994300	3.471900	-10.395000	24.991588	0.000162	20.730549
1598.412176	-3.030400	3.471300	-10.517000	24.954072	0.000161	20.737938
1599.414818	-2.997600	3.471700	-10.406000	24.929604	0.000159	20.717171
1600.410111	-3.005600	3.471700	-10.434000	24.958696	0.000161	20.737363
1601.413019	-3.022300	3.469600	-10.486000	24.989101	0.000161	20.725207
1602.412049	-3.000600	3.470200	-10.412000	24.984027	0.000158	20.730071
1603.412366	-3.014300	3.469600	-10.458000	24.987165	0.000161	20.747921
1604.417385	-3.002000	3.470000	-10.416000	25.024207	0.000159	20.714452
1605.420022	-2.984400	3.471200	-10.358000	25.040464	0.000159	20.740729
1606.415782	-2.973400	3.470900	-10.319000	25.063363	0.000158	20.733369
1607.417582	-2.988500	3.468400	-10.365000	25.072065	0.000158	20.726931
1608.417214	-3.018400	3.468800	-10.469000	25.053665	0.000159	20.751610
1609.417661	-2.995700	3.468500	-10.389000	25.068681	0.000157	20.744397
1610.419765	-2.970100	3.468800	-10.302000	25.023384	0.000157	20.741128
1611.417640	-3.018900	3.465800	-10.462000	24.988031	0.000159	20.728875
1612.418037	-2.997600	3.466000	-10.389000	24.973931	0.000159	20.726102
1613.419096	-2.990300	3.468500	-10.371000	24.981443	0.000157	20.753083
1614.423910	-2.987900	3.466500	-10.355000	24.998871	0.000157	20.722685
1615.421981	-2.993900	3.466400	-10.376000	24.956431	0.000156	20.742202
1616.420386	-2.976800	3.466300	-10.317000	24.955561	0.000156	20.747019
1617.422087	-2.995500	3.466500	-10.383000	24.947008	0.000155	20.730847
1618.420842	-2.998400	3.466000	-10.392000	25.017118	0.000156	20.721087
1619.421943	-2.993000	3.466200	-10.374000	24.994841	0.000154	20.734763
1620.424994	-3.000600	3.464700	-10.395000	24.996853	0.000154	20.744369
1621.421205	-2.995000	3.465300	-10.378000	25.023055	0.000156	20.734634
1622.422684	-3.015100	3.464100	-10.444000	25.015129	0.000154	20.720986
1623.425252	-2.996300	3.464100	-10.378000	24.943820	0.000155	20.730966
1624.424714	-2.992800	3.463400	-10.364000	24.959709	0.000157	20.748338
1625.424165	-3.000400	3.463700	-10.392000	24.976565	0.000157	20.757196
1626.425735	-3.015600	3.461000	-10.436000	24.990164	0.000155	20.765157
1627.423615	-3.017300	3.462700	-10.447000	25.008140	0.000156	20.740525
1628.423651	-2.987600	3.462800	-10.345000	25.054829	0.000154	20.741872
1629.426597	-3.006500	3.461500	-10.406000	25.050155	0.000153	20.758518
1630.424867	-3.002800	3.461100	-10.392000	24.989420	0.000153	20.745443
1631.425555	-3.028800	3.461300	-10.483000	24.966717	0.000152	20.753475
1632.425142	-2.987400	3.462700	-10.344000	24.960057	0.000154	20.754377
1633.429804	-2.998500	3.460800	-10.375000	24.961696	0.000150	20.730891
1634.425644	-3.000100	3.460500	-10.380000	24.986285	0.000152	20.762211
1635.426133	-3.020600	3.460300	-10.451000	25.042970	0.000152	20.737080
1636.432473	-3.039100	3.458700	-10.510000	25.073898	0.000154	20.751057
1637.427647	-3.024900	3.458600	-10.461000	25.029497	0.000152	20.752954
1638.427726	-3.038400	3.458000	-10.506000	25.009407	0.000153	20.758867
1639.429243	-2.972100	3.459400	-10.281000	25.006572	0.000153	20.748435
1640.430365	-3.012800	3.459000	-10.421000	24.971394	0.000154	20.747264
1641.429911	-3.023300	3.457200	-10.451000	24.936261	0.000152	20.749933
1642.431559	-3.009300	3.457200	-10.404000	24.953815	0.000153	20.751905
1643.431703	-3.012600	3.457300	-10.415000	24.982434	0.000154	20.765458
1644.430327	-3.001800	3.457900	-10.380000	25.000507	0.000149	20.745666
1645.433187	-2.994600	3.457500	-10.354000	24.994641	0.000151	20.755425
1646.430298	-2.984800	3.457600	-10.319000	25.007646	0.000150	20.760418
1647.431448	-2.988600	3.455700	-10.327000	25.040511	0.000150	20.764959
1648.432312	-3.003100	3.456900	-10.381000	25.067335	0.000151	20.762962
1649.429168	-3.000500	3.455900	-10.369000	25.031787	0.000152	20.767107
1650.432197	-2.982200	3.457300	-10.309000	25.019577	0.000151	20.772869
1651.434472	-2.978600	3.456300	-10.293000	25.003716	0.000150	20.758371
1652.429833	-2.988200	3.455600	-10.326000	25.027038	0.000150	20.758547
1653.430167	-3.006000	3.454000	-10.382000	25.015229	0.000149	20.781781
1654.433570	-3.007900	3.455100	-10.391000	25.002403	0.000148	20.762742
1655.429220	-3.005700	3.455000	-10.383000	25.034173	0.000148	20.776615
1656.432468	-2.991100	3.454700	-10.333000	25.044168	0.000150	20.780484
1657.430415	-2.970300	3.453800	-10.257000	25.051851	0.000148	20.756427
1658.432971	-2.986800	3.454400	-10.317000	25.029450	0.000148	20.765236
1659.433659	-2.997600	3.453300	-10.351000	25.026193	0.000148	20.793261
1660.433988	-2.981000	3.452800	-10.292000	25.031418	0.000148	20.781910
1661.431654	-3.005700	3.452700	-10.377000	25.083771	0.000145	20.781831
1662.432038	-2.997100	3.452100	-10.346000	25.089911	0.000147	20.771400
1663.435211	-3.013000	3.450300	-10.395000	25.064955	0.000145	20.790445
1664.435287	-2.991300	3.451300	-10.323000	25.095657	0.000145	20.774323
1665.433746	-3.006500	3.449900	-10.372000	25.041015	0.000146	20.770207
1666.436368	-3.020200	3.449700	-10.418000	25.066472	0.000145	20.778217
1667.434427	-2.987900	3.450600	-10.309000	25.019311	0.000146	20.776870
1668.436196	-3.007200	3.449100	-10.371000	24.994401	0.000145	20.762297
1669.438919	-3.003500	3.449400	-10.359000	24.992658	0.000145	20.779988
1670.432389	-2.987400	3.450900	-10.308000	25.011682	0.000145	20.775376
1671.435739	-2.991100	3.449700	-10.317000	25.016928	0.000147	20.788702
1672.436654	-3.033500	3.447300	-10.457000	25.057451	0.000143	20.796188
1673.433750	-2.989500	3.449600	-10.311000	25.083480	0.000145	20.792970
1674.433216	-2.991800	3.449800	-10.319000	25.097453	0.000145	20.790825
1675.434268	-2.998500	3.449400	-10.342000	25.060163	0.000144	20.785160
1676.433836	-3.010500	3.448100	-10.380000	25.066554	0.000143	20.798688
1677.436651	-2.990500	3.446700	-10.306000	25.062203	0.000142	20.781518
1678.433852	-3.013300	3.447400	-10.387000	25.085799	0.000144	20.781496
1679.437584	-3.017100	3.446300	-10.397000	25.083065	0.000142	20.798666
1680.436271	-3.009200	3.444500	-10.364000	25.097560	0.000144	20.807528
1681.434851	-2.987200	3.446200	-10.293000	25.061262	0.000142	20.774883
1682.433637	-2.990000	3.447300	-10.306000	25.083190	0.000142	20.773662
1683.435781	-2.981700	3.446300	-10.276000	25.089452	0.000143	20.813139
1684.433602	-3.018000	3.445700	-10.398000	25.082198	0.000140	20.798271
1685.434744	-2.986800	3.446600	-10.293000	25.067856	0.000141	20.790512
1686.437576	-3.020600	3.443400	-10.400000	25.055250	0.000140	20.788289
1687.435297	-3.008500	3.443600	-10.359000	25.020495	0.000140	20.790386
1688.440647	-2.996200	3.445600	-10.322000	25.067409	0.000142	20.801443
1689.441637	-3.027300	3.442400	-10.420000	25.089859	0.000141	20.798375
1690.437447	-3.005100	3.444100	-10.349000	25.086127	0.000140	20.812172
1691.434552	-3.001700	3.442900	-10.334000	25.050329	0.000140	20.784298
1692.437323	-2.987500	3.443100	-10.284000	25.038642	0.000141	20.805283
1693.435782	-2.999300	3.442400	-10.324000	25.071438	0.000138	20.815919
1694.434570	-2.999400	3.442200	-10.324000	25.095653	0.000139	20.808932
1695.436860	-3.015700	3.441600	-10.378000	25.094558	0.000141	20.817316
1696.435303	-2.983700	3.441700	-10.268000	25.086850	0.000139	20.805311
1697.436815	-3.019700	3.439900	-10.386000	25.069846	0.000141	20.793458
1698.437743	-2.992700	3.440300	-10.295000	25.070894	0.000137	20.786449
1699.438135	-2.982500	3.440800	-10.261000	25.120711	0.000140	20.818440
1700.441799	-2.996500	3.440400	-10.308000	25.122504	0.000140	20.790368
1701.439209	-2.996800	3.440600	-10.310000	25.142316	0.000138	20.787972
1702.437696	-2.985400	3.439600	-10.268000	25.144756	0.000138	20.818397
1703.444329	-2.998900	3.439700	-10.315000	25.139858	0.000139	20.815376
1704.439915	-2.985200	3.439800	-10.267000	25.143962	0.000137	20.826608
1705.439178	-2.981900	3.440300	-10.258000	25.194126	0.000138	20.821493
1706.437377	-3.018700	3.437500	-10.376000	25.177027	0.000136	20.804801
1707.441826	-2.984100	3.438500	-10.259000	25.122364	0.000136	20.809194
1708.439568	-3.006800	3.438400	-10.338000	25.148398	0.000137	20.831535
1709.440218	-2.988500	3.437700	-10.273000	25.091991	0.000136	20.839869
1710.439183	-2.980600	3.437300	-10.245000	25.128633	0.000135	20.823547
1711.442624	-2.985200	3.438200	-10.263000	25.155884	0.000136	20.834782
1712.442223	-2.996300	3.436200	-10.295000	25.167791	0.000137	20.831564
1713.440473	-2.996800	3.437800	-10.301000	25.163891	0.000136	20.811054
1714.442178	-3.008200	3.436200	-10.335000	25.120513	0.000136	20.821086
1715.438321	-3.003500	3.436400	-10.320000	25.069851	0.000135	20.839929
1716.438928	-2.995900	3.436600	-10.295000	25.063317	0.000137	20.826732
1717.440293	-2.996600	3.436700	-10.298000	25.085120	0.000136	20.828230
1718.439524	-3.027500	3.434900	-10.398000	25.066724	0.000134	20.818298
1719.439198	-2.990900	3.436300	-10.277000	25.037337	0.000135	20.823413
1720.440503	-2.986900	3.434500	-10.258000	25.053741	0.000133	20.815698
1721.442171	-2.993500	3.433600	-10.278000	25.094789	0.000134	20.834143
1722.441018	-2.979800	3.435000	-10.234000	25.087310	0.000134	20.835170
1723.441831	-2.997200	3.434200	-10.292000	25.090144	0.000133	20.827584
1724.442719	-2.987700	3.433000	-10.255000	25.124030	0.000134	20.836470
1725.442798	-2.998800	3.433100	-10.294000	25.107645	0.000133	20.843729
1726.443907	-3.001700	3.432200	-10.301000	25.152988	0.000134	20.825712
1727.443880	-2.991500	3.432100	-10.266000	25.127036	0.000134	20.846125
1728.446609	-2.985900	3.432600	-10.248000	25.116570	0.000132	20.837515
1729.446334	-2.994400	3.432300	-10.277000	25.116072	0.000132	20.817576
1730.443263	-2.993800	3.432400	-10.275000	25.148612	0.000134	20.843130
1731.448275	-2.984300	3.431300	-10.239000	25.180507	0.000137	20.836743
1732.448020	-3.004400	3.430600	-10.306000	25.175208	0.000133	20.826208
1733.444246	-2.994200	3.430700	-10.271000	25.179237	0.000131	20.817451
1734.447835	-3.001500	3.430000	-10.295000	25.147990	0.000134	20.826858
1735.448582	-3.009300	3.430300	-10.322000	25.176922	0.000133	20.820342
1736.449448	-3.005900	3.429000	-10.307000	25.231636	0.000134	20.840658
1737.450301	-3.004700	3.431200	-10.308000	25.226566	0.000132	20.817077
1738.450511	-3.008200	3.429700	-10.316000	25.178267	0.000133	20.842081
1739.448298	-3.004200	3.428800	-10.300000	25.139760	0.000130	20.833295
1740.448183	-3.017800	3.427300	-10.342000	25.121808	0.000132	20.832343
1741.450030	-2.988200	3.429000	-10.245000	25.142519	0.000132	20.808564
1742.452036	-3.001700	3.427800	-10.288000	25.182765	0.000133	20.835217
1743.449347	-2.983300	3.427300	-10.224000	25.193578	0.000133	20.813830
1744.451039	-2.995600	3.426700	-10.264000	25.200187	0.000131	20.827103
1745.452245	-3.003200	3.426500	-10.290000	25.194150	0.000132	20.826732
1746.449126	-2.989200	3.426000	-10.240000	25.229543	0.000131	20.804419
1747.450511	-2.986000	3.426800	-10.231000	25.264416	0.000134	20.805766
1748.449682	-2.979400	3.426600	-10.209000	25.276198	0.000131	20.808112
1749.449214	-3.000500	3.425300	-10.276000	25.314725	0.000132	20.820242
1750.451210	-3.005100	3.424300	-10.289000	25.284426	0.000131	20.821115
1751.452154	-2.997500	3.425800	-10.268000	25.241200	0.000131	20.813751
1752.450923	-2.997300	3.424600	-10.264000	25.214108	0.000131	20.828277
1753.452219	-3.017300	3.424900	-10.332000	25.187513	0.000130	20.812957
1754.453166	-3.011800	3.424100	-10.312000	25.174436	0.000130	20.800777
1755.452952	-3.007500	3.424600	-10.299000	25.118355	0.000131	20.801376
1756.452696	-2.997700	3.423800	-10.263000	25.118903	0.000131	20.818047
1757.454847	-2.998600	3.424100	-10.266000	25.111993	0.000130	20.819645
1758.453084	-3.010300	3.421300	-10.298000	25.138644	0.000129	20.810364
1759.452326	-2.997000	3.422500	-10.256000	25.142744	0.000130	20.815428
1760.453216	-2.995200	3.421800	-10.248000	25.131462	0.000129	20.776601
1761.454195	-3.003900	3.421100	-10.276000	25.162066	0.000127	20.817756
1762.453996	-2.993400	3.421700	-10.242000	25.169326	0.000127	20.815561
1763.456638	-3.031700	3.420700	-10.369000	25.194086	0.000129	20.805805
1764.456320	-2.990000	3.421700	-10.230000	25.208004	0.000128	20.794648
1765.454451	-3.009300	3.420200	-10.291000	25.234459	0.000129	20.798922
1766.456553	-3.004800	3.420800	-10.277000	25.274852	0.000128	20.797751
1767.453664	-3.006100	3.420200	-10.280000	25.248183	0.000126	20.783304
1768.452812	-2.967700	3.420600	-10.150000	25.229793	0.000128	20.809885
1769.453890	-2.972200	3.420100	-10.164000	25.232430	0.000128	20.809213
1770.455048	-3.002700	3.419700	-10.268000	25.244508	0.000128	20.822288
1771.455808	-3.010200	3.419100	-10.291000	25.209263	0.000128	20.796860
1772.456291	-2.979300	3.420300	-10.190000	25.160569	0.000125	20.811986
1773.457614	-2.994800	3.419700	-10.240000	25.128581	0.000128	20.819228
1774.457559	-2.988900	3.418200	-10.216000	25.186002	0.000127	20.809069
1775.461710	-3.006400	3.418500	-10.277000	25.217327	0.000127	20.805431
1776.457683	-2.998000	3.418000	-10.246000	25.195351	0.000126	20.799015
1777.459588	-3.013600	3.416700	-10.297000	25.180338	0.000127	20.792003
1778.462790	-3.013400	3.417400	-10.297000	25.174721	0.000126	20.793950
1779.459428	-2.999600	3.415900	-10.246000	25.194933	0.000129	20.779154
1780.456687	-2.994800	3.418200	-10.236000	25.190857	0.000126	20.801616
1781.461289	-3.018600	3.415700	-10.310000	25.204826	0.000125	20.802837
1782.460385	-3.023600	3.415100	-10.324000	25.196078	0.000125	20.795951
1783.458886	-3.015600	3.415900	-10.300000	25.222798	0.000125	20.796224
1784.459999	-2.994100	3.416500	-10.229000	25.191552	0.000125	20.785243
1785.460382	-3.004400	3.414200	-10.256000	25.161922	0.000123	20.787265
1786.460345	-3.002300	3.414600	-10.251000	25.169353	0.000124	20.798994
1787.461205	-2.965700	3.415100	-10.128000	25.200826	0.000125	20.771794
1788.459629	-2.976100	3.414700	-10.161000	25.220315	0.000126	20.779506
1789.461504	-3.001900	3.413300	-10.246000	25.226157	0.000126	20.778260
1790.462965	-2.996600	3.413900	-10.229000	25.222007	0.000124	20.790214
1791.460322	-3.018000	3.412200	-10.297000	25.183748	0.000124	20.789737
1792.460503	-2.983300	3.413000	-10.181000	25.202865	0.000123	20.802291
1793.459912	-2.997400	3.413300	-10.230000	25.160562	0.000125	20.797754
1794.459614	-3.007800	3.411400	-10.260000	25.178134	0.000123	20.786946
1795.459725	-2.998400	3.412500	-10.231000	25.257205	0.000123	20.780508
1796.461780	-2.985400	3.411600	-10.184000	25.274507	0.000123	20.796932
1797.460176	-2.968700	3.411100	-10.126000	25.267996	0.000123	20.788023
1798.460798	-2.997500	3.410700	-10.223000	25.260318	0.000123	20.796436
1799.463348	-3.008900	3.410400	-10.261000	25.270558	0.000123	20.782534
1800.464641	-2.992100	3.411400	-10.206000	25.314330	0.000123	20.763895
1801.459594	-3.000700	3.411700	-10.236000	25.301780	0.000121	20.781166
1802.463027	-3.014400	3.409000	-10.275000	25.324798	0.000121	20.765870
1803.462521	-2.975500	3.410100	-10.146000	25.334343	0.000123	20.777825
1804.459292	-3.002700	3.410100	-10.238000	25.309590	0.000119	20.765773
1805.464992	-2.989100	3.408100	-10.186000	25.252619	0.000122	20.776377
1806.466057	-2.994400	3.408900	-10.207000	25.239771	0.000121	20.779125
1807.461738	-3.019700	3.408500	-10.292000	25.274421	0.000120	20.766973
1808.465486	-2.993900	3.408500	-10.204000	25.276961	0.000121	20.771894
1809.464201	-3.002000	3.407200	-10.227000	25.282181	0.000121	20.792308
1810.464813	-3.009300	3.406500	-10.250000	25.282582	0.000119	20.749087
1811.464996	-2.993200	3.408100	-10.201000	25.290235	0.000121	20.767203
1812.468621	-2.966500	3.407000	-10.106000	25.286832	0.000120	20.780382
1813.468944	-3.001400	3.406800	-10.225000	25.280546	0.000119	20.779761
1814.470800	-3.005300	3.407400	-10.240000	25.266382	0.000118	20.782609
1815.469089	-3.023000	3.405400	-10.294000	25.235559	0.000118	20.784380
1816.473677	-3.016900	3.405600	-10.273000	25.228475	0.000119	20.780113
1817.469119	-3.010500	3.404200	-10.247000	25.266654	0.000117	20.774348
1818.472980	-3.021400	3.404900	-10.287000	25.242647	0.000117	20.771107
1819.469953	-2.988400	3.405800	-10.177000	25.200317	0.000117	20.761326
1820.471529	-3.008600	3.404700	-10.243000	25.200342	0.000116	20.774628
1821.471546	-3.011600	3.404400	-10.252000	25.166465	0.000119	20.772386
1822.470844	-2.968900	3.404900	-10.108000	25.151799	0.000118	20.803655
1823.472967	-3.013200	3.404800	-10.259000	25.178223	0.000118	20.757162
1824.471984	-3.004100	3.404800	-10.228000	25.220951	0.000115	20.765920
1825.471297	-3.022900	3.404100	-10.289000	25.266936	0.000117	20.767045
1826.470715	-3.005800	3.402000	-10.225000	25.325198	0.000119	20.756789
1827.470465	-3.002700	3.401600	-10.214000	25.347519	0.000116	20.773510
1828.470619	-2.985000	3.403200	-10.159000	25.358058	0.000115	20.773661
1829.472777	-2.989500	3.401700	-10.168000	25.341902	0.000118	20.765974
1830.473152	-2.984900	3.402000	-10.153000	25.343569	0.000119	20.779976
1831.472522	-3.011200	3.400500	-10.238000	25.325971	0.000117	20.758987
1832.470000	-3.012000	3.400400	-10.242000	25.294460	0.000115	20.768600
1833.472151	-3.015900	3.400300	-10.254000	25.318516	0.000117	20.760036
1834.471450	-2.998500	3.400900	-10.196000	25.325824	0.000117	20.772591
1835.471171	-2.993400	3.399400	-10.175000	25.367681	0.000115	20.758668
1836.473823	-3.000300	3.400900	-10.203000	25.379837	0.000117	20.743372
1837.474860	-2.994500	3.400400	-10.182000	25.338528	0.000117	20.760690
1838.473791	-2.998300	3.399100	-10.191000	25.332117	0.000117	20.751408
1839.472715	-3.000300	3.397900	-10.194000	25.384037	0.000114	20.772246
1840.476178	-2.986100	3.399700	-10.151000	25.356501	0.000116	20.742226
1841.472948	-3.004900	3.398000	-10.209000	25.413467	0.000115	20.761495
1842.473971	-3.023900	3.398800	-10.277000	25.425422	0.000118	20.763068
1843.476765	-3.032300	3.396900	-10.299000	25.412498	0.000114	20.752460
1844.473167	-3.014900	3.397300	-10.242000	25.412272	0.000115	20.752708
1845.475918	-3.030400	3.396000	-10.290000	25.410684	0.000115	20.756803
1846.478880	-2.969500	3.398400	-10.090000	25.420826	0.000112	20.748020
1847.475101	-2.994300	3.397100	-10.171000	25.405368	0.000115	20.750043
1848.477273	-2.984000	3.397900	-10.138000	25.409024	0.000113	20.767465
1849.475332	-2.998100	3.395600	-10.179000	25.444639	0.000115	20.749648
1850.476611	-3.020100	3.396600	-10.256000	25.447622	0.000114	20.769713
1851.476471	-2.995800	3.397000	-10.176000	25.383475	0.000114	20.747974
1852.476130	-3.013300	3.394600	-10.228000	25.408008	0.000116	20.737520
1853.478763	-2.989000	3.394800	-10.146000	25.418468	0.000114	20.750395
1854.476537	-3.011800	3.394000	-10.221000	25.416011	0.000113	20.761204
1855.477627	-3.015100	3.394000	-10.233000	25.420085	0.000115	20.766718
1856.478432	-3.008800	3.394300	-10.211000	25.423119	0.000115	20.740365
1857.479508	-2.986700	3.393400	-10.135000	25.473295	0.000113	20.755664
1858.478861	-2.995800	3.393900	-10.167000	25.448592	0.000115	20.754565
1859.479307	-2.992300	3.393500	-10.153000	25.418075	0.000112	20.744309
1860.479475	-2.995700	3.393800	-10.166000	25.420114	0.000116	20.735925
1861.477378	-2.978200	3.393700	-10.106000	25.403537	0.000112	20.745833
1862.479610	-2.974300	3.393100	-10.091000	25.403043	0.000112	20.743440
1863.479527	-2.988000	3.391300	-10.133000	25.382710	0.000111	20.719228
1864.477862	-2.990300	3.391500	-10.140000	25.405426	0.000112	20.736349
1865.481671	-3.008600	3.392100	-10.205000	25.413653	0.000110	20.757888
1866.479570	-2.980900	3.391800	-10.109000	25.451525	0.000113	20.734751
1867.477976	-3.008800	3.390100	-10.199000	25.451825	0.000112	20.738846
1868.481857	-2.982300	3.391100	-10.112000	25.434355	0.000110	20.751174
1869.478285	-2.984200	3.391300	-10.120000	25.398046	0.000110	20.747431
1870.478850	-3.012800	3.389600	-10.211000	25.349035	0.000112	20.740419
1871.481058	-3.021900	3.388800	-10.240000	25.364991	0.000112	20.723722
1872.480836	-2.992800	3.389300	-10.142000	25.359796	0.000111	20.741267
1873.482398	-2.984700	3.389800	-10.117000	25.382488	0.000110	20.750775
1874.483556	-2.987000	3.387900	-10.119000	25.415020	0.000108	20.725594
1875.479483	-3.004200	3.388900	-10.180000	25.426227	0.000110	20.729262
1876.482861	-2.995300	3.388200	-10.148000	25.416186	0.000107	20.748103
1877.485224	-3.016100	3.387500	-10.217000	25.397824	0.000106	20.731561
1878.482150	-3.000700	3.387900	-10.165000	25.330393	0.000108	20.725967
1879.484766	-2.979500	3.388600	-10.095000	25.318487	0.000109	20.721599
1880.485267	-2.970700	3.387000	-10.061000	25.331112	0.000107	20.736173
1881.484194	-2.977300	3.387700	-10.086000	25.319406	0.000109	20.744809
1882.487081	-3.003500	3.385600	-10.167000	25.327288	0.000108	20.730910
1883.487003	-3.023900	3.386400	-10.239000	25.360315	0.000109	20.737046
1884.485715	-3.021300	3.386000	-10.229000	25.344234	0.000109	20.716631
1885.484323	-3.049700	3.385100	-10.322000	25.369191	0.000108	20.720827
1886.484951	-3.005500	3.385300	-10.173000	25.442503	0.000107	20.722846
1887.484500	-3.011500	3.385000	-10.193000	25.471754	0.000108	20.750323
1888.483950	-2.965000	3.385400	-10.036000	25.458933	0.000106	20.752622
1889.485189	-2.988900	3.384700	-10.115000	25.452394	0.000106	20.723769
1890.486463	-2.997600	3.384700	-10.145000	25.381540	0.000106	20.741288
1891.485671	-2.996800	3.384500	-10.141000	25.404456	0.000105	20.717357
1892.485781	-3.001000	3.384000	-10.155000	25.435921	0.000104	20.709597
1893.486685	-2.983200	3.384000	-10.094000	25.466585	0.000106	20.719526
1894.485203	-3.022800	3.381400	-10.220000	25.449110	0.000108	20.719523
1895.486103	-2.997700	3.382400	-10.139000	25.473120	0.000105	20.726090
1896.490077	-2.998900	3.382900	-10.144000	25.430602	0.000106	20.741242
1897.487564	-2.980000	3.382200	-10.078000	25.456422	0.000107	20.704105
1898.486619	-2.997100	3.381800	-10.134000	25.473742	0.000106	20.729085
1899.490595	-2.986800	3.381600	-10.099000	25.504880	0.000107	20.713412
1900.487211	-2.990300	3.381700	-10.111000	25.482238	0.000106	20.729556
1901.488041	-2.983500	3.381600	-10.088000	25.483433	0.000105	20.699460
1902.490879	-3.006000	3.380200	-10.160000	25.488530	0.000104	20.711217
1903.488447	-3.006100	3.380600	-10.162000	25.469396	0.000105	20.707176
1904.490555	-2.984200	3.381100	-10.089000	25.436390	0.000105	20.707223
1905.488216	-3.020000	3.380100	-10.207000	25.440071	0.000101	20.738896
1906.490071	-2.981200	3.380000	-10.075000	25.428338	0.000105	20.702930
1907.490063	-2.984800	3.380200	-10.088000	25.440615	0.000102	20.717155
1908.489635	-2.988700	3.379900	-10.101000	25.382488	0.000106	20.719006
1909.492270	-3.023100	3.378600	-10.212000	25.401773	0.000103	20.731733
1910.490779	-3.020700	3.378000	-10.203000	25.421906	0.000103	20.722551
1911.492251	-2.998100	3.379100	-10.129000	25.456748	0.000106	20.709173
1912.491500	-3.007400	3.378200	-10.159000	25.432566	0.000104	20.702908
1913.493145	-3.001700	3.378100	-10.139000	25.386119	0.000103	20.710797
1914.497616	-2.999200	3.376300	-10.126000	25.431647	0.000103	20.724746
1915.496639	-2.985400	3.377800	-10.083000	25.447851	0.000102	20.719681
1916.493915	-2.993600	3.377100	-10.109000	25.432069	0.000101	20.691977
1917.494292	-2.994000	3.376500	-10.108000	25.439051	0.000102	20.714163
1918.498016	-2.983700	3.376300	-10.072000	25.434505	0.000105	20.712917
1919.496150	-3.018700	3.374900	-10.186000	25.459606	0.000101	20.712044
1920.496234	-3.007100	3.374700	-10.146000	25.442804	0.000100	20.725518
1921.499094	-3.009300	3.375700	-10.157000	25.419642	0.000102	20.712690
1922.495720	-2.991700	3.375400	-10.097000	25.420911	0.000101	20.706853
1923.496463	-2.995600	3.373700	-10.105000	25.374063	0.000102	20.697742
1924.498926	-3.009300	3.374200	-10.153000	25.343469	0.000103	20.731510
1925.497654	-2.968800	3.374100	-10.016000	25.349905	0.000102	20.709048
1926.497838	-2.992400	3.374000	-10.095000	25.439302	0.000101	20.698292
1927.499283	-3.000800	3.373600	-10.123000	25.449239	0.000102	20.719652
1928.498739	-2.999500	3.372600	-10.115000	25.422178	0.000101	20.709547
1929.499587	-3.004600	3.373200	-10.134000	25.415041	0.000101	20.704751
1930.502086	-2.987200	3.372700	-10.074000	25.426349	0.000104	20.700932
1931.499442	-3.032000	3.371500	-10.221000	25.479187	0.000102	20.704205
1932.500071	-3.017800	3.372500	-10.175000	25.471557	0.000101	20.698439
1933.502264	-2.982300	3.372000	-10.055000	25.446206	0.000100	20.713761
1934.501882	-2.985900	3.372100	-10.067000	25.440489	9.988182E-5	20.693320
1935.502612	-3.007400	3.372100	-10.140000	25.477069	9.971681E-5	20.695914
1936.501667	-2.962100	3.372400	-9.988000	25.495709	0.000100	20.695666
1937.502850	-3.002300	3.370400	-10.118000	25.471829	9.826471E-5	20.696816
1938.502362	-2.967600	3.370500	-10.001000	25.440543	9.938679E-5	20.695745
1939.504251	-3.011800	3.369800	-10.148000	25.435049	9.928778E-5	20.715359
1940.503502	-3.013400	3.368400	-10.149000	25.475134	9.790168E-5	20.709619
1941.502543	-3.025100	3.368800	-10.191000	25.489721	9.912277E-5	20.709094
1942.503257	-3.008700	3.368400	-10.134000	25.514227	9.770366E-5	20.685338
1943.503384	-3.004100	3.368400	-10.118000	25.516784	9.849572E-5	20.684113
1944.503067	-2.996600	3.368200	-10.093000	25.500556	9.776967E-5	20.711914
1945.504067	-3.004300	3.367200	-10.115000	25.486938	9.776967E-5	20.685909
1946.503813	-2.980800	3.367000	-10.036000	25.451529	9.757165E-5	20.709148
1947.507255	-3.010500	3.366900	-10.135000	25.435893	9.724163E-5	20.693920
1948.504759	-2.993600	3.367100	-10.079000	25.445161	9.668059E-5	20.698012
1949.504804	-2.981300	3.366800	-10.036000	25.435471	9.654858E-5	20.683064
1950.507173	-2.999500	3.365900	-10.095000	25.482785	9.730764E-5	20.704025
1951.505602	-3.018100	3.365600	-10.157000	25.495187	9.800069E-5	20.692296
1952.504053	-3.013200	3.365900	-10.141000	25.473392	9.704362E-5	20.691747
1953.508005	-3.009500	3.364400	-10.124000	25.497100	9.681260E-5	20.699909
1954.505320	-2.987600	3.365400	-10.054000	25.488297	9.796768E-5	20.712406
1955.506394	-3.018800	3.365100	-10.158000	25.506443	9.668059E-5	20.704076
1956.511026	-2.998400	3.364000	-10.086000	25.472991	9.780267E-5	20.712683
1957.507903	-2.989100	3.364800	-10.057000	25.456265	9.430442E-5	20.680711
1958.509073	-2.989700	3.363800	-10.056000	25.500026	9.430442E-5	20.680086
1959.512190	-2.980500	3.363700	-10.025000	25.500051	9.437042E-5	20.685801
1960.510261	-3.018900	3.363600	-10.153000	25.466252	9.697761E-5	20.690267
1961.511723	-3.004700	3.363600	-10.106000	25.481086	9.509647E-5	20.690938
1962.514250	-3.002800	3.363300	-10.099000	25.460382	9.516248E-5	20.688639
1963.510379	-3.004600	3.363000	-10.104000	25.497462	9.364437E-5	20.686994
1964.513641	-3.004800	3.362300	-10.103000	25.511873	9.615255E-5	20.724229
1965.511652	-3.023600	3.362600	-10.166000	25.532648	9.572352E-5	20.695303
1966.511612	-2.994200	3.362000	-10.065000	25.509884	9.483245E-5	20.685719
1967.511242	-3.008600	3.361900	-10.114000	25.542509	9.483245E-5	20.697146
1968.512247	-3.018700	3.360600	-10.144000	25.523988	9.417241E-5	20.705574
1969.512059	-3.001200	3.359700	-10.083000	25.510027	9.394139E-5	20.695346
1970.511827	-2.987300	3.360800	-10.039000	25.528960	9.334735E-5	20.689229
1971.512730	-2.994600	3.359300	-10.059000	25.523216	9.493146E-5	20.712385
1972.511927	-2.985200	3.359100	-10.027000	25.507584	9.430442E-5	20.700480
1973.513309	-3.001300	3.358500	-10.079000	25.530394	9.364437E-5	20.702524
1974.513304	-2.980200	3.359300	-10.010000	25.521449	9.209325E-5	20.700178
1975.512974	-3.003800	3.358900	-10.089000	25.531510	9.357836E-5	20.706490
1976.512973	-2.993700	3.359000	-10.055000	25.507352	9.357836E-5	20.704040
1977.514024	-2.998000	3.358600	-10.068000	25.520225	9.479945E-5	20.713650
1978.517030	-2.998300	3.358600	-10.069000	25.581900	9.400739E-5	20.697825
1979.513603	-3.013300	3.357300	-10.116000	25.599118	9.476645E-5	20.694254
1980.514496	-3.029700	3.356600	-10.168000	25.638203	9.387538E-5	20.694628
1981.514026	-3.002500	3.358600	-10.083000	25.621948	9.258829E-5	20.694898
1982.514244	-2.994400	3.358000	-10.054000	25.584601	9.377638E-5	20.693899
1983.518236	-2.976500	3.357900	-9.994000	25.606068	9.324834E-5	20.713564
1984.517144	-2.990900	3.356700	-10.038000	25.604923	9.499747E-5	20.717630
1985.513573	-2.999700	3.356700	-10.068000	25.584447	9.288531E-5	20.688528
1986.513288	-3.008100	3.354600	-10.090000	25.571546	9.549250E-5	20.676993
1987.513715	-2.982500	3.356400	-10.009000	25.549681	9.344635E-5	20.710040
1988.516044	-3.006100	3.353800	-10.081000	25.604795	9.354536E-5	20.711336
1989.514759	-2.990800	3.354700	-10.032000	25.609934	9.166422E-5	20.691841
1990.514493	-2.991000	3.355300	-10.035000	25.598529	9.324834E-5	20.696981
1991.517673	-2.982500	3.354000	-10.003000	25.615371	9.258829E-5	20.701569
1992.512550	-3.021100	3.352300	-10.127000	25.654681	9.163122E-5	20.714024
1993.515529	-2.984000	3.354700	-10.009000	25.697365	9.008011E-5	20.692408
1994.517130	-2.987600	3.353700	-10.018000	25.687870	9.116919E-5	20.696148
1995.516493	-2.998100	3.352400	-10.050000	25.640636	9.041013E-5	20.699917
1996.518151	-3.025700	3.351800	-10.141000	25.639967	9.146621E-5	20.698771
1997.517242	-2.991400	3.352500	-10.028000	25.695026	9.192824E-5	20.697646
1998.515602	-3.014000	3.350800	-10.099000	25.680213	8.918904E-5	20.716434
1999.516661	-3.029900	3.350100	-10.150000	25.698627	9.067415E-5	20.705532
2000.516676	-3.001500	3.351100	-10.058000	25.724416	9.093817E-5	20.709149
2001.520996	-2.998300	3.350300	-10.043000	25.668582	8.932105E-5	20.711865
2002.517307	-3.004200	3.349300	-10.061000	25.645825	9.008011E-5	20.709397
2003.517558	-2.985700	3.351200	-10.005000	25.664684	8.971708E-5	20.699888
2004.521757	-2.990900	3.349300	-10.017000	25.651512	8.813297E-5	20.717954
2005.519730	-2.996000	3.350500	-10.037000	25.644180	8.899103E-5	20.701580
2006.519947	-2.991500	3.350000	-10.021000	25.659291	8.935405E-5	20.690677
2007.523159	-2.976000	3.350300	-9.969400	25.645028	9.268730E-5	20.721399
2008.519197	-2.992000	3.350800	-10.023000	25.625793	8.707689E-5	20.708244
2009.521112	-3.031300	3.348400	-10.149000	25.640507	8.734091E-5	20.713539
2010.524324	-3.005900	3.347700	-10.061000	25.628504	8.938706E-5	20.707648
2011.520822	-2.997600	3.348700	-10.037000	25.651784	8.740691E-5	20.700682
2012.521421	-3.020200	3.348000	-10.110000	25.636977	8.658185E-5	20.707148
2013.522280	-3.016000	3.347300	-10.095000	25.653701	8.651585E-5	20.696917
2014.520993	-2.993400	3.346700	-10.017000	25.662517	8.664786E-5	20.716205
2015.521089	-2.970700	3.347200	-9.942600	25.692483	8.826497E-5	20.722121
2016.526354	-2.973000	3.347500	-9.951700	25.708037	8.790195E-5	20.723044
2017.524214	-2.994700	3.347000	-10.022000	25.670868	8.648284E-5	20.715109
2018.526214	-3.001000	3.346400	-10.042000	25.659613	8.545977E-5	20.716133
2019.523517	-2.999500	3.346700	-10.037000	25.639735	8.559178E-5	20.687157
2020.523459	-3.032000	3.344500	-10.140000	25.643633	8.734091E-5	20.713359
2021.524923	-3.024500	3.344700	-10.115000	25.644703	8.565778E-5	20.722969
2022.523713	-3.002500	3.345400	-10.043000	25.728979	8.654885E-5	20.718001
2023.525274	-3.018200	3.344200	-10.092000	25.734944	8.443669E-5	20.710241
2024.525142	-3.011800	3.343400	-10.069000	25.735019	8.611982E-5	20.724542
2025.524976	-3.027800	3.343300	-10.122000	25.771889	8.569079E-5	20.714160
2026.525718	-3.006900	3.342100	-10.048000	25.769976	8.542677E-5	20.740215
2027.526371	-3.036000	3.342400	-10.147000	25.754896	8.562478E-5	20.708944
2028.527255	-3.022600	3.341600	-10.098000	25.745351	8.463471E-5	20.741559
2029.526768	-3.004100	3.341500	-10.037000	25.762570	8.483272E-5	20.731353
2030.525397	-2.990400	3.342400	-9.993300	25.767491	8.575679E-5	20.711639
2031.525553	-2.968800	3.343700	-9.925600	25.751541	8.212653E-5	20.718852
2032.527545	-2.999700	3.341100	-10.022000	25.751935	8.384265E-5	20.730628
2033.526060	-2.995200	3.342300	-10.009000	25.769973	8.357863E-5	20.723141
2034.526863	-3.010100	3.340100	-10.052000	25.737180	8.242355E-5	20.746153
2035.529481	-3.017000	3.340600	-10.077000	25.741922	8.377665E-5	20.721518
2036.528068	-2.988200	3.341700	-9.985100	25.772605	8.595481E-5	20.725311
2037.531046	-3.021600	3.339600	-10.089000	25.753623	8.476672E-5	20.738013
2038.533360	-2.976700	3.340900	-9.943600	25.696725	8.347963E-5	20.716898
2039.529435	-2.997400	3.339400	-10.009000	25.700005	8.123546E-5	20.717347
2040.529450	-2.998400	3.337700	-10.007000	25.689219	8.140047E-5	20.719790
2041.533852	-2.990500	3.338200	-9.982200	25.714589	8.258856E-5	20.730574
2042.528519	-2.993000	3.339100	-9.992900	25.782046	8.001437E-5	20.747598
2043.529008	-3.021300	3.338100	-10.085000	25.758465	8.173050E-5	20.749042
2044.529376	-3.020900	3.337100	-10.080000	25.805765	8.288558E-5	20.747716
2045.529431	-3.016500	3.336200	-10.063000	25.802611	8.146648E-5	20.734116
2046.529749	-3.018200	3.336400	-10.069000	25.749543	8.070742E-5	20.738657
2047.528772	-3.000200	3.336700	-10.009000	25.739955	8.295159E-5	20.742777
2048.528873	-2.995600	3.336600	-9.994100	25.747182	8.050941E-5	20.741028
2049.529455	-3.012700	3.335200	-10.048000	25.814759	7.975035E-5	20.732568
2050.530190	-3.017200	3.335600	-10.064000	25.817813	8.219253E-5	20.731368
2051.529300	-2.998600	3.336600	-10.004000	25.825687	8.054241E-5	20.736433
2052.529584	-3.008200	3.333600	-10.027000	25.868296	7.902430E-5	20.750788
2053.531443	-2.988000	3.334200	-9.962000	25.869358	8.064142E-5	20.727672
2054.531467	-2.979300	3.335200	-9.935700	25.834133	7.740718E-5	20.737805
2055.531442	-3.011200	3.334500	-10.039000	25.840469	7.753919E-5	20.744645
2056.535441	-3.000700	3.334300	-10.004000	25.851994	7.852926E-5	20.741998
2057.537113	-2.986700	3.332900	-9.953100	25.861013	7.727517E-5	20.720236
2058.532744	-2.996800	3.333100	-9.987600	25.860812	7.658212E-5	20.742795
2059.535942	-2.977100	3.332500	-9.920300	25.904558	7.737418E-5	20.742644
2060.535277	-2.990600	3.333300	-9.967800	25.975628	7.542704E-5	20.732489
2061.532223	-2.982500	3.333200	-9.940400	25.934489	7.678014E-5	20.749954
2062.533930	-3.006600	3.332500	-10.018000	25.899938	7.849626E-5	20.731839
2063.536197	-3.024100	3.331900	-10.075000	25.837212	7.658212E-5	20.750382
2064.533437	-2.971700	3.330200	-9.895200	25.786655	7.816624E-5	20.738951
2065.533884	-2.982100	3.331400	-9.933400	25.833311	7.598808E-5	20.752153
2066.536374	-2.999900	3.330200	-9.989500	25.873581	7.671413E-5	20.748036
2067.533712	-3.006400	3.330500	-10.011000	25.931088	7.565805E-5	20.755547
2068.534459	-3.007200	3.330200	-10.013000	25.954386	7.595507E-5	20.748133
2069.536607	-3.019600	3.329200	-10.052000	25.977015	7.532803E-5	20.742892
2070.540938	-2.981000	3.329800	-9.925600	25.910343	7.605408E-5	20.749879
2071.538052	-3.009000	3.328900	-10.016000	25.954115	7.476699E-5	20.757344
2072.537385	-2.991700	3.329500	-9.959500	25.976272	7.664813E-5	20.751628
2073.540980	-3.018300	3.327800	-10.043000	26.022175	7.390893E-5	20.751280
2074.538183	-3.000800	3.329000	-9.988400	25.991274	7.602108E-5	20.779978
2075.536799	-2.990400	3.328100	-9.951900	25.942963	7.489900E-5	20.765106
2076.539746	-3.001700	3.328100	-9.988600	25.919039	7.760520E-5	20.742019
2077.539039	-3.018100	3.326900	-10.040000	25.865951	7.635110E-5	20.757441
2078.539836	-3.024200	3.326900	-10.060000	25.838921	7.463498E-5	20.743564
2079.542133	-3.003100	3.327600	-9.992000	25.848662	7.476699E-5	20.757617
2080.538657	-2.993800	3.327600	-9.960800	25.870077	7.338089E-5	20.741671
2081.540361	-3.015200	3.324900	-10.023000	25.858574	7.324888E-5	20.744814
2082.541602	-3.003100	3.326000	-9.987400	25.890595	7.239081E-5	20.746161
2083.539283	-2.995100	3.326100	-9.961100	25.821807	7.219280E-5	20.769521
2084.540165	-3.013000	3.324800	-10.017000	25.868783	7.156575E-5	20.752699
2085.539970	-2.984300	3.326000	-9.924500	25.914791	7.255583E-5	20.743916
2086.542384	-2.989000	3.324400	-9.934600	25.962134	7.222580E-5	20.774410
2087.539663	-2.993600	3.323300	-9.947800	25.982479	7.093871E-5	20.755020
2088.540435	-2.994400	3.324500	-9.954300	25.984613	7.169776E-5	20.771863
2089.543260	-3.006200	3.323500	-9.990400	26.021753	6.971762E-5	20.777884
2090.541070	-3.002100	3.323100	-9.974900	26.040627	7.120273E-5	20.757965
2091.544725	-3.002700	3.322800	-9.975500	26.047459	7.037767E-5	20.770046
2092.545450	-3.028300	3.322000	-10.058000	25.983991	6.922258E-5	20.758910
2093.542194	-3.004900	3.322100	-9.981300	25.933370	6.958561E-5	20.767323
2094.543213	-2.990900	3.322600	-9.936100	25.962732	7.074069E-5	20.772165
2095.544215	-2.997700	3.321500	-9.956000	26.007220	6.942060E-5	20.784145
2096.542999	-2.997200	3.321900	-9.955400	26.055600	7.146675E-5	20.747404
2097.542726	-2.999100	3.320100	-9.956800	26.069439	6.968462E-5	20.785018
2098.542723	-3.012600	3.319300	-9.999200	26.048975	7.014665E-5	20.771094
2099.543337	-3.039000	3.318700	-10.085000	26.077558	7.050968E-5	20.757613
2100.543991	-3.001800	3.319200	-9.962700	26.044896	6.796849E-5	20.766996
2101.545669	-3.005200	3.319900	-9.975700	26.029873	6.958561E-5	20.781300
2102.547148	-3.011200	3.318000	-9.989700	26.022418	6.852953E-5	20.776655
2103.544450	-3.005100	3.319500	-9.974200	26.037695	6.704442E-5	20.790108
2104.546151	-3.000500	3.317700	-9.953400	26.049243	6.711043E-5	20.777054
2105.546197	-2.994500	3.319000	-9.938400	26.071720	6.585634E-5	20.785887
2106.543650	-3.004200	3.317000	-9.964000	26.105625	6.569132E-5	20.786763
2107.547561	-3.001600	3.317500	-9.957000	26.124376	6.687941E-5	20.774310
2108.546925	-3.022500	3.316700	-10.024000	26.122313	6.443723E-5	20.778875
2109.545451	-3.001400	3.316100	-9.952500	26.119582	6.717643E-5	20.759061
2110.548332	-3.004500	3.316100	-9.963000	26.074079	6.638437E-5	20.763127
2111.546342	-2.997200	3.316100	-9.938200	26.023881	6.631837E-5	20.789030
2112.545808	-2.981900	3.316400	-9.888300	25.977505	6.522929E-5	20.793646
2113.546699	-3.009200	3.315900	-9.976400	25.967795	6.592234E-5	20.786735
2114.548146	-2.996900	3.314300	-9.931100	25.997527	6.387619E-5	20.772510
2115.547330	-2.980300	3.315800	-9.881300	26.059597	6.562532E-5	20.786034
2116.551499	-2.982900	3.314700	-9.887200	26.101818	6.315014E-5	20.768239
2117.550213	-2.982400	3.313500	-9.880500	26.123475	6.562532E-5	20.783362
2118.547731	-2.990800	3.313000	-9.908100	26.106787	6.549331E-5	20.795992
2119.550952	-2.987700	3.313500	-9.898500	26.044692	6.503128E-5	20.784810
2120.549564	-2.999500	3.312800	-9.935800	26.019655	6.555931E-5	20.800906
2121.548797	-2.992900	3.311800	-9.910700	26.045561	6.450324E-5	20.778096
2122.549449	-3.000700	3.312900	-9.938900	26.042458	6.499827E-5	20.783513
2123.551592	-2.981700	3.313000	-9.877700	26.047620	6.437123E-5	20.801502
2124.551952	-2.996200	3.310500	-9.918200	26.075095	6.361217E-5	20.798287
2125.551677	-2.985400	3.310900	-9.882900	26.090689	6.549331E-5	20.807318
2126.552230	-3.005300	3.309700	-9.945500	26.060437	6.268810E-5	20.773128
2127.555200	-2.998500	3.310600	-9.926000	26.033913	6.407421E-5	20.793894
2128.552613	-2.987600	3.310900	-9.891000	26.024746	6.661539E-5	20.792745
2129.555316	-3.005800	3.309500	-9.946400	26.059747	6.463525E-5	20.790927
2130.556477	-3.007700	3.310100	-9.955400	26.066500	6.288612E-5	20.796290
2131.555428	-3.022400	3.307500	-9.996200	26.097496	6.565832E-5	20.823640
2132.555242	-3.000800	3.308900	-9.928000	26.159138	6.423922E-5	20.797860
2133.560375	-2.992000	3.307100	-9.893700	26.147641	6.291912E-5	20.807644
2134.556725	-3.001200	3.308600	-9.928100	26.151363	6.126900E-5	20.799056
2135.556520	-2.972900	3.307300	-9.831300	26.199568	6.324914E-5	20.786329
2136.561779	-2.977000	3.307700	-9.845900	26.225444	6.126900E-5	20.798582
2137.556805	-2.982100	3.306000	-9.856600	26.172893	6.272111E-5	20.808363
2138.555718	-2.977500	3.306500	-9.843900	26.183771	6.107099E-5	20.818345
2139.561672	-3.005100	3.306200	-9.934700	26.148578	6.146701E-5	20.814276
2140.558113	-3.007000	3.306500	-9.941600	26.154315	6.057595E-5	20.826679
2141.559508	-3.034400	3.305400	-10.028000	26.135115	6.407421E-5	20.825404
2142.558196	-3.027500	3.304300	-10.002000	26.153493	6.272111E-5	20.797404
2143.559138	-3.003200	3.304400	-9.922500	26.179371	6.008091E-5	20.816768
2144.558392	-2.996200	3.304800	-9.901300	26.206614	6.324914E-5	20.795306
2145.560163	-2.999400	3.304100	-9.909200	26.172340	5.988290E-5	20.814445
2146.561195	-2.982400	3.304400	-9.854600	26.242395	6.024592E-5	20.833633
2147.559189	-2.994800	3.304400	-9.893800	26.235790	5.984990E-5	20.802814
2148.563959	-2.993700	3.301800	-9.883500	26.177824	5.836479E-5	20.819481
2149.561389	-2.990500	3.303100	-9.876100	26.129768	6.097198E-5	20.804858
2150.559000	-2.985100	3.303200	-9.859500	26.102423	5.889283E-5	20.810573
2151.562054	-2.972900	3.302000	-9.816000	26.075871	5.951987E-5	20.823723
2152.561098	-2.972900	3.302800	-9.817100	26.057960	5.928885E-5	20.819003
2153.560297	-2.992800	3.300400	-9.877000	26.093525	5.905784E-5	20.834822
2154.561916	-2.988800	3.300000	-9.862300	26.168773	5.965188E-5	20.818447
2155.561035	-2.998500	3.301100	-9.897700	26.218593	5.922285E-5	20.837689
2156.559410	-2.991600	3.299400	-9.869500	26.212459	5.770474E-5	20.819672
2157.559759	-3.003900	3.299400	-9.910200	26.239726	5.856280E-5	20.822416
2158.562972	-3.017700	3.300100	-9.957600	26.256462	5.790275E-5	20.816475
2159.561337	-3.017100	3.298900	-9.951900	26.241660	5.661566E-5	20.822937
2160.561370	-2.983500	3.300800	-9.847100	26.248062	5.869481E-5	20.837905
2161.561960	-3.019600	3.297900	-9.957200	26.279452	5.618663E-5	20.831518
2162.563075	-3.016400	3.297800	-9.946900	26.178057	5.724270E-5	20.824457
2163.562383	-2.983300	3.297000	-9.834400	26.137944	5.493254E-5	20.823031
2164.563917	-3.002200	3.297000	-9.897500	26.115766	5.651665E-5	20.817341
2165.561607	-3.019700	3.296200	-9.952600	26.171422	5.727571E-5	20.820161
2166.562899	-3.005600	3.296300	-9.905900	26.235519	5.810077E-5	20.846163
2167.565691	-3.020300	3.295500	-9.952700	26.243962	5.546057E-5	20.847061
2168.563992	-3.013600	3.294600	-9.928100	26.221886	5.955287E-5	20.831041
2169.564331	-3.001500	3.297200	-9.894800	26.209889	5.668166E-5	20.832736
2170.568090	-2.972400	3.296400	-9.797100	26.193971	5.572459E-5	20.842819
2171.565071	-3.008100	3.293500	-9.906800	26.206486	5.678067E-5	20.838325
2172.565257	-2.979700	3.294100	-9.814500	26.251561	5.272137E-5	20.847111
2173.566786	-2.962400	3.295900	-9.763500	26.276765	5.387646E-5	20.841145
2174.568003	-3.014900	3.293800	-9.929500	26.320121	5.315040E-5	20.851052
2175.569544	-3.002200	3.293200	-9.886200	26.328939	5.460251E-5	20.839999
2176.568443	-2.998400	3.293600	-9.874600	26.284092	5.509755E-5	20.844241
2177.568564	-3.012700	3.292900	-9.918700	26.223698	5.288639E-5	20.834284
2178.569798	-2.994300	3.292500	-9.858000	26.266860	5.456951E-5	20.834985
2179.568967	-3.001000	3.292800	-9.880900	26.280739	5.107125E-5	20.865053
2180.569093	-2.994600	3.291300	-9.855200	26.323424	5.384346E-5	20.830664
2181.568542	-2.997900	3.291100	-9.864900	26.362586	5.285338E-5	20.831615
2182.569098	-3.009700	3.291800	-9.907100	26.359455	5.341442E-5	20.857391
2183.571842	-2.986900	3.289500	-9.824700	26.359158	5.301840E-5	20.859464
2184.570809	-2.996000	3.291000	-9.858900	26.347064	5.235835E-5	20.844464
2185.571890	-2.968400	3.290900	-9.767400	26.272047	5.206132E-5	20.848257
2186.571490	-2.980500	3.288900	-9.802100	26.248480	5.301840E-5	20.870566
2187.572694	-2.992600	3.288600	-9.841200	26.279867	5.080723E-5	20.816289
2188.573830	-3.001200	3.288800	-9.868800	26.253867	5.268837E-5	20.832359
2189.573848	-2.978400	3.288400	-9.793500	26.232831	5.034520E-5	20.842040
2190.573714	-2.988700	3.287300	-9.823700	26.267725	5.117026E-5	20.839647
2191.573898	-2.996800	3.287700	-9.852100	26.348501	4.965215E-5	20.830736
2192.578168	-2.984400	3.286200	-9.806200	26.359227	5.288639E-5	20.842464
2193.574161	-3.030700	3.285400	-9.955500	26.345123	4.968515E-5	20.839669
2194.579493	-3.008200	3.285400	-9.881600	26.398209	4.862907E-5	20.846555
2195.578934	-3.005100	3.285000	-9.869900	26.454594	4.882709E-5	20.843010
2196.576038	-2.986800	3.286200	-9.813500	26.418713	5.100525E-5	20.854360
2197.575905	-2.995300	3.285500	-9.840400	26.404042	4.945413E-5	20.836296
2198.575808	-2.993900	3.283600	-9.829700	26.417298	5.120326E-5	20.839188
2199.576893	-3.004700	3.283300	-9.864100	26.404685	4.892610E-5	20.828883
2200.577218	-2.995400	3.282700	-9.832200	26.385786	4.985016E-5	20.821268
2201.578039	-3.002300	3.282500	-9.854100	26.361104	4.757300E-5	20.836764
2202.576730	-3.006500	3.282900	-9.869300	26.365721	5.074123E-5	20.816749
2203.577410	-3.009000	3.282300	-9.876100	26.354224	5.080723E-5	20.829375
2204.578088	-2.993500	3.283100	-9.826700	26.342701	4.763900E-5	20.819691
2205.582322	-3.017900	3.280600	-9.899500	26.400533	4.862907E-5	20.834666
2206.579099	-2.998600	3.282500	-9.842100	26.429457	5.090624E-5	20.837184
2207.579331	-3.011600	3.280300	-9.877600	26.429035	4.955314E-5	20.810683
2208.582237	-3.008700	3.280600	-9.868900	26.445521	5.054321E-5	20.827727
2209.578984	-3.027600	3.279100	-9.927300	26.461835	4.796902E-5	20.813779
2210.579901	-3.013600	3.279600	-9.882600	26.431244	4.869508E-5	20.815273
2211.584490	-3.005400	3.279600	-9.855800	26.416319	4.889309E-5	20.819239
2212.581519	-2.972200	3.279500	-9.746300	26.400454	4.747399E-5	20.830320
2213.582568	-2.991500	3.278800	-9.807900	26.356901	5.004818E-5	20.825428
2214.586896	-3.009400	3.279100	-9.867300	26.309897	4.846406E-5	20.815647
2215.584136	-2.989800	3.277600	-9.797900	26.380068	4.882709E-5	20.809831
2216.586854	-3.003700	3.277000	-9.841600	26.404278	4.876108E-5	20.819939
2217.586846	-2.986400	3.277800	-9.787400	26.390200	4.787002E-5	20.805790
2218.585144	-3.000300	3.275800	-9.827100	26.403035	4.717697E-5	20.808258
2219.586069	-2.996800	3.277000	-9.820100	26.460964	5.014718E-5	20.841825
2220.585287	-3.006300	3.276400	-9.849200	26.460045	4.717697E-5	20.811505
2221.584274	-3.001300	3.276500	-9.832700	26.437226	4.790302E-5	20.827924
2222.583548	-2.991100	3.274600	-9.794100	26.465162	4.757300E-5	20.821864
2223.585244	-2.991400	3.274700	-9.794900	26.464244	4.697895E-5	20.825683
2224.586515	-2.999100	3.275400	-9.822600	26.489618	4.902510E-5	20.802349
2225.585174	-2.985100	3.274000	-9.772000	26.486590	4.526283E-5	20.809738
2226.587100	-3.005400	3.274400	-9.840600	26.461564	4.595588E-5	20.834842
2227.590285	-2.980200	3.273400	-9.754700	26.446068	4.628590E-5	20.816423
2228.586163	-2.991600	3.274400	-9.795300	26.479068	4.694595E-5	20.806918
2229.587625	-3.019600	3.270800	-9.875400	26.541359	4.549384E-5	20.805995
2230.591855	-3.016700	3.271900	-9.869700	26.533987	4.664893E-5	20.823714
2231.585813	-3.004200	3.271600	-9.827100	26.574381	4.777101E-5	20.809791
2232.586994	-3.007600	3.270000	-9.834000	26.529817	4.747399E-5	20.785383
2233.587702	-3.004800	3.271100	-9.828100	26.524010	4.480079E-5	20.824116
2234.587364	-2.999000	3.272800	-9.814100	26.505638	4.536183E-5	20.824615
2235.586987	-2.988500	3.269800	-9.770800	26.546602	4.387672E-5	20.819324
2236.586327	-3.013100	3.269300	-9.849600	26.558147	4.219360E-5	20.814809
2237.586747	-3.012900	3.270000	-9.852000	26.530664	4.381072E-5	20.823692
2238.586849	-3.005200	3.268900	-9.822700	26.495513	4.374472E-5	20.823922
2239.586970	-3.015000	3.268000	-9.851400	26.497154	4.513082E-5	20.814665
2240.585656	-3.002700	3.268300	-9.812800	26.516619	4.275464E-5	20.809575
2241.586786	-3.040500	3.266500	-9.930900	26.564758	4.499881E-5	20.789212
2242.588964	-3.004700	3.267800	-9.816900	26.575482	4.387672E-5	20.792405
2243.587645	-3.006400	3.266400	-9.818700	26.568135	4.199559E-5	20.799719
2244.587538	-3.002800	3.268000	-9.812100	26.547330	4.315067E-5	20.791608
2245.591792	-2.995900	3.266700	-9.785900	26.578118	4.295266E-5	20.790314
2246.588413	-2.989400	3.266400	-9.764300	26.603511	4.364571E-5	20.807305
2247.586310	-2.997900	3.265700	-9.789800	26.574863	4.235861E-5	20.824500
2248.587839	-2.987900	3.264600	-9.752900	26.626798	4.460278E-5	20.798946
2249.589071	-2.997100	3.263100	-9.779800	26.601874	4.113752E-5	20.792384
2250.588173	-2.988200	3.263300	-9.750300	26.546590	4.315067E-5	20.794183
2251.587198	-2.986600	3.263700	-9.746500	26.557857	4.067549E-5	20.801242
2252.587718	-3.000100	3.261600	-9.784100	26.541970	3.925639E-5	20.809927
2253.587834	-2.981200	3.262000	-9.723900	26.529955	4.126953E-5	20.798325
2254.589367	-2.972700	3.262200	-9.697200	26.589511	4.044447E-5	20.793231
2255.590403	-2.977100	3.262200	-9.711100	26.670365	4.087350E-5	20.795803
2256.588888	-2.989000	3.260900	-9.745900	26.598969	3.876135E-5	20.779032
2257.589358	-2.981600	3.261300	-9.723500	26.618186	3.909137E-5	20.786496
2258.590519	-3.009400	3.260600	-9.811900	26.579008	3.905837E-5	20.788364
2259.590635	-3.003300	3.259300	-9.787800	26.592962	3.849733E-5	20.794805
2260.590902	-3.013500	3.260100	-9.823100	26.607213	3.820031E-5	20.809130
2261.591250	-2.995800	3.259300	-9.763500	26.539411	3.691321E-5	20.782699
2262.595494	-3.017100	3.259100	-9.832900	26.527493	3.681421E-5	20.799169
2263.591291	-3.018800	3.257000	-9.831500	26.524020	3.826631E-5	20.785720
2264.592570	-3.011800	3.257400	-9.810000	26.498619	3.991643E-5	20.785318
2265.594454	-3.007500	3.257100	-9.795200	26.498669	3.773827E-5	20.800067
2266.592113	-3.025600	3.256400	-9.852000	26.494570	3.721024E-5	20.795473
2267.595894	-3.000800	3.255900	-9.770000	26.536134	3.641818E-5	20.778931
2268.598492	-2.969800	3.256000	-9.668900	26.605248	3.648418E-5	20.786766
2269.595907	-2.993900	3.254800	-9.743500	26.636974	3.872835E-5	20.783098
2270.596736	-2.994500	3.255400	-9.747500	26.689127	3.668220E-5	20.808501
2271.598110	-3.017700	3.254300	-9.819200	26.721820	3.810130E-5	20.807230
2272.596196	-2.996600	3.254500	-9.750600	26.711047	3.747425E-5	20.791184
2273.599264	-3.010500	3.253100	-9.792400	26.670212	3.612116E-5	20.776683
2274.598450	-3.021600	3.253300	-9.829400	26.638933	3.684721E-5	20.775109
2275.595589	-3.014700	3.252600	-9.805300	26.636828	3.671520E-5	20.777735
2276.597220	-3.002500	3.253200	-9.767300	26.634463	3.684721E-5	20.776780
2277.597404	-2.993700	3.254000	-9.740900	26.614281	3.410801E-5	20.799166
2278.597461	-2.983200	3.252200	-9.700800	26.673388	3.321694E-5	20.780824
2279.598582	-3.002100	3.251200	-9.759300	26.718937	3.671520E-5	20.780623
2280.597408	-2.983700	3.251100	-9.699100	26.689174	3.437203E-5	20.788634
2281.601794	-2.995400	3.250800	-9.736100	26.667257	3.618716E-5	20.774660
2282.599175	-3.000600	3.250300	-9.751500	26.702333	3.565912E-5	20.784794
2283.600310	-3.016300	3.248700	-9.797700	26.778806	3.519709E-5	20.769218
2284.606419	-3.009100	3.249100	-9.776400	26.767913	3.476806E-5	20.787190
2285.603498	-2.994700	3.248200	-9.725600	26.711019	3.334895E-5	20.757964
2286.603533	-2.991900	3.247500	-9.715300	26.744579	3.318394E-5	20.774161
2287.606043	-2.976900	3.251500	-9.679500	26.705956	3.447103E-5	20.779901
2288.604565	-2.996200	3.247100	-9.728000	26.651696	3.394300E-5	20.774664
2289.604980	-3.010500	3.246200	-9.771900	26.638611	3.344796E-5	20.775734
2290.608794	-3.006900	3.247200	-9.763000	26.681481	3.288692E-5	20.762407
2291.605749	-2.997600	3.246000	-9.729600	26.720705	3.407501E-5	20.782875
2292.606582	-3.041700	3.244100	-9.866200	26.800803	3.305193E-5	20.765730
2293.609997	-3.013600	3.244200	-9.775300	26.837708	3.367898E-5	20.769171
2294.606124	-3.017000	3.246800	-9.794000	26.838355	3.272191E-5	20.772667
2295.605792	-3.006600	3.243200	-9.749800	26.816469	3.192985E-5	20.785275
2296.607211	-3.005800	3.244600	-9.751800	26.841062	3.202886E-5	20.779183
2297.608715	-2.988300	3.243400	-9.690800	26.809170	3.235888E-5	20.776988
2298.607746	-3.001200	3.243300	-9.733200	26.812250	3.090677E-5	20.784826
2299.609807	-2.997100	3.243100	-9.719300	26.820863	3.183084E-5	20.782580
2300.608871	-2.979200	3.244500	-9.665800	26.773354	3.027973E-5	20.771323
2301.608447	-3.009200	3.241200	-9.752900	26.735679	2.892663E-5	20.788920
2302.609504	-3.019300	3.240600	-9.783300	26.709764	3.199585E-5	20.775669
2303.611488	-3.017500	3.240200	-9.776300	26.757698	2.892663E-5	20.777867
2304.611166	-3.007000	3.240700	-9.744300	26.743353	3.117079E-5	20.772454
2305.611998	-2.983700	3.240500	-9.667700	26.740970	2.971869E-5	20.768161
2306.613851	-3.006700	3.239300	-9.739000	26.741988	2.862961E-5	20.770608
2307.612878	-2.974400	3.240900	-9.638700	26.754872	3.060975E-5	20.767439
2308.612395	-2.983800	3.240000	-9.666300	26.756611	2.826658E-5	20.743583
2309.614382	-2.979700	3.238700	-9.649200	26.768673	2.707849E-5	20.773729
2310.613801	-2.963500	3.238900	-9.597300	26.724367	2.994970E-5	20.771857
2311.612381	-3.011100	3.237700	-9.748300	26.696615	2.919065E-5	20.774304
2312.612708	-3.026800	3.237200	-9.797200	26.731141	2.697948E-5	20.765866
2313.612939	-3.014500	3.235700	-9.753400	26.767112	2.816757E-5	20.760779
2314.612328	-3.000500	3.235700	-9.707800	26.718610	2.872861E-5	20.765122
2315.613080	-2.993200	3.235800	-9.685600	26.720475	2.820057E-5	20.765100
2316.614157	-2.997900	3.235800	-9.699800	26.734427	2.740852E-5	20.756842
2317.613183	-2.999800	3.234200	-9.701100	26.707545	2.820057E-5	20.776757
2318.615075	-3.015800	3.233400	-9.750700	26.691606	2.592341E-5	20.755042
2319.616140	-2.993900	3.234000	-9.680700	26.670457	2.757353E-5	20.771714
2320.613312	-3.014000	3.233100	-9.743100	26.648118	2.717750E-5	20.773438
2321.615700	-3.013200	3.232100	-9.737600	26.638088	2.542837E-5	20.766199
2322.615824	-2.979900	3.232500	-9.631300	26.725023	2.872861E-5	20.764457
2323.615107	-2.998700	3.231600	-9.689500	26.770027	2.800256E-5	20.761813
2324.615783	-2.995100	3.232100	-9.679800	26.794946	2.615442E-5	20.764109
2325.615993	-2.994800	3.231000	-9.675400	26.841804	2.575839E-5	20.762384
2326.616518	-3.000000	3.229300	-9.687200	26.891518	2.556038E-5	20.762111
2327.616446	-2.989100	3.230900	-9.657000	26.892286	2.810157E-5	20.771893
2328.619859	-2.990000	3.230300	-9.657800	26.897673	2.717750E-5	20.746015
2329.616169	-2.998900	3.228400	-9.680700	26.936339	2.387726E-5	20.760714
2330.621863	-2.977600	3.229400	-9.615300	26.929020	2.671546E-5	20.750983
2331.620166	-2.985200	3.229200	-9.638200	26.880651	2.523036E-5	20.762564
2332.617453	-3.012200	3.229900	-9.728600	26.884741	2.404227E-5	20.763358
2333.618348	-2.983000	3.228000	-9.627600	26.854590	2.410827E-5	20.761964
2334.617134	-3.032900	3.226700	-9.785400	26.878290	2.387726E-5	20.755922
2335.617791	-2.971700	3.227700	-9.590400	26.918349	2.325021E-5	20.763013
2336.620528	-2.998300	3.227900	-9.676800	26.948549	2.400927E-5	20.761612
2337.620998	-3.020300	3.224300	-9.737600	26.923558	2.358023E-5	20.754500
2338.621082	-3.004800	3.225500	-9.691000	26.914202	2.410827E-5	20.757420
2339.620360	-3.025700	3.223900	-9.754000	26.924722	2.328321E-5	20.749981
2340.621058	-3.015000	3.222800	-9.716000	26.918496	2.255716E-5	20.755574
2341.621789	-2.987900	3.224400	-9.633600	26.948549	2.348123E-5	20.734584
2342.623408	-2.996400	3.222800	-9.655400	26.909930	2.222714E-5	20.750753
2343.626635	-2.991100	3.222600	-9.638400	26.879876	2.150108E-5	20.745663
2344.625556	-2.998300	3.222300	-9.660900	26.868833	2.216113E-5	20.741672
2345.624829	-2.989200	3.221400	-9.628900	26.878090	2.123706E-5	20.740547
2346.626285	-3.002500	3.222500	-9.675000	26.838278	2.325021E-5	20.749356
2347.625649	-2.996500	3.221000	-9.651000	26.876571	2.179810E-5	20.765575
2348.625576	-2.993200	3.220400	-9.638100	26.876796	2.295319E-5	20.751576
2349.627470	-2.995900	3.219900	-9.645200	26.862453	2.037900E-5	20.753275
2350.625644	-3.026200	3.218800	-9.739900	26.863546	2.064302E-5	20.746313
2351.625518	-3.020400	3.218200	-9.719300	26.854955	2.202912E-5	20.754270
2352.626400	-2.989500	3.217900	-9.619500	26.918168	2.047801E-5	20.732483
2353.629399	-3.012000	3.216700	-9.688100	26.976118	1.978496E-5	20.723427
2354.627131	-2.989800	3.218900	-9.622700	26.991503	1.994997E-5	20.718983
2355.627585	-3.034400	3.215900	-9.757900	27.004159	2.064302E-5	20.740720
2356.629661	-3.019100	3.215200	-9.705600	26.949513	1.793682E-5	20.733183
2357.626892	-3.008900	3.215900	-9.675000	26.894815	2.014798E-5	20.743141
2358.629175	-3.011100	3.215600	-9.681600	26.902214	1.803583E-5	20.723078
2359.628050	-3.005900	3.213900	-9.659200	26.883995	1.645171E-5	20.723251
2360.626267	-2.998200	3.214900	-9.637600	26.844237	1.793682E-5	20.725000
2361.630982	-2.990700	3.213300	-9.609200	26.823909	1.631970E-5	20.743443
2362.628126	-2.995300	3.213500	-9.623100	26.786082	1.585767E-5	20.741920
2363.626880	-3.009100	3.212100	-9.664400	26.778862	1.770580E-5	20.737979
2364.628702	-3.021000	3.213400	-9.707000	26.867640	1.773881E-5	20.733834
2365.628350	-3.012200	3.212100	-9.674500	26.958372	1.909190E-5	20.756792
2366.627109	-2.988100	3.211800	-9.596100	26.978772	1.740878E-5	20.718983
2367.627186	-3.013000	3.211700	-9.676200	27.035377	1.882789E-5	20.720431
2368.627658	-2.990400	3.210500	-9.599400	27.053568	1.714476E-5	20.690833
2369.628170	-2.985100	3.208900	-9.577400	27.035606	1.793682E-5	20.725402
2370.627635	-2.987100	3.209200	-9.585600	27.056076	1.740878E-5	20.736980
2371.627136	-2.984400	3.208000	-9.573400	27.077220	1.902590E-5	20.725528
2372.627814	-2.979100	3.211700	-9.565800	27.062626	1.704575E-5	20.726498
2373.627461	-2.992100	3.207900	-9.597800	27.036745	1.681474E-5	20.730816
2374.629043	-3.011400	3.206700	-9.656000	27.010838	1.714476E-5	20.710451
2375.634129	-3.021500	3.207600	-9.690600	26.965748	1.773881E-5	20.725327
2376.629960	-3.022700	3.205800	-9.689600	27.049203	1.721077E-5	20.714895
2377.630378	-3.007200	3.205100	-9.638000	27.028830	1.595667E-5	20.726649
2378.634566	-2.985700	3.205500	-9.569700	27.005705	1.770580E-5	20.712402
2379.629075	-3.039200	3.203400	-9.734600	27.004712	1.430655E-5	20.722309
2380.630217	-3.023400	3.204300	-9.687400	27.016496	1.354750E-5	20.729418
2381.634547	-3.009500	3.204000	-9.641900	27.069330	1.582466E-5	20.729921
2382.630401	-3.007100	3.203300	-9.631700	27.042035	1.536263E-5	20.734713
2383.630686	-3.000400	3.201500	-9.605000	27.010841	1.575866E-5	20.715671
2384.633799	-3.011600	3.201000	-9.639300	26.952399	1.430655E-5	20.728499
2385.631318	-3.006700	3.202300	-9.627300	26.952846	1.480159E-5	20.722309
2386.630890	-3.023200	3.202400	-9.681000	26.959844	1.473558E-5	20.705637
2387.632514	-3.001900	3.199700	-9.604000	26.976125	1.427355E-5	20.716321
2388.630242	-3.024300	3.199600	-9.675800	27.018982	1.562665E-5	20.712951
2389.631157	-2.997100	3.199300	-9.587800	27.071691	1.400953E-5	20.724235
2390.632287	-2.999600	3.199500	-9.596600	27.101640	1.331648E-5	20.711205
2391.630752	-3.009400	3.197700	-9.621700	27.063705	1.301946E-5	20.704821
2392.629586	-2.995600	3.197300	-9.577300	27.075041	1.282144E-5	20.716698
2393.632472	-3.036200	3.195900	-9.701500	27.028540	1.295345E-5	20.713555
2394.632046	-3.000600	3.196600	-9.591200	27.034719	1.387752E-5	20.714079
2395.631026	-2.992700	3.195700	-9.562700	26.967591	1.064328E-5	20.711532
2396.632583	-3.019600	3.194500	-9.644300	26.927315	1.136934E-5	20.720818
2397.631320	-2.988200	3.197000	-9.553500	26.965734	1.120432E-5	20.703974
2398.631280	-3.010600	3.193000	-9.612300	27.015713	1.057728E-5	20.705870
2399.635703	-3.018000	3.192000	-9.632600	27.037598	1.087430E-5	20.732622
2400.631683	-3.011600	3.191700	-9.611900	27.048817	1.130333E-5	20.697910
2401.630455	-3.014300	3.191900	-9.620900	27.010030	1.136934E-5	20.718648
2402.632882	-3.015800	3.192000	-9.625900	26.933177	1.219440E-5	20.717703
2403.634591	-2.999600	3.191600	-9.572300	26.941640	1.133633E-5	20.704875
2404.633497	-2.994500	3.189200	-9.549300	26.932781	8.960159E-6	20.705924
2405.633932	-2.995100	3.188800	-9.549600	26.945712	9.719215E-6	20.703280
2406.637019	-2.995700	3.188900	-9.551700	26.981969	8.531128E-6	20.709868
2407.634205	-2.986700	3.188600	-9.522400	27.007705	9.323186E-6	20.718680
2408.637157	-2.990400	3.188300	-9.533600	26.959632	8.828150E-6	20.722496
2409.635502	-2.999500	3.186200	-9.556700	26.994353	7.970087E-6	20.716633
2410.634576	-2.994000	3.186900	-9.541000	27.062643	8.795147E-6	20.716557
2411.636477	-2.983800	3.186700	-9.507200	27.101803	9.092169E-6	20.716112
2412.635740	-2.987900	3.185100	-9.515500	27.106246	8.828150E-6	20.708252
2413.636641	-3.001700	3.183600	-9.555000	27.050860	8.960159E-6	20.710871
2414.635122	-2.978000	3.185400	-9.485300	27.109593	7.904082E-6	20.722998
2415.635216	-3.002400	3.183600	-9.557800	27.111704	8.696140E-6	20.705205
2416.635953	-2.982500	3.184000	-9.495200	27.132819	9.323186E-6	20.713166
2417.636065	-3.007600	3.181600	-9.567400	27.108379	1.001624E-5	20.717509
2418.636284	-2.999600	3.180600	-9.539900	27.101160	7.904082E-6	20.730639
2419.636967	-3.004400	3.181100	-9.556200	27.111108	8.993162E-6	20.733531
2420.637565	-3.007400	3.178900	-9.558900	27.174927	7.244033E-6	20.708101
2421.636175	-2.998300	3.180000	-9.532900	27.154159	6.517980E-6	20.727043
2422.636998	-2.982000	3.180000	-9.481700	27.104111	8.300111E-6	20.704681
2423.636435	-2.984700	3.177600	-9.483700	27.118179	7.079021E-6	20.702235
2424.637572	-2.983400	3.177800	-9.479000	27.120936	5.329892E-6	20.706430
2425.638418	-2.987700	3.177500	-9.492800	27.061657	5.989941E-6	20.702288
2426.637967	-2.993100	3.176600	-9.506200	27.132673	6.352968E-6	20.725822
2427.639143	-3.007000	3.175100	-9.546800	27.154855	6.022943E-6	20.725373
2428.639995	-3.000100	3.174800	-9.524000	27.164041	5.890934E-6	20.717541
2429.639390	-2.982200	3.173700	-9.463500	27.163891	5.395897E-6	20.724029
2430.638757	-2.983400	3.173300	-9.466200	27.061139	6.418973E-6	20.705087
2431.642983	-3.000600	3.172300	-9.517900	27.075037	4.273815E-6	20.700571
2432.640523	-2.996500	3.171100	-9.501100	27.115064	5.461902E-6	20.714276
2433.642282	-3.011000	3.170600	-9.545600	27.110078	5.197883E-6	20.700725
2434.642836	-2.995700	3.171200	-9.499400	27.142980	6.881007E-6	20.714376
2435.641233	-2.995900	3.169200	-9.493500	27.182730	4.735849E-6	20.716424
2436.640041	-3.000800	3.168900	-9.508600	27.176751	4.603839E-6	20.717049
2437.641099	-2.986600	3.167800	-9.459300	27.120357	3.547761E-6	20.718177
2438.640018	-2.989400	3.166400	-9.464800	27.123879	5.593912E-6	20.722667
2439.640636	-2.973500	3.166900	-9.415600	27.148126	3.613766E-6	20.723346
2440.641344	-2.994300	3.165800	-9.478000	27.186361	4.141805E-6	20.710119
2441.642490	-2.983100	3.165300	-9.441300	27.223028	4.702846E-6	20.719025
2442.643155	-2.999400	3.164500	-9.490800	27.252158	5.428900E-6	20.731256
2443.643906	-2.985100	3.164900	-9.447000	27.232484	4.339819E-6	20.709095
2444.644819	-3.004200	3.163200	-9.502400	27.175915	3.547761E-6	20.720476
2445.645166	-3.004300	3.160800	-9.494000	27.154801	3.118730E-6	20.742863
2446.646400	-2.989400	3.161000	-9.448700	27.133465	4.603839E-6	20.720928
2447.646678	-3.011200	3.159400	-9.512200	27.154654	3.316744E-6	20.719481
2448.646165	-2.992500	3.158900	-9.451900	27.158622	4.999868E-6	20.717781
2449.646194	-2.992600	3.158800	-9.451400	27.176565	4.900861E-6	20.708801
2450.647325	-3.006200	3.157100	-9.490300	27.208525	3.085727E-6	20.725774
2451.646454	-3.016300	3.155500	-9.517000	27.229341	3.976793E-6	20.716840
2452.646743	-3.009500	3.155100	-9.495000	27.244155	3.976793E-6	20.721783
2453.645885	-2.996500	3.155800	-9.454900	27.204953	3.151732E-6	20.716017
2454.646843	-2.996800	3.154800	-9.453200	27.151211	3.415751E-6	20.729769
2455.647424	-3.035400	3.152000	-9.566000	27.145708	2.458681E-6	20.728501
2456.651042	-2.996400	3.152300	-9.444600	27.158436	1.567615E-6	20.729923
2457.649562	-3.015700	3.152100	-9.504600	27.182008	3.052725E-6	20.715223
2458.647487	-2.994300	3.151600	-9.436300	27.272566	4.075800E-6	20.705790
2459.651001	-3.032800	3.149500	-9.551100	27.290953	2.491683E-6	20.741357
2460.649726	-2.966800	3.151200	-9.348400	27.216128	3.349747E-6	20.736267
2461.646526	-3.001500	3.148800	-9.450400	27.195411	3.580764E-6	20.728705
2462.651281	-3.002200	3.148300	-9.450800	27.202310	3.613766E-6	20.726162
2463.651264	-2.994200	3.146500	-9.420900	27.180357	3.349747E-6	20.725418
2464.649183	-3.006700	3.145100	-9.455600	27.182589	3.382749E-6	20.713912
2465.649006	-3.004500	3.144800	-9.447400	27.237401	4.669844E-6	20.731112
2466.650731	-3.007200	3.144000	-9.453500	27.247026	3.118730E-6	20.737948
2467.651445	-2.978100	3.143700	-9.361900	27.198003	3.844783E-6	20.729416
2468.651300	-3.008000	3.142900	-9.452600	27.260799	3.844783E-6	20.756071
2469.651190	-2.996100	3.141000	-9.409600	27.282111	2.260666E-6	20.731988
2470.651367	-2.981200	3.140900	-9.362200	27.293874	3.910788E-6	20.717267
2471.651499	-3.004200	3.139600	-9.431800	27.329776	2.227664E-6	20.724933
2472.650616	-2.983300	3.139000	-9.363500	27.332254	2.920715E-6	20.745445
2473.654038	-3.022000	3.136500	-9.477700	27.296806	2.788705E-6	20.736338
2474.651263	-3.016100	3.136200	-9.458500	27.293756	3.316744E-6	20.727580
2475.652016	-3.017000	3.134300	-9.454600	27.257535	1.468608E-6	20.730027
2476.653943	-3.009200	3.135100	-9.433500	27.244065	2.260666E-6	20.746350
2477.651602	-2.978800	3.135300	-9.338000	27.322588	2.128657E-6	20.716753
2478.654602	-3.002700	3.133500	-9.408500	27.351016	1.138584E-6	20.744877
2479.656014	-3.018100	3.132300	-9.452500	27.359696	-5.445401E-7	20.730849
2480.651698	-3.008500	3.131600	-9.420800	27.414695	1.105581E-6	20.738289
2481.651210	-2.988700	3.131600	-9.358300	27.419412	3.976793E-6	20.736870
2482.655470	-2.982200	3.129100	-9.330500	27.412289	2.359674E-6	20.760999
2483.650888	-2.992300	3.128600	-9.360900	27.372251	1.600618E-6	20.739212
2484.650826	-3.022000	3.127300	-9.449600	27.349755	1.930642E-6	20.755463
2485.656160	-2.982100	3.126900	-9.323000	27.324323	4.669844E-6	20.726086
2486.652096	-2.993400	3.125000	-9.353200	27.296267	1.435606E-6	20.756660
2487.652479	-2.991500	3.124900	-9.347200	27.263467	1.006574E-6	20.737890
2488.656742	-3.032900	3.123000	-9.470800	27.297606	1.534613E-6	20.748997
2489.654402	-3.012700	3.122100	-9.404900	27.289714	-2.145158E-7	20.707392
2490.655091	-3.002600	3.122300	-9.374100	27.264506	3.052725E-6	20.765489
2491.655742	-3.018100	3.120200	-9.416500	27.281129	2.260666E-6	20.746648
2492.656613	-2.997500	3.119000	-9.347800	27.407943	2.755703E-6	20.731022
2493.656958	-3.013200	3.117400	-9.393000	27.441010	1.963645E-6	20.736787
2494.657382	-3.002200	3.118200	-9.361000	27.459862	1.567615E-6	20.755754
2495.657648	-3.015000	3.117700	-9.399300	27.456038	2.095654E-6	20.735785
2496.658643	-3.003800	3.115400	-9.357700	27.461369	2.491683E-6	20.735458
2497.657731	-2.993400	3.115600	-9.325700	27.483223	2.029649E-6	20.728048
2498.658307	-3.002100	3.114700	-9.349600	27.451597	2.359674E-6	20.746016
2499.658355	-2.993700	3.113200	-9.319200	27.474369	1.864637E-6	20.729096
2500.657349	-3.024500	3.112200	-9.412100	27.463897	1.237591E-6	20.756969
2501.657771	-2.992600	3.112000	-9.312600	27.487983	2.095654E-6	20.757493
2502.658245	-2.986700	3.110400	-9.289600	27.474215	1.435606E-6	20.748858
2503.659384	-3.004600	3.108800	-9.339600	27.481602	6.105450E-7	20.746806
2504.659135	-2.992600	3.108800	-9.301800	27.458313	2.788705E-6	20.759411
2505.659965	-3.000600	3.107300	-9.321800	27.455335	2.095654E-6	20.757364
2506.659621	-2.992500	3.106700	-9.295800	27.459998	1.204589E-6	20.754943
2507.661717	-3.005100	3.105500	-9.330900	27.497947	3.795279E-7	20.746656
2508.659983	-3.014300	3.105800	-9.361100	27.464340	2.326671E-6	20.767372
2509.660431	-3.008800	3.103700	-9.337800	27.405423	1.567615E-6	20.765946
2510.662680	-3.006800	3.102500	-9.328000	27.373347	2.458681E-6	20.746005
2511.661116	-3.017400	3.101100	-9.356800	27.357568	1.699625E-6	20.751943
2512.661061	-2.996100	3.100400	-9.288100	27.358882	2.161659E-6	20.741411
2513.662807	-2.999700	3.098800	-9.294300	27.442328	1.435606E-6	20.744752
2514.661780	-3.004600	3.098100	-9.306800	27.498465	2.062652E-6	20.749547
2515.662229	-3.012400	3.097800	-9.330800	27.494199	1.864637E-6	20.772282
2516.663563	-2.982400	3.096400	-9.234000	27.448951	2.227664E-6	20.752364
2517.661773	-3.013400	3.094400	-9.323600	27.406012	1.600618E-6	20.747098
2518.661746	-3.011000	3.094600	-9.317200	27.378600	1.798632E-6	20.756031
2519.662231	-2.998700	3.094800	-9.279100	27.406683	1.930642E-6	20.771955
2520.660857	-3.003100	3.092200	-9.285300	27.437190	3.135231E-7	20.731996
2521.662127	-2.988600	3.092000	-9.239800	27.389191	1.996647E-6	20.755306
2522.662996	-2.995600	3.090500	-9.256800	27.389808	7.755571E-7	20.780584
2523.661587	-3.017700	3.089200	-9.321700	27.397475	1.650122E-8	20.756527
2524.661643	-3.015200	3.088100	-9.310400	27.327763	1.369601E-6	20.766532
2525.662664	-3.018600	3.086100	-9.314400	27.296157	1.303596E-6	20.756075
2526.661899	-2.996600	3.086800	-9.248700	27.348527	1.567615E-6	20.756125
2527.661685	-2.988300	3.086200	-9.221700	27.362614	-2.475182E-7	20.763658
2528.662145	-2.984600	3.085100	-9.207100	27.354155	1.270594E-6	20.757993
2529.661403	-3.019500	3.081800	-9.305000	27.414607	1.237591E-6	20.764754
2530.663822	-2.983900	3.081800	-9.195400	27.485277	1.171586E-6	20.775160
2531.663414	-3.031200	3.079900	-9.334700	27.482224	1.567615E-6	20.756441
2532.665757	-3.017200	3.079300	-9.289700	27.462648	1.633620E-6	20.773256
2533.662656	-3.011400	3.077500	-9.267000	27.402992	2.260666E-6	20.763974
2534.662521	-3.015000	3.077800	-9.278300	27.424201	-8.250608E-8	20.768242
2535.664320	-3.035400	3.076500	-9.335900	27.491768	-1.897640E-6	20.775052
2536.663114	-2.998700	3.075900	-9.223100	27.541969	4.125304E-7	20.772930
2537.662991	-3.011800	3.074000	-9.257000	27.568384	4.125304E-7	20.771058
2538.665276	-2.981300	3.073900	-9.163800	27.618957	1.600618E-6	20.786856
2539.663663	-2.994000	3.070800	-9.193300	27.626989	-3.795279E-7	20.760325
2540.663983	-3.003600	3.070800	-9.222800	27.656404	-3.135231E-7	20.773328
2541.665236	-3.019100	3.068500	-9.263300	27.615976	3.910788E-6	20.779589
2542.664530	-3.025200	3.066500	-9.276000	27.583486	3.465255E-7	20.764441
2543.666559	-2.983000	3.066600	-9.147200	27.616447	1.039577E-6	20.769632
2544.666682	-3.005000	3.065000	-9.209400	27.613099	1.105581E-6	20.771004
2545.665095	-3.023900	3.064300	-9.264500	27.548685	6.435474E-7	20.782532
2546.664451	-2.983500	3.063900	-9.140200	27.618903	6.765498E-7	20.762620
2547.667526	-3.012300	3.062700	-9.225400	27.601318	8.250607E-8	20.779539
2548.667205	-2.997300	3.061500	-9.175500	27.589733	1.369601E-6	20.768357
2549.669179	-3.014500	3.060400	-9.225100	27.543776	-1.155085E-7	20.789920
2550.668363	-3.014400	3.058700	-9.219900	27.538171	-1.006574E-6	20.780962
2551.669058	-3.034900	3.057600	-9.278200	27.535072	-6.435474E-7	20.764093
2552.668313	-3.005600	3.056900	-9.186900	27.508006	7.425547E-7	20.772897
2553.668352	-3.024600	3.054700	-9.238800	27.535739	1.765630E-6	20.768084
2554.670766	-3.015700	3.054400	-9.210300	27.577559	1.138584E-6	20.760375
2555.669366	-3.002600	3.052900	-9.165800	27.573789	1.336598E-6	20.806368
2556.668711	-2.999000	3.052200	-9.152100	27.552830	-1.039577E-6	20.763942
2557.670351	-2.989600	3.051000	-9.120600	27.513793	-7.425547E-7	20.784410
2558.667966	-2.991600	3.049400	-9.122000	27.526068	7.755571E-7	20.798656
2559.668744	-3.010100	3.048600	-9.175800	27.521233	1.600618E-6	20.787154
2560.676223	-2.984500	3.048300	-9.096300	27.488173	-3.135231E-7	20.803204
2561.668997	-3.028600	3.046000	-9.224000	27.478079	1.237591E-6	20.805377
2562.669568	-3.003000	3.046300	-9.147400	27.466840	1.204589E-6	20.794069
2563.676424	-2.990000	3.042800	-9.097100	27.438294	1.072579E-6	20.793325
2564.672523	-3.001600	3.041600	-9.129300	27.492839	6.435474E-7	20.794622
2565.672282	-2.979100	3.042100	-9.061900	27.553932	-6.435474E-7	20.790182
2566.674993	-2.974000	3.040800	-9.042600	27.631637	2.887713E-6	20.807201
2567.673657	-2.979700	3.038500	-9.052400	27.664996	1.155085E-7	20.789087
2568.674325	-2.990800	3.037400	-9.083600	27.640490	-1.666623E-6	20.800463
2569.676287	-2.983300	3.037900	-9.061700	27.666010	1.996647E-6	20.786314
2570.675430	-3.014000	3.034500	-9.145500	27.665143	4.950364E-8	20.790182
2571.677609	-3.000700	3.034100	-9.103100	27.635685	-1.666623E-6	20.788515
2572.677647	-2.993700	3.032900	-9.078500	27.660213	-2.475182E-7	20.783325
2573.675485	-2.978500	3.031400	-9.028400	27.637666	-1.039577E-6	20.797621
2574.678095	-2.981000	3.030100	-9.032000	27.616115	-4.950365E-8	20.802489
2575.679976	-3.019700	3.027600	-9.141300	27.633675	6.435474E-7	20.804985
2576.676151	-2.988200	3.028600	-9.049700	27.639822	1.039577E-6	20.788411
2577.676937	-3.000500	3.026800	-9.080800	27.713801	8.085595E-7	20.800739
2578.677263	-3.012100	3.024400	-9.109000	27.753233	2.475182E-7	20.827144
2579.678146	-2.992300	3.024200	-9.047800	27.832336	-2.095654E-6	20.805283
2580.679241	-2.991800	3.023900	-9.045300	27.886487	-3.135231E-7	20.800513
2581.680266	-3.010000	3.021200	-9.092800	27.915645	-8.745644E-7	20.800937
2582.679965	-3.003500	3.018400	-9.065500	27.911112	-1.039577E-6	20.790211
2583.680030	-3.009000	3.017600	-9.079400	27.814879	-9.735717E-7	20.810948
2584.679367	-2.988200	3.017400	-9.015400	27.710478	-1.072579E-6	20.809723
2585.682418	-2.983200	3.016400	-8.998000	27.683448	-1.815134E-7	20.813818
2586.679808	-2.991400	3.015400	-9.019700	27.722161	-1.567615E-6	20.798246
2587.680335	-2.995200	3.013700	-9.025400	27.746908	-2.260666E-6	20.804184
2588.682033	-3.009500	3.011800	-9.063300	27.681956	-3.910788E-6	20.798566
2589.679734	-3.007500	3.009900	-9.051200	27.624072	-1.303596E-6	20.796745
2590.682043	-2.998600	3.008600	-9.020600	27.661744	-1.798632E-6	20.798142
2591.682257	-2.989200	3.008600	-8.991700	27.672928	-2.788705E-6	20.787585
2592.681972	-2.992400	3.007500	-8.999100	27.659092	-1.072579E-6	20.806379
2593.683392	-2.979900	3.005600	-8.955400	27.666332	-3.052725E-6	20.797068
2594.686601	-3.017900	3.003600	-9.063600	27.632626	-9.735717E-7	20.807722
2595.683112	-2.991300	3.004100	-8.985000	27.600611	-5.445401E-7	20.813915
2596.683010	-2.992900	3.001200	-8.981000	27.627492	5.775425E-7	20.809195
2597.684861	-2.989500	3.000500	-8.968800	27.714665	-2.458681E-6	20.809195
2598.683760	-2.994800	2.998600	-8.979200	27.729171	-2.953718E-6	20.801034
2599.682779	-2.983600	2.997100	-8.940400	27.768207	-3.465255E-7	20.800488
2600.685732	-2.983200	2.995600	-8.935600	27.708686	-1.105581E-6	20.833524
2601.683310	-3.004200	2.994900	-8.996700	27.716621	-2.722700E-6	20.818750
2602.685590	-2.999400	2.993100	-8.976900	27.746230	-1.171586E-6	20.819149
2603.687646	-3.028100	2.991100	-9.056400	27.800488	-1.336598E-6	20.813060
2604.685462	-3.005500	2.991100	-8.988800	27.738938	3.795279E-7	20.841207
2605.686226	-3.029000	2.988900	-9.052400	27.700376	-7.425547E-7	20.832748
2606.689941	-3.017300	2.986900	-9.012000	27.690556	-8.745644E-7	20.811961
2607.689045	-2.996600	2.986700	-8.949300	27.699501	-2.227664E-6	20.826178
2608.686360	-2.988400	2.985000	-8.919100	27.663915	-1.303596E-6	20.840629
2609.690019	-2.989200	2.983400	-8.916900	27.690624	-2.128657E-6	20.838107
2610.689654	-3.029600	2.980400	-9.028500	27.675674	-2.458681E-6	20.829702
2611.685688	-2.999700	2.980600	-8.940300	27.719937	-2.227664E-6	20.824932
2612.687487	-3.027900	2.979200	-9.019300	27.674457	4.950364E-8	20.826581
2613.691154	-2.960900	2.978800	-8.818900	27.717878	-4.125304E-7	20.833291
2614.688835	-2.969700	2.977900	-8.842500	27.691688	-2.029649E-6	20.840126
2615.689737	-3.030600	2.975700	-9.016200	27.689132	2.145158E-7	20.830916
2616.693483	-3.031500	2.973900	-9.013500	27.703567	5.115377E-7	20.839753
2617.691055	-3.011000	2.971600	-8.946500	27.730671	8.085595E-7	20.839052
2618.691029	-3.016200	2.970100	-8.958000	27.735779	-8.415620E-7	20.818589
2619.691439	-3.011500	2.968100	-8.937400	27.798915	-2.475182E-7	20.822382
2620.691905	-3.010800	2.968300	-8.936400	27.838419	-1.815134E-7	20.819939
2621.693438	-2.975800	2.967300	-8.828800	27.889942	1.435606E-6	20.854724
2622.692750	-2.980000	2.966300	-8.838700	27.903279	1.864637E-6	20.840173
2623.694859	-2.995400	2.964400	-8.878800	27.865740	5.775425E-7	20.834634
2624.694174	-3.002100	2.962700	-8.892100	27.819991	2.475182E-7	20.839799
2625.697426	-2.998000	2.961800	-8.879000	27.817114	-7.095522E-7	20.830266
2626.696713	-2.971800	2.959500	-8.794200	27.818428	8.745644E-7	20.816416
2627.695525	-2.992700	2.957100	-8.849000	27.778801	-6.435474E-7	20.834857
2628.697227	-3.002200	2.955300	-8.871400	27.724614	3.465255E-7	20.839595
2629.699895	-3.012400	2.954100	-8.898200	27.713684	-4.455328E-7	20.839027
2630.697133	-3.006400	2.953700	-8.879500	27.716953	-1.485109E-7	20.859860
2631.697903	-2.997200	2.951800	-8.846300	27.802527	1.897640E-6	20.855414
2632.700733	-3.008600	2.949500	-8.872700	27.808281	-5.115377E-7	20.841764
2633.698687	-3.007800	2.947800	-8.865400	27.786808	1.204589E-6	20.846233
2634.699368	-2.977700	2.947500	-8.776400	27.854202	-1.105581E-6	20.846728
2635.699093	-3.005200	2.946100	-8.852900	27.831638	-1.155085E-7	20.844882
2636.699953	-3.000400	2.944100	-8.832200	27.819659	1.650122E-8	20.851319
2637.699923	-2.989800	2.942000	-8.796000	27.781050	-1.996647E-6	20.856560
2638.699420	-2.962700	2.941700	-8.714800	27.823475	5.115377E-7	20.841409
2639.703227	-2.988700	2.940100	-8.785900	27.876291	8.745644E-7	20.848097
2640.699142	-2.993500	2.937200	-8.791800	27.921863	1.485109E-7	20.841334
2641.700200	-2.967200	2.938100	-8.716400	27.953947	-1.039577E-6	20.852763
2642.703506	-2.984700	2.934300	-8.756600	27.925011	-1.485109E-7	20.862045
2643.699117	-3.001500	2.933700	-8.804600	27.907926	-1.996647E-6	20.834893
2644.700360	-2.988500	2.932400	-8.762700	27.869074	8.415620E-7	20.856007
2645.703357	-3.005800	2.929000	-8.803300	27.895503	-2.805207E-7	20.854631
2646.701015	-2.977600	2.930000	-8.723900	27.867683	-1.666623E-6	20.859821
2647.700442	-2.992800	2.926300	-8.757200	27.890867	1.650122E-8	20.860870
2648.703170	-2.987300	2.925700	-8.739200	27.888533	-1.072579E-6	20.862314
2649.702031	-2.992000	2.922600	-8.743300	27.913726	-2.805207E-7	20.871075
2650.701505	-3.000100	2.922300	-8.766000	27.973229	-1.468608E-6	20.869800
2651.704446	-3.019800	2.919200	-8.814000	28.057450	1.815134E-7	20.865910
2652.703198	-2.991200	2.918600	-8.729600	28.086454	-9.735717E-7	20.876139
2653.703555	-2.976400	2.916700	-8.680500	28.075599	-3.795279E-7	20.872324
2654.709306	-2.969700	2.915500	-8.657200	28.049539	-4.455328E-7	20.869325
2655.704694	-2.996900	2.911400	-8.724200	27.941717	-1.105581E-6	20.861316
2656.704905	-2.983200	2.911100	-8.683800	27.986319	-2.920715E-6	20.876337
2657.710144	-2.984800	2.910000	-8.684100	28.020606	4.785352E-7	20.878607
2658.707478	-2.985700	2.907100	-8.679400	28.008680	-1.732628E-6	20.859965
2659.707483	-2.997700	2.904900	-8.707400	28.061115	9.075668E-7	20.861064
2660.706883	-2.986000	2.904000	-8.670500	28.131050	2.920715E-6	20.874092
2661.708179	-3.019100	2.901400	-8.758400	28.075692	1.831635E-6	20.889012
2662.707816	-2.995600	2.900000	-8.686100	28.086526	1.435606E-6	20.862936
2663.706852	-3.005600	2.899600	-8.713100	28.052733	-4.950365E-8	20.877282
2664.708973	-2.987700	2.898000	-8.656800	27.995790	-6.435474E-7	20.892981
2665.707679	-3.000800	2.894200	-8.683900	27.958501	-8.085595E-7	20.886742
2666.707942	-3.006900	2.892400	-8.696600	27.914665	-1.996647E-6	20.871545
2667.709022	-3.022900	2.890900	-8.738100	27.940971	-8.085595E-7	20.890909
2668.708026	-2.978700	2.890300	-8.608300	27.954629	9.735717E-7	20.864829
2669.707993	-3.002700	2.888600	-8.672300	28.068673	6.765498E-7	20.901386
2670.708244	-3.029000	2.885500	-8.738800	28.140024	1.815134E-7	20.898297
2671.712443	-2.964400	2.885700	-8.553100	28.141980	4.950364E-8	20.896947
2672.708099	-3.025900	2.882000	-8.719600	28.126783	1.468608E-6	20.881649
2673.709442	-3.009300	2.879500	-8.664600	28.113869	-1.600618E-6	20.879555
2674.709809	-3.009900	2.877600	-8.660600	28.052587	1.336598E-6	20.893728
2675.709749	-3.001900	2.875700	-8.631500	28.079014	-9.075668E-7	20.872443
2676.709615	-3.011600	2.874300	-8.654500	28.068923	1.369601E-6	20.900689
2677.713280	-2.951500	2.874200	-8.482400	28.048494	7.755571E-7	20.879178
2678.711373	-2.993200	2.870900	-8.592900	28.105291	9.405693E-7	20.888463
2679.709717	-2.991800	2.870100	-8.585500	28.131346	1.699625E-6	20.898096
2680.711675	-3.006300	2.867300	-8.618800	28.114340	-1.732628E-6	20.893779
2681.715726	-2.990400	2.865100	-8.567100	28.160077	2.805207E-7	20.902363
2682.712677	-2.992700	2.863100	-8.567600	28.159852	1.468608E-6	20.902137
2683.715343	-3.014400	2.860100	-8.620700	28.229138	-8.415620E-7	20.905983
2684.715874	-3.014500	2.858800	-8.616600	28.275462	-9.405693E-7	20.899992
2685.713706	-2.998600	2.858700	-8.571100	28.320892	5.775425E-7	20.901637
2686.715754	-2.997200	2.856300	-8.560400	28.355764	2.227664E-6	20.892180
2687.713874	-3.006500	2.853400	-8.577700	28.366299	2.145158E-7	20.903261
2688.713715	-3.039500	2.850500	-8.663300	28.285180	-1.650122E-8	20.921629
2689.714129	-3.004800	2.848300	-8.557300	28.324834	-1.039577E-6	20.903236
2690.715419	-2.966300	2.848100	-8.447500	28.367216	-1.039577E-6	20.910347
2691.717439	-2.982400	2.844400	-8.482600	28.393090	-4.125304E-7	20.918382
2692.714283	-3.012300	2.842600	-8.561300	28.334377	-7.755571E-7	20.893405
2693.716027	-2.980700	2.841300	-8.468100	28.339754	-9.405693E-7	20.885543
2694.716743	-3.019700	2.836900	-8.565500	28.351127	-9.405693E-7	20.896519
2695.715490	-3.004400	2.835300	-8.517600	28.307632	-4.125304E-7	20.893028
2696.714049	-3.010500	2.833800	-8.530300	28.274891	-1.666623E-6	20.921227
2697.717743	-2.979100	2.832700	-8.438400	28.255430	-7.755571E-7	20.906375
2698.716373	-2.985500	2.829300	-8.445800	28.274096	-1.897640E-6	20.906677
2699.716805	-3.007600	2.826900	-8.500800	28.251762	-1.650122E-8	20.898890
2700.717803	-2.963400	2.826300	-8.374300	28.243406	2.128657E-6	20.913709
2701.714472	-2.995100	2.823100	-8.454000	28.268616	-1.567615E-6	20.907797
2702.716309	-2.989200	2.820800	-8.431300	28.285320	6.105450E-7	20.906598
2703.718493	-3.018700	2.816300	-8.500500	28.261227	5.115377E-7	20.885661
2704.717500	-2.985900	2.814400	-8.402200	28.255997	3.795279E-7	20.908369
2705.717842	-2.996400	2.813700	-8.429700	28.303511	6.765498E-7	20.885087
2706.721464	-3.001300	2.808800	-8.428500	28.348273	1.468608E-6	20.891750
2707.717267	-2.985700	2.807900	-8.382900	28.388595	1.155085E-7	20.893470
2708.717374	-3.015300	2.804500	-8.455500	28.427403	-1.485109E-7	20.894616
2709.721075	-2.985800	2.803100	-8.368300	28.389833	-6.765498E-7	20.895665
2710.717221	-2.990000	2.800000	-8.370600	28.397813	-7.755571E-7	20.895640
2711.717608	-2.990500	2.797300	-8.364300	28.392733	1.105581E-6	20.870138
2712.723922	-3.003300	2.793800	-8.389800	28.414094	1.072579E-6	20.893542
2713.718142	-2.975900	2.792700	-8.309700	28.441401	1.485109E-7	20.897806
2714.718474	-2.985400	2.789300	-8.326000	28.448885	-1.303596E-6	20.889695
2715.724597	-2.993900	2.784400	-8.335100	28.479686	-2.491683E-6	20.891790
2716.719560	-3.011400	2.782800	-8.379300	28.443605	-6.105450E-7	20.889595
2717.722067	-2.993600	2.779800	-8.320500	28.401149	-1.270594E-6	20.884775
2718.723988	-2.985700	2.777100	-8.290600	28.357852	4.125304E-7	20.889067
2719.721504	-2.991800	2.774600	-8.300000	28.392748	-2.689698E-6	20.876316
2720.721850	-3.010000	2.770500	-8.338600	28.488775	1.485109E-7	20.865383
2721.722393	-2.993200	2.768800	-8.285900	28.525971	6.435474E-7	20.877710
2722.725140	-3.002000	2.764600	-8.298400	28.530876	-1.815134E-7	20.867951
2723.723308	-3.019100	2.762100	-8.338100	28.519918	5.445401E-7	20.861658
2724.726470	-3.004300	2.757900	-8.284700	28.471001	-8.085595E-7	20.865976
2725.726804	-2.966500	2.756800	-8.177400	28.409490	1.072579E-6	20.894596
2726.725610	-2.981800	2.753200	-8.207300	28.475164	2.475182E-7	20.888658
2727.728470	-2.985300	2.750600	-8.210500	28.526532	-1.501611E-6	20.871163
2728.726455	-2.995400	2.744900	-8.220700	28.511565	-7.095522E-7	20.879323
2729.725492	-2.993700	2.742900	-8.210800	28.482940	-1.765630E-6	20.893170
2730.729760	-2.993900	2.739900	-8.201400	28.512924	1.303596E-6	20.878795
2731.729928	-2.999700	2.735900	-8.206100	28.485937	1.815134E-7	20.882438
2732.727026	-2.997900	2.734000	-8.194900	28.453794	1.650122E-8	20.866666
2733.726799	-2.996400	2.729100	-8.176700	28.496541	-3.283742E-6	20.886004
2734.729957	-2.983100	2.725100	-8.128300	28.515371	1.798632E-6	20.880786
2735.728488	-3.002400	2.721800	-8.171400	28.549720	1.485109E-7	20.854213
2736.728259	-3.019200	2.717900	-8.204700	28.581210	-7.095522E-7	20.867435
2737.729994	-2.996000	2.712700	-8.126600	28.563912	-1.072579E-6	20.879410
2738.729358	-3.014900	2.710200	-8.170000	28.535143	9.075668E-7	20.850912
2739.729487	-3.009900	2.706700	-8.146500	28.609305	7.755571E-7	20.877711
2740.727965	-3.006800	2.702100	-8.123900	28.646917	3.184734E-6	20.880506
2741.728828	-2.955500	2.698600	-7.974900	28.699418	2.722700E-6	20.865108
2742.728699	-2.991700	2.695400	-8.062700	28.712573	-1.485109E-7	20.836161
2743.730233	-2.985700	2.690600	-8.031700	28.724267	2.062652E-6	20.847464
2744.732021	-2.975000	2.686700	-7.992100	28.743118	1.864637E-6	20.868822
2745.729555	-3.010500	2.681100	-8.070000	28.794497	2.689698E-6	20.857041
2746.729659	-3.015900	2.677800	-8.075000	28.786623	3.135231E-7	20.866178
2747.733192	-2.990900	2.673800	-7.996200	28.803244	1.336598E-6	20.847361
2748.729834	-3.020200	2.669600	-8.061600	28.801804	-3.465255E-7	20.862030
2749.733979	-3.020500	2.664400	-8.047100	28.719999	2.227664E-6	20.877777
2750.734947	-2.989500	2.660400	-7.952600	28.644874	2.062652E-6	20.859009
2751.732735	-3.017600	2.655200	-8.011700	28.673566	2.475182E-7	20.849502
2752.735479	-2.994400	2.651600	-7.938900	28.694750	2.145158E-7	20.840967
2753.734202	-3.015800	2.645400	-7.977100	28.681098	2.260666E-6	20.846657
2754.732731	-2.974500	2.641700	-7.857100	28.706890	6.765498E-7	20.845608
2755.732879	-2.992000	2.636200	-7.887200	28.710955	1.171586E-6	20.835005
2756.736324	-2.997100	2.631300	-7.885200	28.693416	1.501611E-6	20.853848
2757.732525	-2.992200	2.627600	-7.861400	28.720616	-1.815134E-7	20.869390
2758.735347	-2.969900	2.621500	-7.783900	28.745643	3.795279E-7	20.831538
2759.736770	-3.004000	2.617600	-7.862900	28.719235	2.854710E-6	20.843819
2760.733916	-3.003300	2.611900	-7.843600	28.748021	3.481756E-6	20.862856
2761.735189	-3.032300	2.604800	-7.897200	28.775301	1.633620E-6	20.835809
2762.734955	-3.015200	2.599400	-7.837200	28.736777	1.699625E-6	20.844419
2763.735110	-3.016900	2.594700	-7.825900	28.814273	1.864637E-6	20.838082
2764.735773	-2.980600	2.590800	-7.721300	28.854085	1.831635E-6	20.868229
2765.737041	-3.004300	2.585100	-7.765600	28.912769	3.085727E-6	20.845794
2766.740590	-3.001000	2.579900	-7.741700	28.883763	2.392676E-6	20.837910
2767.736350	-3.004300	2.574500	-7.734200	28.916363	2.227664E-6	20.846096
2768.737472	-3.013500	2.568300	-7.738600	28.838581	1.303596E-6	20.854982
2769.737350	-2.979900	2.562300	-7.634500	28.773971	5.115377E-7	20.861968
2770.737950	-2.988200	2.557200	-7.641000	28.818466	1.006574E-6	20.850366
2771.737502	-3.022500	2.550500	-7.708400	28.850426	1.864637E-6	20.851742
2772.737418	-3.027600	2.544800	-7.702800	28.920206	3.795279E-7	20.822942
2773.739924	-2.997100	2.539000	-7.608900	28.999472	2.491683E-6	20.855858
2774.737756	-3.046000	2.531500	-7.710400	28.981987	3.217737E-6	20.857683
2775.738339	-3.008900	2.527200	-7.603200	29.014456	4.950364E-8	20.857205
2776.740110	-2.979300	2.521500	-7.511000	29.025258	2.194662E-6	20.847227
2777.738632	-2.973700	2.516000	-7.481100	29.058867	9.075668E-7	20.835571
2778.741128	-2.942600	2.510800	-7.387000	29.048097	1.864637E-6	20.846530
2779.739632	-2.991600	2.502300	-7.485000	29.047797	7.755571E-7	20.840064
2780.738262	-2.993200	2.497000	-7.472900	29.116348	2.293669E-6	20.841333
