LabVIEW Measurement	
Writer_Version	2
Reader_Version	2
Separator	Tab
Decimal_Separator	.
Multi_Headings	No
X_Columns	One
Time_Pref	Absolute
Operator	admin
Description	Clolumns are: time, Current, Voltage, Power, Battery Temp, and Chamber Temp
Date	2024/08/16
Time	13:07:17.8513970375061035156
***End_of_Header***	
	
Channels	6						
Samples	1	1	1	1	1	1	
Date	2024/09/03	2024/09/03	2024/09/03	2024/09/03	2024/09/03	2024/09/03	
Time	07:31:45.6675496101379394531	07:31:45.6725673675537109375	07:31:45.6785526275634765625	07:31:45.6511120796203613281	07:31:45.6511120796203613281	07:31:45.6511120796203613281	
X_Dimension	Time	Time	Time	Time	Time	Time	
X0	0.0000000000000000E+0	0.0000000000000000E+0	0.0000000000000000E+0	0.0000000000000000E+0	0.0000000000000000E+0	0.0000000000000000E+0	
Delta_X	1.000000	1.000000	1.000000	1.000000	1.000000	1.000000	
***End_of_Header***							
X_Value	Untitled	Untitled 1	Untitled 2	Untitled 3	Untitled 4	Untitled 5	Comment
0.000000	-0.006106	4.087600	-0.024912	20.805964	0.000463	20.820189
0.999916	-2.990300	3.925800	-11.738000	20.810384	0.000462	20.817022
2.000719	-3.016500	3.917100	-11.815000	20.815027	0.000458	20.826406
3.003188	-2.998000	3.914300	-11.734000	20.808541	0.000460	20.819921
3.999764	-3.018600	3.909700	-11.801000	20.802377	0.000460	20.836516
5.000753	-2.992600	3.907500	-11.692000	20.808191	0.000459	20.807243
6.003479	-2.995000	3.906200	-11.697000	20.824864	0.000457	20.822019
7.001591	-2.989700	3.902800	-11.668000	20.825516	0.000457	20.811766
8.003827	-2.986400	3.901500	-11.651000	20.829783	0.000457	20.821249
9.003440	-3.001000	3.899100	-11.700000	20.839814	0.000457	20.809943
10.005054	-2.980900	3.898100	-11.619000	20.851025	0.000453	20.783222
11.002047	-3.003400	3.897000	-11.703000	20.848604	0.000455	20.805458
12.001414	-2.991600	3.895900	-11.653000	20.858112	0.000454	20.806905
13.003372	-2.989200	3.894800	-11.641000	20.851400	0.000454	20.822003
14.001627	-2.990900	3.893300	-11.644000	20.871041	0.000455	20.802291
15.010017	-2.999100	3.891300	-11.669000	20.868848	0.000451	20.805313
16.003084	-3.009500	3.890500	-11.707000	20.862062	0.000452	20.803743
17.006314	-3.003900	3.888400	-11.679000	20.893931	0.000452	20.805268
18.004316	-3.013400	3.889600	-11.720000	20.896648	0.000451	20.810356
19.010754	-2.997200	3.888000	-11.653000	20.896978	0.000450	20.806419
20.005676	-2.996400	3.887600	-11.649000	20.911032	0.000449	20.798663
21.004242	-2.991600	3.887100	-11.627000	20.912801	0.000450	20.810863
22.005524	-3.014700	3.885600	-11.712000	20.924431	0.000449	20.821072
23.010932	-3.009600	3.884400	-11.689000	20.949385	0.000450	20.791976
24.004462	-3.003300	3.885800	-11.669000	20.940674	0.000449	20.809342
25.005873	-2.988300	3.883100	-11.604000	20.928929	0.000449	20.784793
26.005033	-3.024600	3.881600	-11.739000	20.965157	0.000447	20.787362
27.005642	-3.002600	3.881600	-11.654000	20.950762	0.000446	20.804733
28.006148	-2.996000	3.883300	-11.633000	20.968501	0.000449	20.794025
29.005676	-2.996000	3.882800	-11.632000	20.973423	0.000446	20.785198
30.006207	-2.981100	3.881600	-11.570000	20.976441	0.000447	20.792009
31.006177	-2.988500	3.882200	-11.600000	21.008534	0.000446	20.801822
32.007979	-3.003800	3.879700	-11.653000	20.994757	0.000445	20.788517
33.008095	-3.011300	3.879700	-11.682000	21.018613	0.000445	20.806687
34.004784	-2.997600	3.879300	-11.627000	21.040271	0.000447	20.767658
35.005217	-2.965000	3.878800	-11.499000	21.025748	0.000446	20.785375
36.008874	-2.998300	3.879800	-11.631000	21.050152	0.000444	20.779438
37.006200	-3.022200	3.877700	-11.718000	21.037476	0.000444	20.800424
38.008447	-3.006900	3.877800	-11.659000	21.047485	0.000444	20.789573
39.011570	-3.003400	3.877800	-11.646000	21.053722	0.000445	20.801026
40.007732	-2.983900	3.877700	-11.570000	21.067049	0.000445	20.793494
41.008317	-2.996000	3.876800	-11.614000	21.077828	0.000443	20.780568
42.008902	-2.985500	3.876700	-11.572000	21.081225	0.000444	20.787759
43.008590	-2.994200	3.876300	-11.606000	21.093451	0.000443	20.770116
44.009499	-3.017600	3.875400	-11.693000	21.088307	0.000444	20.792471
45.008995	-3.011300	3.875900	-11.670000	21.093772	0.000444	20.797939
46.008164	-3.013700	3.873900	-11.674000	21.104778	0.000444	20.784765
47.010267	-2.973700	3.876200	-11.526000	21.120450	0.000443	20.771044
48.009867	-2.997500	3.874900	-11.614000	21.135446	0.000441	20.784621
49.011423	-3.015900	3.873800	-11.682000	21.160218	0.000444	20.778107
50.011189	-3.006400	3.873500	-11.644000	21.133698	0.000443	20.785718
51.014476	-2.991800	3.874100	-11.589000	21.139184	0.000442	20.768920
52.013083	-3.000500	3.873900	-11.622000	21.151912	0.000442	20.779282
53.010962	-2.986400	3.873200	-11.566000	21.175538	0.000442	20.781579
54.011173	-2.979400	3.872100	-11.535000	21.186292	0.000442	20.771473
55.015801	-2.992200	3.872600	-11.587000	21.203059	0.000441	20.789194
56.013677	-2.998600	3.872800	-11.612000	21.205429	0.000440	20.764538
57.012547	-3.001500	3.872300	-11.622000	21.222315	0.000443	20.767679
58.015590	-2.991100	3.873100	-11.584000	21.229326	0.000444	20.789866
59.014883	-3.026400	3.870600	-11.713000	21.246344	0.000442	20.772277
60.013924	-2.982000	3.872100	-11.546000	21.243080	0.000443	20.775176
61.015192	-2.988300	3.870800	-11.567000	21.258889	0.000442	20.775819
62.015559	-3.005300	3.871200	-11.633000	21.251211	0.000441	20.779043
63.014101	-2.991300	3.870900	-11.577000	21.251685	0.000442	20.770508
64.022261	-2.998500	3.869500	-11.601000	21.267198	0.000443	20.768010
65.017477	-3.001400	3.869800	-11.614000	21.267223	0.000443	20.776095
66.015635	-3.018500	3.869400	-11.679000	21.285860	0.000441	20.775299
67.016369	-3.013000	3.869200	-11.656000	21.290076	0.000443	20.766715
68.017805	-2.978400	3.870600	-11.528000	21.303796	0.000444	20.767639
69.020555	-2.974100	3.870900	-11.511000	21.301525	0.000441	20.769634
70.017906	-2.970900	3.869400	-11.495000	21.330885	0.000442	20.784783
71.016084	-2.995300	3.869900	-11.591000	21.322956	0.000442	20.768789
72.022907	-2.982500	3.870100	-11.542000	21.335278	0.000443	20.767367
73.017087	-3.005200	3.868300	-11.624000	21.331862	0.000442	20.768216
74.018148	-2.979100	3.868900	-11.525000	21.360446	0.000442	20.760778
75.020221	-3.022000	3.869100	-11.691000	21.350444	0.000442	20.773531
76.017405	-3.008800	3.867000	-11.634000	21.367406	0.000444	20.758258
77.017137	-2.996100	3.867200	-11.586000	21.387834	0.000445	20.762101
78.019807	-3.012200	3.866600	-11.646000	21.382547	0.000443	20.769614
79.019157	-2.984400	3.868100	-11.543000	21.391852	0.000444	20.762328
80.019230	-2.987600	3.868800	-11.558000	21.387591	0.000442	20.754746
81.025286	-3.023500	3.866600	-11.690000	21.402801	0.000444	20.761903
82.018522	-3.002800	3.866100	-11.608000	21.389087	0.000442	20.749604
83.020154	-3.015200	3.866300	-11.657000	21.400935	0.000442	20.751975
84.021533	-3.022100	3.865500	-11.680000	21.404302	0.000442	20.758663
85.018453	-3.027300	3.865200	-11.700000	21.413207	0.000442	20.766151
86.020017	-3.021300	3.865700	-11.678000	21.451740	0.000443	20.780998
87.023564	-2.973100	3.867600	-11.498000	21.461849	0.000443	20.759343
88.020469	-3.002200	3.865500	-11.604000	21.475414	0.000442	20.765330
89.022162	-2.993100	3.866000	-11.570000	21.477635	0.000444	20.755224
90.023987	-2.997100	3.865500	-11.584000	21.460852	0.000444	20.764510
91.021167	-2.987900	3.865300	-11.549000	21.486520	0.000446	20.772175
92.021430	-2.986200	3.865000	-11.541000	21.504477	0.000446	20.753159
93.020467	-2.993400	3.864200	-11.565000	21.507192	0.000445	20.767730
94.022664	-2.989600	3.866900	-11.560000	21.510361	0.000442	20.765685
95.021581	-3.010500	3.864200	-11.632000	21.519492	0.000442	20.744001
96.022696	-3.000800	3.864500	-11.595000	21.539868	0.000444	20.762020
97.021867	-3.015500	3.865000	-11.654000	21.514610	0.000444	20.750970
98.022673	-3.002000	3.864200	-11.599000	21.532933	0.000445	20.769305
99.025105	-3.003600	3.864000	-11.605000	21.538224	0.000444	20.739037
100.024757	-2.992800	3.864100	-11.563000	21.566956	0.000446	20.754511
101.023256	-3.011100	3.862400	-11.630000	21.538826	0.000445	20.760977
102.021055	-2.997400	3.863300	-11.579000	21.577108	0.000446	20.732427
103.026461	-2.995500	3.864500	-11.575000	21.592197	0.000446	20.752743
104.020863	-3.013000	3.862700	-11.637000	21.600923	0.000445	20.770485
105.022102	-3.000900	3.864000	-11.594000	21.611174	0.000446	20.742336
106.026487	-3.022900	3.861700	-11.673000	21.607310	0.000446	20.774979
107.020168	-3.023000	3.863000	-11.675000	21.621075	0.000445	20.742286
108.023970	-3.000900	3.862500	-11.589000	21.620951	0.000445	20.756388
109.031690	-3.036000	3.862400	-11.725000	21.648383	0.000446	20.747329
110.028878	-2.987000	3.863600	-11.540000	21.644247	0.000446	20.748405
111.025174	-3.004500	3.863000	-11.606000	21.631124	0.000447	20.754239
112.031011	-3.016000	3.862100	-11.647000	21.656487	0.000448	20.742163
113.024602	-2.992700	3.861300	-11.555000	21.657859	0.000447	20.754916
114.028885	-3.007000	3.860900	-11.607000	21.663120	0.000447	20.741214
115.030921	-3.021500	3.861800	-11.667000	21.693571	0.000446	20.749403
116.028271	-3.019100	3.861200	-11.657000	21.691952	0.000449	20.728816
117.029490	-3.024000	3.859500	-11.669000	21.699306	0.000448	20.746133
118.031407	-2.993400	3.861600	-11.558000	21.706388	0.000450	20.737099
119.033301	-2.992800	3.861000	-11.555000	21.695017	0.000448	20.754644
120.028897	-3.001600	3.860900	-11.588000	21.742246	0.000449	20.763505
121.030106	-2.980800	3.860300	-11.506000	21.734888	0.000449	20.743338
122.030429	-2.990700	3.860600	-11.545000	21.745406	0.000449	20.742958
123.032275	-2.995200	3.861600	-11.565000	21.729096	0.000450	20.760300
124.029429	-2.995800	3.860000	-11.562000	21.754259	0.000450	20.748026
125.030311	-3.016700	3.860200	-11.644000	21.750765	0.000452	20.754013
126.034370	-2.989300	3.860600	-11.539000	21.756974	0.000449	20.748372
127.030605	-3.004100	3.859500	-11.593000	21.784175	0.000450	20.735767
128.032542	-3.014100	3.858100	-11.628000	21.766745	0.000452	20.745824
129.033108	-3.020700	3.858100	-11.653000	21.779788	0.000452	20.742756
130.032731	-3.014900	3.859100	-11.634000	21.800155	0.000454	20.734691
131.032586	-3.002600	3.858700	-11.585000	21.837407	0.000452	20.739259
132.031769	-2.988600	3.860000	-11.535000	21.829872	0.000454	20.740727
133.031097	-2.993100	3.858100	-11.548000	21.819845	0.000453	20.744916
134.031450	-3.009400	3.858300	-11.610000	21.826680	0.000453	20.731841
135.032545	-2.994500	3.858800	-11.555000	21.817403	0.000454	20.746264
136.033710	-3.016700	3.857100	-11.635000	21.839985	0.000454	20.734727
137.034644	-3.006900	3.859200	-11.603000	21.846316	0.000455	20.726365
138.038166	-2.979700	3.859100	-11.498000	21.849706	0.000455	20.743510
139.036382	-2.980400	3.856900	-11.494000	21.850703	0.000454	20.752568
140.034334	-3.005700	3.858500	-11.597000	21.861821	0.000454	20.716279
141.034341	-2.998100	3.855600	-11.558000	21.877824	0.000454	20.752688
142.037849	-3.000600	3.857500	-11.574000	21.893304	0.000456	20.719343
143.034612	-2.968700	3.859300	-11.456000	21.892702	0.000455	20.740079
144.034027	-2.983500	3.856800	-11.505000	21.928250	0.000454	20.747212
145.037241	-2.976200	3.857500	-11.479000	21.932488	0.000453	20.750032
146.035139	-3.010200	3.856000	-11.607000	21.937176	0.000456	20.735757
147.035046	-3.006400	3.855900	-11.591000	21.943251	0.000458	20.725717
148.034349	-2.992300	3.856600	-11.540000	21.975209	0.000454	20.718826
149.036492	-3.022500	3.855200	-11.652000	21.950978	0.000457	20.730607
150.037196	-3.003200	3.855500	-11.577000	21.963565	0.000455	20.746527
151.037683	-2.989700	3.856100	-11.527000	21.954664	0.000455	20.714856
152.036332	-2.979600	3.856000	-11.488000	21.958478	0.000457	20.738589
153.036710	-2.992600	3.854800	-11.535000	21.970197	0.000457	20.706695
154.037855	-2.991900	3.854100	-11.530000	21.977746	0.000458	20.710460
155.039315	-2.985000	3.854300	-11.504000	21.995573	0.000457	20.718348
156.038812	-3.007500	3.854000	-11.591000	22.013868	0.000459	20.719119
157.040670	-3.016000	3.853500	-11.622000	22.006813	0.000459	20.723910
158.044485	-3.016000	3.854300	-11.622000	22.010705	0.000461	20.716901
159.040276	-3.000600	3.854800	-11.566000	22.004469	0.000457	20.723935
160.040333	-3.013800	3.853400	-11.612000	22.034037	0.000459	20.734095
161.038704	-2.987000	3.854200	-11.512000	22.037970	0.000459	20.708159
162.039601	-3.008800	3.853600	-11.593000	22.048020	0.000461	20.721065
163.040108	-3.011500	3.852800	-11.601000	22.042736	0.000458	20.717197
164.040055	-3.006500	3.853300	-11.584000	22.034758	0.000459	20.718220
165.043090	-3.016100	3.852500	-11.619000	22.056620	0.000461	20.741055
166.039394	-3.012500	3.852100	-11.604000	22.073996	0.000463	20.716249
167.039496	-2.995700	3.853400	-11.543000	22.075969	0.000462	20.718699
168.041957	-2.986800	3.852600	-11.506000	22.091948	0.000461	20.725688
169.038238	-3.010600	3.852700	-11.597000	22.116852	0.000464	20.712213
170.039438	-3.003100	3.852100	-11.567000	22.110271	0.000463	20.715107
171.040104	-2.981200	3.852100	-11.483000	22.112388	0.000464	20.707269
172.039234	-2.998200	3.851400	-11.547000	22.106334	0.000464	20.705001
173.038881	-3.022900	3.850200	-11.638000	22.131188	0.000462	20.723247
174.041648	-2.984900	3.851400	-11.495000	22.131065	0.000462	20.703681
175.042153	-3.008200	3.851200	-11.584000	22.143852	0.000465	20.725020
176.041736	-3.017000	3.850500	-11.616000	22.164740	0.000465	20.714163
177.042143	-3.025600	3.850200	-11.649000	22.128100	0.000464	20.730586
178.044430	-3.003200	3.852100	-11.568000	22.146175	0.000465	20.687988
179.043162	-3.009800	3.849100	-11.584000	22.189144	0.000466	20.697344
180.042447	-2.997800	3.850500	-11.542000	22.169998	0.000463	20.727016
181.042693	-2.992800	3.851600	-11.526000	22.181645	0.000466	20.710700
182.045855	-2.993300	3.850200	-11.524000	22.204574	0.000464	20.714691
183.044854	-2.978200	3.850200	-11.465000	22.209137	0.000465	20.689860
184.045906	-2.999000	3.850900	-11.547000	22.216941	0.000467	20.701942
185.046926	-2.984700	3.850200	-11.491000	22.206048	0.000467	20.705735
186.045301	-3.026900	3.848800	-11.650000	22.220857	0.000465	20.710131
187.046413	-3.003100	3.849400	-11.560000	22.256271	0.000467	20.701492
188.050249	-2.976100	3.850500	-11.458000	22.250267	0.000469	20.718716
189.047838	-2.979100	3.849800	-11.469000	22.263876	0.000470	20.701047
190.052110	-2.981900	3.848700	-11.476000	22.260764	0.000469	20.724010
191.052359	-3.011500	3.848600	-11.589000	22.265524	0.000469	20.706490
192.048525	-3.003200	3.848600	-11.557000	22.272454	0.000468	20.701575
193.048263	-3.028900	3.846200	-11.648000	22.247558	0.000468	20.709838
194.049101	-3.031200	3.846200	-11.657000	22.259895	0.000470	20.714131
195.048723	-3.001700	3.848000	-11.550000	22.266179	0.000469	20.710940
196.049273	-2.986000	3.846900	-11.486000	22.279759	0.000469	20.687551
197.048978	-2.992800	3.846800	-11.512000	22.305882	0.000470	20.692372
198.051840	-3.016600	3.846200	-11.602000	22.311416	0.000472	20.692698
199.049664	-2.996700	3.846800	-11.527000	22.323431	0.000469	20.699514
200.051725	-3.017100	3.846500	-11.604000	22.334841	0.000472	20.704301
201.056658	-3.033000	3.846000	-11.664000	22.371458	0.000473	20.697819
202.051795	-3.022200	3.845100	-11.620000	22.362260	0.000472	20.705204
203.052639	-3.001700	3.845600	-11.542000	22.341203	0.000473	20.703085
204.054408	-2.995500	3.846400	-11.521000	22.336991	0.000472	20.685589
205.053467	-2.987900	3.845600	-11.490000	22.337608	0.000473	20.691898
206.055655	-2.995200	3.844900	-11.515000	22.352024	0.000473	20.698747
207.055091	-2.982400	3.845100	-11.467000	22.332877	0.000474	20.704231
208.054652	-2.982400	3.846900	-11.472000	22.368440	0.000474	20.718506
209.052508	-2.994800	3.845800	-11.516000	22.359147	0.000474	20.703035
210.054628	-2.992000	3.844200	-11.501000	22.362289	0.000473	20.717562
211.051363	-2.999700	3.844600	-11.531000	22.373904	0.000475	20.674188
212.053940	-2.996000	3.845000	-11.519000	22.369243	0.000476	20.694653
213.054072	-3.007300	3.844000	-11.559000	22.389855	0.000474	20.706285
214.053570	-3.004300	3.845000	-11.551000	22.385885	0.000478	20.702309
215.055415	-3.002600	3.844300	-11.542000	22.401317	0.000474	20.699745
216.060658	-2.992600	3.844200	-11.503000	22.396035	0.000474	20.705835
217.055874	-3.008100	3.842100	-11.556000	22.415744	0.000478	20.692855
218.058471	-2.983800	3.843400	-11.467000	22.430846	0.000474	20.693754
219.060714	-3.006100	3.842200	-11.550000	22.463816	0.000479	20.695477
220.057270	-3.019500	3.842900	-11.602000	22.473714	0.000477	20.703968
221.059266	-3.000500	3.842400	-11.528000	22.484851	0.000477	20.700896
222.060696	-3.009200	3.842400	-11.562000	22.485970	0.000479	20.698698
223.059759	-2.996300	3.842500	-11.513000	22.488510	0.000480	20.685593
224.058239	-3.009100	3.842300	-11.561000	22.478848	0.000475	20.696781
225.058271	-3.019500	3.841200	-11.598000	22.500499	0.000478	20.712775
226.059106	-2.987100	3.842400	-11.476000	22.488613	0.000480	20.716519
227.059047	-3.015800	3.840800	-11.582000	22.482833	0.000479	20.708833
228.059083	-3.006100	3.841400	-11.546000	22.497634	0.000481	20.700896
229.057638	-3.006000	3.840600	-11.543000	22.511788	0.000482	20.693733
230.060018	-2.995700	3.840600	-11.505000	22.528013	0.000481	20.693861
231.060534	-2.982200	3.840900	-11.453000	22.547995	0.000483	20.695857
232.059255	-2.998600	3.840600	-11.515000	22.547341	0.000483	20.702314
233.061043	-2.991600	3.840200	-11.487000	22.562243	0.000483	20.697799
234.060097	-2.990500	3.841500	-11.487000	22.568649	0.000481	20.721760
235.062845	-2.995200	3.840300	-11.501000	22.580604	0.000484	20.709550
236.058378	-2.975600	3.840600	-11.427000	22.596700	0.000482	20.707179
237.061484	-3.008500	3.839000	-11.549000	22.590920	0.000484	20.729367
238.067027	-2.991400	3.839000	-11.483000	22.589294	0.000485	20.717780
239.062027	-2.990500	3.837700	-11.475000	22.575490	0.000485	20.709171
240.059927	-2.986200	3.837500	-11.458000	22.552746	0.000484	20.713892
241.066793	-3.012600	3.837900	-11.561000	22.597667	0.000486	20.698664
242.062801	-3.016100	3.838000	-11.575000	22.609127	0.000485	20.724844
243.061389	-2.992800	3.837700	-11.485000	22.629528	0.000485	20.697860
244.069669	-3.013600	3.836300	-11.560000	22.618171	0.000483	20.691700
245.064242	-2.994700	3.837200	-11.490000	22.606307	0.000486	20.713009
246.063611	-2.983700	3.837400	-11.449000	22.641610	0.000486	20.719446
247.067233	-2.969800	3.837900	-11.397000	22.650205	0.000486	20.708140
248.065602	-3.011500	3.836500	-11.553000	22.633715	0.000487	20.707270
249.067867	-2.987600	3.838600	-11.468000	22.650530	0.000488	20.707043
250.068334	-2.993800	3.836500	-11.485000	22.682473	0.000489	20.721495
251.066383	-2.992000	3.836700	-11.478000	22.664061	0.000489	20.733399
252.066274	-2.995700	3.836400	-11.492000	22.668889	0.000489	20.714527
253.067486	-3.028700	3.835700	-11.616000	22.680629	0.000488	20.709690
254.066053	-3.005600	3.836500	-11.529000	22.672878	0.000489	20.711884
255.066701	-3.007400	3.834900	-11.531000	22.666749	0.000490	20.707166
256.068345	-2.997600	3.834900	-11.494000	22.699136	0.000490	20.715425
257.068486	-3.000400	3.835000	-11.506000	22.699732	0.000490	20.734991
258.067382	-3.012900	3.833500	-11.549000	22.711571	0.000492	20.705121
259.066429	-2.997500	3.834000	-11.492000	22.702499	0.000490	20.718794
260.067553	-3.015700	3.834800	-11.564000	22.729204	0.000492	20.712828
261.067814	-2.998900	3.834200	-11.497000	22.757580	0.000492	20.713277
262.067080	-3.008700	3.834300	-11.535000	22.747364	0.000493	20.704465
263.069395	-3.006400	3.833100	-11.523000	22.758152	0.000490	20.712902
264.071581	-2.995800	3.834600	-11.487000	22.784659	0.000493	20.706737
265.068921	-2.997800	3.833700	-11.492000	22.778485	0.000494	20.711933
266.075218	-3.007900	3.833700	-11.530000	22.785359	0.000492	20.723087
267.074185	-3.011300	3.833300	-11.542000	22.756086	0.000493	20.711780
268.070658	-3.009800	3.833200	-11.536000	22.758877	0.000493	20.745398
269.074903	-3.019300	3.831300	-11.567000	22.739626	0.000496	20.717104
270.075814	-3.001300	3.831100	-11.497000	22.752230	0.000494	20.718349
271.071822	-2.992600	3.832600	-11.468000	22.830008	0.000493	20.719450
272.075400	-2.984400	3.831200	-11.432000	22.839326	0.000497	20.730682
273.076415	-2.989200	3.831500	-11.453000	22.828567	0.000493	20.720852
274.072839	-2.984600	3.831200	-11.433000	22.858637	0.000494	20.716836
275.074635	-2.977500	3.831400	-11.407000	22.860925	0.000497	20.729086
276.075095	-2.976100	3.831000	-11.401000	22.845833	0.000495	20.733408
277.077556	-2.990600	3.831700	-11.458000	22.836692	0.000495	20.704334
278.073282	-2.979900	3.831200	-11.416000	22.857966	0.000495	20.727545
279.072426	-3.014700	3.830300	-11.546000	22.850023	0.000496	20.734761
280.075244	-2.993800	3.830400	-11.467000	22.832185	0.000495	20.717838
281.074665	-3.005600	3.830100	-11.510000	22.864395	0.000496	20.716441
282.076886	-3.008300	3.830000	-11.521000	22.870700	0.000498	20.739354
283.075642	-3.011200	3.828600	-11.528000	22.849480	0.000498	20.731371
284.075017	-2.993400	3.829100	-11.461000	22.838022	0.000498	20.726531
285.073129	-3.000600	3.828600	-11.488000	22.867046	0.000495	20.716726
286.074650	-3.010000	3.829700	-11.526000	22.841936	0.000498	20.747997
287.075807	-3.001900	3.827500	-11.489000	22.851377	0.000497	20.725211
288.075155	-2.992600	3.828900	-11.457000	22.857205	0.000499	20.741482
289.076311	-2.971200	3.828800	-11.375000	22.862263	0.000500	20.721892
290.076492	-3.011800	3.828000	-11.529000	22.864363	0.000500	20.712141
291.078996	-3.020100	3.826700	-11.556000	22.882417	0.000499	20.741610
292.084005	-2.986100	3.827300	-11.427000	22.879681	0.000500	20.718952
293.079937	-2.996800	3.826700	-11.467000	22.907329	0.000500	20.735272
294.079726	-3.012700	3.827300	-11.529000	22.939462	0.000500	20.716256
295.085317	-3.001200	3.826200	-11.482000	22.929227	0.000501	20.739194
296.080381	-3.019500	3.825400	-11.550000	22.960935	0.000500	20.702682
297.080471	-2.992800	3.826200	-11.450000	22.980314	0.000503	20.745808
298.083941	-3.012700	3.824500	-11.521000	22.968207	0.000503	20.736996
299.081406	-2.974100	3.826400	-11.379000	22.980610	0.000503	20.732827
300.079911	-3.007800	3.825200	-11.504000	22.967561	0.000503	20.737297
301.079704	-3.021800	3.824900	-11.557000	22.974359	0.000505	20.732254
302.081518	-3.006700	3.825100	-11.500000	22.959383	0.000503	20.742855
303.080548	-2.996600	3.825100	-11.461000	22.939856	0.000505	20.737515
304.079622	-3.001500	3.825100	-11.480000	22.970416	0.000504	20.748693
305.081697	-2.982000	3.825200	-11.405000	23.005185	0.000506	20.756977
306.083649	-2.999600	3.824000	-11.469000	23.013107	0.000508	20.726506
307.079307	-2.989200	3.826000	-11.436000	23.026427	0.000504	20.749811
308.081602	-3.007600	3.823300	-11.499000	23.025851	0.000507	20.752552
309.085120	-3.015000	3.821800	-11.520000	23.048393	0.000506	20.749534
310.080020	-3.014500	3.822300	-11.521000	23.032846	0.000505	20.746759
311.080687	-3.007900	3.822300	-11.496000	23.056803	0.000506	20.744685
312.082939	-3.032000	3.821000	-11.585000	23.068333	0.000509	20.736797
313.082002	-3.002700	3.822100	-11.476000	23.086364	0.000507	20.743959
314.080938	-2.988000	3.821300	-11.417000	23.050297	0.000508	20.759978
315.084063	-3.002700	3.822000	-11.476000	23.052766	0.000507	20.758184
316.085848	-2.980200	3.822700	-11.392000	23.062448	0.000508	20.763144
317.083004	-2.996300	3.822000	-11.451000	23.064884	0.000508	20.752308
318.082782	-3.005900	3.822300	-11.488000	23.047548	0.000508	20.771922
319.087417	-3.022900	3.820100	-11.547000	23.098424	0.000508	20.734706
320.083735	-3.023700	3.820200	-11.550000	23.108509	0.000510	20.759037
321.083555	-3.002400	3.821000	-11.472000	23.132070	0.000509	20.752300
322.089809	-3.002500	3.821000	-11.471000	23.152609	0.000512	20.769563
323.089585	-3.025300	3.820200	-11.557000	23.145438	0.000509	20.760480
324.085188	-3.004300	3.820900	-11.478000	23.142993	0.000509	20.775575
325.085664	-3.028700	3.818800	-11.565000	23.125905	0.000510	20.761296
326.088573	-3.001200	3.819400	-11.462000	23.120424	0.000509	20.755330
327.083459	-2.997300	3.820300	-11.450000	23.117762	0.000512	20.782060
328.085122	-2.991100	3.820900	-11.428000	23.137603	0.000511	20.760215
329.083973	-3.014300	3.820200	-11.514000	23.125625	0.000513	20.757696
330.084803	-3.007400	3.819300	-11.485000	23.175082	0.000510	20.777384
331.089334	-3.004800	3.818800	-11.473000	23.183871	0.000513	20.764380
332.085996	-2.997900	3.817900	-11.445000	23.185438	0.000511	20.754571
333.086351	-2.985200	3.819100	-11.399000	23.178810	0.000513	20.759782
334.086523	-2.994900	3.817300	-11.432000	23.159410	0.000513	20.752195
335.086994	-2.988800	3.817800	-11.410000	23.168322	0.000515	20.790998
336.087218	-3.004700	3.816500	-11.466000	23.185232	0.000511	20.749622
337.087972	-2.992700	3.818200	-11.426000	23.184409	0.000513	20.760178
338.089775	-3.001300	3.816600	-11.454000	23.198275	0.000513	20.784030
339.089249	-2.996500	3.817200	-11.438000	23.239714	0.000514	20.772452
340.089030	-3.002800	3.815600	-11.456000	23.238443	0.000515	20.777342
341.096144	-2.987300	3.817400	-11.403000	23.248699	0.000515	20.770552
342.092682	-2.979100	3.815600	-11.366000	23.288343	0.000515	20.777091
343.093260	-2.989900	3.815400	-11.406000	23.307687	0.000515	20.780830
344.097116	-2.992200	3.816300	-11.418000	23.321057	0.000515	20.789963
345.096000	-3.002900	3.815600	-11.457000	23.311896	0.000516	20.788842
346.094052	-2.997000	3.816100	-11.436000	23.301438	0.000515	20.772197
347.097178	-3.052400	3.813100	-11.638000	23.301660	0.000515	20.782851
348.095154	-3.001100	3.814500	-11.446000	23.299368	0.000517	20.788615
349.091940	-3.003800	3.814300	-11.457000	23.323546	0.000516	20.784871
350.094250	-2.981300	3.815400	-11.373000	23.297126	0.000513	20.793006
351.094929	-3.007400	3.814100	-11.470000	23.321551	0.000517	20.783345
352.093563	-2.995400	3.813900	-11.422000	23.297850	0.000519	20.790887
353.094903	-3.001400	3.813400	-11.445000	23.302055	0.000517	20.759064
354.092641	-2.995000	3.813700	-11.422000	23.310620	0.000517	20.774761
355.094892	-3.007900	3.813500	-11.469000	23.294785	0.000517	20.782125
356.095094	-3.009100	3.811200	-11.468000	23.320481	0.000517	20.785118
357.096191	-2.985000	3.812700	-11.380000	23.317367	0.000520	20.780575
358.099772	-2.995800	3.811700	-11.418000	23.361241	0.000519	20.790882
359.097221	-2.982500	3.811600	-11.367000	23.345679	0.000519	20.796148
360.096075	-2.993300	3.810800	-11.406000	23.324336	0.000517	20.770015
361.100216	-2.995800	3.812000	-11.420000	23.329017	0.000518	20.798889
362.097025	-2.995600	3.811300	-11.417000	23.325632	0.000519	20.801186
363.098617	-2.989800	3.810300	-11.391000	23.345547	0.000521	20.784162
364.097614	-2.995800	3.809900	-11.413000	23.373636	0.000521	20.796193
365.095757	-3.002100	3.810200	-11.438000	23.374882	0.000520	20.791752
366.097929	-3.022800	3.809900	-11.516000	23.395747	0.000519	20.784689
367.098495	-3.003800	3.810800	-11.446000	23.393776	0.000519	20.811164
368.100384	-2.985700	3.810100	-11.375000	23.367087	0.000521	20.791051
369.098790	-3.001500	3.810300	-11.436000	23.358045	0.000520	20.800007
370.099390	-2.979400	3.808500	-11.346000	23.389992	0.000522	20.799784
371.100271	-2.995200	3.808000	-11.404000	23.410507	0.000521	20.791897
372.099661	-2.970700	3.809700	-11.317000	23.429951	0.000522	20.795739
373.105666	-2.993200	3.809100	-11.401000	23.418026	0.000519	20.795640
374.100650	-2.992000	3.807900	-11.392000	23.407471	0.000521	20.803078
375.099451	-3.011300	3.807900	-11.466000	23.438836	0.000523	20.825507
376.103008	-2.995800	3.807000	-11.404000	23.467548	0.000521	20.804975
377.102849	-3.006000	3.807400	-11.444000	23.467149	0.000522	20.814532
378.098589	-2.981400	3.807200	-11.350000	23.453604	0.000524	20.793368
379.103353	-2.999000	3.807700	-11.417000	23.463813	0.000524	20.813085
380.098530	-2.998400	3.808000	-11.417000	23.444715	0.000524	20.811959
381.099916	-2.987100	3.806700	-11.370000	23.434587	0.000523	20.812240
382.099820	-3.001300	3.806300	-11.422000	23.453929	0.000523	20.817402
383.100021	-3.014300	3.806400	-11.473000	23.474265	0.000525	20.801276
384.105474	-3.004900	3.805900	-11.435000	23.473274	0.000524	20.807395
385.100223	-2.992600	3.805600	-11.388000	23.491648	0.000525	20.824390
386.101054	-2.985400	3.805400	-11.359000	23.457363	0.000525	20.816103
387.103791	-2.988000	3.805000	-11.369000	23.464212	0.000525	20.804950
388.102350	-2.994100	3.806300	-11.395000	23.443571	0.000526	20.805597
389.104250	-2.991600	3.804300	-11.379000	23.448503	0.000523	20.821446
390.105138	-3.007900	3.803200	-11.439000	23.447903	0.000525	20.808517
391.105212	-2.991700	3.804300	-11.381000	23.465278	0.000523	20.816923
392.105150	-2.982000	3.803300	-11.341000	23.489008	0.000526	20.811312
393.102323	-3.006700	3.803400	-11.435000	23.497000	0.000525	20.817426
394.102387	-3.001800	3.803200	-11.415000	23.516817	0.000525	20.806472
395.104621	-3.017800	3.802200	-11.473000	23.519232	0.000526	20.803202
396.104141	-2.999100	3.802900	-11.404000	23.563147	0.000527	20.805499
397.104894	-3.018600	3.801900	-11.475000	23.592399	0.000528	20.814433
398.107524	-2.987600	3.801900	-11.357000	23.582117	0.000527	20.811238
399.108492	-3.026600	3.800600	-11.502000	23.569897	0.000527	20.834075
400.109706	-3.013700	3.800200	-11.452000	23.610496	0.000529	20.795117
401.110455	-3.009900	3.802300	-11.444000	23.604824	0.000529	20.835897
402.106922	-3.016600	3.799800	-11.462000	23.604376	0.000528	20.817431
403.111005	-3.006200	3.800500	-11.424000	23.637809	0.000526	20.826765
404.109271	-3.015800	3.800200	-11.460000	23.611294	0.000526	20.827684
405.107448	-2.988500	3.800800	-11.358000	23.587427	0.000528	20.835526
406.110723	-2.973500	3.800400	-11.299000	23.606391	0.000528	20.827511
407.107426	-2.986300	3.800500	-11.349000	23.641745	0.000527	20.831659
408.108643	-2.997300	3.800400	-11.390000	23.641819	0.000529	20.825095
409.111125	-3.019700	3.798200	-11.469000	23.668625	0.000528	20.836322
410.110199	-3.008200	3.799200	-11.428000	23.665590	0.000529	20.811469
411.109965	-3.015800	3.798900	-11.456000	23.658969	0.000532	20.819055
412.110777	-2.990100	3.798300	-11.357000	23.674182	0.000528	20.826246
413.113120	-3.024900	3.798500	-11.489000	23.683764	0.000532	20.830163
414.110871	-2.991400	3.798400	-11.362000	23.657036	0.000532	20.828497
415.114527	-2.986000	3.797900	-11.340000	23.662535	0.000529	20.840647
416.112093	-2.994400	3.797300	-11.368000	23.672216	0.000531	20.815266
417.113072	-3.032900	3.796800	-11.514000	23.677817	0.000531	20.840796
418.115150	-3.002100	3.796700	-11.397000	23.676875	0.000530	20.845541
419.113826	-3.000200	3.797000	-11.390000	23.648375	0.000530	20.831668
420.111490	-3.008500	3.796100	-11.420000	23.656662	0.000532	20.824329
421.112436	-2.996300	3.796500	-11.375000	23.670826	0.000531	20.829994
422.112271	-2.993600	3.796000	-11.362000	23.678915	0.000531	20.840474
423.114559	-2.980800	3.796200	-11.315000	23.667470	0.000532	20.819517
424.113104	-3.003300	3.795500	-11.398000	23.706301	0.000532	20.834265
425.126554	-3.036300	3.793900	-11.518000	23.722677	0.000532	20.842622
426.114333	-3.014400	3.794600	-11.438000	23.743613	0.000532	20.841802
427.113106	-2.996600	3.795800	-11.374000	23.752845	0.000532	20.846791
428.115369	-2.998800	3.794600	-11.378000	23.771914	0.000532	20.843150
429.111882	-3.004200	3.793300	-11.395000	23.776495	0.000534	20.834467
430.112695	-3.011800	3.793300	-11.424000	23.780003	0.000533	20.829924
431.114285	-2.960400	3.795300	-11.235000	23.784431	0.000533	20.842424
432.113340	-2.980200	3.795500	-11.310000	23.826248	0.000533	20.832670
433.116977	-2.989200	3.793500	-11.338000	23.809549	0.000534	20.834892
434.115653	-3.007600	3.792000	-11.404000	23.785751	0.000533	20.838532
435.113337	-2.986300	3.793000	-11.326000	23.778333	0.000534	20.849586
436.112914	-2.986700	3.793000	-11.327000	23.796106	0.000533	20.843224
437.117625	-3.010700	3.791200	-11.413000	23.800658	0.000535	20.856323
438.112399	-3.016900	3.790800	-11.435000	23.777013	0.000532	20.870546
439.114301	-2.971300	3.793300	-11.270000	23.788910	0.000533	20.849759
440.117738	-3.000500	3.791400	-11.375000	23.818776	0.000533	20.855049
441.115585	-2.990800	3.791500	-11.339000	23.807254	0.000532	20.861513
442.115331	-3.000400	3.791400	-11.375000	23.818801	0.000534	20.866927
443.117877	-3.021600	3.791100	-11.455000	23.832214	0.000533	20.830591
444.115958	-2.990000	3.791300	-11.336000	23.825343	0.000535	20.861159
445.117262	-3.000000	3.790000	-11.369000	23.856730	0.000532	20.858491
446.120335	-2.994900	3.790400	-11.351000	23.877561	0.000532	20.841921
447.115604	-3.031800	3.789000	-11.487000	23.878753	0.000534	20.855918
448.117822	-3.023400	3.789000	-11.455000	23.884625	0.000534	20.841892
449.117132	-3.007500	3.789400	-11.396000	23.892811	0.000534	20.859584
450.115967	-2.981200	3.788000	-11.292000	23.890200	0.000534	20.835155
451.116290	-2.994000	3.789500	-11.345000	23.878527	0.000535	20.840519
452.119574	-2.998600	3.788500	-11.360000	23.868198	0.000534	20.844861
453.116585	-2.993300	3.788300	-11.338000	23.884600	0.000535	20.839497
454.117933	-3.002100	3.788100	-11.372000	23.877754	0.000534	20.843537
455.117598	-3.000800	3.788000	-11.366000	23.891014	0.000535	20.828385
456.118872	-3.014600	3.786900	-11.415000	23.891557	0.000533	20.852162
457.118300	-3.002500	3.787900	-11.372000	23.880064	0.000536	20.840639
458.118654	-2.991300	3.785900	-11.324000	23.873218	0.000534	20.840886
459.120565	-3.001000	3.787100	-11.364000	23.882453	0.000535	20.842086
460.120463	-3.012600	3.786700	-11.406000	23.879341	0.000535	20.842284
461.119268	-2.974900	3.786400	-11.262000	23.882770	0.000534	20.838610
462.122777	-2.995000	3.786900	-11.341000	23.923711	0.000535	20.842205
463.118476	-3.024300	3.784800	-11.444000	23.920623	0.000535	20.829626
464.118529	-3.000600	3.784800	-11.356000	23.919874	0.000537	20.838359
465.120685	-3.020000	3.783800	-11.426000	23.915746	0.000534	20.808141
466.119660	-2.994500	3.786300	-11.336000	23.882967	0.000536	20.812730
467.119873	-2.999000	3.783700	-11.346000	23.894419	0.000536	20.828006
468.120868	-2.983300	3.784400	-11.289000	23.894143	0.000538	20.831049
469.119254	-3.004000	3.784900	-11.369000	23.861939	0.000537	20.842853
470.121384	-3.014300	3.782900	-11.402000	23.887075	0.000537	20.841979
471.120142	-3.016900	3.783300	-11.412000	23.922267	0.000537	20.816103
472.120450	-3.002400	3.782700	-11.356000	23.919455	0.000535	20.834619
473.118768	-3.000500	3.782900	-11.350000	23.963478	0.000537	20.831824
474.122866	-3.000200	3.782800	-11.348000	23.948668	0.000537	20.816024
475.122192	-3.019200	3.780500	-11.413000	23.940980	0.000537	20.813530
476.120262	-2.992900	3.781400	-11.316000	23.957504	0.000538	20.836264
477.123152	-2.998900	3.781500	-11.340000	23.957405	0.000537	20.814829
478.122344	-2.989500	3.781700	-11.305000	23.994808	0.000538	20.812982
479.122800	-3.013900	3.781000	-11.395000	24.007997	0.000537	20.811510
480.123354	-2.996400	3.782200	-11.332000	23.991395	0.000536	20.820465
481.123220	-3.013600	3.780200	-11.391000	23.998816	0.000537	20.818898
482.122539	-2.996600	3.780500	-11.328000	23.994109	0.000536	20.813703
483.126694	-3.004500	3.779800	-11.355000	23.985257	0.000536	20.826163
484.122867	-2.992700	3.780700	-11.314000	24.008967	0.000537	20.821017
485.126818	-2.986200	3.780200	-11.288000	24.030720	0.000537	20.817229
486.125013	-3.016800	3.779400	-11.401000	24.054434	0.000536	20.818725
487.126680	-2.993100	3.780200	-11.313000	24.018382	0.000536	20.804855
488.125165	-3.013400	3.780000	-11.390000	24.026367	0.000538	20.806698
489.125614	-3.005100	3.778500	-11.354000	24.026243	0.000537	20.815109
490.125864	-2.987400	3.776900	-11.282000	24.065337	0.000538	20.826340
491.124895	-2.993100	3.777900	-11.307000	24.061584	0.000539	20.787015
492.125574	-2.984600	3.777800	-11.274000	24.089124	0.000539	20.816058
493.125892	-2.989000	3.777100	-11.289000	24.094822	0.000539	20.799487
494.126863	-3.016000	3.777500	-11.392000	24.114057	0.000537	20.799813
495.130491	-2.991300	3.776300	-11.294000	24.108807	0.000538	20.811617
496.125755	-2.994600	3.777900	-11.312000	24.069913	0.000539	20.799161
497.126660	-3.007100	3.777300	-11.358000	24.084026	0.000538	20.778703
498.130036	-3.006000	3.776100	-11.350000	24.075241	0.000538	20.809247
499.128423	-2.995400	3.776000	-11.310000	24.082036	0.000539	20.807527
500.126991	-3.001900	3.775200	-11.331000	24.088951	0.000536	20.810195
501.128389	-2.991100	3.775100	-11.291000	24.039033	0.000537	20.786211
502.128139	-2.992200	3.775800	-11.297000	24.050582	0.000538	20.789732
503.131517	-3.008100	3.773600	-11.351000	24.024007	0.000538	20.794849
504.131113	-2.999600	3.775200	-11.323000	24.056782	0.000539	20.793105
505.130755	-3.012800	3.773900	-11.369000	24.070517	0.000537	20.795500
506.128699	-3.032000	3.773600	-11.441000	24.082110	0.000538	20.799541
507.129266	-3.033100	3.772900	-11.443000	24.065193	0.000539	20.783523
508.129671	-3.031400	3.772200	-11.434000	24.114781	0.000538	20.804332
509.129313	-3.003000	3.774400	-11.333000	24.146829	0.000538	20.772939
510.132541	-2.978900	3.774000	-11.241000	24.120729	0.000539	20.808876
511.128943	-2.977100	3.773200	-11.232000	24.130612	0.000539	20.797451
512.135199	-2.995600	3.772000	-11.298000	24.155964	0.000541	20.781152
513.132850	-2.995400	3.773600	-11.302000	24.154097	0.000540	20.789237
514.131060	-2.980700	3.772300	-11.243000	24.132178	0.000536	20.793332
515.135474	-3.001500	3.771100	-11.318000	24.132606	0.000539	20.784277
516.134799	-3.018400	3.770300	-11.379000	24.148384	0.000539	20.791567
517.131843	-3.008800	3.771100	-11.345000	24.099809	0.000540	20.779833
518.134898	-2.994200	3.770000	-11.287000	24.134670	0.000539	20.788244
519.135616	-3.018100	3.769000	-11.375000	24.117848	0.000537	20.791287
520.131149	-2.997300	3.770900	-11.301000	24.134222	0.000540	20.780208
521.135530	-2.995500	3.770900	-11.295000	24.136556	0.000540	20.778282
522.138809	-2.990800	3.770300	-11.275000	24.108121	0.000540	20.791963
523.134089	-3.005600	3.770400	-11.331000	24.114789	0.000540	20.764511
524.138158	-3.006500	3.768900	-11.330000	24.066316	0.000542	20.772794
525.138340	-3.008200	3.768900	-11.336000	24.086546	0.000539	20.757996
526.134520	-2.983000	3.768600	-11.240000	24.107073	0.000537	20.789015
527.137802	-2.983600	3.769000	-11.244000	24.108318	0.000541	20.778410
528.137954	-2.982200	3.768200	-11.235000	24.129243	0.000540	20.770947
529.134365	-2.998000	3.767900	-11.295000	24.152831	0.000540	20.760940
530.137261	-2.993900	3.767400	-11.279000	24.157308	0.000538	20.770646
531.140573	-2.977300	3.767100	-11.215000	24.164198	0.000539	20.778979
532.137874	-3.008700	3.765400	-11.328000	24.168378	0.000539	20.793604
533.139498	-2.995200	3.766600	-11.281000	24.185672	0.000539	20.773965
534.137425	-2.986700	3.766500	-11.248000	24.199776	0.000540	20.784793
535.137621	-2.998200	3.765100	-11.288000	24.188307	0.000538	20.778031
536.141536	-2.996400	3.765700	-11.282000	24.219507	0.000539	20.775660
537.140767	-3.000900	3.765700	-11.299000	24.194206	0.000539	20.772568
538.137318	-2.992300	3.765800	-11.267000	24.191666	0.000542	20.757691
539.143432	-2.967900	3.767300	-11.180000	24.180369	0.000540	20.790458
540.138700	-2.996700	3.766300	-11.286000	24.172259	0.000538	20.757192
541.143427	-3.003500	3.765000	-11.307000	24.165118	0.000539	20.785118
542.146397	-2.997100	3.763800	-11.280000	24.180764	0.000541	20.764775
543.142825	-3.021400	3.764100	-11.372000	24.185393	0.000539	20.758986
544.140205	-3.020800	3.762800	-11.366000	24.196487	0.000541	20.772011
545.138819	-3.002900	3.763400	-11.300000	24.199899	0.000540	20.767372
546.137772	-3.020300	3.762900	-11.364000	24.176583	0.000537	20.780496
547.137420	-3.010200	3.763500	-11.327000	24.195118	0.000539	20.775379
548.140203	-3.004400	3.762300	-11.302000	24.234005	0.000539	20.761278
549.138455	-2.996800	3.761800	-11.273000	24.260895	0.000541	20.780191
550.138768	-3.002700	3.761900	-11.294000	24.273683	0.000541	20.753662
551.140232	-3.018500	3.761500	-11.353000	24.274628	0.000538	20.771207
552.139637	-3.006800	3.762600	-11.313000	24.256612	0.000540	20.764515
553.139846	-3.010300	3.761400	-11.322000	24.254721	0.000538	20.767834
554.140863	-3.018100	3.761400	-11.352000	24.281611	0.000538	20.778686
555.142405	-3.014600	3.760200	-11.335000	24.292656	0.000542	20.760841
556.140985	-3.021500	3.760200	-11.361000	24.288455	0.000541	20.765162
557.141697	-2.982500	3.761300	-11.217000	24.287723	0.000540	20.760634
558.145588	-2.983700	3.761400	-11.221000	24.284069	0.000538	20.767875
559.141559	-3.008300	3.760700	-11.312000	24.316581	0.000539	20.768720
560.140228	-2.993200	3.759600	-11.252000	24.344074	0.000540	20.779704
561.144458	-3.011900	3.757800	-11.317000	24.348727	0.000538	20.760663
562.141449	-3.023900	3.757900	-11.363000	24.346384	0.000538	20.753571
563.142142	-2.999000	3.759200	-11.272000	24.363725	0.000539	20.762906
564.141911	-3.001700	3.759600	-11.284000	24.368673	0.000539	20.773561
565.143085	-3.006200	3.758700	-11.299000	24.351805	0.000539	20.761381
566.143177	-3.012500	3.757700	-11.319000	24.306557	0.000540	20.745387
567.141180	-2.998000	3.759700	-11.270000	24.318517	0.000539	20.755489
568.141387	-3.004900	3.758400	-11.292000	24.319409	0.000541	20.755435
569.141502	-3.001000	3.757600	-11.275000	24.330309	0.000540	20.757360
570.140198	-3.019500	3.755900	-11.340000	24.318464	0.000537	20.731726
571.144653	-2.965200	3.758000	-11.142000	24.315829	0.000540	20.764646
572.145766	-2.993900	3.757500	-11.249000	24.345755	0.000539	20.752940
573.144349	-2.996800	3.757300	-11.258000	24.346746	0.000537	20.774797
574.143591	-2.994700	3.756600	-11.249000	24.366922	0.000538	20.757579
575.143906	-2.993300	3.756600	-11.244000	24.311813	0.000540	20.760143
576.146749	-3.000800	3.756300	-11.271000	24.304349	0.000539	20.748862
577.145600	-3.010300	3.755800	-11.305000	24.273526	0.000540	20.780532
578.145076	-2.991000	3.755700	-11.233000	24.304620	0.000540	20.770946
579.144924	-3.016700	3.753700	-11.323000	24.359026	0.000539	20.743020
580.145625	-3.009500	3.754200	-11.298000	24.389892	0.000540	20.751699
581.148242	-2.998000	3.755000	-11.257000	24.394122	0.000539	20.731285
582.148397	-3.017300	3.753900	-11.326000	24.392901	0.000540	20.746656
583.148341	-2.991900	3.755200	-11.234000	24.400808	0.000541	20.760753
584.148217	-2.995000	3.754500	-11.244000	24.416483	0.000539	20.743762
585.148152	-2.993900	3.752200	-11.233000	24.398942	0.000538	20.733750
586.146952	-2.991300	3.753400	-11.226000	24.337469	0.000537	20.757904
587.148274	-3.015100	3.753400	-11.316000	24.354485	0.000538	20.761698
588.148622	-3.003600	3.753000	-11.272000	24.368960	0.000537	20.744924
589.149217	-2.993900	3.753700	-11.237000	24.380530	0.000538	20.757954
590.149837	-3.022400	3.751300	-11.337000	24.380176	0.000538	20.763289
591.151793	-2.987000	3.751200	-11.204000	24.392243	0.000539	20.760696
592.151341	-3.006700	3.752100	-11.280000	24.417934	0.000538	20.729095
593.150713	-3.046800	3.749900	-11.423000	24.423877	0.000539	20.746437
594.158825	-2.996200	3.750200	-11.236000	24.435614	0.000540	20.746833
595.151557	-2.988300	3.750900	-11.208000	24.428274	0.000540	20.769342
596.151995	-2.966000	3.750700	-11.124000	24.435318	0.000537	20.761710
597.159294	-3.003500	3.750800	-11.264000	24.447849	0.000536	20.742038
598.152078	-3.004100	3.750400	-11.265000	24.413368	0.000537	20.733523
599.154414	-2.995500	3.750200	-11.233000	24.421004	0.000540	20.757306
600.152554	-2.971500	3.750300	-11.143000	24.426523	0.000538	20.750989
601.155618	-2.999900	3.749400	-11.247000	24.430732	0.000540	20.754263
602.154887	-3.003100	3.749000	-11.256000	24.422545	0.000537	20.734670
603.153484	-3.005500	3.747300	-11.262000	24.455349	0.000537	20.735812
604.153764	-2.990800	3.747900	-11.209000	24.420527	0.000537	20.757302
605.153594	-2.999700	3.748000	-11.242000	24.387110	0.000535	20.733259
606.154251	-2.972000	3.747500	-11.137000	24.389530	0.000536	20.729998
607.154533	-2.980300	3.747800	-11.169000	24.427608	0.000536	20.735008
608.154064	-3.004000	3.746400	-11.253000	24.396517	0.000538	20.744120
609.153995	-3.007300	3.746900	-11.267000	24.418727	0.000534	20.745538
610.155048	-3.001400	3.745800	-11.242000	24.462997	0.000535	20.746804
611.154474	-2.985100	3.746100	-11.182000	24.497699	0.000537	20.727091
612.155435	-2.995400	3.745800	-11.220000	24.491756	0.000535	20.731561
613.155837	-3.022500	3.745000	-11.318000	24.483841	0.000537	20.735474
614.153626	-3.016200	3.744800	-11.294000	24.484560	0.000536	20.743782
615.154806	-2.988500	3.744700	-11.190000	24.501775	0.000536	20.739716
616.155594	-2.982000	3.746700	-11.172000	24.510607	0.000535	20.760432
617.155916	-3.003600	3.744600	-11.247000	24.517346	0.000535	20.736847
618.158157	-2.994500	3.744000	-11.211000	24.483591	0.000535	20.738067
619.156611	-3.010400	3.744600	-11.272000	24.465188	0.000535	20.719603
620.156282	-3.011300	3.744100	-11.274000	24.506053	0.000537	20.737844
621.160878	-3.006300	3.743000	-11.252000	24.471381	0.000535	20.723446
622.157564	-3.018800	3.742700	-11.297000	24.502618	0.000535	20.724440
623.157535	-3.038000	3.743000	-11.370000	24.504311	0.000535	20.727561
624.161324	-3.000700	3.743500	-11.232000	24.456800	0.000536	20.724464
625.158679	-3.004900	3.743000	-11.246000	24.445880	0.000537	20.731053
626.159368	-2.998700	3.743400	-11.223000	24.461703	0.000534	20.742186
627.162119	-2.982500	3.743700	-11.164000	24.462327	0.000535	20.734278
628.161015	-3.015300	3.742600	-11.285000	24.473695	0.000532	20.729561
629.161308	-2.991400	3.741700	-11.192000	24.430436	0.000534	20.712239
630.161674	-2.997700	3.741600	-11.215000	24.468792	0.000537	20.730806
631.162519	-2.973300	3.742900	-11.128000	24.495611	0.000534	20.726419
632.160973	-2.995800	3.741200	-11.206000	24.494592	0.000533	20.738199
633.164386	-2.995500	3.741500	-11.207000	24.467304	0.000535	20.751125
634.162561	-3.014700	3.742000	-11.279000	24.483274	0.000534	20.712618
635.162372	-3.008700	3.739900	-11.250000	24.508597	0.000533	20.707678
636.162036	-2.995500	3.741200	-11.205000	24.514917	0.000534	20.724452
637.163459	-2.996300	3.740300	-11.206000	24.521110	0.000534	20.719760
638.164162	-3.013900	3.739500	-11.269000	24.569021	0.000533	20.724683
639.163122	-3.006700	3.739300	-11.242000	24.526560	0.000533	20.736133
640.162231	-2.991300	3.738900	-11.182000	24.502334	0.000536	20.705188
641.165971	-2.991500	3.739800	-11.186000	24.533110	0.000534	20.723264
642.164537	-2.974600	3.739900	-11.124000	24.518682	0.000534	20.722065
643.164793	-2.958400	3.739600	-11.062000	24.479506	0.000532	20.722114
644.167218	-3.010400	3.737300	-11.250000	24.454013	0.000532	20.720720
645.168134	-2.988200	3.738700	-11.171000	24.473966	0.000533	20.709917
646.164528	-2.992000	3.737700	-11.182000	24.472667	0.000532	20.709563
647.166024	-2.995400	3.737800	-11.195000	24.463790	0.000535	20.712511
648.168216	-3.027800	3.735000	-11.308000	24.472203	0.000533	20.706726
649.166441	-3.016200	3.736600	-11.269000	24.473370	0.000534	20.731132
650.167353	-2.996100	3.737000	-11.195000	24.455814	0.000531	20.716362
651.170573	-2.977300	3.737800	-11.128000	24.494066	0.000532	20.720601
652.167983	-2.988100	3.736200	-11.163000	24.495311	0.000534	20.704779
653.170666	-3.003300	3.737000	-11.222000	24.549683	0.000533	20.708124
654.169354	-3.011700	3.735200	-11.248000	24.499117	0.000532	20.700536
655.167578	-2.993700	3.735600	-11.182000	24.524291	0.000531	20.722477
656.168832	-3.007800	3.735700	-11.235000	24.512551	0.000533	20.744363
657.173522	-2.991100	3.736100	-11.175000	24.538493	0.000532	20.725821
658.172152	-3.014600	3.734700	-11.257000	24.586050	0.000532	20.718535
659.171175	-2.993100	3.735600	-11.180000	24.607734	0.000531	20.727017
660.172974	-3.007600	3.734800	-11.231000	24.575354	0.000534	20.702112
661.171850	-3.005300	3.733200	-11.218000	24.532847	0.000531	20.715414
662.172797	-3.014500	3.733900	-11.254000	24.516179	0.000534	20.732831
663.174082	-3.001000	3.734100	-11.205000	24.563269	0.000532	20.718436
664.173851	-3.011800	3.733300	-11.243000	24.588142	0.000534	20.716840
665.172304	-3.013600	3.734600	-11.254000	24.597490	0.000532	20.718160
666.180940	-2.991100	3.732600	-11.164000	24.611046	0.000531	20.708053
667.173399	-3.003400	3.733300	-11.211000	24.622934	0.000532	20.719034
668.174044	-3.019900	3.732300	-11.270000	24.608807	0.000531	20.724299
669.179574	-2.991800	3.731800	-11.163000	24.607167	0.000531	20.717438
670.177474	-2.993300	3.731200	-11.168000	24.606173	0.000532	20.730192
671.173081	-2.978800	3.732900	-11.119000	24.599212	0.000531	20.738855
672.176852	-2.990100	3.732200	-11.159000	24.632487	0.000531	20.712973
673.174578	-2.987600	3.730700	-11.145000	24.648948	0.000530	20.715739
674.175339	-2.995100	3.731700	-11.176000	24.626468	0.000530	20.725425
675.176472	-2.995700	3.731200	-11.177000	24.647058	0.000531	20.721430
676.175566	-3.038300	3.729000	-11.328000	24.629775	0.000531	20.707880
677.177090	-3.009900	3.729400	-11.224000	24.637504	0.000529	20.718007
678.177548	-3.016900	3.730500	-11.253000	24.638548	0.000533	20.701035
679.177218	-2.993900	3.728700	-11.161000	24.632508	0.000530	20.693077
680.176738	-2.977300	3.729600	-11.103000	24.635742	0.000532	20.738525
681.176684	-2.973600	3.730100	-11.091000	24.637508	0.000530	20.727495
682.177732	-3.003200	3.729000	-11.198000	24.609275	0.000528	20.694421
683.177890	-2.989700	3.728300	-11.145000	24.620444	0.000528	20.713690
684.177224	-3.015900	3.728300	-11.243000	24.590476	0.000528	20.702586
685.177926	-2.993500	3.729800	-11.164000	24.575350	0.000528	20.727239
686.180396	-2.966200	3.728500	-11.059000	24.603925	0.000527	20.711814
687.179671	-2.984900	3.728500	-11.128000	24.600543	0.000530	20.716482
688.179716	-2.988100	3.729200	-11.142000	24.622954	0.000529	20.724271
689.179310	-2.993000	3.727800	-11.156000	24.649811	0.000529	20.722295
690.180115	-3.002100	3.726200	-11.185000	24.627749	0.000528	20.698260
691.180303	-2.990300	3.727700	-11.146000	24.632274	0.000529	20.717974
692.179511	-3.009100	3.725500	-11.210000	24.631628	0.000530	20.723965
693.180079	-2.990200	3.727700	-11.146000	24.648364	0.000528	20.704247
694.179681	-2.998700	3.726600	-11.174000	24.647251	0.000528	20.711665
695.179188	-3.002200	3.727300	-11.190000	24.681441	0.000525	20.711835
696.179280	-2.981700	3.727000	-11.112000	24.692958	0.000526	20.713909
697.182198	-3.004400	3.726400	-11.195000	24.723893	0.000529	20.725037
698.179334	-3.008700	3.725500	-11.207000	24.691109	0.000527	20.714424
699.179687	-3.006400	3.724500	-11.197000	24.677858	0.000527	20.729103
700.181186	-3.003000	3.724100	-11.183000	24.640582	0.000526	20.736269
701.178938	-2.979200	3.723600	-11.093000	24.647218	0.000526	20.724910
702.181714	-3.001900	3.723500	-11.177000	24.631978	0.000525	20.739964
703.183025	-2.997700	3.724700	-11.165000	24.649585	0.000525	20.723017
704.181611	-2.992500	3.723100	-11.141000	24.628025	0.000526	20.729359
705.181591	-3.006300	3.722600	-11.191000	24.633617	0.000526	20.724539
706.182619	-3.007000	3.723300	-11.195000	24.651224	0.000525	20.721343
707.180533	-2.995600	3.723500	-11.154000	24.695768	0.000525	20.724790
708.185021	-2.995600	3.722100	-11.149000	24.713670	0.000523	20.737539
709.183674	-3.025400	3.720400	-11.255000	24.719640	0.000526	20.728831
710.182438	-2.981600	3.723400	-11.100000	24.697905	0.000525	20.737366
711.183195	-2.997700	3.721500	-11.155000	24.680919	0.000523	20.742133
712.181029	-2.991400	3.720100	-11.127000	24.692510	0.000526	20.714882
713.183022	-3.008500	3.721300	-11.195000	24.688430	0.000526	20.726909
714.182842	-3.013600	3.721200	-11.213000	24.702310	0.000524	20.710965
715.182355	-2.987400	3.721400	-11.117000	24.722253	0.000524	20.743782
716.182802	-2.972200	3.721800	-11.060000	24.699347	0.000525	20.720795
717.186294	-3.006400	3.720100	-11.184000	24.694951	0.000522	20.721124
718.184681	-3.002200	3.721500	-11.172000	24.694869	0.000522	20.736690
719.183140	-2.990800	3.720700	-11.127000	24.701858	0.000521	20.726159
720.191475	-2.992200	3.719900	-11.129000	24.651426	0.000523	20.741935
721.181817	-2.994200	3.719700	-11.136000	24.650949	0.000522	20.740034
722.182251	-2.991700	3.719600	-11.126000	24.657667	0.000521	20.751043
723.184122	-2.988600	3.721100	-11.120000	24.711082	0.000521	20.740632
724.184899	-2.996500	3.719700	-11.146000	24.715860	0.000520	20.745901
725.183215	-3.006200	3.718400	-11.177000	24.689868	0.000522	20.724085
726.184175	-3.011200	3.717100	-11.192000	24.677809	0.000521	20.740434
727.183678	-2.989700	3.718000	-11.115000	24.698398	0.000521	20.733593
728.188040	-2.999700	3.717100	-11.149000	24.742542	0.000521	20.758927
729.183850	-2.992700	3.716200	-11.121000	24.752764	0.000520	20.749270
730.183182	-2.994800	3.718500	-11.136000	24.715684	0.000522	20.753785
731.187120	-3.026100	3.717700	-11.249000	24.691039	0.000520	20.755133
732.183502	-3.028400	3.716500	-11.253000	24.698998	0.000516	20.746524
733.185672	-3.014400	3.716000	-11.201000	24.688011	0.000521	20.750672
734.187879	-3.008900	3.717000	-11.183000	24.686117	0.000521	20.737865
735.184485	-3.010100	3.714600	-11.181000	24.691816	0.000518	20.744058
736.185158	-2.979800	3.716100	-11.072000	24.702137	0.000520	20.740665
737.188549	-3.006600	3.714400	-11.167000	24.694400	0.000520	20.758506
738.183868	-2.993600	3.716200	-11.124000	24.672993	0.000520	20.747456
739.183939	-3.011400	3.715800	-11.189000	24.665877	0.000520	20.737469
740.187335	-3.009200	3.714600	-11.177000	24.684901	0.000519	20.757034
741.184438	-3.040000	3.713400	-11.288000	24.735685	0.000520	20.718378
742.186082	-3.013800	3.713500	-11.191000	24.758261	0.000518	20.750045
743.186955	-3.029100	3.714000	-11.249000	24.733022	0.000518	20.733251
744.183625	-3.001700	3.714800	-11.150000	24.734937	0.000519	20.736595
745.184588	-3.021300	3.713700	-11.219000	24.742595	0.000518	20.745229
746.189013	-3.019200	3.712600	-11.207000	24.795164	0.000517	20.758156
747.183677	-2.980700	3.713400	-11.067000	24.793578	0.000517	20.747555
748.186719	-2.993400	3.713400	-11.115000	24.805513	0.000518	20.757636
749.188963	-3.016300	3.712700	-11.198000	24.805735	0.000517	20.764971
750.185277	-3.003600	3.712500	-11.150000	24.805862	0.000518	20.742813
751.192219	-2.991200	3.712300	-11.103000	24.783779	0.000515	20.751472
752.187563	-3.001600	3.712000	-11.141000	24.752842	0.000515	20.767841
753.187783	-3.003900	3.712000	-11.150000	24.713428	0.000516	20.750099
754.184810	-2.994100	3.712800	-11.116000	24.696989	0.000517	20.749249
755.187830	-2.995300	3.712000	-11.118000	24.770024	0.000518	20.738141
756.186780	-2.991600	3.712000	-11.104000	24.789116	0.000515	20.766785
757.184577	-3.009000	3.710900	-11.164000	24.825426	0.000515	20.741584
758.188859	-3.006500	3.711500	-11.157000	24.865378	0.000515	20.747542
759.185124	-3.008200	3.710500	-11.161000	24.841834	0.000513	20.751414
760.185430	-3.004200	3.710900	-11.148000	24.843498	0.000518	20.757352
761.193458	-2.983200	3.710300	-11.068000	24.867342	0.000516	20.781282
762.187397	-2.990900	3.709200	-11.093000	24.837056	0.000514	20.768905
763.186019	-2.978600	3.709000	-11.046000	24.791400	0.000515	20.747740
764.186112	-2.995000	3.709400	-11.108000	24.778344	0.000516	20.774941
765.194623	-2.998200	3.709400	-11.121000	24.798857	0.000516	20.784148
766.187981	-3.011100	3.708300	-11.165000	24.825344	0.000514	20.762840
767.190359	-3.009500	3.708500	-11.160000	24.846255	0.000515	20.757273
768.187077	-2.994200	3.708600	-11.103000	24.819522	0.000514	20.766480
769.187294	-2.981100	3.709700	-11.059000	24.815093	0.000512	20.758242
770.190834	-3.001600	3.707100	-11.126000	24.854233	0.000513	20.762435
771.188665	-2.991200	3.708200	-11.091000	24.850630	0.000514	20.769251
772.188969	-3.012700	3.707300	-11.168000	24.840306	0.000511	20.775959
773.192190	-3.004700	3.707600	-11.139000	24.816116	0.000512	20.777287
774.189366	-3.003800	3.708000	-11.138000	24.820147	0.000513	20.769478
775.190799	-3.002600	3.706600	-11.129000	24.851275	0.000512	20.766105
776.192794	-2.984500	3.706800	-11.062000	24.852372	0.000511	20.759619
777.190956	-2.994200	3.706600	-11.096000	24.854015	0.000511	20.785451
778.190847	-2.985900	3.707600	-11.069000	24.845260	0.000512	20.756750
779.191190	-3.006200	3.706200	-11.141000	24.832956	0.000512	20.770480
780.192350	-3.008500	3.705500	-11.146000	24.813561	0.000511	20.745798
781.190289	-3.000900	3.705800	-11.120000	24.807592	0.000511	20.755929
782.192401	-3.018600	3.705100	-11.184000	24.846633	0.000512	20.775197
783.190294	-3.004100	3.703500	-11.124000	24.871224	0.000510	20.775696
784.191875	-3.000500	3.704000	-11.113000	24.877017	0.000509	20.760172
785.195331	-2.994000	3.705200	-11.092000	24.914342	0.000508	20.755434
786.193726	-2.999400	3.703900	-11.108000	24.886395	0.000510	20.760102
787.191105	-2.992900	3.703600	-11.083000	24.875287	0.000510	20.768394
788.195320	-3.009200	3.704600	-11.147000	24.864766	0.000509	20.791974
789.192684	-3.013800	3.702100	-11.157000	24.848757	0.000509	20.780648
790.192739	-3.000000	3.703200	-11.109000	24.868422	0.000509	20.777625
791.196019	-2.986600	3.703300	-11.059000	24.865518	0.000509	20.767124
792.192962	-2.994700	3.703100	-11.089000	24.902195	0.000508	20.766002
793.194137	-2.988800	3.702100	-11.064000	24.883277	0.000509	20.747963
794.195665	-3.008300	3.701000	-11.133000	24.928005	0.000509	20.766303
795.193020	-2.988300	3.702700	-11.063000	24.900108	0.000508	20.774339
796.193925	-3.018500	3.701500	-11.172000	24.859405	0.000507	20.772368
797.198065	-2.999300	3.701300	-11.101000	24.849311	0.000507	20.775040
798.194631	-3.006900	3.700900	-11.128000	24.883873	0.000508	20.781278
799.195849	-3.007500	3.701500	-11.132000	24.902302	0.000507	20.787921
800.199675	-2.986000	3.700800	-11.050000	24.919584	0.000507	20.765437
801.196035	-2.993600	3.700700	-11.077000	24.933954	0.000508	20.807361
802.195964	-3.002700	3.701800	-11.113000	24.895840	0.000507	20.777168
803.199420	-2.991100	3.700400	-11.068000	24.853424	0.000507	20.798608
804.195860	-3.011000	3.699200	-11.138000	24.814560	0.000504	20.781415
805.194765	-3.010200	3.699100	-11.135000	24.813639	0.000507	20.778594
806.202439	-2.999600	3.699500	-11.096000	24.836518	0.000504	20.790650
807.194893	-3.020100	3.698700	-11.170000	24.865461	0.000507	20.766592
808.196921	-3.004700	3.698800	-11.113000	24.928642	0.000503	20.787331
809.199675	-3.004600	3.697700	-11.108000	24.925586	0.000505	20.781419
810.196164	-3.000100	3.698600	-11.095000	24.961616	0.000503	20.780598
811.195206	-3.016000	3.698500	-11.153000	24.954082	0.000505	20.806702
812.199612	-3.001700	3.697300	-11.098000	24.934344	0.000505	20.800641
813.197780	-3.021300	3.697400	-11.170000	24.941204	0.000503	20.795198
814.198113	-2.990400	3.699300	-11.062000	24.942055	0.000505	20.784198
815.200617	-2.995000	3.697000	-11.071000	24.968854	0.000504	20.785493
816.200037	-3.015300	3.698000	-11.150000	24.986932	0.000503	20.789414
817.201602	-3.026000	3.696200	-11.183000	24.956025	0.000501	20.802014
818.203269	-3.001300	3.696100	-11.091000	24.896502	0.000503	20.785418
819.201941	-2.992700	3.696700	-11.063000	24.877305	0.000503	20.780376
820.201241	-2.965800	3.698100	-10.966000	24.889514	0.000501	20.784095
821.205775	-3.025000	3.695400	-11.178000	24.874367	0.000502	20.798291
822.206813	-2.995200	3.695100	-11.067000	24.927278	0.000500	20.807299
823.202665	-2.990800	3.696300	-11.054000	24.982426	0.000504	20.807650
824.204635	-2.982400	3.697400	-11.025000	24.972428	0.000502	20.788131
825.201376	-2.988200	3.695500	-11.041000	25.001469	0.000501	20.821549
826.204883	-3.008500	3.694000	-11.112000	25.000347	0.000501	20.805250
827.208210	-3.007900	3.694900	-11.113000	24.979509	0.000500	20.791920
828.204557	-3.008700	3.694100	-11.114000	24.982816	0.000501	20.787653
829.208887	-2.996800	3.695200	-11.073000	24.967124	0.000500	20.798929
830.207618	-3.015200	3.694000	-11.136000	24.959841	0.000500	20.813904
831.207581	-2.996800	3.694200	-11.069000	24.959743	0.000503	20.825185
832.205544	-3.006500	3.693000	-11.102000	24.929681	0.000498	20.812082
833.209179	-2.992000	3.694000	-11.052000	24.917050	0.000499	20.806516
834.205859	-3.002400	3.692900	-11.087000	24.931394	0.000497	20.798628
835.206017	-2.992600	3.692000	-11.048000	24.959960	0.000500	20.810705
836.208725	-3.002100	3.692100	-11.083000	24.961673	0.000499	20.812898
837.207336	-3.018800	3.691800	-11.143000	24.925824	0.000498	20.793512
838.205321	-3.012300	3.691400	-11.118000	24.911828	0.000498	20.826405
839.209835	-3.017700	3.691200	-11.138000	24.923885	0.000499	20.821437
840.208266	-2.993000	3.690800	-11.045000	24.964360	0.000498	20.798051
841.207762	-3.014400	3.689800	-11.122000	24.984849	0.000497	20.793013
842.212565	-2.997600	3.691700	-11.065000	24.999990	0.000497	20.816271
843.211123	-3.005000	3.690900	-11.089000	24.979673	0.000499	20.827646
844.212233	-3.022000	3.689600	-11.149000	25.016149	0.000495	20.823956
845.214234	-3.016100	3.689600	-11.127000	25.008094	0.000497	20.828199
846.209538	-2.972300	3.690800	-10.969000	24.999764	0.000495	20.792337
847.211677	-2.999500	3.690100	-11.067000	24.985593	0.000496	20.814622
848.215542	-2.997100	3.690700	-11.060000	25.012691	0.000496	20.823804
849.211341	-3.000200	3.689300	-11.068000	25.013389	0.000494	20.816918
850.211446	-3.015800	3.689800	-11.127000	25.040363	0.000497	20.827399
851.213553	-3.001800	3.689800	-11.075000	25.019805	0.000497	20.827626
852.216478	-2.988900	3.689800	-11.027000	25.042976	0.000495	20.826228
853.212753	-2.978100	3.688700	-10.985000	25.013438	0.000497	20.829295
854.211962	-2.987500	3.689100	-11.019000	25.009339	0.000494	20.828500
855.213134	-3.010900	3.688000	-11.104000	25.030842	0.000493	20.818790
856.214311	-3.010200	3.688100	-11.101000	25.029026	0.000494	20.814123
857.213878	-3.024200	3.687500	-11.151000	25.036038	0.000493	20.814997
858.213786	-2.990700	3.688200	-11.029000	24.998499	0.000493	20.817145
859.213970	-2.992200	3.687300	-11.032000	24.972468	0.000492	20.846966
860.212520	-2.999600	3.686000	-11.056000	24.989450	0.000491	20.832717
861.213830	-2.991200	3.686800	-11.028000	24.985248	0.000494	20.827551
862.213564	-2.999700	3.686300	-11.057000	25.034547	0.000493	20.841000
863.213657	-3.007100	3.685700	-11.081000	25.021444	0.000491	20.825003
864.216147	-3.020100	3.685500	-11.130000	25.030941	0.000492	20.816992
865.214487	-3.015300	3.685100	-11.111000	25.037184	0.000492	20.824208
866.214342	-3.008200	3.685700	-11.086000	25.027766	0.000491	20.820918
867.214340	-3.004800	3.685000	-11.071000	25.011183	0.000494	20.809963
868.216840	-2.993300	3.684300	-11.027000	24.991389	0.000490	20.840827
869.216479	-3.023600	3.683900	-11.137000	25.023116	0.000492	20.845173
870.215634	-3.029400	3.685200	-11.163000	25.011081	0.000491	20.816024
871.215707	-3.020800	3.683600	-11.126000	24.981345	0.000490	20.836436
872.215745	-2.999000	3.684500	-11.049000	24.958675	0.000490	20.851139
873.216358	-3.030900	3.682900	-11.161000	24.999444	0.000491	20.843223
874.215681	-2.984500	3.685100	-10.997000	24.990596	0.000489	20.839083
875.215186	-2.963200	3.685200	-10.919000	24.980446	0.000489	20.841223
876.216718	-2.992700	3.683900	-11.024000	24.972247	0.000490	20.834416
877.217010	-3.008700	3.683000	-11.080000	25.015558	0.000488	20.862716
878.218159	-3.009000	3.681600	-11.077000	24.994404	0.000488	20.835319
879.218725	-2.993100	3.682100	-11.020000	25.028936	0.000488	20.832998
880.221233	-2.998900	3.681900	-11.041000	25.018589	0.000489	20.845371
881.218302	-3.003900	3.681300	-11.057000	24.985178	0.000488	20.832223
882.217895	-2.992200	3.681500	-11.015000	24.988784	0.000488	20.846274
883.218736	-3.013800	3.680500	-11.092000	24.999600	0.000489	20.854285
884.219379	-2.997000	3.680800	-11.030000	24.986398	0.000486	20.851464
885.220006	-3.024700	3.679000	-11.127000	25.029832	0.000486	20.837690
886.221254	-3.005100	3.680900	-11.060000	25.065287	0.000487	20.847201
887.220328	-2.991800	3.680100	-11.009000	25.067398	0.000486	20.841734
888.222096	-3.003500	3.679900	-11.052000	25.077987	0.000487	20.845251
889.222977	-3.006800	3.679700	-11.063000	25.098848	0.000488	20.875674
890.221983	-3.006800	3.678800	-11.060000	25.109408	0.000485	20.858300
891.222202	-2.991400	3.680600	-11.010000	25.093550	0.000485	20.858502
892.221327	-3.028000	3.678300	-11.136000	25.072245	0.000487	20.863194
893.221906	-3.019600	3.678500	-11.107000	25.090790	0.000483	20.865688
894.221253	-3.001800	3.680700	-11.048000	25.024213	0.000487	20.861920
895.221515	-2.984500	3.678600	-10.978000	25.021526	0.000486	20.866810
896.224177	-2.988100	3.678000	-10.989000	25.073412	0.000484	20.852038
897.221422	-2.986300	3.678200	-10.983000	25.124843	0.000485	20.870949
898.222481	-3.001400	3.677600	-11.037000	25.146569	0.000484	20.852932
899.232143	-3.001900	3.677800	-11.039000	25.117930	0.000483	20.855002
900.221664	-3.010300	3.677900	-11.070000	25.080587	0.000483	20.858292
901.222323	-3.009900	3.678500	-11.071000	25.122526	0.000482	20.849184
902.224010	-2.992100	3.676200	-10.999000	25.105469	0.000484	20.849605
903.223082	-3.003900	3.675700	-11.040000	25.090748	0.000484	20.837673
904.224611	-3.002100	3.676600	-11.037000	25.075116	0.000481	20.852800
905.224561	-3.009400	3.676100	-11.062000	25.047095	0.000482	20.853596
906.225674	-3.005400	3.675700	-11.046000	25.070885	0.000481	20.857562
907.227186	-3.012800	3.674500	-11.069000	25.045719	0.000482	20.847473
908.224523	-3.020100	3.673900	-11.094000	25.021608	0.000481	20.843185
909.225115	-2.996200	3.674200	-11.007000	25.050964	0.000477	20.834721
910.226042	-2.986700	3.674100	-10.973000	25.042433	0.000479	20.833270
911.226602	-2.985600	3.673400	-10.966000	25.091208	0.000479	20.849988
912.227085	-3.005100	3.674900	-11.042000	25.086140	0.000477	20.834944
913.227694	-3.009100	3.674800	-11.056000	25.094691	0.000480	20.851114
914.228583	-3.004000	3.674200	-11.036000	25.110525	0.000477	20.867007
915.228471	-2.984400	3.673400	-10.962000	25.095234	0.000480	20.827003
916.228964	-2.998800	3.671400	-11.009000	25.097398	0.000477	20.829176
917.231498	-2.990300	3.673300	-10.983000	25.105949	0.000477	20.823535
918.229956	-2.999400	3.671600	-11.012000	25.089196	0.000478	20.850339
919.228657	-3.021500	3.672600	-11.096000	25.068688	0.000476	20.832598
920.230006	-2.993100	3.673100	-10.994000	25.071345	0.000475	20.849015
921.240876	-3.002100	3.672400	-11.024000	25.126633	0.000477	20.833868
922.230175	-3.000700	3.671400	-11.016000	25.137842	0.000479	20.844171
923.231831	-2.987900	3.670500	-10.967000	25.131652	0.000476	20.813302
924.232029	-2.999200	3.671200	-11.010000	25.137870	0.000479	20.836139
925.232305	-3.022400	3.669400	-11.090000	25.128026	0.000477	20.860868
926.231079	-2.997500	3.671400	-11.004000	25.150023	0.000475	20.843598
927.233019	-3.017400	3.670100	-11.073000	25.154278	0.000478	20.823688
928.232014	-3.005300	3.671200	-11.032000	25.157806	0.000477	20.830075
929.233965	-2.980800	3.669900	-10.938000	25.179232	0.000474	20.830722
930.234414	-2.992900	3.669600	-10.981000	25.147514	0.000475	20.825906
931.235196	-3.007400	3.669300	-11.035000	25.192112	0.000474	20.832272
932.235183	-3.018700	3.670100	-11.079000	25.216946	0.000477	20.812634
933.233420	-3.008600	3.669200	-11.038000	25.233328	0.000475	20.816279
934.234054	-3.020800	3.667800	-11.079000	25.210827	0.000474	20.830198
935.233860	-3.013200	3.667200	-11.049000	25.216790	0.000471	20.812952
936.235207	-2.996200	3.668600	-10.991000	25.234363	0.000474	20.825853
937.236006	-2.984500	3.669300	-10.950000	25.164911	0.000474	20.810181
938.235139	-3.010800	3.668600	-11.045000	25.131771	0.000473	20.815318
939.241078	-3.001600	3.668300	-11.009000	25.167548	0.000475	20.821837
940.236927	-3.029000	3.667300	-11.107000	25.165749	0.000474	20.819083
941.237278	-3.001300	3.666700	-11.004000	25.173031	0.000473	20.822600
942.238812	-3.002500	3.667000	-11.010000	25.164624	0.000472	20.824117
943.236679	-3.010600	3.666800	-11.038000	25.154956	0.000473	20.831006
944.238849	-3.003800	3.667200	-11.015000	25.127980	0.000473	20.827160
945.239605	-3.026500	3.665800	-11.093000	25.153284	0.000471	20.832173
946.238466	-2.984300	3.666600	-10.941000	25.186194	0.000470	20.800253
947.238392	-2.978500	3.665700	-10.917000	25.198227	0.000469	20.819445
948.239501	-2.998900	3.665400	-10.992000	25.170357	0.000471	20.815174
949.239686	-2.999100	3.665100	-10.991000	25.139829	0.000470	20.815821
950.242978	-3.006000	3.665100	-11.016000	25.127446	0.000470	20.805287
951.240993	-2.999900	3.664600	-10.992000	25.099300	0.000468	20.809274
952.244025	-3.022100	3.664000	-11.072000	25.073050	0.000467	20.841718
953.240622	-2.994500	3.663300	-10.969000	25.041074	0.000469	20.827638
954.245311	-3.006500	3.663400	-11.013000	25.026307	0.000468	20.795272
955.242702	-3.001500	3.663100	-10.993000	25.033688	0.000468	20.789879
956.241939	-3.003600	3.663100	-11.002000	25.043805	0.000467	20.797189
957.242207	-3.006700	3.663000	-11.013000	25.067320	0.000467	20.799457
958.241857	-2.993100	3.661800	-10.959000	25.115893	0.000467	20.799853
959.243099	-2.990200	3.662600	-10.952000	25.094236	0.000465	20.815096
960.251834	-2.991000	3.662400	-10.954000	25.151366	0.000465	20.816972
961.243231	-3.000800	3.661600	-10.987000	25.136499	0.000465	20.806314
962.244989	-2.983700	3.662400	-10.926000	25.184974	0.000467	20.817046
963.242202	-2.989200	3.661800	-10.944000	25.140031	0.000464	20.815549
964.242241	-2.982700	3.661300	-10.919000	25.202424	0.000464	20.818918
965.243091	-3.009300	3.659500	-11.011000	25.170357	0.000464	20.827976
966.244799	-2.987900	3.661300	-10.939000	25.145000	0.000463	20.810107
967.241477	-3.008600	3.660700	-11.013000	25.175454	0.000462	20.826929
968.241773	-2.996300	3.661300	-10.969000	25.192128	0.000465	20.814745
969.243445	-3.022300	3.660500	-11.063000	25.200009	0.000463	20.820287
970.246475	-3.000200	3.659500	-10.978000	25.254424	0.000463	20.818493
971.243294	-2.994200	3.660500	-10.959000	25.245870	0.000462	20.794258
972.243961	-2.999600	3.657700	-10.971000	25.203467	0.000464	20.804318
973.245192	-2.985400	3.659900	-10.924000	25.218954	0.000462	20.796159
974.244462	-2.990500	3.658000	-10.937000	25.211344	0.000461	20.806536
975.246173	-2.986700	3.659800	-10.930000	25.232494	0.000461	20.794105
976.244751	-2.987800	3.658900	-10.931000	25.268489	0.000460	20.808907
977.251741	-3.021800	3.656900	-11.049000	25.253927	0.000459	20.816572
978.245754	-3.008200	3.657600	-11.001000	25.221985	0.000460	20.797305
979.246218	-3.024900	3.656300	-11.059000	25.223677	0.000460	20.801849
980.245729	-3.002300	3.655700	-10.975000	25.236453	0.000460	20.795709
981.244921	-2.996800	3.656600	-10.957000	25.166131	0.000459	20.799552
982.245703	-3.007400	3.655900	-10.993000	25.176296	0.000455	20.792687
983.245677	-2.993900	3.656100	-10.945000	25.181068	0.000459	20.806961
984.245221	-2.992000	3.656100	-10.938000	25.176719	0.000459	20.799276
985.246255	-2.999300	3.655700	-10.963000	25.179951	0.000457	20.801572
986.245852	-3.013000	3.654600	-11.010000	25.229394	0.000457	20.784828
987.247100	-3.010500	3.655100	-11.003000	25.263722	0.000458	20.785628
988.244747	-3.009600	3.654900	-10.999000	25.264017	0.000457	20.783080
989.245441	-3.017300	3.654100	-11.025000	25.237870	0.000460	20.792390
990.246136	-2.999300	3.654400	-10.960000	25.236273	0.000455	20.788890
991.246921	-3.029900	3.654200	-11.071000	25.283799	0.000456	20.783501
992.245086	-3.012300	3.653700	-11.005000	25.265677	0.000456	20.805135
993.248313	-2.990000	3.652700	-10.920000	25.262399	0.000457	20.781456
994.246929	-2.968600	3.654500	-10.848000	25.267590	0.000455	20.784771
995.248495	-2.968800	3.654100	-10.847000	25.228642	0.000456	20.794031
996.248849	-3.007700	3.652500	-10.985000	25.208260	0.000455	20.799173
997.247789	-2.999800	3.653700	-10.960000	25.243381	0.000455	20.803139
998.249558	-3.021600	3.652100	-11.034000	25.197274	0.000454	20.769651
999.259559	-3.009700	3.652600	-10.993000	25.168686	0.000451	20.802591
1000.250561	-2.997800	3.652600	-10.949000	25.149297	0.000456	20.786445
1001.249563	-2.989700	3.650900	-10.915000	25.196182	0.000454	20.789892
1002.252247	-2.988700	3.651300	-10.913000	25.237069	0.000452	20.797750
1003.250448	-2.987500	3.650400	-10.904000	25.261401	0.000455	20.800843
1004.250102	-2.972700	3.652000	-10.855000	25.307013	0.000454	20.783101
1005.254660	-2.979400	3.651700	-10.879000	25.291577	0.000454	20.779930
1006.253096	-3.005400	3.649100	-10.966000	25.257328	0.000451	20.771622
1007.251964	-2.987400	3.649800	-10.902000	25.224864	0.000452	20.775065
1008.254063	-3.005300	3.650500	-10.970000	25.211119	0.000451	20.795878
1009.251199	-2.991400	3.650100	-10.917000	25.220737	0.000451	20.794155
1010.251210	-2.996100	3.648300	-10.930000	25.261878	0.000452	20.789467
1011.250755	-3.010800	3.649200	-10.986000	25.291182	0.000450	20.776689
1012.251986	-3.017000	3.647600	-11.004000	25.314347	0.000449	20.793310
1013.252320	-3.002800	3.648300	-10.954000	25.359160	0.000453	20.778561
1014.254462	-3.005800	3.647500	-10.962000	25.341289	0.000449	20.777687
1015.254114	-3.020500	3.648300	-11.019000	25.312930	0.000449	20.783827
1016.252076	-3.015100	3.647500	-10.997000	25.316010	0.000449	20.770797
1017.255992	-2.969500	3.649200	-10.835000	25.305945	0.000448	20.789141
1018.257875	-3.010300	3.646900	-10.977000	25.277939	0.000447	20.780936
1019.254544	-3.005200	3.645900	-10.956000	25.234342	0.000446	20.777943
1020.256860	-3.013200	3.646100	-10.985000	25.232248	0.000445	20.787694
1021.253665	-3.004800	3.646800	-10.956000	25.286066	0.000445	20.770604
1022.263024	-2.976000	3.646900	-10.852000	25.262280	0.000448	20.774224
1023.256921	-3.012400	3.644100	-10.977000	25.283207	0.000445	20.774372
1024.256830	-2.968400	3.646000	-10.821000	25.244281	0.000445	20.768006
1025.256822	-3.004200	3.646200	-10.953000	25.270185	0.000446	20.755608
1026.260905	-3.013300	3.644300	-10.980000	25.253406	0.000445	20.779064
1027.256745	-2.996000	3.644900	-10.919000	25.274115	0.000442	20.766666
1028.258797	-3.029600	3.642700	-11.034000	25.297724	0.000443	20.784680
1029.261946	-2.998000	3.643000	-10.921000	25.324318	0.000444	20.762069
1030.259395	-2.997600	3.642500	-10.917000	25.321854	0.000444	20.765285
1031.266957	-3.002600	3.643900	-10.940000	25.307740	0.000442	20.764390
1032.259094	-3.001900	3.642800	-10.934000	25.326436	0.000442	20.773205
1033.259252	-2.983000	3.643300	-10.867000	25.365307	0.000442	20.780466
1034.259954	-2.981700	3.642500	-10.860000	25.375121	0.000441	20.767561
1035.259938	-3.037000	3.641600	-11.059000	25.335606	0.000442	20.751117
1036.258448	-2.992800	3.641800	-10.899000	25.297129	0.000439	20.763219
1037.261529	-2.987100	3.643800	-10.884000	25.288456	0.000439	20.764468
1038.259378	-3.003700	3.641100	-10.936000	25.290768	0.000440	20.752565
1039.258871	-3.002400	3.641700	-10.932000	25.282493	0.000439	20.774603
1040.259260	-3.010000	3.641100	-10.958000	25.304262	0.000440	20.765017
1041.259162	-3.009600	3.641500	-10.959000	25.279409	0.000439	20.751591
1042.257227	-3.001400	3.640900	-10.927000	25.281298	0.000440	20.765342
1043.261136	-2.992300	3.640600	-10.892000	25.224125	0.000439	20.763417
1044.260026	-2.994400	3.639500	-10.897000	25.258654	0.000440	20.751616
1045.263071	-2.982000	3.640100	-10.853000	25.262580	0.000440	20.780689
1046.262056	-2.995500	3.640400	-10.904000	25.287039	0.000438	20.763994
1047.261606	-2.997200	3.638200	-10.903000	25.254030	0.000438	20.764518
1048.261703	-3.004000	3.638000	-10.928000	25.236950	0.000440	20.759698
1049.262083	-3.016400	3.637700	-10.971000	25.258531	0.000437	20.770459
1050.262216	-2.994300	3.637600	-10.891000	25.275159	0.000438	20.766291
1051.261033	-2.994500	3.637100	-10.890000	25.305925	0.000436	20.768258
1052.262184	-2.991700	3.638600	-10.885000	25.326482	0.000439	20.767561
1053.260340	-3.008600	3.637200	-10.942000	25.348475	0.000437	20.758349
1054.259911	-2.991500	3.637700	-10.881000	25.345293	0.000436	20.750886
1055.260501	-2.993400	3.637900	-10.889000	25.313382	0.000438	20.745398
1056.262050	-3.006800	3.637100	-10.935000	25.300356	0.000438	20.750812
1057.260129	-3.009200	3.636500	-10.942000	25.279027	0.000437	20.757846
1058.260584	-3.007100	3.636300	-10.934000	25.278107	0.000437	20.758820
1059.261367	-2.988000	3.635600	-10.863000	25.290090	0.000434	20.759471
1060.262070	-2.988400	3.633900	-10.859000	25.238962	0.000435	20.751286
1061.260759	-3.003700	3.634100	-10.915000	25.240897	0.000434	20.750383
1062.262331	-2.979900	3.633700	-10.828000	25.235874	0.000434	20.741547
1063.260728	-3.000100	3.633700	-10.900000	25.284320	0.000436	20.753678
1064.260908	-3.015200	3.633700	-10.955000	25.302336	0.000434	20.744265
1065.263447	-3.004100	3.634200	-10.917000	25.323636	0.000435	20.759962
1066.265324	-3.019900	3.634100	-10.973000	25.295552	0.000434	20.754523
1067.271489	-2.999700	3.633700	-10.900000	25.280464	0.000432	20.762135
1068.262144	-3.004100	3.631900	-10.910000	25.284164	0.000433	20.746409
1069.260578	-3.015400	3.632100	-10.951000	25.289634	0.000430	20.743840
1070.263416	-2.988500	3.633100	-10.857000	25.316552	0.000434	20.747633
1071.267806	-2.984400	3.632800	-10.841000	25.320104	0.000433	20.746932
1072.262391	-3.016500	3.631500	-10.953000	25.325024	0.000430	20.761830
1073.262085	-3.004500	3.632500	-10.913000	25.324498	0.000431	20.743758
1074.265237	-3.004900	3.631900	-10.913000	25.383202	0.000430	20.758605
1075.263475	-2.998000	3.630800	-10.885000	25.358721	0.000431	20.724539
1076.263561	-3.004500	3.629600	-10.904000	25.389735	0.000429	20.732922
1077.266906	-3.005100	3.629900	-10.907000	25.340251	0.000429	20.761471
1078.264719	-2.983600	3.630300	-10.831000	25.327500	0.000428	20.754833
1079.265059	-2.989700	3.630500	-10.853000	25.346410	0.000428	20.731619
1080.265708	-3.011600	3.630000	-10.931000	25.333512	0.000428	20.747592
1081.263772	-3.006100	3.629000	-10.908000	25.309670	0.000427	20.758267
1082.263559	-3.008300	3.627900	-10.913000	25.326720	0.000426	20.745514
1083.266125	-2.996500	3.628400	-10.870000	25.308151	0.000426	20.737775
1084.265234	-2.996900	3.628600	-10.874000	25.294928	0.000427	20.733982
1085.264020	-2.974100	3.627700	-10.788000	25.307753	0.000426	20.728366
1086.266577	-3.009700	3.626100	-10.913000	25.371278	0.000426	20.749477
1087.263256	-3.014000	3.626500	-10.929000	25.416433	0.000427	20.733652
1088.265384	-3.032300	3.626500	-10.996000	25.359740	0.000425	20.742158
1089.267062	-3.003600	3.627200	-10.893000	25.370695	0.000424	20.737511
1090.267601	-2.993600	3.625000	-10.851000	25.361329	0.000425	20.727632
1091.266721	-2.971700	3.627300	-10.778000	25.347704	0.000422	20.745247
1092.268730	-3.002300	3.625500	-10.884000	25.389953	0.000423	20.733615
1093.268486	-2.998100	3.625700	-10.869000	25.411400	0.000421	20.732865
1094.270465	-2.993100	3.624700	-10.849000	25.383137	0.000425	20.750954
1095.270110	-2.994500	3.624000	-10.852000	25.382566	0.000422	20.725723
1096.269181	-2.996700	3.626100	-10.865000	25.329673	0.000420	20.747531
1097.269064	-3.000100	3.624300	-10.872000	25.306805	0.000421	20.739268
1098.270040	-2.992800	3.623600	-10.844000	25.312049	0.000420	20.736473
1099.269157	-3.022100	3.623400	-10.949000	25.362229	0.000421	20.742761
1100.268902	-3.009900	3.623100	-10.903000	25.352357	0.000420	20.747074
1101.273866	-2.993500	3.623200	-10.844000	25.336971	0.000419	20.709337
1102.269444	-2.995100	3.622800	-10.849000	25.323621	0.000419	20.747144
1103.268671	-2.991000	3.622900	-10.835000	25.347384	0.000419	20.741606
1104.270225	-2.981400	3.622400	-10.799000	25.393009	0.000420	20.738580
1105.269772	-2.991600	3.620600	-10.830000	25.418064	0.000418	20.729600
1106.268241	-2.986800	3.622300	-10.818000	25.414780	0.000416	20.735310
1107.272638	-3.015500	3.620800	-10.916000	25.415178	0.000416	20.737133
1108.270943	-3.004600	3.621500	-10.880000	25.440504	0.000417	20.747866
1109.270543	-2.999300	3.619800	-10.856000	25.457199	0.000417	20.723852
1110.274159	-3.043300	3.619500	-11.014000	25.437342	0.000419	20.738053
1111.269695	-3.010400	3.618400	-10.893000	25.391342	0.000414	20.722681
1112.270081	-3.000200	3.619700	-10.858000	25.384978	0.000415	20.721032
1113.273003	-2.972900	3.621200	-10.764000	25.364997	0.000413	20.722780
1114.272105	-3.004700	3.618800	-10.873000	25.341710	0.000414	20.752030
1115.271020	-3.006000	3.617500	-10.874000	25.339024	0.000415	20.725151
1116.274099	-2.998500	3.619000	-10.851000	25.349738	0.000414	20.728796
1117.271109	-3.020100	3.617200	-10.924000	25.341829	0.000413	20.703309
1118.271093	-3.001200	3.617500	-10.857000	25.354234	0.000413	20.723353
1119.274381	-2.984000	3.619500	-10.799000	25.339074	0.000413	20.718087
1120.271443	-3.016700	3.617500	-10.911000	25.334922	0.000415	20.730515
1121.270628	-2.991600	3.617500	-10.821000	25.362611	0.000412	20.727497
1122.274189	-2.996600	3.616600	-10.837000	25.391515	0.000411	20.710525
1123.271955	-2.987600	3.616400	-10.804000	25.394845	0.000413	20.705334
1124.272128	-2.986200	3.616000	-10.796000	25.388012	0.000411	20.722656
1125.272751	-3.000200	3.615700	-10.847000	25.348370	0.000412	20.720310
1126.270793	-2.996000	3.614700	-10.829000	25.359626	0.000410	20.715016
1127.271466	-3.012000	3.615500	-10.889000	25.382916	0.000410	20.712323
1128.272247	-3.013700	3.614700	-10.892000	25.387663	0.000410	20.712348
1129.271104	-3.008100	3.615300	-10.874000	25.405557	0.000412	20.718937
1130.271571	-2.990300	3.613100	-10.803000	25.410082	0.000411	20.713523
1131.273710	-2.975400	3.614800	-10.755000	25.428921	0.000408	20.724854
1132.271092	-2.963200	3.613600	-10.707000	25.418533	0.000407	20.726276
1133.272650	-3.007800	3.614200	-10.870000	25.407869	0.000410	20.722681
1134.276692	-2.997300	3.613700	-10.831000	25.395222	0.000409	20.703816
1135.273790	-2.999600	3.613800	-10.839000	25.399595	0.000406	20.720537
1136.274423	-2.993700	3.612800	-10.815000	25.409064	0.000406	20.712026
1137.276974	-2.981300	3.612500	-10.769000	25.401435	0.000408	20.726177
1138.275743	-2.999000	3.611000	-10.828000	25.417962	0.000406	20.713849
1139.276855	-3.012200	3.611200	-10.876000	25.429492	0.000405	20.718788
1140.279251	-3.001000	3.610800	-10.836000	25.376580	0.000407	20.728721
1141.276812	-3.007400	3.611100	-10.858000	25.346982	0.000406	20.698052
1142.275876	-2.972300	3.611200	-10.733000	25.364081	0.000404	20.711428
1143.277709	-2.982700	3.609300	-10.764000	25.357022	0.000402	20.705763
1144.276687	-2.990800	3.609600	-10.795000	25.391445	0.000404	20.734638
1145.277593	-3.002000	3.608700	-10.832000	25.390923	0.000402	20.730321
1146.278696	-2.992100	3.609900	-10.799000	25.417761	0.000404	20.727398
1147.278547	-2.996500	3.609300	-10.814000	25.441025	0.000402	20.717568
1148.276864	-2.989700	3.609300	-10.790000	25.451265	0.000401	20.731171
1149.278118	-2.978300	3.609000	-10.748000	25.461506	0.000402	20.729600
1150.278409	-2.996200	3.607300	-10.807000	25.475823	0.000403	20.727381
1151.276385	-3.003100	3.607800	-10.833000	25.473930	0.000401	20.725006
1152.279297	-3.020300	3.606500	-10.892000	25.469060	0.000403	20.719168
1153.278255	-2.992300	3.607400	-10.793000	25.488448	0.000399	20.725835
1154.278066	-3.004500	3.606900	-10.836000	25.471351	0.000401	20.735694
1155.279335	-3.006800	3.607400	-10.845000	25.423336	0.000399	20.730626
1156.283810	-3.004700	3.605500	-10.832000	25.422868	0.000400	20.714982
1157.278393	-3.010400	3.606100	-10.855000	25.389740	0.000399	20.726288
1158.279890	-3.007400	3.606800	-10.846000	25.395555	0.000401	20.734498
1159.277210	-2.996600	3.606900	-10.807000	25.422819	0.000398	20.752393
1160.279546	-2.984700	3.606500	-10.763000	25.412952	0.000399	20.742485
1161.284429	-2.975400	3.605400	-10.726000	25.347737	0.000396	20.732003
1162.282934	-3.020800	3.604700	-10.889000	25.403705	0.000397	20.734147
1163.277200	-2.978900	3.604500	-10.737000	25.404399	0.000397	20.739586
1164.279438	-2.984700	3.603400	-10.754000	25.387700	0.000398	20.718549
1165.278513	-2.969400	3.604100	-10.701000	25.375943	0.000397	20.721918
1166.277709	-3.012500	3.602200	-10.850000	25.335780	0.000397	20.727583
1167.278875	-2.982100	3.602500	-10.742000	25.306099	0.000395	20.737137
1168.282247	-3.015100	3.602600	-10.861000	25.301820	0.000394	20.743272
1169.279944	-3.011300	3.602600	-10.848000	25.308435	0.000395	20.727154
1170.280554	-2.995100	3.602100	-10.788000	25.313946	0.000395	20.747388
1171.279331	-3.021800	3.600600	-10.879000	25.346407	0.000394	20.740151
1172.279359	-3.018200	3.601800	-10.869000	25.350756	0.000394	20.741673
1173.278435	-3.004100	3.600900	-10.816000	25.408436	0.000396	20.735105
1174.280186	-3.008900	3.599400	-10.828000	25.400860	0.000392	20.731765
1175.280633	-2.981700	3.600700	-10.735000	25.423349	0.000395	20.750554
1176.282281	-2.978000	3.600400	-10.722000	25.417186	0.000393	20.731563
1177.282072	-3.000900	3.598900	-10.798000	25.390813	0.000391	20.723098
1178.282101	-2.986100	3.600100	-10.749000	25.440767	0.000393	20.750975
1179.281935	-2.999100	3.599900	-10.796000	25.462315	0.000392	20.743689
1180.282625	-3.005700	3.598700	-10.816000	25.503418	0.000390	20.754620
1181.282098	-3.003100	3.598000	-10.804000	25.545735	0.000390	20.729311
1182.283947	-3.004700	3.597200	-10.808000	25.553092	0.000390	20.729113
1183.281979	-3.010400	3.597100	-10.828000	25.564867	0.000391	20.731456
1184.281878	-3.004400	3.597600	-10.808000	25.567630	0.000390	20.737075
1185.284070	-2.999900	3.598000	-10.793000	25.564226	0.000387	20.734131
1186.283752	-2.998200	3.597000	-10.784000	25.519517	0.000388	20.730482
1187.283406	-3.007400	3.597800	-10.819000	25.452103	0.000390	20.754298
1188.287585	-3.005100	3.596000	-10.805000	25.457544	0.000387	20.731311
1189.284654	-3.021000	3.596500	-10.864000	25.488013	0.000389	20.745314
1190.284751	-3.031300	3.595000	-10.897000	25.490624	0.000388	20.744143
1191.288259	-2.997100	3.596200	-10.778000	25.465078	0.000387	20.745516
1192.284288	-3.026300	3.595200	-10.879000	25.483201	0.000387	20.744274
1193.284206	-3.005600	3.595200	-10.804000	25.451963	0.000386	20.731871
1194.289104	-2.976700	3.596900	-10.705000	25.433643	0.000386	20.750459
1195.285337	-2.977900	3.595300	-10.706000	25.455864	0.000385	20.736737
1196.284779	-2.977500	3.595600	-10.705000	25.497567	0.000386	20.738786
1197.287946	-2.994800	3.594900	-10.765000	25.538919	0.000385	20.753762
1198.285748	-2.986600	3.594400	-10.733000	25.495727	0.000385	20.737887
1199.289093	-2.991900	3.592800	-10.748000	25.457137	0.000383	20.748921
1200.290154	-3.006700	3.593000	-10.802000	25.383901	0.000385	20.737021
1201.285686	-3.010300	3.592400	-10.813000	25.460146	0.000382	20.737718
1202.289793	-2.972300	3.593800	-10.680000	25.463854	0.000381	20.747606
1203.289556	-2.990300	3.592200	-10.741000	25.470411	0.000383	20.748975
1204.284387	-3.013700	3.591100	-10.822000	25.475432	0.000382	20.741689
1205.292347	-3.005800	3.591600	-10.795000	25.440967	0.000380	20.755918
1206.292913	-2.990100	3.591600	-10.739000	25.423919	0.000381	20.750178
1207.291747	-2.985000	3.590900	-10.718000	25.421562	0.000382	20.754924
1208.290843	-3.002600	3.590400	-10.780000	25.405754	0.000380	20.743317
1209.291814	-2.986300	3.591100	-10.723000	25.430287	0.000380	20.750883
1210.288359	-2.986400	3.589100	-10.717000	25.408345	0.000381	20.750661
1211.292232	-3.021900	3.588900	-10.844000	25.409211	0.000380	20.747737
1212.294655	-3.007000	3.588500	-10.790000	25.389239	0.000382	20.757554
1213.290723	-2.990200	3.589200	-10.731000	25.369028	0.000381	20.750537
1214.291069	-3.022600	3.588100	-10.845000	25.362023	0.000379	20.749667
1215.294669	-2.998800	3.588700	-10.761000	25.395176	0.000379	20.770629
1216.294682	-2.982200	3.588600	-10.702000	25.443069	0.000380	20.751864
1217.298254	-3.024900	3.586600	-10.849000	25.451942	0.000380	20.739911
1218.295423	-2.993200	3.587000	-10.735000	25.439292	0.000380	20.763244
1219.294801	-2.982600	3.588400	-10.702000	25.440413	0.000378	20.763896
1220.295660	-2.996900	3.587500	-10.751000	25.447446	0.000377	20.754363
1221.294160	-3.011500	3.586400	-10.800000	25.377614	0.000378	20.751572
1222.293928	-2.992600	3.587000	-10.734000	25.399159	0.000376	20.771784
1223.293544	-3.012100	3.585800	-10.799000	25.419743	0.000375	20.758787
1224.294934	-3.014700	3.585700	-10.809000	25.479960	0.000375	20.749555
1225.294025	-2.993100	3.584500	-10.727000	25.495168	0.000376	20.747283
1226.297678	-2.972900	3.585200	-10.657000	25.499865	0.000374	20.746784
1227.294907	-2.993300	3.584000	-10.727000	25.470049	0.000375	20.752404
1228.296193	-2.988400	3.583400	-10.707000	25.479964	0.000374	20.771371
1229.295541	-3.003900	3.583200	-10.762000	25.400341	0.000376	20.737882
1230.297039	-2.988500	3.583700	-10.709000	25.422687	0.000373	20.777391
1231.296619	-2.987100	3.583300	-10.703000	25.454627	0.000374	20.761574
1232.297658	-3.004100	3.583700	-10.765000	25.450127	0.000374	20.754210
1233.295033	-2.997300	3.583500	-10.740000	25.434820	0.000372	20.749745
1234.297682	-2.999700	3.582600	-10.745000	25.434327	0.000371	20.762526
1235.295125	-2.989300	3.582600	-10.708000	25.408557	0.000370	20.762254
1236.295279	-2.988100	3.580400	-10.698000	25.409083	0.000371	20.758515
1237.297344	-3.008000	3.580700	-10.770000	25.429014	0.000371	20.774735
1238.296910	-2.990600	3.581300	-10.709000	25.426283	0.000371	20.762510
1239.298207	-3.017000	3.580900	-10.803000	25.429317	0.000370	20.761764
1240.297853	-2.967100	3.582100	-10.628000	25.442514	0.000371	20.760790
1241.298193	-2.999200	3.579600	-10.735000	25.450521	0.000371	20.779262
1242.299067	-2.962300	3.580200	-10.605000	25.469161	0.000368	20.758152
1243.299454	-3.005400	3.578000	-10.753000	25.437299	0.000370	20.778314
1244.298099	-2.986100	3.580800	-10.692000	25.442945	0.000370	20.764068
1245.302953	-2.978300	3.578600	-10.657000	25.470163	0.000369	20.753468
1246.302774	-2.992700	3.578600	-10.709000	25.479106	0.000369	20.789475
1247.301133	-3.001900	3.578900	-10.742000	25.474138	0.000368	20.786383
1248.302163	-2.998800	3.577100	-10.726000	25.482707	0.000368	20.759426
1249.305595	-2.998100	3.576700	-10.722000	25.457242	0.000367	20.777477
1250.303289	-3.003300	3.576400	-10.740000	25.458359	0.000368	20.774331
1251.307654	-3.005900	3.576500	-10.749000	25.451773	0.000367	20.772933
1252.309282	-3.002800	3.577000	-10.741000	25.473817	0.000365	20.763301
1253.305369	-3.004500	3.574700	-10.739000	25.515392	0.000367	20.770913
1254.312031	-2.997200	3.575500	-10.715000	25.582658	0.000366	20.762126
1255.307935	-2.987800	3.575100	-10.681000	25.575354	0.000365	20.782767
1256.306227	-3.004200	3.574400	-10.738000	25.583035	0.000365	20.752074
1257.308534	-2.982900	3.575500	-10.665000	25.579579	0.000364	20.762827
1258.310234	-3.006700	3.573900	-10.745000	25.603878	0.000364	20.758308
1259.307601	-2.968300	3.574600	-10.609000	25.594986	0.000364	20.786362
1260.312154	-3.006700	3.574700	-10.747000	25.533359	0.000363	20.790852
1261.310583	-3.011400	3.574100	-10.762000	25.498916	0.000364	20.769540
1262.309701	-2.997600	3.575100	-10.716000	25.524860	0.000364	20.777576
1263.310972	-2.980100	3.574600	-10.652000	25.542100	0.000365	20.779716
1264.312139	-3.002900	3.573500	-10.730000	25.577189	0.000362	20.768963
1265.309575	-2.998500	3.573700	-10.714000	25.597708	0.000359	20.786251
1266.313240	-3.018600	3.571800	-10.781000	25.593783	0.000362	20.796060
1267.312410	-3.008400	3.571500	-10.745000	25.594674	0.000360	20.770402
1268.309799	-3.005800	3.572700	-10.738000	25.608887	0.000361	20.782779
1269.310255	-3.012100	3.572600	-10.761000	25.582444	0.000360	20.797000
1270.312551	-3.022200	3.570400	-10.789000	25.588381	0.000359	20.776409
1271.311213	-3.006000	3.571300	-10.734000	25.578885	0.000360	20.804331
1272.311461	-3.011400	3.570300	-10.750000	25.570957	0.000359	20.781196
1273.314040	-2.979600	3.571100	-10.640000	25.584473	0.000359	20.783864
1274.315299	-2.992100	3.569600	-10.680000	25.539168	0.000360	20.791945
1275.313524	-2.987600	3.570000	-10.665000	25.531766	0.000359	20.776450
1276.315304	-2.989100	3.568900	-10.667000	25.522713	0.000359	20.793438
1277.314809	-2.983100	3.568800	-10.645000	25.514707	0.000355	20.795829
1278.314591	-2.999700	3.567700	-10.701000	25.500120	0.000357	20.795879
1279.314934	-3.021600	3.567900	-10.779000	25.497783	0.000356	20.786895
1280.312756	-2.986900	3.568800	-10.659000	25.562837	0.000355	20.776360
1281.314914	-2.993900	3.567700	-10.680000	25.558411	0.000356	20.797046
1282.315666	-2.991500	3.567700	-10.672000	25.555899	0.000354	20.801161
1283.315676	-2.995500	3.566600	-10.683000	25.566680	0.000356	20.787806
1284.314454	-3.021900	3.565500	-10.774000	25.559475	0.000353	20.779147
1285.318011	-3.001100	3.566400	-10.701000	25.533975	0.000355	20.801903
1286.315383	-3.009300	3.566700	-10.733000	25.493514	0.000354	20.808685
1287.318666	-3.006400	3.565300	-10.718000	25.480043	0.000353	20.822184
1288.317561	-2.999300	3.564600	-10.691000	25.462326	0.000355	20.800600
1289.314433	-2.983900	3.566400	-10.641000	25.492167	0.000354	20.821083
1290.317248	-3.013000	3.565100	-10.740000	25.503195	0.000353	20.798493
1291.322893	-3.001800	3.564300	-10.698000	25.487914	0.000355	20.816812
1292.317545	-3.015100	3.563100	-10.742000	25.532715	0.000354	20.803008
1293.320321	-3.010600	3.563200	-10.726000	25.535027	0.000353	20.811493
1294.319499	-3.014200	3.563300	-10.740000	25.556819	0.000352	20.807775
1295.319108	-3.004000	3.562600	-10.700000	25.593596	0.000350	20.831906
1296.322958	-3.007500	3.561900	-10.711000	25.593690	0.000351	20.788380
1297.322909	-2.999800	3.562400	-10.686000	25.607255	0.000354	20.802477
1298.319482	-2.999600	3.561500	-10.682000	25.612127	0.000349	20.806422
1299.320249	-2.995300	3.562800	-10.671000	25.656583	0.000349	20.814561
1300.320615	-2.997700	3.561400	-10.676000	25.601421	0.000349	20.816532
1301.322091	-3.002200	3.562300	-10.693000	25.587680	0.000348	20.816008
1302.324210	-2.992900	3.561700	-10.659000	25.577564	0.000349	20.818177
1303.322471	-2.988800	3.562600	-10.647000	25.593596	0.000349	20.830010
1304.320613	-2.998500	3.559900	-10.674000	25.571233	0.000350	20.820828
1305.323847	-3.019700	3.560000	-10.748000	25.528589	0.000347	20.813089
1306.325079	-3.014100	3.560700	-10.732000	25.506197	0.000348	20.823793
1307.323021	-2.990700	3.559600	-10.645000	25.513903	0.000346	20.801660
1308.325549	-3.005000	3.559900	-10.697000	25.540890	0.000345	20.807898
1309.328301	-2.997100	3.558800	-10.665000	25.534629	0.000345	20.827214
1310.322209	-2.984100	3.559100	-10.620000	25.526577	0.000346	20.826241
1311.324548	-3.010300	3.558500	-10.712000	25.502571	0.000346	20.807350
1312.329737	-2.977300	3.558200	-10.593000	25.498125	0.000345	20.835601
1313.325601	-3.019900	3.557200	-10.742000	25.555431	0.000345	20.829140
1314.329247	-3.021900	3.556400	-10.746000	25.589774	0.000344	20.820007
1315.329735	-3.022300	3.556900	-10.750000	25.567038	0.000346	20.819459
1316.328145	-2.980600	3.556700	-10.600000	25.590697	0.000344	20.818090
1317.329345	-2.967100	3.556300	-10.551000	25.543759	0.000344	20.839703
1318.329518	-2.990300	3.557100	-10.637000	25.535979	0.000343	20.833312
1319.328279	-2.979900	3.556500	-10.597000	25.489687	0.000343	20.825705
1320.329926	-2.983700	3.555900	-10.609000	25.553604	0.000345	20.814029
1321.333055	-3.003000	3.555600	-10.677000	25.599051	0.000342	20.816997
1322.330975	-3.008000	3.555800	-10.695000	25.596789	0.000341	20.833691
1323.330547	-3.000700	3.554300	-10.664000	25.567846	0.000340	20.831650
1324.330079	-2.995900	3.554200	-10.647000	25.535396	0.000340	20.849321
1325.330769	-2.995700	3.553200	-10.644000	25.544744	0.000342	20.827890
1326.329249	-2.989800	3.553600	-10.624000	25.520541	0.000340	20.831559
1327.332172	-3.010100	3.552100	-10.691000	25.549194	0.000340	20.825721
1328.332312	-3.009800	3.552800	-10.692000	25.576053	0.000340	20.835151
1329.332469	-3.024100	3.552700	-10.742000	25.546066	0.000340	20.831114
1330.334784	-2.987400	3.554300	-10.617000	25.534812	0.000339	20.832615
1331.334394	-2.973900	3.553600	-10.567000	25.535182	0.000339	20.840572
1332.334713	-2.999400	3.552300	-10.653000	25.539957	0.000339	20.817867
1333.334074	-3.015700	3.551800	-10.710000	25.540183	0.000337	20.846068
1334.335404	-2.978900	3.552000	-10.579000	25.603698	0.000338	20.843949
1335.337585	-2.988100	3.552200	-10.614000	25.591296	0.000337	20.832916
1336.336752	-3.024500	3.550000	-10.736000	25.636520	0.000337	20.848463
1337.335962	-3.012600	3.548900	-10.691000	25.631951	0.000339	20.826331
1338.342865	-2.992100	3.549500	-10.619000	25.668052	0.000334	20.847890
1339.338907	-3.011900	3.548500	-10.687000	25.696130	0.000337	20.854755
1340.342318	-2.975600	3.550400	-10.564000	25.684402	0.000336	20.831596
1341.341949	-2.994300	3.549200	-10.626000	25.619504	0.000337	20.867408
1342.345367	-3.015900	3.549000	-10.702000	25.570428	0.000335	20.836614
1343.344809	-2.993900	3.548600	-10.624000	25.566327	0.000335	20.850986
1344.338321	-2.990300	3.548200	-10.609000	25.564791	0.000334	20.836643
1345.345932	-2.995700	3.546100	-10.622000	25.586924	0.000334	20.854602
1346.340817	-2.996400	3.547800	-10.630000	25.554248	0.000334	20.840279
1347.344590	-2.992600	3.548000	-10.617000	25.552737	0.000333	20.837339
1348.339112	-2.987900	3.547600	-10.599000	25.584095	0.000330	20.840382
1349.338414	-2.991000	3.546600	-10.607000	25.601038	0.000334	20.846018
1350.341351	-2.987100	3.546800	-10.594000	25.607627	0.000333	20.850265
1351.338846	-3.005600	3.545600	-10.656000	25.566848	0.000334	20.850562
1352.339123	-2.999900	3.545100	-10.634000	25.576192	0.000332	20.861842
1353.340631	-2.983500	3.545700	-10.578000	25.610308	0.000333	20.858173
1354.358234	-2.997300	3.543800	-10.621000	25.621088	0.000332	20.841500
1355.340257	-2.992000	3.545500	-10.607000	25.607397	0.000331	20.853353
1356.342102	-2.998300	3.543700	-10.624000	25.626134	0.000330	20.841825
1357.343286	-2.996900	3.544600	-10.622000	25.663253	0.000332	20.874363
1358.341234	-2.989900	3.544200	-10.596000	25.669140	0.000329	20.863207
1359.342787	-2.985500	3.543700	-10.579000	25.682309	0.000329	20.880226
1360.344934	-3.018800	3.542300	-10.693000	25.687900	0.000330	20.852178
1361.342115	-2.992100	3.542400	-10.598000	25.697764	0.000331	20.867301
1362.343239	-2.999900	3.541400	-10.622000	25.664493	0.000330	20.854747
1363.346431	-3.023300	3.540400	-10.703000	25.628466	0.000330	20.867874
1364.343158	-2.998800	3.542200	-10.622000	25.612689	0.000326	20.856297
1365.346909	-3.010000	3.541300	-10.658000	25.639271	0.000328	20.863553
1366.342479	-2.988200	3.541900	-10.583000	25.640913	0.000326	20.873736
1367.343495	-3.026500	3.540600	-10.714000	25.640740	0.000326	20.872141
1368.351749	-2.997300	3.540200	-10.609000	25.604018	0.000326	20.840003
1369.345876	-3.019200	3.539900	-10.687000	25.596883	0.000325	20.881673
1370.343406	-2.985500	3.540600	-10.569000	25.619721	0.000326	20.849609
1371.349718	-3.016000	3.539200	-10.673000	25.661488	0.000327	20.855048
1372.347587	-2.968300	3.539200	-10.504000	25.665810	0.000324	20.874087
1373.348756	-2.983000	3.539900	-10.559000	25.672424	0.000324	20.858445
1374.350628	-2.999000	3.537500	-10.608000	25.622357	0.000323	20.875014
1375.348409	-2.981800	3.538800	-10.551000	25.626659	0.000324	20.868904
1376.349142	-2.991000	3.537900	-10.580000	25.603825	0.000323	20.882955
1377.347142	-3.005400	3.536400	-10.627000	25.627948	0.000323	20.862139
1378.347991	-3.002600	3.536800	-10.619000	25.614039	0.000323	20.857179
1379.347904	-2.973900	3.537400	-10.519000	25.661697	0.000323	20.868533
1380.348981	-3.005300	3.535600	-10.624000	25.625128	0.000325	20.876375
1381.349781	-2.987700	3.536400	-10.564000	25.605447	0.000322	20.853765
1382.351153	-2.995700	3.536400	-10.593000	25.616630	0.000323	20.860254
1383.352076	-3.008100	3.534000	-10.629000	25.632135	0.000321	20.852120
1384.351914	-3.006900	3.535100	-10.628000	25.637431	0.000323	20.850801
1385.355202	-3.000700	3.534800	-10.606000	25.615792	0.000319	20.865103
1386.354019	-2.995800	3.532600	-10.582000	25.579936	0.000321	20.846162
1387.351004	-2.985700	3.535000	-10.554000	25.554946	0.000321	20.863738
1388.357087	-3.003600	3.534500	-10.615000	25.542715	0.000319	20.851456
1389.357422	-2.990800	3.534100	-10.569000	25.531712	0.000319	20.850363
1390.355793	-3.005400	3.530900	-10.610000	25.579176	0.000318	20.861994
1391.357147	-3.000400	3.533000	-10.599000	25.597191	0.000319	20.825560
1392.358552	-3.008200	3.531000	-10.620000	25.634570	0.000320	20.833229
1393.356905	-2.998400	3.531800	-10.589000	25.671939	0.000320	20.843734
1394.365432	-2.986800	3.532500	-10.549000	25.667571	0.000319	20.838399
1395.357026	-2.998300	3.531900	-10.589000	25.730307	0.000317	20.830289
1396.357738	-2.998800	3.530500	-10.586000	25.725685	0.000319	20.837974
1397.358873	-3.007000	3.530700	-10.616000	25.684915	0.000318	20.841594
1398.359059	-2.989100	3.529600	-10.549000	25.682411	0.000318	20.810630
1399.356841	-3.004800	3.529800	-10.605000	25.662731	0.000314	20.827374
1400.360312	-3.011200	3.528900	-10.625000	25.652624	0.000316	20.846620
1401.356675	-2.984300	3.528700	-10.530000	25.669275	0.000314	20.826834
1402.356185	-2.977200	3.530000	-10.508000	25.685576	0.000315	20.842258
1403.357891	-2.988900	3.529100	-10.548000	25.673449	0.000316	20.826285
1404.357810	-2.998000	3.528000	-10.576000	25.715021	0.000315	20.837694
1405.356498	-2.993500	3.528700	-10.562000	25.685461	0.000316	20.829341
1406.358200	-2.996300	3.526600	-10.566000	25.687226	0.000315	20.814044
1407.358398	-3.029000	3.524400	-10.674000	25.709192	0.000312	20.818089
1408.356197	-3.003500	3.526900	-10.591000	25.690407	0.000312	20.830516
1409.361362	-2.997200	3.526300	-10.568000	25.663922	0.000314	20.827621
1410.355525	-2.988300	3.526100	-10.536000	25.648445	0.000313	20.832940
1411.357477	-2.987800	3.526400	-10.535000	25.614950	0.000314	20.816844
1412.360994	-3.022000	3.525100	-10.651000	25.629635	0.000311	20.821161
1413.358123	-2.981000	3.526900	-10.513000	25.640818	0.000311	20.811529
1414.360328	-3.010700	3.525700	-10.614000	25.631975	0.000312	20.805967
1415.361680	-3.005000	3.524700	-10.590000	25.654611	0.000310	20.810210
1416.360150	-3.009200	3.524200	-10.604000	25.591300	0.000312	20.799255
1417.359429	-2.993400	3.523900	-10.548000	25.605094	0.000310	20.817376
1418.364330	-3.007500	3.524400	-10.599000	25.604125	0.000309	20.807394
1419.359703	-3.013100	3.524000	-10.617000	25.609318	0.000310	20.814506
1420.362718	-2.998200	3.523700	-10.564000	25.608998	0.000310	20.823193
1421.362820	-3.013300	3.521900	-10.611000	25.604979	0.000308	20.804458
1422.359410	-3.012600	3.522400	-10.611000	25.665531	0.000310	20.805056
1423.360038	-3.026000	3.522100	-10.657000	25.701159	0.000310	20.796270
1424.363072	-3.010500	3.521700	-10.601000	25.717036	0.000307	20.807951
1425.360237	-2.993700	3.520100	-10.536000	25.720936	0.000307	20.825143
1426.365030	-2.996900	3.520300	-10.549000	25.754682	0.000308	20.809728
1427.363926	-2.982800	3.520700	-10.502000	25.697316	0.000307	20.786247
1428.361358	-2.984600	3.520300	-10.505000	25.692600	0.000307	20.809484
1429.364271	-3.013000	3.519100	-10.602000	25.712579	0.000305	20.810585
1430.371518	-3.011200	3.519400	-10.597000	25.717328	0.000306	20.796864
1431.362391	-3.001100	3.520100	-10.563000	25.710965	0.000307	20.801379
1432.370007	-2.983600	3.519600	-10.500000	25.708285	0.000306	20.805324
1433.368783	-2.997900	3.518500	-10.547000	25.662797	0.000307	20.806104
1434.365164	-2.983700	3.519400	-10.500000	25.675638	0.000307	20.809043
1435.365565	-2.999700	3.517600	-10.551000	25.677407	0.000306	20.794225
1436.365948	-2.997000	3.518100	-10.543000	25.675301	0.000304	20.793533
1437.363962	-2.978700	3.518300	-10.478000	25.655002	0.000305	20.788791
1438.367574	-2.995200	3.516500	-10.532000	25.633014	0.000308	20.793735
1439.367445	-3.010000	3.516300	-10.583000	25.658483	0.000306	20.809357
1440.364924	-2.993900	3.516300	-10.526000	25.681069	0.000303	20.808809
1441.367175	-3.017400	3.516400	-10.610000	25.730616	0.000303	20.797408
1442.368259	-2.996600	3.515600	-10.535000	25.719340	0.000303	20.795091
1443.365182	-3.004100	3.515300	-10.559000	25.721076	0.000303	20.810112
1444.367619	-3.013700	3.514200	-10.590000	25.717928	0.000302	20.777552
1445.368869	-3.013400	3.515400	-10.591000	25.676504	0.000300	20.828879
1446.366214	-3.029900	3.512700	-10.641000	25.635486	0.000300	20.763500
1447.369038	-3.002700	3.513600	-10.549000	25.663491	0.000302	20.771713
1448.367346	-3.006100	3.513600	-10.561000	25.696911	0.000300	20.798167
1449.365415	-3.033500	3.512900	-10.655000	25.732467	0.000301	20.779354
1450.367929	-3.009900	3.513100	-10.573000	25.707649	0.000300	20.779082
1451.369255	-3.010700	3.512900	-10.575000	25.654875	0.000300	20.808578
1452.367246	-2.986700	3.511800	-10.487000	25.630527	0.000300	20.772270
1453.368365	-3.006900	3.511400	-10.557000	25.623027	0.000298	20.784652
1454.386348	-2.975300	3.512600	-10.450000	25.609557	0.000299	20.777762
1455.367532	-2.994500	3.512100	-10.515000	25.602804	0.000296	20.768609
1456.368526	-2.996100	3.510900	-10.518000	25.615502	0.000298	20.786103
1457.372032	-3.014600	3.510200	-10.581000	25.626960	0.000296	20.783386
1458.367826	-3.009500	3.510000	-10.562000	25.573487	0.000297	20.764770
1459.367222	-3.006200	3.509900	-10.551000	25.607583	0.000297	20.779098
1460.367738	-2.996000	3.508800	-10.511000	25.615855	0.000298	20.786458
1461.374253	-2.975500	3.509600	-10.442000	25.655417	0.000295	20.782096
1462.368378	-3.004200	3.507900	-10.538000	25.663373	0.000295	20.793406
1463.368526	-2.991900	3.509100	-10.498000	25.642330	0.000295	20.757097
1464.368189	-3.004000	3.508600	-10.539000	25.625236	0.000296	20.774543
1465.368737	-3.008400	3.508100	-10.553000	25.627699	0.000294	20.762318
1466.368954	-3.021100	3.506800	-10.593000	25.676698	0.000294	20.760796
1467.371303	-3.013200	3.507000	-10.567000	25.663554	0.000295	20.775095
1468.367875	-2.988000	3.507000	-10.478000	25.698118	0.000294	20.771405
1469.370360	-3.006700	3.507200	-10.544000	25.730617	0.000293	20.764693
1470.371257	-3.001200	3.506200	-10.522000	25.757352	0.000294	20.764045
1471.368425	-3.005700	3.506100	-10.537000	25.739340	0.000292	20.777722
1472.368069	-3.006800	3.505800	-10.540000	25.683690	0.000293	20.792000
1473.370872	-2.994800	3.504200	-10.493000	25.663365	0.000292	20.788182
1474.368667	-2.996300	3.503900	-10.498000	25.622322	0.000292	20.775409
1475.368401	-2.979600	3.505500	-10.444000	25.614965	0.000292	20.774659
1476.372441	-3.009200	3.503100	-10.540000	25.618446	0.000292	20.758240
1477.368972	-2.996700	3.503100	-10.496000	25.679893	0.000292	20.751202
1478.370599	-3.007200	3.504500	-10.537000	25.682237	0.000292	20.759721
1479.373075	-3.006000	3.502600	-10.528000	25.692647	0.000293	20.766858
1480.371870	-3.037900	3.501600	-10.636000	25.736245	0.000290	20.765130
1481.370720	-2.997500	3.501800	-10.495000	25.717117	0.000291	20.772944
1482.377205	-2.989400	3.502400	-10.468000	25.673317	0.000290	20.778737
1483.372958	-3.006600	3.501800	-10.526000	25.642852	0.000287	20.756199
1484.376945	-3.012400	3.501800	-10.548000	25.641333	0.000289	20.755148
1485.377039	-2.997800	3.500300	-10.492000	25.641083	0.000290	20.742568
1486.373473	-2.989100	3.501500	-10.466000	25.654950	0.000290	20.756970
1487.376579	-3.001100	3.499000	-10.500000	25.632191	0.000289	20.761139
1488.380743	-2.995200	3.500600	-10.484000	25.644687	0.000288	20.747611
1489.374692	-3.012500	3.500200	-10.544000	25.652988	0.000287	20.764483
1490.372966	-3.007300	3.499600	-10.524000	25.638673	0.000287	20.765279
1491.380406	-3.000500	3.499600	-10.499000	25.624087	0.000286	20.750155
1492.375689	-3.002200	3.499200	-10.505000	25.598913	0.000287	20.730561
1493.381862	-2.983900	3.499300	-10.440000	25.563007	0.000284	20.774634
1494.380193	-3.009500	3.496500	-10.522000	25.547122	0.000287	20.756310
1495.375355	-2.970900	3.498200	-10.392000	25.583501	0.000286	20.746377
1496.376329	-2.985400	3.496900	-10.439000	25.650266	0.000286	20.746575
1497.380012	-3.008800	3.496600	-10.519000	25.699284	0.000286	20.763567
1498.377513	-2.988900	3.497800	-10.453000	25.728852	0.000284	20.769558
1499.379307	-3.013200	3.497400	-10.538000	25.734513	0.000286	20.754855
1500.379276	-3.015400	3.495400	-10.539000	25.716697	0.000285	20.733166
1501.378727	-3.010400	3.495700	-10.523000	25.702728	0.000284	20.752327
1502.383615	-3.003500	3.495700	-10.498000	25.701168	0.000284	20.752183
1503.385764	-3.003800	3.494300	-10.495000	25.679892	0.000283	20.766849
1504.379246	-2.998900	3.494800	-10.480000	25.666177	0.000282	20.752599
1505.382190	-2.993100	3.495300	-10.461000	25.650401	0.000283	20.766152
1506.385260	-2.984200	3.494700	-10.427000	25.663714	0.000282	20.760557
1507.380206	-3.011900	3.494300	-10.524000	25.690819	0.000280	20.755064
1508.382662	-2.993700	3.493700	-10.458000	25.688434	0.000281	20.746505
1509.382175	-2.993500	3.494100	-10.459000	25.677999	0.000283	20.745033
1510.380692	-2.984900	3.493300	-10.426000	25.695314	0.000281	20.759579
1511.384382	-3.013000	3.491900	-10.520000	25.699165	0.000282	20.759179
1512.384994	-3.003300	3.493500	-10.491000	25.719419	0.000280	20.751547
1513.381616	-3.044100	3.490700	-10.624000	25.701550	0.000280	20.755411
1514.383696	-2.978500	3.491400	-10.398000	25.659313	0.000280	20.758981
1515.385772	-2.980500	3.492300	-10.408000	25.649699	0.000279	20.741738
1516.382762	-3.005300	3.491100	-10.491000	25.648557	0.000277	20.746282
1517.387772	-2.995500	3.491300	-10.456000	25.710601	0.000279	20.750277
1518.389160	-3.001200	3.490900	-10.475000	25.721504	0.000277	20.740839
1519.386573	-2.977700	3.488800	-10.388000	25.727645	0.000277	20.756965
1520.388447	-2.990000	3.489100	-10.431000	25.771968	0.000277	20.734156
1521.389178	-2.977700	3.490100	-10.391000	25.804366	0.000276	20.749630
1522.384625	-3.006600	3.487500	-10.485000	25.778799	0.000278	20.744810
1523.389097	-3.013000	3.489100	-10.511000	25.791917	0.000275	20.752298
1524.393403	-2.996300	3.489000	-10.453000	25.752943	0.000279	20.746814
1525.388774	-3.002700	3.487500	-10.471000	25.772765	0.000277	20.743491
1526.390207	-2.993500	3.489000	-10.443000	25.789463	0.000277	20.744616
1527.391442	-2.975100	3.488200	-10.377000	25.811894	0.000276	20.745812
1528.389987	-2.998500	3.486300	-10.452000	25.811500	0.000274	20.745891
1529.391966	-3.004900	3.487600	-10.480000	25.789963	0.000276	20.730894
1530.395858	-2.992400	3.485500	-10.429000	25.777465	0.000276	20.740625
1531.395536	-2.992200	3.486500	-10.432000	25.759876	0.000275	20.730070
1532.392919	-2.983200	3.485900	-10.398000	25.731381	0.000275	20.733690
1533.394509	-3.006600	3.486100	-10.480000	25.693295	0.000274	20.761345
1534.397593	-3.004700	3.486400	-10.474000	25.695409	0.000273	20.732647
1535.394200	-3.001100	3.486100	-10.461000	25.685614	0.000274	20.746043
1536.396309	-3.022500	3.483900	-10.529000	25.689046	0.000274	20.741903
1537.394498	-2.998400	3.483700	-10.444000	25.661817	0.000272	20.727831
1538.394624	-3.001100	3.483500	-10.452000	25.679535	0.000272	20.748472
1539.396602	-3.007400	3.483600	-10.476000	25.662766	0.000272	20.725938
1540.396746	-2.986200	3.483900	-10.403000	25.707264	0.000271	20.730804
1541.395955	-2.993600	3.482700	-10.425000	25.694568	0.000271	20.723266
1542.399829	-2.995800	3.482400	-10.432000	25.714341	0.000272	20.722264
1543.396296	-2.988700	3.482000	-10.406000	25.752882	0.000272	20.728260
1544.395635	-2.998200	3.482600	-10.440000	25.764088	0.000270	20.724817
1545.397551	-2.987300	3.482100	-10.401000	25.767343	0.000271	20.740889
1546.398220	-3.013300	3.480100	-10.486000	25.821700	0.000271	20.730532
1547.398695	-2.960700	3.481100	-10.306000	25.839120	0.000270	20.737125
1548.400549	-2.997100	3.480200	-10.430000	25.820112	0.000270	20.726091
1549.400378	-2.998200	3.479900	-10.432000	25.798350	0.000269	20.721300
1550.401706	-3.002700	3.480300	-10.450000	25.748662	0.000268	20.708373
1551.404366	-2.992300	3.479900	-10.412000	25.742476	0.000270	20.723972
1552.400781	-3.000600	3.479700	-10.440000	25.749709	0.000269	20.729340
1553.398853	-3.023500	3.477900	-10.515000	25.781931	0.000271	20.719980
1554.403522	-2.983300	3.478500	-10.376000	25.682577	0.000269	20.721180
1555.399721	-3.015300	3.478200	-10.487000	25.662553	0.000268	20.721457
1556.402041	-2.977700	3.478300	-10.357000	25.717761	0.000266	20.740873
1557.402367	-3.001100	3.477300	-10.435000	25.732740	0.000267	20.717985
1558.404618	-2.997400	3.477900	-10.423000	25.744763	0.000267	20.717733
1559.406759	-3.010800	3.476900	-10.467000	25.740966	0.000267	20.702539
1560.402688	-3.009200	3.476500	-10.461000	25.769067	0.000265	20.705635
1561.405251	-2.987600	3.477700	-10.388000	25.786007	0.000266	20.713643
1562.405242	-2.993700	3.475000	-10.402000	25.753814	0.000267	20.723032
1563.405735	-2.991700	3.475200	-10.397000	25.762680	0.000265	20.719609
1564.404619	-2.986800	3.476000	-10.380000	25.716320	0.000264	20.715717
1565.405917	-3.000500	3.474800	-10.425000	25.697959	0.000264	20.713870
1566.405950	-2.988200	3.476100	-10.386000	25.709441	0.000262	20.712600
1567.405821	-3.014400	3.472900	-10.467000	25.715971	0.000265	20.720108
1568.407013	-2.994800	3.474400	-10.405000	25.751626	0.000266	20.708031
1569.407335	-2.999300	3.473100	-10.415000	25.747004	0.000262	20.706707
1570.406939	-3.000300	3.473200	-10.419000	25.695795	0.000263	20.696522
1571.407594	-3.004600	3.472900	-10.434000	25.650898	0.000262	20.693154
1572.407902	-3.002900	3.472900	-10.428000	25.680812	0.000262	20.727468
1573.408452	-3.026100	3.472900	-10.508000	25.739152	0.000262	20.700242
1574.409505	-3.002900	3.471200	-10.423000	25.735047	0.000262	20.719353
1575.408252	-3.017200	3.470700	-10.470000	25.747226	0.000262	20.718310
1576.407951	-2.990300	3.472300	-10.381000	25.771321	0.000261	20.715486
1577.409185	-2.997700	3.469800	-10.400000	25.724218	0.000261	20.690457
1578.410231	-3.001700	3.469900	-10.415000	25.739989	0.000259	20.708196
1579.409257	-3.007800	3.470700	-10.438000	25.744541	0.000260	20.694275
1580.409322	-2.986400	3.469800	-10.360000	25.756392	0.000259	20.704757
1581.410038	-3.004500	3.470800	-10.427000	25.803690	0.000259	20.699635
1582.412539	-3.007700	3.469600	-10.435000	25.782374	0.000258	20.702406
1583.409290	-3.009100	3.469300	-10.439000	25.748309	0.000258	20.702328
1584.411792	-3.017500	3.466900	-10.460000	25.778992	0.000259	20.728882
1585.410783	-2.991100	3.468000	-10.372000	25.746593	0.000257	20.697759
1586.409521	-2.988300	3.468300	-10.363000	25.695241	0.000259	20.716830
1587.409817	-3.000600	3.468500	-10.406000	25.712034	0.000258	20.696238
1588.410291	-3.018200	3.466300	-10.461000	25.688923	0.000258	20.695784
1589.411235	-2.996900	3.467700	-10.392000	25.733819	0.000257	20.723336
1590.415275	-2.972000	3.468300	-10.307000	25.712798	0.000259	20.692262
1591.415294	-3.014900	3.465200	-10.446000	25.706066	0.000256	20.704942
1592.413215	-2.974800	3.465800	-10.310000	25.638213	0.000255	20.690370
1593.416487	-3.004400	3.466500	-10.415000	25.614878	0.000255	20.696332
1594.414078	-3.011500	3.464500	-10.431000	25.639497	0.000256	20.695928
1595.416654	-3.014300	3.465200	-10.444000	25.640392	0.000254	20.682601
1596.417188	-2.998900	3.464800	-10.389000	25.665290	0.000257	20.696703
1597.415003	-2.977600	3.464800	-10.315000	25.692273	0.000254	20.697726
1598.413821	-2.995800	3.464200	-10.377000	25.698016	0.000254	20.691166
1599.417924	-2.997800	3.463300	-10.381000	25.701094	0.000254	20.693310
1600.413715	-2.980900	3.464400	-10.325000	25.726787	0.000252	20.668853
1601.414485	-3.010100	3.463400	-10.424000	25.731282	0.000255	20.676214
1602.414103	-3.030900	3.462900	-10.495000	25.761149	0.000254	20.695784
1603.418189	-2.991100	3.463900	-10.360000	25.747808	0.000251	20.701351
1604.416615	-3.007400	3.462200	-10.412000	25.778565	0.000252	20.711383
1605.416543	-2.984500	3.462300	-10.332000	25.827332	0.000255	20.678812
1606.420406	-2.997700	3.461400	-10.376000	25.829642	0.000253	20.716224
1607.416429	-2.993700	3.461800	-10.363000	25.859084	0.000254	20.691269
1608.415153	-2.998300	3.460200	-10.374000	25.817620	0.000252	20.673798
1609.420146	-3.009000	3.460600	-10.412000	25.832700	0.000251	20.690844
1610.417633	-3.020000	3.461000	-10.451000	25.858016	0.000251	20.695887
1611.416529	-3.010300	3.460700	-10.417000	25.827135	0.000252	20.681933
1612.420000	-2.972900	3.461500	-10.290000	25.820851	0.000250	20.687001
1613.418261	-2.971300	3.461000	-10.282000	25.773800	0.000250	20.694267
1614.416807	-3.020100	3.458500	-10.444000	25.750600	0.000247	20.680445
1615.420099	-2.997400	3.458300	-10.365000	25.774054	0.000252	20.707800
1616.417462	-3.014300	3.456400	-10.418000	25.782576	0.000249	20.684589
1617.417630	-3.005000	3.457900	-10.390000	25.818249	0.000248	20.699561
1618.420218	-2.990400	3.459500	-10.344000	25.795920	0.000247	20.687562
1619.420110	-3.002900	3.458500	-10.384000	25.752636	0.000248	20.686758
1620.422071	-2.996800	3.458100	-10.362000	25.755251	0.000247	20.686065
1621.423705	-2.972500	3.458400	-10.278000	25.739098	0.000248	20.680746
1622.420561	-2.989300	3.457200	-10.334000	25.773041	0.000248	20.679752
1623.420625	-3.002100	3.454900	-10.371000	25.781660	0.000246	20.686041
1624.423943	-2.987800	3.456300	-10.325000	25.790137	0.000248	20.686020
1625.421215	-2.999900	3.455800	-10.366000	25.747899	0.000245	20.687690
1626.423162	-3.006300	3.455800	-10.389000	25.745116	0.000244	20.682049
1627.426520	-2.985700	3.455900	-10.317000	25.730162	0.000244	20.701170
1628.422404	-2.991900	3.455000	-10.336000	25.692869	0.000243	20.704963
1629.426310	-2.989000	3.454300	-10.325000	25.685566	0.000243	20.694783
1630.425281	-3.007300	3.453900	-10.386000	25.719354	0.000245	20.686045
1631.424571	-2.993600	3.454900	-10.341000	25.762409	0.000245	20.711750
1632.431827	-3.020700	3.452900	-10.429000	25.757886	0.000243	20.672590
1633.432349	-3.009700	3.453300	-10.393000	25.813492	0.000245	20.716121
1634.424141	-3.016700	3.451800	-10.412000	25.766461	0.000242	20.695430
1635.427100	-2.980400	3.452700	-10.289000	25.727925	0.000242	20.688964
1636.431734	-2.994400	3.453100	-10.339000	25.715278	0.000241	20.674837
1637.427211	-2.997400	3.451500	-10.345000	25.705512	0.000245	20.692057
1638.428142	-2.998900	3.450800	-10.348000	25.773016	0.000242	20.685418
1639.430350	-3.002700	3.450900	-10.361000	25.769408	0.000243	20.693174
1640.427485	-3.020900	3.450900	-10.424000	25.784493	0.000244	20.704534
1641.429240	-3.002800	3.451500	-10.364000	25.812166	0.000242	20.700563
1642.430896	-3.024100	3.448900	-10.429000	25.804412	0.000243	20.686135
1643.427261	-2.976900	3.450300	-10.270000	25.764117	0.000242	20.724372
1644.430301	-2.996800	3.450800	-10.340000	25.762549	0.000240	20.692922
1645.431154	-3.004800	3.450200	-10.366000	25.768538	0.000241	20.695619
1646.428886	-2.970400	3.449300	-10.245000	25.831962	0.000241	20.699586
1647.430198	-2.995300	3.449100	-10.330000	25.854614	0.000240	20.702901
1648.433690	-2.999500	3.447000	-10.338000	25.824356	0.000240	20.675348
1649.429283	-2.994200	3.448100	-10.324000	25.751585	0.000240	20.692341
1650.441733	-3.005000	3.447700	-10.359000	25.751658	0.000238	20.693363
1651.434629	-2.983100	3.447500	-10.283000	25.745473	0.000239	20.680036
1652.432973	-3.011400	3.447300	-10.380000	25.704929	0.000239	20.682935
1653.434733	-2.990300	3.445700	-10.303000	25.735908	0.000240	20.687500
1654.436885	-2.986900	3.445700	-10.291000	25.751654	0.000238	20.705688
1655.435175	-2.983600	3.446800	-10.284000	25.738810	0.000239	20.707960
1656.435594	-3.006300	3.444900	-10.355000	25.762758	0.000238	20.689339
1657.437370	-3.005900	3.444400	-10.352000	25.755628	0.000235	20.701144
1658.433713	-2.998300	3.445800	-10.331000	25.778708	0.000235	20.704888
1659.437153	-2.992900	3.444400	-10.308000	25.800894	0.000236	20.696353
1660.435727	-2.993200	3.444100	-10.308000	25.782760	0.000235	20.705165
1661.433842	-3.010600	3.444100	-10.368000	25.798509	0.000236	20.701544
1662.436739	-2.984900	3.443000	-10.276000	25.829137	0.000238	20.695326
1663.436531	-3.027200	3.441200	-10.416000	25.815793	0.000235	20.708950
1664.435833	-3.001700	3.442100	-10.331000	25.786454	0.000235	20.702237
1665.438447	-3.000600	3.442300	-10.328000	25.814382	0.000235	20.678131
1666.439528	-2.980000	3.442100	-10.257000	25.797335	0.000236	20.705107
1667.437037	-3.015000	3.441600	-10.376000	25.838179	0.000233	20.711523
1668.439812	-2.979100	3.442900	-10.256000	25.790008	0.000233	20.707704
1669.440935	-2.984800	3.440700	-10.269000	25.765360	0.000233	20.702859
1670.440022	-3.013900	3.440900	-10.369000	25.773188	0.000235	20.720681
1671.440222	-3.026600	3.440200	-10.412000	25.768910	0.000233	20.712590
1672.442834	-2.974600	3.441700	-10.236000	25.725978	0.000232	20.704554
1673.444301	-2.999600	3.441000	-10.321000	25.740637	0.000232	20.695569
1674.443308	-3.004200	3.438800	-10.330000	25.755767	0.000233	20.733055
1675.443348	-2.992800	3.439600	-10.293000	25.807141	0.000232	20.700731
1676.443864	-3.000100	3.440100	-10.320000	25.827467	0.000231	20.703606
1677.443751	-3.025100	3.439000	-10.402000	25.827787	0.000230	20.699185
1678.447531	-2.984200	3.439700	-10.264000	25.802150	0.000230	20.716108
1679.443191	-3.006800	3.439200	-10.340000	25.802051	0.000231	20.710318
1680.445645	-2.991300	3.438500	-10.285000	25.816434	0.000229	20.701531
1681.451161	-3.027200	3.438200	-10.408000	25.859440	0.000229	20.720078
1682.446555	-2.991000	3.438700	-10.284000	25.887563	0.000229	20.713242
1683.446565	-2.991900	3.437000	-10.283000	25.834945	0.000227	20.703531
1684.451962	-3.008700	3.435800	-10.336000	25.854544	0.000230	20.714211
1685.446810	-3.007100	3.435200	-10.330000	25.852139	0.000228	20.706104
1686.444655	-2.974900	3.436900	-10.223000	25.868909	0.000229	20.719633
1687.448088	-3.011800	3.436100	-10.348000	25.878271	0.000228	20.706752
1688.443010	-3.003400	3.434400	-10.314000	25.903783	0.000227	20.719105
1689.449454	-3.014100	3.435400	-10.353000	25.939756	0.000227	20.705931
1690.450002	-3.045900	3.433500	-10.457000	25.898226	0.000226	20.704987
1691.448419	-3.007200	3.435400	-10.329000	25.861062	0.000227	20.732139
1692.446175	-2.994900	3.435000	-10.286000	25.874868	0.000226	20.720404
1693.448321	-3.000700	3.434500	-10.305000	25.895070	0.000226	20.721732
1694.442585	-2.991500	3.434200	-10.272000	25.875841	0.000226	20.697672
1695.456079	-2.963300	3.435000	-10.177000	25.895443	0.000225	20.703140
1696.448934	-3.011700	3.434000	-10.342000	25.859371	0.000223	20.711473
1697.447006	-2.991500	3.432900	-10.269000	25.834678	0.000226	20.715118
1698.448431	-3.015600	3.431600	-10.348000	25.852114	0.000225	20.708925
1699.449667	-2.988300	3.432300	-10.255000	25.847472	0.000224	20.716590
1700.447486	-3.020100	3.430800	-10.360000	25.849807	0.000225	20.718462
1701.448941	-2.991600	3.432500	-10.268000	25.865929	0.000226	20.735133
1702.449389	-2.976400	3.430900	-10.210000	25.889406	0.000225	20.724577
1703.448822	-3.004800	3.430900	-10.308000	25.884990	0.000222	20.732469
1704.450220	-2.978300	3.430600	-10.217000	25.877360	0.000223	20.714372
1705.452110	-3.013600	3.431000	-10.339000	25.837835	0.000223	20.731566
1706.449574	-2.993000	3.430100	-10.265000	25.834580	0.000223	20.706010
1707.450089	-2.979300	3.429400	-10.216000	25.863397	0.000219	20.721683
1708.450237	-2.990400	3.428900	-10.252000	25.865564	0.000221	20.708212
1709.450346	-2.974400	3.429400	-10.199000	25.814985	0.000219	20.729476
1710.453797	-2.992000	3.429100	-10.259000	25.778187	0.000219	20.741351
1711.449921	-3.010100	3.427900	-10.316000	25.768898	0.000221	20.733442
1712.452553	-2.982000	3.427100	-10.218000	25.784648	0.000220	20.720339
1713.452035	-2.991800	3.428300	-10.256000	25.783782	0.000219	20.718994
1714.454144	-2.981500	3.427000	-10.217000	25.766041	0.000221	20.736263
1715.453544	-2.992900	3.427800	-10.258000	25.732550	0.000219	20.706414
1716.455183	-2.995200	3.427100	-10.264000	25.771484	0.000220	20.722289
1717.455069	-2.987900	3.426700	-10.238000	25.823403	0.000217	20.712801
1718.454721	-3.003200	3.425100	-10.285000	25.832175	0.000219	20.723035
1719.455872	-2.996900	3.424700	-10.262000	25.802737	0.000218	20.718120
1720.455538	-2.988700	3.425200	-10.235000	25.791355	0.000216	20.720912
1721.456242	-2.973400	3.426200	-10.187000	25.831777	0.000218	20.741602
1722.455364	-2.992300	3.425000	-10.248000	25.839953	0.000218	20.732746
1723.455504	-3.009100	3.425400	-10.307000	25.849315	0.000217	20.745944
1724.460039	-2.988300	3.424200	-10.232000	25.930645	0.000217	20.742299
1725.456250	-3.000400	3.424600	-10.274000	25.912287	0.000216	20.732391
1726.456478	-3.000500	3.424100	-10.272000	25.849807	0.000216	20.732214
1727.460606	-3.005600	3.424200	-10.291000	25.869513	0.000215	20.730197
1728.459135	-3.008700	3.423400	-10.299000	25.843725	0.000215	20.732741
1729.459134	-3.009300	3.422600	-10.298000	25.864095	0.000215	20.741825
1730.458484	-3.016300	3.422700	-10.323000	25.896067	0.000216	20.728899
1731.458139	-3.030500	3.421000	-10.366000	25.919966	0.000215	20.753857
1732.459051	-2.984900	3.421900	-10.213000	25.919346	0.000216	20.730474
1733.461376	-3.008600	3.422500	-10.296000	25.902626	0.000214	20.740229
1734.460774	-3.002300	3.421400	-10.272000	25.917980	0.000215	20.741429
1735.461898	-3.024500	3.420300	-10.344000	25.904740	0.000213	20.741405
1736.462306	-3.005600	3.420500	-10.280000	25.935172	0.000214	20.743528
1737.461987	-2.985200	3.419500	-10.206000	25.867575	0.000213	20.748167
1738.461894	-3.012000	3.419500	-10.298000	25.866389	0.000213	20.759304
1739.462394	-2.998900	3.420500	-10.256000	25.878538	0.000212	20.753016
1740.464029	-2.998900	3.420000	-10.256000	25.805972	0.000213	20.735595
1741.464287	-3.001900	3.417800	-10.259000	25.840179	0.000211	20.751465
1742.464145	-3.002600	3.418900	-10.264000	25.874655	0.000209	20.736312
1743.464778	-3.005800	3.418100	-10.273000	25.903603	0.000211	20.764920
1744.465380	-2.983800	3.418600	-10.200000	25.908893	0.000209	20.737991
1745.464656	-3.002900	3.418000	-10.263000	25.938652	0.000213	20.725687
1746.464343	-3.023200	3.417300	-10.331000	25.901592	0.000211	20.756735
1747.466482	-3.027000	3.416100	-10.339000	25.849549	0.000213	20.740015
1748.465850	-3.017500	3.416400	-10.308000	25.843064	0.000212	20.753890
1749.464759	-3.000800	3.415300	-10.248000	25.867727	0.000210	20.754958
1750.466963	-3.011400	3.416500	-10.287000	25.909168	0.000210	20.770985
1751.466322	-3.020800	3.414500	-10.314000	25.949060	0.000209	20.747524
1752.465026	-3.005200	3.416100	-10.266000	25.933883	0.000210	20.745553
1753.466268	-3.003700	3.415200	-10.257000	25.939198	0.000209	20.746151
1754.473261	-2.988000	3.415400	-10.204000	25.948284	0.000210	20.743899
1755.468145	-3.022300	3.414700	-10.319000	25.935713	0.000209	20.756875
1756.471854	-3.013700	3.413000	-10.284000	25.945772	0.000209	20.777887
1757.468852	-2.977800	3.413600	-10.164000	25.948383	0.000208	20.782880
1758.470759	-3.009900	3.412700	-10.271000	25.963506	0.000207	20.752554
1759.470218	-3.009500	3.413100	-10.270000	25.965119	0.000208	20.771244
1760.467669	-3.006000	3.412400	-10.257000	25.941049	0.000206	20.747536
1761.468461	-2.988300	3.413800	-10.200000	25.946363	0.000207	20.746711
1762.473968	-3.009900	3.411700	-10.268000	25.899338	0.000207	20.759213
1763.470932	-3.014200	3.410800	-10.280000	25.872077	0.000208	20.767863
1764.470049	-2.992200	3.412200	-10.209000	25.872594	0.000208	20.761744
1765.475097	-3.010100	3.411600	-10.267000	25.854039	0.000206	20.779614
1766.473614	-3.009500	3.410300	-10.262000	25.835852	0.000207	20.750912
1767.472025	-2.979300	3.410900	-10.161000	25.813068	0.000203	20.761690
1768.471712	-3.014900	3.411100	-10.283000	25.801952	0.000205	20.777552
1769.475047	-3.014200	3.408800	-10.274000	25.826699	0.000206	20.773961
1770.470954	-3.015100	3.409500	-10.280000	25.890616	0.000203	20.772736
1771.471662	-3.010400	3.408800	-10.261000	25.946133	0.000204	20.782042
1772.475766	-2.995900	3.410100	-10.215000	25.913759	0.000204	20.769433
1773.472342	-3.007900	3.408600	-10.252000	25.908420	0.000204	20.779242
1774.471068	-2.980200	3.408500	-10.157000	25.920338	0.000204	20.782207
1775.474877	-3.019700	3.408100	-10.290000	25.940756	0.000203	20.756251
1776.472004	-3.004700	3.405900	-10.232000	25.940383	0.000202	20.771998
1777.474843	-2.975000	3.408800	-10.140000	25.971187	0.000201	20.788721
1778.474750	-2.982900	3.407200	-10.163000	26.010100	0.000201	20.782297
1779.472048	-3.003900	3.405600	-10.228000	26.016584	0.000201	20.775535
1780.472293	-2.990100	3.406200	-10.184000	26.021402	0.000202	20.786066
1781.474163	-2.994300	3.407000	-10.201000	26.056267	0.000199	20.797388
1782.471716	-2.962400	3.406300	-10.090000	26.026392	0.000200	20.794398
1783.472007	-2.992900	3.404600	-10.188000	25.989183	0.000201	20.788783
1784.476228	-2.981600	3.406100	-10.155000	25.960566	0.000199	20.775205
1785.472909	-3.001800	3.403800	-10.217000	25.950930	0.000198	20.784491
1786.473356	-2.996300	3.404900	-10.202000	25.983269	0.000197	20.785686
1787.478442	-3.007200	3.403000	-10.233000	25.980162	0.000197	20.773556
1788.474386	-3.001900	3.403600	-10.217000	25.920773	0.000200	20.781695
1789.475410	-3.004400	3.403800	-10.225000	25.900125	0.000198	20.794143
1790.475535	-3.012100	3.402800	-10.248000	25.943350	0.000196	20.786358
1791.477690	-3.003100	3.402400	-10.217000	25.925719	0.000196	20.785715
1792.479325	-2.998000	3.402700	-10.201000	25.939155	0.000199	20.795421
1793.477324	-2.992000	3.401900	-10.177000	25.985358	0.000196	20.777828
1794.476847	-3.013800	3.400900	-10.249000	25.948443	0.000198	20.791001
1795.479438	-2.981300	3.401200	-10.139000	25.912651	0.000195	20.800088
1796.479450	-2.998400	3.401100	-10.198000	25.896977	0.000196	20.804731
1797.477359	-2.988500	3.400700	-10.162000	25.907689	0.000195	20.786095
1798.483808	-2.982400	3.402100	-10.146000	25.954513	0.000194	20.787142
1799.479580	-3.005000	3.400400	-10.218000	25.963185	0.000196	20.795854
1800.479203	-3.013800	3.399300	-10.244000	25.972324	0.000195	20.776587
1801.479803	-3.025900	3.397900	-10.281000	25.963234	0.000194	20.789265
1802.479581	-2.994000	3.400500	-10.180000	25.973621	0.000195	20.785950
1803.480190	-3.012500	3.398900	-10.238000	25.980376	0.000195	20.799375
1804.480099	-3.017000	3.398900	-10.253000	26.036537	0.000194	20.792737
1805.482890	-3.019400	3.398200	-10.260000	26.029835	0.000190	20.784582
1806.480850	-3.005900	3.398100	-10.213000	26.023003	0.000192	20.796209
1807.482235	-3.006100	3.398300	-10.215000	25.991457	0.000191	20.811456
1808.481551	-3.003000	3.395700	-10.197000	26.023085	0.000192	20.783489
1809.480517	-3.002800	3.396800	-10.199000	26.063219	0.000190	20.792993
1810.483768	-3.026700	3.397200	-10.281000	26.025863	0.000193	20.788651
1811.482421	-3.010500	3.396300	-10.224000	26.021841	0.000192	20.801206
1812.481053	-2.997100	3.395900	-10.177000	26.033143	0.000193	20.809716
1813.481543	-3.010800	3.394400	-10.220000	26.050231	0.000192	20.812186
1814.494049	-2.982200	3.396200	-10.126000	26.091041	0.000190	20.796291
1815.481069	-3.010000	3.394500	-10.217000	26.066005	0.000192	20.796266
1816.484247	-3.020200	3.394800	-10.252000	26.045142	0.000190	20.807073
1817.486383	-2.996800	3.395900	-10.176000	26.058110	0.000190	20.810145
1818.483575	-3.024100	3.394000	-10.262000	26.072858	0.000188	20.799833
1819.484822	-3.019500	3.394200	-10.248000	26.038507	0.000189	20.808467
1820.485887	-3.006400	3.394000	-10.203000	26.052299	0.000190	20.811893
1821.482932	-2.986000	3.393600	-10.133000	26.106938	0.000189	20.801358
1822.484586	-3.010000	3.392600	-10.211000	26.087442	0.000189	20.812590
1823.487093	-3.015200	3.392000	-10.227000	26.046209	0.000188	20.811464
1824.492166	-3.010500	3.391800	-10.210000	26.055775	0.000188	20.813963
1825.486515	-2.975700	3.392400	-10.093000	26.091016	0.000188	20.796741
1826.490958	-2.976300	3.392600	-10.097000	26.062259	0.000188	20.798666
1827.485999	-2.971400	3.392900	-10.081000	26.001552	0.000188	20.835348
1828.486953	-3.020400	3.391200	-10.242000	25.997748	0.000186	20.805448
1829.488510	-3.004500	3.390600	-10.186000	26.029396	0.000186	20.820650
1830.488380	-2.975300	3.391100	-10.089000	26.026339	0.000188	20.824691
1831.488943	-2.986300	3.390800	-10.125000	26.024156	0.000188	20.804954
1832.491069	-2.978600	3.389500	-10.095000	26.057683	0.000186	20.813035
1833.491173	-2.993900	3.389900	-10.147000	26.074976	0.000185	20.818556
1834.488019	-2.997400	3.389200	-10.157000	26.109272	0.000188	20.814610
1835.490571	-3.029200	3.388700	-10.264000	26.147171	0.000186	20.808594
1836.487628	-3.016000	3.388100	-10.216000	26.135427	0.000185	20.828088
1837.489191	-2.999900	3.387400	-10.160000	26.141631	0.000185	20.806347
1838.492640	-2.978600	3.388500	-10.093000	26.142206	0.000185	20.849597
1839.488462	-2.989200	3.388000	-10.126000	26.126683	0.000184	20.804603
1840.489615	-2.995700	3.386800	-10.145000	26.063994	0.000182	20.811316
1841.489895	-2.984000	3.386900	-10.105000	26.002722	0.000182	20.822299
1842.487309	-3.004600	3.385800	-10.172000	26.023187	0.000183	20.825317
1843.490890	-2.990600	3.386600	-10.127000	26.031731	0.000183	20.817306
1844.489428	-2.996300	3.387000	-10.148000	26.058635	0.000182	20.818733
1845.488318	-2.994500	3.385200	-10.136000	26.100188	0.000186	20.839620
1846.492463	-2.999800	3.385700	-10.155000	26.122843	0.000179	20.831564
1847.491323	-2.998600	3.384200	-10.147000	26.143277	0.000182	20.826492
1848.490345	-2.975600	3.385800	-10.074000	26.130019	0.000182	20.832611
1849.491775	-2.990900	3.383500	-10.119000	26.133544	0.000181	20.832834
1850.490720	-3.001600	3.383500	-10.155000	26.121550	0.000180	20.827894
1851.488513	-2.987800	3.382700	-10.106000	26.115666	0.000181	20.837155
1852.491921	-2.993500	3.384300	-10.130000	26.076026	0.000181	20.819611
1853.492634	-3.001000	3.384000	-10.155000	26.069941	0.000181	20.829618
1854.491563	-2.990200	3.382300	-10.112000	26.111173	0.000181	20.850657
1855.491642	-3.043600	3.381000	-10.289000	26.089047	0.000179	20.846444
1856.495338	-3.004700	3.382100	-10.161000	26.081271	0.000177	20.823458
1857.490884	-3.014200	3.380900	-10.190000	26.095703	0.000179	20.835588
1858.493202	-3.028200	3.381700	-10.240000	26.058947	0.000179	20.835168
1859.495329	-3.000500	3.380600	-10.142000	26.028445	0.000175	20.814953
1860.492046	-3.024400	3.380100	-10.222000	26.026910	0.000177	20.852290
1861.490376	-2.989400	3.381100	-10.107000	26.074722	0.000177	20.849594
1862.495660	-2.996000	3.381400	-10.130000	26.071767	0.000177	20.847099
1863.493314	-2.982000	3.381200	-10.082000	26.074750	0.000174	20.851993
1864.493649	-2.977100	3.380000	-10.062000	26.111756	0.000176	20.845079
1865.495488	-2.973800	3.381600	-10.055000	26.179136	0.000176	20.844980
1866.493520	-3.007200	3.380100	-10.163000	26.176186	0.000175	20.857188
1867.495324	-2.995400	3.378700	-10.120000	26.140771	0.000176	20.841517
1868.494658	-2.985800	3.378500	-10.087000	26.109355	0.000175	20.824650
1869.493321	-2.997000	3.378300	-10.123000	26.081534	0.000175	20.832731
1870.493679	-3.018300	3.377900	-10.193000	26.052722	0.000174	20.830810
1871.492939	-2.988800	3.377600	-10.094000	26.081263	0.000173	20.841942
1872.495099	-3.003700	3.378800	-10.148000	26.106528	0.000174	20.822284
1873.494015	-3.001500	3.376300	-10.132000	26.118202	0.000174	20.841600
1874.507703	-2.994400	3.377800	-10.114000	26.109360	0.000174	20.808534
1875.496538	-3.000000	3.376900	-10.130000	26.108371	0.000174	20.826032
1876.496895	-3.026600	3.376000	-10.217000	26.106881	0.000173	20.835914
1877.500222	-2.998800	3.375200	-10.121000	26.118231	0.000173	20.821715
1878.497540	-3.006800	3.375900	-10.149000	26.103705	0.000172	20.828456
1879.498239	-2.998800	3.374700	-10.118000	26.133139	0.000170	20.837168
1880.497327	-3.017300	3.374700	-10.182000	26.208063	0.000171	20.831849
1881.499177	-2.999200	3.374900	-10.121000	26.234171	0.000171	20.837696
1882.499781	-3.022900	3.375200	-10.202000	26.247431	0.000169	20.828263
1883.498601	-3.033200	3.374500	-10.235000	26.279339	0.000170	20.811964
1884.499316	-2.982900	3.373600	-10.062000	26.189640	0.000169	20.807647
1885.500406	-2.995900	3.374400	-10.108000	26.142630	0.000169	20.813989
1886.501811	-3.000100	3.372700	-10.118000	26.126836	0.000170	20.804757
1887.500831	-2.982600	3.372200	-10.057000	26.154653	0.000169	20.817060
1888.501396	-2.989200	3.372900	-10.080000	26.177819	0.000169	20.813313
1889.503994	-2.985200	3.372400	-10.066000	26.187408	0.000170	20.804456
1890.501430	-3.007900	3.372200	-10.142000	26.176875	0.000170	20.800510
1891.501623	-2.993700	3.372800	-10.096000	26.148169	0.000168	20.803908
1892.504215	-2.992400	3.372100	-10.089000	26.164705	0.000168	20.810092
1893.501227	-2.992500	3.370300	-10.085000	26.212142	0.000167	20.809870
1894.501835	-2.995100	3.370500	-10.095000	26.236378	0.000166	20.813362
1895.504861	-3.007400	3.371700	-10.140000	26.227015	0.000167	20.810117
1896.509355	-2.996900	3.369600	-10.098000	26.177520	0.000168	20.816805
1897.504025	-2.984200	3.370600	-10.058000	26.180400	0.000165	20.807845
1898.508269	-2.975300	3.369100	-10.023000	26.215440	0.000166	20.791374
1899.504097	-2.995500	3.369900	-10.094000	26.191244	0.000168	20.800250
1900.503921	-3.014700	3.368500	-10.153000	26.203984	0.000164	20.798354
1901.502661	-3.001400	3.368700	-10.110000	26.235225	0.000165	20.808410
1902.507622	-2.994100	3.367800	-10.083000	26.291569	0.000164	20.808608
1903.504091	-2.972700	3.368900	-10.014000	26.278157	0.000164	20.811251
1904.504021	-3.009100	3.366700	-10.129000	26.237280	0.000165	20.791509
1905.508351	-3.006100	3.365700	-10.117000	26.209191	0.000164	20.807379
1906.505137	-3.035400	3.367000	-10.220000	26.142338	0.000163	20.796626
1907.504750	-3.024600	3.366900	-10.183000	26.180605	0.000161	20.807577
1908.508139	-3.010500	3.365700	-10.131000	26.217060	0.000163	20.786363
1909.504856	-2.997800	3.365500	-10.088000	26.237526	0.000163	20.801714
1910.506116	-2.995000	3.365500	-10.079000	26.209035	0.000163	20.818602
1911.508806	-2.990300	3.364900	-10.062000	26.180453	0.000160	20.799364
1912.506043	-3.006000	3.364400	-10.112000	26.168307	0.000161	20.780047
1913.507385	-2.994500	3.365100	-10.076000	26.218697	0.000163	20.798914
1914.511849	-2.981600	3.365500	-10.034000	26.252415	0.000160	20.794865
1915.507778	-2.983100	3.363700	-10.034000	26.280425	0.000162	20.798357
1916.509718	-3.000500	3.363200	-10.090000	26.280150	0.000163	20.800452
1917.511303	-2.998900	3.362800	-10.084000	26.234182	0.000163	20.810207
1918.508218	-2.992400	3.363200	-10.063000	26.267263	0.000160	20.794139
1919.509785	-2.978500	3.363900	-10.018000	26.302818	0.000159	20.803317
1920.513752	-2.982600	3.363300	-10.030000	26.296881	0.000161	20.790239
1921.511341	-3.003400	3.362300	-10.098000	26.281537	0.000159	20.795207
1922.510783	-2.983800	3.362800	-10.033000	26.242621	0.000160	20.780281
1923.514289	-2.994100	3.362100	-10.065000	26.181330	0.000160	20.791237
1924.512201	-2.989800	3.361800	-10.050000	26.161779	0.000158	20.773961
1925.511271	-3.019900	3.360800	-10.148000	26.188650	0.000159	20.798592
1926.515097	-2.979300	3.361200	-10.013000	26.213457	0.000160	20.780372
1927.512125	-2.991400	3.360200	-10.051000	26.186537	0.000159	20.786511
1928.512957	-3.000100	3.359900	-10.079000	26.230518	0.000159	20.769540
1929.517567	-3.005900	3.359000	-10.096000	26.278345	0.000157	20.785835
1930.514769	-3.005800	3.359400	-10.097000	26.320307	0.000159	20.774426
1931.513280	-3.003200	3.360100	-10.091000	26.319560	0.000157	20.786952
1932.517701	-2.999000	3.358200	-10.071000	26.297213	0.000157	20.782512
1933.514500	-3.004800	3.358100	-10.089000	26.322416	0.000157	20.780339
1934.525855	-3.001000	3.358600	-10.078000	26.321094	0.000157	20.783753
1935.515347	-3.009200	3.356900	-10.100000	26.330358	0.000154	20.775045
1936.516124	-3.008000	3.357700	-10.099000	26.283419	0.000155	20.780029
1937.514682	-2.995000	3.356200	-10.051000	26.243909	0.000154	20.801016
1938.515493	-2.988300	3.357500	-10.032000	26.245846	0.000154	20.807704
1939.515386	-3.006100	3.356700	-10.089000	26.244081	0.000154	20.779378
1940.516181	-3.005800	3.355800	-10.086000	26.238612	0.000154	20.775778
1941.518267	-2.985100	3.355000	-10.014000	26.236680	0.000153	20.770517
1942.516586	-2.973100	3.355600	-9.975100	26.234759	0.000152	20.773803
1943.516378	-2.998400	3.354600	-10.058000	26.208685	0.000152	20.782689
1944.517182	-2.999200	3.353700	-10.058000	26.280699	0.000152	20.785356
1945.516539	-2.997300	3.354200	-10.053000	26.295075	0.000150	20.785579
1946.516870	-2.977600	3.355700	-9.990300	26.305877	0.000153	20.758976
1947.517267	-2.998900	3.353500	-10.056000	26.314862	0.000151	20.764213
1948.515951	-2.982300	3.355600	-10.007000	26.322829	0.000151	20.807782
1949.514625	-3.016800	3.353500	-10.116000	26.291223	0.000151	20.785501
1950.518290	-3.002800	3.352800	-10.066000	26.213247	0.000151	20.779213
1951.516075	-3.003600	3.353200	-10.070000	26.191366	0.000150	20.779035
1952.516569	-2.995700	3.353000	-10.043000	26.200105	0.000150	20.758420
1953.517871	-3.001400	3.352500	-10.061000	26.242346	0.000149	20.766728
1954.518534	-3.016600	3.351900	-10.110000	26.265789	0.000151	20.773692
1955.516067	-3.001900	3.351600	-10.060000	26.251036	0.000149	20.765029
1956.516914	-3.000200	3.350600	-10.052000	26.272346	0.000149	20.775065
1957.517984	-2.982000	3.352000	-9.994100	26.284785	0.000150	20.763384
1958.518495	-3.002000	3.350200	-10.057000	26.302370	0.000151	20.765883
1959.517906	-2.998700	3.350200	-10.045000	26.305221	0.000150	20.761636
1960.518151	-2.969900	3.350400	-9.949200	26.286225	0.000148	20.767202
1961.518340	-2.999600	3.349400	-10.046000	26.253969	0.000151	20.766555
1962.521409	-3.003300	3.349500	-10.059000	26.256550	0.000148	20.772467
1963.519642	-3.008300	3.349000	-10.073000	26.218655	0.000146	20.766155
1964.520655	-3.002600	3.349500	-10.056000	26.220543	0.000146	20.753352
1965.524686	-3.002500	3.348000	-10.051000	26.248754	0.000147	20.783126
1966.521883	-3.006800	3.348000	-10.066000	26.252701	0.000147	20.770971
1967.522474	-2.994400	3.347700	-10.023000	26.264743	0.000149	20.758890
1968.525227	-3.002600	3.347100	-10.049000	26.334325	0.000144	20.771919
1969.521483	-3.005900	3.347000	-10.060000	26.378299	0.000143	20.756370
1970.523690	-2.988400	3.347400	-10.001000	26.376359	0.000147	20.771964
1971.528369	-3.016400	3.345900	-10.091000	26.359079	0.000146	20.749381
1972.525017	-2.996100	3.345900	-10.023000	26.342165	0.000143	20.754667
1973.524205	-2.997700	3.345400	-10.027000	26.358554	0.000142	20.769717
1974.527100	-2.990400	3.347100	-10.007000	26.374020	0.000145	20.760131
1975.524837	-3.000000	3.345700	-10.036000	26.345939	0.000142	20.747081
1976.525462	-3.011700	3.344000	-10.070000	26.300072	0.000143	20.756935
1977.527977	-3.008200	3.344300	-10.059000	26.267492	0.000142	20.764971
1978.524992	-3.015300	3.344500	-10.083000	26.242834	0.000142	20.759158
1979.525468	-2.985000	3.343500	-9.979900	26.284153	0.000141	20.743782
1980.529359	-3.015400	3.342900	-10.079000	26.280974	0.000144	20.774727
1981.529459	-2.990200	3.343000	-9.995300	26.319014	0.000140	20.762221
1982.526456	-2.990100	3.342500	-9.993100	26.364212	0.000143	20.754540
1983.529638	-3.015000	3.342600	-10.077000	26.408706	0.000142	20.764646
1984.528843	-2.989900	3.342700	-9.993800	26.449970	0.000141	20.759652
1985.527555	-2.997300	3.341900	-10.016000	26.449970	0.000138	20.738789
1986.529961	-2.974600	3.342600	-9.941900	26.416922	0.000136	20.755834
1987.527825	-3.020400	3.339900	-10.087000	26.326415	0.000138	20.762547
1988.527014	-3.007200	3.340500	-10.045000	26.300142	0.000136	20.764118
1989.529780	-3.017200	3.341500	-10.081000	26.358944	0.000138	20.757780
1990.526452	-3.021100	3.340400	-10.090000	26.400214	0.000137	20.767965
1991.525862	-2.990500	3.341100	-9.990500	26.442844	0.000136	20.733523
1992.532441	-2.997600	3.339600	-10.010000	26.460976	0.000138	20.747955
1993.528280	-3.017100	3.339700	-10.075000	26.491856	0.000137	20.742009
1994.526057	-2.998400	3.339300	-10.012000	26.426259	0.000135	20.732975
1995.530025	-3.000100	3.339000	-10.017000	26.436043	0.000136	20.772682
1996.526039	-2.993200	3.339800	-9.996100	26.435748	0.000134	20.751047
1997.527659	-3.014200	3.338600	-10.063000	26.470882	0.000134	20.748903
1998.530953	-2.993500	3.338100	-9.992400	26.432470	0.000134	20.741114
1999.530559	-3.001800	3.337200	-10.017000	26.390783	0.000134	20.756115
2000.530239	-3.007300	3.337200	-10.035000	26.405358	0.000134	20.743737
2001.531679	-3.004900	3.336200	-10.025000	26.440391	0.000134	20.755240
2002.532666	-3.000100	3.338000	-10.013000	26.466784	0.000136	20.737671
2003.532395	-2.998400	3.337200	-10.005000	26.416209	0.000131	20.750375
2004.536691	-3.006400	3.334700	-10.024000	26.441113	0.000132	20.743638
2005.532943	-3.012300	3.336400	-10.049000	26.467855	0.000132	20.751076
2006.532311	-2.997100	3.335200	-9.995300	26.467034	0.000132	20.752622
2007.533150	-2.987900	3.335200	-9.963200	26.464130	0.000132	20.747332
2008.533587	-3.011300	3.335200	-10.043000	26.456504	0.000133	20.734925
2009.532705	-3.009900	3.334000	-10.034000	26.513161	0.000134	20.740191
2010.533638	-2.995100	3.334200	-9.985000	26.547575	0.000132	20.745860
2011.533256	-2.992700	3.333700	-9.975700	26.560233	0.000130	20.738669
2012.534014	-2.993500	3.334500	-9.980800	26.556558	0.000129	20.751097
2013.540009	-3.009700	3.332800	-10.030000	26.508046	0.000132	20.732204
2014.534302	-2.991600	3.333400	-9.971400	26.524060	0.000130	20.750198
2015.536465	-3.006800	3.331900	-10.017000	26.511397	0.000127	20.742685
2016.538567	-3.012300	3.331500	-10.034000	26.479640	0.000128	20.743481
2017.535167	-2.991900	3.333200	-9.971800	26.496995	0.000128	20.723941
2018.540308	-2.994400	3.331700	-9.975700	26.510400	0.000130	20.735519
2019.537591	-2.995800	3.331000	-9.978200	26.485370	0.000129	20.737387
2020.535253	-2.996800	3.330600	-9.980700	26.529982	0.000129	20.747617
2021.534507	-3.007000	3.330500	-10.014000	26.516976	0.000130	20.728852
2022.537395	-3.026100	3.330200	-10.077000	26.549121	0.000128	20.729870
2023.534877	-3.011800	3.329600	-10.027000	26.585048	0.000128	20.730897
2024.535137	-2.973700	3.331300	-9.905600	26.556820	0.000127	20.759421
2025.537569	-3.004800	3.330000	-10.005000	26.517443	0.000129	20.749237
2026.535727	-2.992300	3.328600	-9.959100	26.508723	0.000126	20.724823
2027.534113	-2.987600	3.329500	-9.945300	26.535586	0.000128	20.739024
2028.537823	-2.997000	3.328400	-9.974400	26.548301	0.000127	20.744693
2029.535404	-2.978500	3.328300	-9.911800	26.557058	0.000124	20.722201
2030.538109	-3.015900	3.327100	-10.033000	26.584170	0.000124	20.725272
2031.538102	-2.985600	3.327000	-9.932500	26.610305	0.000127	20.709344
2032.538763	-2.998200	3.327800	-9.977100	26.597398	0.000125	20.721025
2033.538354	-3.002500	3.326800	-9.987800	26.513403	0.000123	20.743279
2034.543018	-3.004300	3.326100	-9.990300	26.485124	0.000125	20.723388
2035.539074	-3.003400	3.325400	-9.985400	26.496597	0.000124	20.724963
2036.540634	-3.011500	3.324900	-10.012000	26.518990	0.000124	20.724712
2037.539487	-2.995400	3.325100	-9.959500	26.559183	0.000123	20.735243
2038.538362	-2.986800	3.325700	-9.931700	26.571217	0.000122	20.723157
2039.539475	-2.989900	3.325300	-9.940700	26.564659	0.000124	20.712296
2040.539829	-2.995200	3.324500	-9.955800	26.542017	0.000122	20.717987
2041.540133	-3.037800	3.322900	-10.093000	26.503312	0.000122	20.739300
2042.544034	-3.025800	3.322600	-10.052000	26.536377	0.000122	20.730336
2043.545738	-2.993600	3.320900	-9.940800	26.545938	0.000121	20.727145
2044.541192	-2.970800	3.324400	-9.874900	26.561254	0.000120	20.718832
2045.541635	-2.983400	3.323100	-9.912900	26.592279	0.000121	20.734373
2046.542100	-3.014200	3.321200	-10.010000	26.608337	0.000121	20.713529
2047.541939	-3.012200	3.320300	-10.000000	26.596938	0.000119	20.720564
2048.543271	-2.987600	3.321400	-9.922100	26.559601	0.000119	20.722860
2049.543269	-3.000000	3.320300	-9.960500	26.588469	0.000119	20.726275
2050.542551	-2.994500	3.320500	-9.942200	26.541972	0.000118	20.701345
2051.543196	-2.976700	3.319700	-9.881100	26.535262	0.000116	20.714515
2052.544044	-2.977300	3.321700	-9.888900	26.583473	0.000118	20.711295
2053.545881	-2.979800	3.320600	-9.893100	26.616737	0.000118	20.730984
2054.542414	-2.983100	3.321200	-9.905800	26.648412	0.000115	20.719677
2055.545157	-3.005300	3.319000	-9.972800	26.678745	0.000119	20.719352
2056.544247	-2.997000	3.319500	-9.947500	26.707261	0.000118	20.725735
2057.543492	-3.005300	3.317200	-9.968000	26.692812	0.000117	20.720218
2058.550004	-3.007200	3.318900	-9.978900	26.727040	0.000116	20.704842
2059.545949	-2.998800	3.317800	-9.948100	26.780209	0.000115	20.727479
2060.548851	-3.001200	3.318100	-9.957700	26.722673	0.000115	20.699502
2061.550322	-2.963100	3.316800	-9.827600	26.715992	0.000116	20.739729
2062.547560	-2.991300	3.317700	-9.923800	26.723739	0.000115	20.704842
2063.550967	-2.987000	3.316700	-9.905900	26.706432	0.000114	20.730118
2064.553791	-3.006400	3.316100	-9.968900	26.668504	0.000116	20.721859
2065.548099	-2.998800	3.316200	-9.943600	26.640476	0.000114	20.726399
2066.552692	-3.016400	3.315200	-9.998900	26.646382	0.000113	20.710998
2067.551549	-3.007300	3.314100	-9.964800	26.658624	0.000113	20.722358
2068.548676	-3.023100	3.314200	-10.018000	26.610880	0.000113	20.728415
2069.552081	-2.997400	3.314500	-9.933800	26.676539	0.000111	20.720927
2070.551709	-2.986400	3.314800	-9.898400	26.638360	0.000111	20.737074
2071.547712	-3.001800	3.313500	-9.945300	26.598883	0.000112	20.714932
2072.550443	-2.982700	3.313700	-9.882800	26.598412	0.000113	20.713509
2073.550422	-3.011000	3.312700	-9.973900	26.596299	0.000113	20.719921
2074.546332	-2.985200	3.312700	-9.887200	26.620252	0.000111	20.711283
2075.550319	-3.007700	3.312200	-9.961700	26.663743	0.000109	20.729401
2076.551754	-2.983900	3.312800	-9.883800	26.645964	0.000109	20.728123
2077.547858	-3.016600	3.311300	-9.987800	26.648897	0.000110	20.714949
2078.551555	-3.001500	3.311100	-9.937500	26.619178	0.000110	20.705461
2079.551278	-2.991600	3.310800	-9.903500	26.633599	0.000109	20.709052
2080.548980	-3.007200	3.310500	-9.954600	26.633299	0.000108	20.716813
2081.551150	-2.986000	3.312300	-9.889700	26.603432	0.000108	20.714763
2082.551786	-2.984300	3.310200	-9.877800	26.592559	0.000108	20.717584
2083.549004	-2.989900	3.310500	-9.897400	26.639279	0.000108	20.724721
2084.551831	-3.005100	3.309700	-9.944800	26.643048	0.000107	20.725666
2085.552565	-3.005800	3.310500	-9.950000	26.629666	0.000109	20.708892
2086.553360	-3.005000	3.309300	-9.942800	26.627652	0.000107	20.722516
2087.553014	-3.019800	3.307000	-9.986300	26.639763	0.000107	20.715250
2088.553116	-2.979900	3.308600	-9.858200	26.635494	0.000105	20.731822
2089.555640	-2.994800	3.307000	-9.902100	26.629654	0.000107	20.707932
2090.554622	-3.012500	3.306500	-9.960200	26.696460	0.000108	20.709659
2091.555619	-2.980800	3.308100	-9.859400	26.745828	0.000106	20.744596
2092.551995	-2.993700	3.307700	-9.901300	26.803610	0.000107	20.727773
2093.553197	-3.014300	3.305800	-9.963200	26.825499	0.000107	20.697149
2094.555911	-3.013000	3.305700	-9.959300	26.833488	0.000105	20.721778
2095.552656	-2.992400	3.306500	-9.893300	26.833783	0.000105	20.719704
2096.557336	-3.024000	3.304700	-9.992500	26.789528	0.000103	20.722623
2097.555516	-3.003500	3.304500	-9.924400	26.748248	0.000105	20.725691
2098.553021	-2.998600	3.304200	-9.906600	26.708485	0.000103	20.718904
2099.555348	-2.984700	3.304500	-9.861900	26.721932	0.000103	20.730054
2100.555582	-2.989900	3.303100	-9.875200	26.730475	0.000104	20.722046
2101.553732	-2.974600	3.304800	-9.829700	26.737816	0.000103	20.725634
2102.554742	-3.002700	3.304400	-9.921300	26.748068	0.000102	20.735468
2103.557370	-2.996300	3.302700	-9.894900	26.775491	0.000102	20.745496
2104.552495	-3.009700	3.302600	-9.938900	26.725402	0.000104	20.734965
2105.552751	-2.990600	3.302800	-9.876600	26.744041	0.000104	20.739480
2106.554957	-2.998000	3.301500	-9.896300	26.741462	0.000102	20.721238
2107.556892	-3.010200	3.300900	-9.935700	26.710856	0.000102	20.719391
2108.556165	-3.014300	3.302200	-9.953000	26.711750	0.000100	20.742102
2109.556678	-2.999600	3.300300	-9.898500	26.667489	9.889175E-5	20.728425
2110.555230	-2.970900	3.301200	-9.806600	26.654579	9.971681E-5	20.721610
2111.556730	-2.981400	3.300000	-9.837900	26.695936	0.000102	20.747541
2112.556239	-3.006100	3.299300	-9.915600	26.724676	9.965081E-5	20.741822
2113.555714	-2.991400	3.300000	-9.871200	26.807855	0.000102	20.741999
2114.557001	-3.005000	3.299400	-9.913300	26.875437	9.951880E-5	20.747364
2115.559857	-2.993500	3.300000	-9.877200	26.865485	9.974981E-5	20.706060
2116.557672	-3.018900	3.298900	-9.958400	26.878312	9.862773E-5	20.743142
2117.558420	-3.003100	3.298600	-9.903900	26.880546	9.809969E-5	20.730689
2118.559020	-2.999100	3.297500	-9.889100	26.887370	9.790168E-5	20.735180
2119.559453	-3.008400	3.297800	-9.920600	26.893229	9.879274E-5	20.725898
2120.557321	-3.001700	3.298100	-9.898200	26.872280	9.826471E-5	20.739921
2121.558836	-2.970900	3.298200	-9.798100	26.846865	9.767066E-5	20.733807
2122.559620	-2.997500	3.295800	-9.878300	26.838873	9.697761E-5	20.717709
2123.560543	-2.967100	3.296900	-9.781600	26.773273	9.935378E-5	20.730937
2124.562751	-3.003100	3.295000	-9.894800	26.768311	9.635057E-5	20.717886
2125.559153	-3.010100	3.295500	-9.918500	26.791017	9.641657E-5	20.734553
2126.562918	-3.016400	3.294700	-9.936900	26.794889	9.641657E-5	20.743187
2127.566326	-2.993300	3.293500	-9.856900	26.836117	9.430442E-5	20.727267
2128.560310	-2.986700	3.294200	-9.838000	26.849690	9.681260E-5	20.721948
2129.565436	-3.021600	3.293500	-9.951300	26.877840	9.377638E-5	20.724649
2130.568605	-2.991500	3.293200	-9.850800	26.876840	9.407340E-5	20.747826
2131.560128	-2.990900	3.292600	-9.846700	26.906724	9.509647E-5	20.740416
2132.563301	-2.977800	3.293200	-9.805700	26.973603	9.506347E-5	20.758357
2133.563421	-2.987900	3.292400	-9.836400	26.912058	9.446943E-5	20.743884
2134.561249	-2.997600	3.291700	-9.865400	26.874929	9.278631E-5	20.728360
2135.566177	-3.016700	3.290800	-9.926600	26.881379	9.311633E-5	20.725837
2136.566648	-3.012100	3.291500	-9.914000	26.879296	9.215926E-5	20.741287
2137.558833	-2.998700	3.290100	-9.864600	26.830200	9.311633E-5	20.731275
2138.560009	-2.984900	3.291500	-9.824000	26.822282	9.077316E-5	20.746074
2139.565657	-2.989900	3.290800	-9.838200	26.858318	9.070715E-5	20.727305
2140.561558	-3.021000	3.290100	-9.938700	26.859835	9.166422E-5	20.733098
2141.560381	-2.991600	3.290700	-9.843900	26.839579	9.083916E-5	20.731696
2142.564283	-3.002700	3.289000	-9.874900	26.849014	9.093817E-5	20.760625
2143.559980	-2.979100	3.290000	-9.800600	26.849088	9.245628E-5	20.730826
2144.562237	-2.982900	3.288600	-9.808800	26.882790	9.008011E-5	20.755232
2145.564449	-2.981700	3.288600	-9.804600	26.932974	8.849599E-5	20.717499
2146.563769	-2.993400	3.287400	-9.839100	26.908405	8.902403E-5	20.734995
2147.563693	-2.995000	3.287500	-9.845400	26.904059	9.047614E-5	20.751962
2148.566322	-3.009400	3.287900	-9.893800	26.908598	8.813297E-5	20.757001
2149.564621	-2.975700	3.287700	-9.782300	26.895022	9.080616E-5	20.759945
2150.564275	-3.000400	3.285600	-9.857300	26.902345	8.783594E-5	20.761619
2151.568429	-3.021100	3.285600	-9.925000	26.924405	8.899103E-5	20.749661
2152.568925	-3.001600	3.286300	-9.863800	26.902911	8.770393E-5	20.738953
2153.565218	-3.018100	3.285900	-9.916800	26.933065	8.776994E-5	20.756473
2154.569279	-3.018500	3.284400	-9.913300	26.971480	8.770393E-5	20.759541
2155.565972	-3.026800	3.283500	-9.937800	26.962890	8.671386E-5	20.744264
2156.566751	-3.011300	3.283500	-9.885700	26.960479	8.724190E-5	20.735202
2157.566319	-2.970800	3.286600	-9.763100	27.021603	8.569079E-5	20.760634
2158.566298	-2.984100	3.284200	-9.799600	27.028077	8.549277E-5	20.744384
2159.567908	-2.998900	3.282700	-9.844200	27.019167	8.602081E-5	20.755814
2160.568270	-2.999800	3.282400	-9.845500	26.979160	8.773694E-5	20.738814
2161.568846	-2.985100	3.283000	-9.798900	26.978741	8.674686E-5	20.742661
2162.570225	-2.990800	3.282700	-9.817000	26.963227	8.430469E-5	20.767363
2163.568521	-3.003800	3.280900	-9.854300	26.882074	8.450270E-5	20.768736
2164.572816	-3.012500	3.281800	-9.885200	26.880954	8.301759E-5	20.760024
2165.568265	-2.987000	3.281600	-9.800900	26.885244	8.397466E-5	20.745845
2166.570678	-2.973000	3.280900	-9.753600	26.933886	8.456870E-5	20.762515
2167.571506	-3.040400	3.278300	-9.965700	26.968008	8.275357E-5	20.757946
2168.571414	-2.989000	3.280300	-9.803200	27.048933	8.598781E-5	20.771524
2169.572150	-2.981900	3.279200	-9.778000	27.088033	8.245655E-5	20.773388
2170.578261	-2.995600	3.277900	-9.818100	27.144603	8.420568E-5	20.762004
2171.571999	-2.996800	3.279700	-9.827700	27.163534	8.565778E-5	20.761130
2172.572479	-2.996300	3.279000	-9.824200	27.118030	8.417268E-5	20.759934
2173.579623	-2.993800	3.277700	-9.811800	27.103263	8.222553E-5	20.783490
2174.572523	-3.010000	3.277900	-9.865500	27.063017	8.341362E-5	20.757712
2175.574262	-3.000000	3.277000	-9.830300	26.992539	8.156549E-5	20.766020
2176.576867	-3.004000	3.275000	-9.837900	26.954044	8.097144E-5	20.786104
2177.572724	-2.987700	3.277500	-9.792100	26.919552	8.087243E-5	20.778922
2178.572230	-2.993500	3.276100	-9.806400	26.915850	8.212653E-5	20.762396
2179.575775	-3.021400	3.275400	-9.895600	26.987222	8.130147E-5	20.756880
2180.573779	-3.006000	3.275300	-9.844400	27.027976	8.146648E-5	20.774155
2181.573603	-3.022600	3.274300	-9.896200	27.076952	8.057541E-5	20.780736
2182.574604	-2.979000	3.274900	-9.755100	27.081146	8.087243E-5	20.768833
2183.573916	-3.018100	3.273700	-9.879300	27.080154	7.882628E-5	20.781111
2184.574794	-2.978700	3.274100	-9.750900	27.097004	7.991536E-5	20.780988
2185.576300	-3.007900	3.272100	-9.840600	27.116411	8.083943E-5	20.764470
2186.575990	-2.988600	3.272400	-9.778800	27.083007	7.770420E-5	20.775920
2187.574988	-2.998900	3.272500	-9.813000	27.150576	7.862827E-5	20.762796
2188.580585	-2.995000	3.272000	-9.798200	27.163797	7.730817E-5	20.769930
2189.576554	-2.991200	3.271800	-9.785300	27.208188	7.681314E-5	20.775224
2190.578555	-3.008800	3.273100	-9.847400	27.219379	7.753919E-5	20.776048
2191.577922	-2.997600	3.271200	-9.805000	27.203351	7.582307E-5	20.772729
2192.575969	-2.997300	3.270500	-9.801500	27.103879	7.720917E-5	20.777945
2193.578456	-3.003300	3.269700	-9.819500	27.087947	7.579006E-5	20.788949
2194.580087	-2.995000	3.269600	-9.791800	27.085664	7.819924E-5	20.782860
2195.578086	-2.984800	3.271100	-9.762800	27.131817	7.701115E-5	20.773327
2196.578355	-3.008300	3.268800	-9.832200	27.176751	7.849626E-5	20.766837
2197.582600	-3.018900	3.267900	-9.864600	27.219850	7.513001E-5	20.777471
2198.579247	-2.997200	3.269000	-9.796800	27.213771	7.681314E-5	20.784632
2199.580049	-3.017900	3.267200	-9.858800	27.178661	7.446997E-5	20.780138
2200.586047	-3.009000	3.269100	-9.835600	27.124573	7.443696E-5	20.790698
2201.583049	-2.998300	3.265600	-9.790700	27.122261	7.674713E-5	20.778889
2202.584050	-2.992300	3.265800	-9.771100	27.088390	7.483299E-5	20.775644
2203.582047	-2.986000	3.266600	-9.753700	27.122884	7.473399E-5	20.776197
2204.580049	-2.993000	3.265900	-9.773500	27.166749	7.463498E-5	20.797080
2205.585052	-2.976600	3.265800	-9.719800	27.261058	7.433796E-5	20.795687
2206.583048	-3.011500	3.266200	-9.835600	27.293928	7.334788E-5	20.789395
2207.580049	-3.014300	3.265800	-9.843400	27.312905	7.437096E-5	20.770552
2208.583048	-3.001100	3.264500	-9.795800	27.326202	7.371091E-5	20.778712
2209.582048	-3.008900	3.263700	-9.819500	27.314344	7.338089E-5	20.785276
2210.581049	-2.961300	3.264200	-9.665300	27.324394	7.367791E-5	20.796334
2211.583049	-3.002300	3.263100	-9.795400	27.339875	7.275384E-5	20.782035
2212.584047	-3.004800	3.263700	-9.806200	27.319238	7.047667E-5	20.781664
2213.581049	-2.989000	3.262700	-9.751900	27.252573	7.031166E-5	20.781936
2214.584049	-2.999000	3.262600	-9.784200	27.243121	7.318287E-5	20.815576
2215.584049	-2.987500	3.261300	-9.742300	27.201560	7.014665E-5	20.799851
2216.583048	-2.991300	3.260600	-9.752600	27.151068	7.324888E-5	20.787474
2217.583049	-2.983300	3.260700	-9.726500	27.169749	7.166476E-5	20.806263
2218.582052	-2.980400	3.260600	-9.717000	27.168835	7.146675E-5	20.785903
2219.584050	-2.980200	3.260300	-9.715600	27.221359	7.173077E-5	20.812179
2220.584047	-3.009900	3.260200	-9.812100	27.300252	7.153275E-5	20.795283
2221.583048	-3.015100	3.258400	-9.823400	27.372049	7.116972E-5	20.785952
2222.586047	-2.996400	3.260300	-9.768700	27.368816	7.057568E-5	20.791234
2223.584050	-2.988800	3.259100	-9.740200	27.356938	7.169776E-5	20.806312
2224.584047	-3.004700	3.257800	-9.787500	27.338728	7.093871E-5	20.796054
2225.585051	-2.967400	3.257100	-9.664800	27.324513	7.041067E-5	20.802618
2226.585050	-3.013700	3.256600	-9.813400	27.243236	7.060868E-5	20.794830
2227.585049	-3.008100	3.256900	-9.795900	27.266433	7.093871E-5	20.803937
2228.586050	-2.980100	3.255100	-9.700200	27.265289	6.852953E-5	20.809899
2229.585047	-3.009000	3.256300	-9.797300	27.313619	6.951960E-5	20.818211
2230.585050	-3.005200	3.255900	-9.783900	27.340208	6.971762E-5	20.778577
2231.585049	-3.009700	3.255100	-9.796400	27.310066	6.833152E-5	20.808473
2232.587049	-3.003100	3.256500	-9.778800	27.326686	7.064169E-5	20.815709
2233.587047	-3.006200	3.255300	-9.785300	27.338495	6.846353E-5	20.809570
2234.587050	-3.001100	3.253200	-9.761600	27.333011	6.823251E-5	20.803105
2235.589049	-3.007700	3.252600	-9.782200	27.315198	6.912357E-5	20.830705
2236.589050	-3.002000	3.253000	-9.764800	27.311078	6.740745E-5	20.815656
2237.591051	-3.001900	3.251600	-9.759600	27.295196	6.981663E-5	20.821964
2238.589049	-3.017900	3.251700	-9.813100	27.247713	6.645038E-5	20.816402
2239.591049	-3.006400	3.251900	-9.775100	27.305791	6.796849E-5	20.816975
2240.591049	-3.029300	3.250400	-9.845800	27.352423	6.777048E-5	20.812201
2241.591050	-3.006500	3.251600	-9.775100	27.377133	6.796849E-5	20.815722
2242.591051	-3.019600	3.251200	-9.817300	27.399208	6.767147E-5	20.828446
2243.590052	-3.010900	3.250700	-9.786600	27.433713	6.839752E-5	20.820485
2244.592048	-3.035200	3.247800	-9.856800	27.456905	6.605435E-5	20.812523
2245.592051	-3.004900	3.248400	-9.761100	27.382060	6.572433E-5	20.814515
2246.594077	-3.010900	3.247400	-9.776900	27.369461	6.615336E-5	20.825074
2247.592607	-2.982400	3.248900	-9.688700	27.319245	6.414021E-5	20.794947
2248.591972	-2.979900	3.248500	-9.678400	27.311358	6.536130E-5	20.833007
2249.596758	-2.990200	3.248300	-9.712300	27.288082	6.394220E-5	20.814808
2250.592690	-2.999400	3.247100	-9.738300	27.343305	6.579033E-5	20.817253
2251.592000	-3.004000	3.247500	-9.754800	27.315421	6.242408E-5	20.820024
2252.596522	-2.966600	3.247400	-9.631800	27.297857	6.423922E-5	20.813262
2253.594854	-3.007500	3.244500	-9.757200	27.289942	6.311713E-5	20.819525
2254.596656	-2.981300	3.247100	-9.679000	27.290135	6.282011E-5	20.837736
2255.598305	-3.000400	3.246000	-9.738500	27.330078	6.377718E-5	20.813431
2256.595524	-2.990700	3.244900	-9.703200	27.298473	6.483326E-5	20.822890
2257.596824	-3.016100	3.244700	-9.785500	27.329009	6.348016E-5	20.837485
2258.600644	-3.001600	3.243200	-9.732800	27.348506	6.146701E-5	20.833865
2259.598732	-2.989500	3.245700	-9.702300	27.392365	6.338115E-5	20.815873
2260.600566	-2.974500	3.244100	-9.648700	27.432378	6.070796E-5	20.830996
2261.601248	-2.982100	3.243500	-9.671000	27.437411	6.387619E-5	20.838904
2262.597641	-2.986600	3.242500	-9.683300	27.462140	6.163203E-5	20.832963
2263.599601	-2.989500	3.243000	-9.693800	27.444305	6.179704E-5	20.837778
2264.603156	-2.990400	3.242100	-9.694200	27.479054	6.140101E-5	20.830065
2265.601274	-3.013800	3.240900	-9.766200	27.466104	5.971789E-5	20.834105
2266.600347	-3.019600	3.239700	-9.780700	27.465186	6.054295E-5	20.843139
2267.603730	-3.026100	3.240600	-9.805700	27.518113	6.021292E-5	20.839016
2268.600223	-2.991300	3.239900	-9.690300	27.527592	5.965188E-5	20.813466
2269.600538	-2.978600	3.239400	-9.647400	27.541775	5.909084E-5	20.826313
2270.605006	-2.981100	3.239800	-9.657600	27.495390	5.816677E-5	20.835120
2271.604044	-3.003500	3.239200	-9.728500	27.477878	5.770474E-5	20.826511
2272.602054	-3.000900	3.237500	-9.714800	27.464605	6.011392E-5	20.836390
2273.604652	-3.025800	3.236700	-9.791900	27.462670	5.694568E-5	20.849617
2274.600831	-3.002100	3.236800	-9.715900	27.410179	5.810077E-5	20.835215
2275.601997	-3.006900	3.237600	-9.734100	27.420151	5.843079E-5	20.861367
2276.604628	-3.020400	3.235700	-9.772400	27.444581	5.826578E-5	20.852755
2277.602193	-2.978800	3.236600	-9.639400	27.479412	5.925585E-5	20.852709
2278.601694	-2.991400	3.235200	-9.676900	27.521499	5.711069E-5	20.846690
2279.606849	-3.012500	3.235400	-9.746000	27.532588	5.780375E-5	20.831295
2280.603142	-2.987400	3.236100	-9.666500	27.539207	5.862881E-5	20.846962
2281.606327	-2.996600	3.234900	-9.692500	27.543473	5.968488E-5	20.843668
2282.606925	-2.987600	3.235400	-9.665700	27.523729	5.674767E-5	20.863631
2283.608406	-3.022500	3.233900	-9.773600	27.503436	5.757273E-5	20.860284
2284.605897	-3.021000	3.231800	-9.761800	27.453528	5.701169E-5	20.853695
2285.610501	-2.998300	3.232000	-9.689200	27.480716	5.658266E-5	20.859236
2286.604020	-2.993700	3.231000	-9.671800	27.526528	5.691268E-5	20.846060
2287.605025	-2.989300	3.230700	-9.656800	27.548178	5.582360E-5	20.834178
2288.610007	-2.989000	3.232000	-9.659700	27.498695	5.598861E-5	20.845557
2289.604592	-2.973000	3.230200	-9.602300	27.479618	5.635164E-5	20.870459
2290.605773	-2.986500	3.230400	-9.646300	27.485942	5.496554E-5	20.870183
2291.609526	-3.008300	3.228400	-9.711200	27.475598	5.476752E-5	20.868311
2292.603777	-3.008700	3.229200	-9.715200	27.483462	5.473452E-5	20.851568
2293.603459	-2.988400	3.229500	-9.650100	27.425914	5.555958E-5	20.854364
2294.605333	-3.013400	3.229200	-9.729000	27.433972	5.341442E-5	20.870056
2295.605406	-2.997300	3.228100	-9.674800	27.397533	5.506455E-5	20.862321
2296.605597	-2.984000	3.227100	-9.629100	27.404258	5.400847E-5	20.868612
2297.607736	-2.973700	3.227000	-9.594800	27.455631	5.361244E-5	20.870509
2298.607839	-2.994200	3.226200	-9.658600	27.464291	5.423948E-5	20.864048
2299.606383	-2.996500	3.225500	-9.663700	27.481479	5.268837E-5	20.879917
2300.610738	-3.000200	3.226100	-9.678100	27.499535	5.341442E-5	20.854937
2301.606389	-2.993500	3.226400	-9.657300	27.553661	5.351343E-5	20.862927
2302.607373	-3.019200	3.225000	-9.736300	27.603215	5.331542E-5	20.868690
2303.610328	-2.987800	3.223800	-9.631500	27.595306	5.235835E-5	20.868793
2304.608961	-3.026200	3.223300	-9.753400	27.588209	5.278738E-5	20.860704
2305.609447	-2.991600	3.225100	-9.648000	27.614627	5.212733E-5	20.883491
2306.610516	-2.993000	3.223100	-9.645800	27.631369	5.087324E-5	20.866674
2307.612863	-2.993900	3.223000	-9.648600	27.669063	5.143428E-5	20.876152
2308.610339	-2.980900	3.222100	-9.603700	27.632213	5.209433E-5	20.866575
2309.613233	-3.002700	3.221700	-9.672500	27.597142	5.130227E-5	20.870166
2310.610233	-3.006200	3.219400	-9.677700	27.586230	5.136827E-5	20.864876
2311.609865	-2.982500	3.221300	-9.606100	27.558651	5.133527E-5	20.869844
2312.612622	-3.001800	3.220400	-9.666200	27.594687	5.156629E-5	20.887609
2313.612084	-2.987600	3.220200	-9.619800	27.611951	5.225934E-5	20.896918
2314.615420	-2.993400	3.219100	-9.635700	27.686079	5.074123E-5	20.898489
2315.611553	-3.006900	3.220700	-9.682900	27.722909	4.928912E-5	20.883870
2316.612200	-3.013200	3.217700	-9.694800	27.702497	4.707796E-5	20.887510
2317.611785	-3.004800	3.218100	-9.669200	27.671672	4.869508E-5	20.884942
2318.615144	-3.009100	3.217400	-9.680600	27.663166	4.862907E-5	20.897244
2319.615663	-3.004600	3.216700	-9.663300	27.652550	4.793602E-5	20.888459
2320.615621	-3.001800	3.216700	-9.654800	27.604358	4.928912E-5	20.884538
2321.613916	-2.978800	3.215700	-9.577900	27.552029	4.730898E-5	20.880724
2322.615628	-3.010400	3.216000	-9.680200	27.558377	4.823304E-5	20.896119
2323.614861	-3.005600	3.214800	-9.661900	27.511226	4.753999E-5	20.899413
2324.614171	-3.000700	3.216700	-9.651500	27.498129	4.862907E-5	20.886711
2325.618246	-3.010000	3.214400	-9.674700	27.544563	4.565886E-5	20.879850
2326.621562	-3.003600	3.215600	-9.657400	27.627706	4.902510E-5	20.886693
2327.614966	-3.007900	3.213000	-9.663300	27.678740	4.559285E-5	20.901062
2328.616745	-2.997600	3.213700	-9.632400	27.668845	4.826605E-5	20.871192
2329.616919	-3.001400	3.212600	-9.641600	27.730001	4.905810E-5	20.880102
2330.617259	-3.003300	3.212000	-9.646100	27.784706	4.879409E-5	20.873039
2331.621081	-3.032500	3.212000	-9.738800	27.792343	4.691295E-5	20.883095
2332.618725	-2.996500	3.211600	-9.623400	27.727522	4.671493E-5	20.895149
2333.617731	-3.025400	3.209700	-9.709400	27.707708	4.658292E-5	20.897021
2334.620131	-3.019000	3.209700	-9.689500	27.738085	4.585687E-5	20.886813
2335.619746	-3.045700	3.209600	-9.774600	27.806899	4.829905E-5	20.896321
2336.623279	-2.995100	3.210500	-9.614200	27.830013	4.684694E-5	20.887341
2337.618775	-2.997000	3.209500	-9.618300	27.829833	4.579087E-5	20.883367
2338.621274	-3.008100	3.209300	-9.652500	27.727674	4.460278E-5	20.881552
2339.619892	-3.001100	3.208700	-9.628300	27.692184	4.453677E-5	20.878081
2340.620697	-3.015300	3.207900	-9.671600	27.709568	4.486680E-5	20.874239
2341.620218	-3.002700	3.207500	-9.630900	27.721819	4.278764E-5	20.877084
2342.624286	-3.002700	3.205400	-9.624200	27.689951	4.338169E-5	20.893851
2343.620677	-3.014800	3.207100	-9.668000	27.661334	4.407474E-5	20.876910
2344.622441	-2.993700	3.205300	-9.594400	27.611905	4.470179E-5	20.855624
2345.626885	-2.992500	3.206100	-9.593900	27.558409	4.318367E-5	20.876712
2346.619925	-2.992000	3.205100	-9.588100	27.618133	4.526283E-5	20.853356
2347.623607	-3.007300	3.202200	-9.629100	27.624780	4.539484E-5	20.855776
2348.625419	-2.989300	3.203700	-9.576000	27.594576	4.503181E-5	20.879437
2349.621059	-2.977400	3.203200	-9.536400	27.585999	4.420675E-5	20.866066
2350.621890	-2.967800	3.202900	-9.504800	27.640485	4.371171E-5	20.855933
2351.621592	-3.005200	3.202400	-9.622500	27.641649	4.285365E-5	20.848095
2352.623174	-2.999700	3.201600	-9.602500	27.602717	4.404174E-5	20.860129
2353.623264	-2.991900	3.201100	-9.576700	27.598947	4.268864E-5	20.860603
2354.622234	-2.997600	3.199900	-9.590800	27.592895	4.357970E-5	20.860203
2355.622678	-2.984800	3.200500	-9.552000	27.608523	4.255663E-5	20.851273
2356.622266	-2.994400	3.198700	-9.577300	27.651035	4.219360E-5	20.851850
2357.623160	-2.978000	3.199000	-9.525400	27.701257	4.120353E-5	20.846911
2358.623825	-2.983400	3.198900	-9.542200	27.750337	4.196258E-5	20.844144
2359.623033	-2.989000	3.198200	-9.558200	27.793164	4.229261E-5	20.840776
2360.623170	-2.971100	3.197700	-9.499500	27.768614	4.209459E-5	20.850209
2361.623230	-3.012000	3.196900	-9.628200	27.736550	4.084050E-5	20.844494
2362.623854	-2.990500	3.196200	-9.557600	27.757929	3.955341E-5	20.865059
2363.625996	-2.991500	3.197800	-9.565600	27.726065	4.354670E-5	20.847693
2364.623266	-3.003300	3.194700	-9.594000	27.705681	4.093951E-5	20.840458
2365.622579	-3.003900	3.195900	-9.599000	27.725869	4.070849E-5	20.850340
2366.623512	-2.983700	3.197600	-9.539700	27.750767	4.189658E-5	20.846473
2367.623442	-2.981300	3.194400	-9.521600	27.738844	3.935539E-5	20.827363
2368.624339	-2.974100	3.195300	-9.501100	27.770809	3.998244E-5	20.858581
2369.625054	-2.975200	3.192100	-9.496100	27.783932	4.242462E-5	20.851873
2370.625332	-3.000400	3.191400	-9.574000	27.797321	4.206159E-5	20.820304
2371.625633	-2.964500	3.193700	-9.465800	27.811603	3.958641E-5	20.841314
2372.625777	-2.993100	3.190700	-9.549000	27.808681	3.975142E-5	20.855917
2373.625653	-2.989700	3.191100	-9.539700	27.820062	4.206159E-5	20.841294
2374.630403	-2.993200	3.190400	-9.548100	27.842431	4.008145E-5	20.849106
2375.625494	-2.990200	3.189500	-9.536100	27.889346	4.173157E-5	20.830417
2376.625642	-2.967900	3.189500	-9.465100	27.927804	3.935539E-5	20.817916
2377.624146	-2.994200	3.188500	-9.546700	27.954954	3.988343E-5	20.849036
2378.626755	-2.997100	3.187400	-9.551900	27.947298	3.978442E-5	20.823787
2379.626419	-2.992000	3.187700	-9.536100	27.873114	3.902537E-5	20.845848
2380.631559	-3.014300	3.185200	-9.599500	27.841078	3.780428E-5	20.827357
2381.629105	-2.990700	3.185900	-9.527500	27.769985	3.655019E-5	20.828355
2382.627430	-2.994100	3.185000	-9.535100	27.746746	3.780428E-5	20.851435
2383.629770	-2.992300	3.185600	-9.531600	27.790170	3.928939E-5	20.824962
2384.627123	-2.987400	3.186400	-9.517700	27.780624	3.658319E-5	20.832898
2385.630457	-3.024800	3.183500	-9.627800	27.740604	3.625317E-5	20.836720
2386.627554	-2.999000	3.183300	-9.546300	27.803813	3.681421E-5	20.815458
2387.632231	-2.996800	3.181900	-9.534900	27.823408	3.882735E-5	20.847979
2388.628341	-3.004000	3.181200	-9.554700	27.824891	3.770527E-5	20.847575
2389.629007	-2.992000	3.180700	-9.515600	27.878255	3.579113E-5	20.822100
2390.630854	-3.016600	3.180200	-9.592100	27.890553	3.826631E-5	20.820253
2391.628539	-3.002900	3.180200	-9.547900	27.933574	3.615416E-5	20.818983
2392.629405	-3.011900	3.181300	-9.580200	27.972244	3.546111E-5	20.830404
2393.629332	-2.994200	3.178800	-9.517500	27.976860	3.549411E-5	20.814188
2394.630930	-3.018000	3.178300	-9.591600	27.893625	3.668220E-5	20.849897
2395.628710	-3.021100	3.178400	-9.601900	27.874408	3.688021E-5	20.842884
2396.631673	-3.020500	3.177100	-9.595300	27.861664	3.565912E-5	20.831954
2397.629246	-3.016200	3.176000	-9.578800	27.851746	3.668220E-5	20.856584
2398.629894	-2.975200	3.176400	-9.449400	27.787994	3.532910E-5	20.831780
2399.632208	-2.974600	3.175500	-9.443800	27.788117	3.460304E-5	20.825740
2400.631790	-2.998600	3.175000	-9.520100	27.744918	3.463605E-5	20.828260
2401.633658	-3.006800	3.174300	-9.543800	27.710821	3.496607E-5	20.811965
2402.631993	-3.011400	3.174100	-9.557600	27.688302	3.357997E-5	20.830082
2403.634074	-3.010700	3.171600	-9.547500	27.723244	3.523009E-5	20.825415
2404.632962	-3.015800	3.172800	-9.567300	27.709428	3.463605E-5	20.815305
2405.633342	-3.000600	3.171800	-9.517000	27.717119	3.493307E-5	20.829208
2406.635491	-2.992600	3.171600	-9.490000	27.770783	3.447103E-5	20.826788
2407.636851	-2.970200	3.170400	-9.415800	27.816460	3.427302E-5	20.810168
2408.632747	-3.005300	3.169200	-9.523200	27.860127	3.473505E-5	20.816183
2409.635618	-2.986500	3.169700	-9.465400	27.830668	3.466905E-5	20.824467
2410.635287	-3.000100	3.168700	-9.505200	27.812413	3.430602E-5	20.818897
2411.633895	-3.006100	3.166300	-9.517400	27.804456	3.424002E-5	20.813734
2412.639246	-2.986100	3.168300	-9.459900	27.793300	3.367898E-5	20.816732
2413.636330	-3.015200	3.165600	-9.543400	27.822929	3.298593E-5	20.814308
2414.637733	-2.973000	3.166000	-9.411800	27.859505	3.301893E-5	20.811764
2415.642100	-3.003100	3.165100	-9.504200	27.845646	3.268890E-5	20.830531
2416.636742	-3.020900	3.163300	-9.554600	27.925931	3.295292E-5	20.816031
2417.639616	-2.984100	3.163000	-9.438100	27.987490	3.318394E-5	20.813034
2418.639628	-3.007300	3.162800	-9.510800	28.005710	3.235888E-5	20.822364
2419.639068	-3.017400	3.162800	-9.542900	27.921142	3.133580E-5	20.823539
2420.637916	-3.026100	3.162100	-9.567700	27.964359	3.318394E-5	20.819148
2421.639155	-2.989600	3.161600	-9.451000	28.009704	3.457004E-5	20.818324
2422.644389	-3.003500	3.159700	-9.489300	28.069427	3.150082E-5	20.814431
2423.643116	-2.983900	3.160900	-9.431200	28.028943	2.991670E-5	20.809715
2424.640589	-2.995200	3.157800	-9.457600	28.019940	3.093978E-5	20.806342
2425.640385	-2.980300	3.157900	-9.411300	28.021157	2.968568E-5	20.817050
2426.645629	-3.003200	3.157700	-9.480900	28.046245	3.354697E-5	20.823337
2427.640009	-3.012400	3.156100	-9.506300	28.017708	3.001571E-5	20.838708
2428.643997	-3.000300	3.154200	-9.462200	28.022717	2.968568E-5	20.820517
2429.639669	-2.999800	3.154000	-9.459500	27.961532	2.866261E-5	20.812036
2430.640496	-2.994500	3.154100	-9.444400	27.903859	2.905864E-5	20.817998
2431.641305	-3.001300	3.154000	-9.464700	27.852631	2.985070E-5	20.836139
2432.640348	-2.990100	3.153200	-9.427300	27.866346	3.080777E-5	20.816278
2433.641209	-3.007500	3.152000	-9.478000	27.898280	3.057675E-5	20.808115
2434.641200	-2.984100	3.152200	-9.405000	27.896346	3.027973E-5	20.798583
2435.641342	-2.997400	3.151600	-9.445400	27.945536	2.849760E-5	20.814428
2436.641058	-3.007900	3.149100	-9.470700	28.004445	3.054375E-5	20.806866
2437.640749	-2.991700	3.149100	-9.419800	28.016295	2.905864E-5	20.811682
2438.646898	-3.012700	3.148000	-9.482600	28.054175	3.077476E-5	20.810931
2439.644874	-3.023600	3.147200	-9.513900	28.071578	2.965268E-5	20.809484
2440.643444	-2.983700	3.146800	-9.388100	28.108637	3.037873E-5	20.807909
2441.642590	-2.994400	3.146400	-9.420900	28.161115	2.810157E-5	20.813323
2442.643738	-2.979700	3.145900	-9.373000	28.176735	2.853060E-5	20.811505
2443.642054	-2.998900	3.144200	-9.428300	28.073434	2.773854E-5	20.820835
2444.648107	-3.005200	3.143600	-9.446700	28.050058	2.763953E-5	20.806314
2445.647774	-3.007300	3.142900	-9.449800	28.061187	2.810157E-5	20.809930
2446.643402	-3.011700	3.140900	-9.458800	28.137242	3.136881E-5	20.813946
2447.641672	-2.981700	3.140700	-9.364300	28.143291	2.889362E-5	20.818139
2448.644130	-3.017100	3.139500	-9.471700	28.144184	2.816757E-5	20.815244
2449.643946	-2.994300	3.139000	-9.398700	28.225536	2.734251E-5	20.814168
2450.645757	-3.004400	3.139400	-9.431300	28.239193	2.671546E-5	20.802789
2451.641895	-3.002700	3.137400	-9.420100	28.274293	2.760653E-5	20.797350
2452.643394	-3.001500	3.137100	-9.414400	28.258530	2.655045E-5	20.811826
2453.643212	-3.004000	3.137000	-9.422800	28.183451	2.575839E-5	20.810680
2454.644174	-3.000400	3.134200	-9.403100	28.081908	2.437229E-5	20.798546
2455.647110	-2.974600	3.136500	-9.328600	28.054371	2.381125E-5	20.804491
2456.645569	-2.982200	3.134400	-9.346400	28.072365	2.582440E-5	20.803638
2457.644526	-2.974000	3.133600	-9.318100	28.122117	2.311820E-5	20.811522
2458.644209	-2.996400	3.131400	-9.381900	28.164461	2.381125E-5	20.787768
2459.643724	-3.015200	3.131200	-9.440200	28.204764	2.483433E-5	20.806533
2460.645957	-2.991700	3.131200	-9.366300	28.174970	2.493333E-5	20.810202
2461.643994	-2.998000	3.129500	-9.381200	28.142894	2.503234E-5	20.804937
2462.644345	-2.984900	3.130000	-9.341400	28.171075	2.556038E-5	20.793005
2463.646902	-3.011900	3.128000	-9.420300	28.196933	2.321721E-5	20.794382
2464.644446	-3.003500	3.126800	-9.390600	28.137410	2.427329E-5	20.813167
2465.655454	-2.993700	3.125900	-9.357400	28.118451	2.367924E-5	20.803090
2466.646615	-2.990800	3.125300	-9.346500	28.159153	2.377825E-5	20.805659
2467.650912	-2.988600	3.124900	-9.338600	28.206943	2.532936E-5	20.789286
2468.646959	-2.978300	3.123500	-9.301700	28.289359	2.265617E-5	20.785493
2469.647311	-3.004600	3.122600	-9.380500	28.303785	2.334922E-5	20.794803
2470.646625	-3.002800	3.121500	-9.370900	28.249030	2.344822E-5	20.807003
2471.650503	-3.026600	3.120900	-9.444700	28.193011	2.308520E-5	20.800390
2472.647717	-3.011700	3.120200	-9.395000	28.198511	2.219413E-5	20.780797
2473.648861	-3.022700	3.118100	-9.424300	28.145209	2.341522E-5	20.791146
2474.648423	-3.020900	3.117200	-9.415800	28.158773	2.245815E-5	20.780620
2475.647081	-2.980100	3.117400	-9.289300	28.081999	2.245815E-5	20.800534
2476.650766	-3.008900	3.116000	-9.374600	28.059857	2.024699E-5	20.794841
2477.650219	-3.011500	3.114600	-9.378600	28.161275	2.021399E-5	20.778397
2478.650520	-2.992300	3.115200	-9.320300	28.212611	2.371224E-5	20.795467
2479.649355	-3.007600	3.113200	-9.362900	28.253503	2.094004E-5	20.797282
2480.649740	-3.008000	3.111900	-9.359200	28.261186	2.189711E-5	20.789844
2481.652007	-3.008700	3.110800	-9.358700	28.208439	2.064302E-5	20.814500
2482.648967	-3.018100	3.109600	-9.384500	28.245346	2.301919E-5	20.801871
2483.648196	-3.017600	3.110300	-9.384700	28.279844	2.123706E-5	20.785870
2484.651262	-3.020600	3.108000	-9.387400	28.321109	2.080803E-5	20.791382
2485.648193	-2.996300	3.108000	-9.311600	28.294983	2.199612E-5	20.767922
2486.648436	-2.964100	3.108400	-9.211500	28.301797	2.054401E-5	20.777154
2487.650003	-2.989800	3.105600	-9.283700	28.347992	2.265617E-5	20.792373
2488.648408	-2.989800	3.105400	-9.283200	28.362414	1.985096E-5	20.794566
2489.649242	-3.035200	3.102900	-9.416500	28.320455	2.232614E-5	20.785982
2490.651114	-2.980600	3.103900	-9.250200	28.369277	2.113806E-5	20.793416
2491.649800	-2.982200	3.101800	-9.249400	28.386278	2.074203E-5	20.792043
2492.652092	-3.000200	3.101300	-9.303900	28.400377	2.097304E-5	20.774945
2493.651422	-3.002600	3.100000	-9.307000	28.365060	2.107205E-5	20.762143
2494.650242	-3.011400	3.098300	-9.328700	28.342899	1.942193E-5	20.773968
2495.650605	-3.017600	3.098900	-9.349000	28.260881	2.004897E-5	20.785744
2496.653009	-2.983600	3.096800	-9.238600	28.209744	2.097304E-5	20.786416
2497.649232	-3.008400	3.095900	-9.312400	28.268015	1.948793E-5	20.783918
2498.653794	-2.985100	3.094800	-9.237900	28.296419	2.084103E-5	20.780747
2499.650115	-3.018400	3.092800	-9.334100	28.306726	2.163309E-5	20.777849
2500.653355	-2.992300	3.093700	-9.256600	28.329650	1.909190E-5	20.782438
2501.655550	-3.021400	3.091600	-9.339700	28.320576	1.803583E-5	20.795587
2502.652000	-2.992700	3.090000	-9.246800	28.299536	1.985096E-5	20.781989
2503.655254	-3.007100	3.088300	-9.286400	28.238736	1.985096E-5	20.777198
2504.650972	-2.989100	3.089600	-9.234400	28.296879	1.843186E-5	20.790693
2505.651870	-3.006800	3.087400	-9.282200	28.346771	1.651772E-5	20.782134
2506.651278	-3.003500	3.086500	-9.269000	28.320351	1.859687E-5	20.783507
2507.652739	-3.001600	3.083900	-9.256500	28.350534	1.985096E-5	20.782130
2508.655015	-2.999500	3.083700	-9.248400	28.350162	1.737578E-5	20.767530
2509.653844	-3.014300	3.083400	-9.293500	28.253348	1.975195E-5	20.769625
2510.654120	-3.011200	3.081700	-9.278500	28.284926	1.882789E-5	20.791461
2511.657214	-3.008400	3.080500	-9.266500	28.320540	1.796982E-5	20.796025
2512.654510	-2.999500	3.080000	-9.238000	28.370530	1.843186E-5	20.747735
2513.653223	-2.998400	3.079000	-9.231300	28.397841	2.037900E-5	20.764331
2514.654641	-3.010700	3.077800	-9.265700	28.421778	1.886089E-5	20.770417
2515.653978	-3.002200	3.078000	-9.239100	28.354540	1.928992E-5	20.779051
2516.655172	-2.979500	3.075800	-9.163700	28.285266	1.820084E-5	20.769993
2517.657946	-2.992600	3.073700	-9.196600	28.243549	1.823384E-5	20.770665
2518.657925	-3.017100	3.073100	-9.270600	28.226968	1.750779E-5	20.782894
2519.662457	-2.965700	3.073100	-9.112900	28.302666	1.661672E-5	20.760959
2520.658826	-3.020300	3.071000	-9.274600	28.324922	1.714476E-5	20.771988
2521.660141	-2.977500	3.069900	-9.138900	28.302294	1.437256E-5	20.771489
2522.659995	-2.988000	3.068400	-9.166900	28.335033	1.625370E-5	20.776953
2523.670284	-2.969900	3.068600	-9.112200	28.392257	1.612169E-5	20.772459
2524.662045	-2.976100	3.066400	-9.124200	28.426135	1.681474E-5	20.746355
2525.661104	-2.997300	3.064600	-9.184700	28.499437	1.717776E-5	20.772282
2526.661622	-3.017200	3.063800	-9.242800	28.541115	1.575866E-5	20.758778
2527.671051	-3.013300	3.062500	-9.227600	28.584085	1.803583E-5	20.766018
2528.662357	-2.977900	3.062000	-9.117500	28.597686	1.585767E-5	20.768810
2529.665734	-2.964300	3.061100	-9.073200	28.575112	1.618769E-5	20.784008
2530.663800	-2.977400	3.059700	-9.109300	28.574068	1.767280E-5	20.757826
2531.662474	-2.983700	3.059400	-9.127600	28.508551	1.542864E-5	20.777193
2532.662583	-2.976500	3.058400	-9.102100	28.430562	1.473558E-5	20.766935
2533.664583	-2.996000	3.056000	-9.154700	28.419037	1.707876E-5	20.770975
2534.663246	-3.009100	3.053000	-9.185500	28.435886	1.707876E-5	20.755699
2535.664261	-3.005900	3.053200	-9.176800	28.381883	1.466958E-5	20.749684
2536.662864	-2.971600	3.052900	-9.071200	28.360344	1.549464E-5	20.751230
2537.663822	-2.997900	3.052000	-9.148600	28.387115	1.655072E-5	20.745469
2538.667407	-3.010800	3.048300	-9.176600	28.438883	1.407554E-5	20.749708
2539.664896	-2.999100	3.049000	-9.142400	28.417223	1.754079E-5	20.757769
2540.669230	-2.983200	3.047400	-9.089300	28.380863	1.655072E-5	20.759563
2541.664058	-2.979200	3.047500	-9.077900	28.370033	1.592367E-5	20.758141
2542.665561	-2.981700	3.045900	-9.081300	28.456424	1.615469E-5	20.766899
2543.666066	-3.005000	3.043800	-9.145800	28.478480	1.556064E-5	20.756867
2544.667644	-2.992900	3.043600	-9.108700	28.542411	1.496660E-5	20.769567
2545.666487	-3.008300	3.041800	-9.149400	28.545584	1.701275E-5	20.754744
2546.669834	-3.025500	3.040800	-9.199200	28.533887	1.674873E-5	20.745809
2547.665835	-2.995400	3.038300	-9.099800	28.510592	1.321747E-5	20.753169
2548.667550	-3.016000	3.036900	-9.158700	28.500926	1.608868E-5	20.753392
2549.671088	-2.988300	3.037800	-9.076900	28.447769	1.493360E-5	20.747277
2550.676708	-3.006600	3.035000	-9.124000	28.477253	1.457057E-5	20.744251
2551.676542	-3.013900	3.033100	-9.139600	28.466178	1.470258E-5	20.766290
2552.668919	-2.992200	3.032500	-9.072900	28.563344	1.539563E-5	20.751293
2553.668631	-2.997100	3.031500	-9.084700	28.566390	1.493360E-5	20.758629
2554.669607	-2.977200	3.030000	-9.019900	28.610171	1.420755E-5	20.742503
2555.671799	-3.025100	3.028500	-9.160300	28.585022	1.490060E-5	20.746098
2556.668118	-2.987700	3.027400	-9.044200	28.542523	1.354750E-5	20.764938
2557.669693	-3.016200	3.025600	-9.125500	28.486347	1.404253E-5	20.750564
2558.669946	-3.007300	3.024400	-9.094400	28.457376	1.493360E-5	20.764064
2559.669268	-3.007400	3.023700	-9.092100	28.498810	1.318447E-5	20.748890
2560.670421	-2.977800	3.022100	-8.998300	28.490929	1.249142E-5	20.754230
2561.670070	-3.013600	3.020400	-9.101400	28.434947	1.427355E-5	20.743848
2562.671589	-3.019400	3.019500	-9.115700	28.500862	1.298646E-5	20.748586
2563.670790	-3.014500	3.016300	-9.092200	28.579713	1.235941E-5	20.762563
2564.673734	-3.024600	3.015900	-9.120900	28.596514	1.513161E-5	20.756725
2565.671001	-3.017700	3.015300	-9.097500	28.546978	1.249142E-5	20.766105
2566.675033	-3.011600	3.013900	-9.076200	28.514790	1.381152E-5	20.734636
2567.674041	-3.001600	3.011700	-9.038400	28.564303	1.437256E-5	20.754630
2568.678322	-3.022700	3.011300	-9.101500	28.549033	1.245842E-5	20.744467
2569.674651	-2.982500	3.010500	-8.977500	28.584642	1.490060E-5	20.751406
2570.674629	-2.994000	3.009500	-9.009300	28.646761	1.295345E-5	20.742372
2571.678648	-3.028000	3.007300	-9.104300	28.732238	1.549464E-5	20.762085
2572.680749	-3.003000	3.004500	-9.021200	28.740359	1.318447E-5	20.751774
2573.676345	-2.999800	3.005200	-9.014800	28.755377	1.186437E-5	20.747460
2574.680372	-3.020100	3.003600	-9.070800	28.710408	1.483459E-5	20.737251
2575.679400	-3.007000	3.002500	-9.028000	28.724084	1.301946E-5	20.741069
2576.679637	-2.960800	3.001700	-8.886000	28.707109	1.414154E-5	20.763327
2577.683397	-2.987800	2.998100	-8.955900	28.703789	1.222740E-5	20.721101
2578.680802	-2.993400	2.997900	-8.973000	28.700887	1.235941E-5	20.745680
2579.679805	-3.022600	2.995600	-9.053600	28.728514	1.311847E-5	20.736996
2580.680332	-3.013100	2.993400	-9.018300	28.737925	1.288745E-5	20.746002
2581.679467	-3.020500	2.993100	-9.039100	28.742157	1.176537E-5	20.743627
2582.683125	-2.987500	2.991600	-8.936700	28.708461	1.334948E-5	20.754732
2583.679127	-3.002600	2.991500	-8.981600	28.658410	1.160035E-5	20.735138
2584.678533	-2.990000	2.990100	-8.939600	28.707787	1.466958E-5	20.748836
2585.682082	-3.004300	2.988000	-8.975800	28.747472	1.384452E-5	20.745662
2586.682455	-3.000500	2.986900	-8.961700	28.703075	1.275544E-5	20.736504
2587.683018	-2.994300	2.986200	-8.940600	28.667744	1.298646E-5	20.758291
2588.680816	-3.018900	2.983500	-9.005400	28.727473	1.453757E-5	20.745432
2589.682688	-2.997500	2.982900	-8.940400	28.679187	1.130333E-5	20.725718
2590.680600	-2.999700	2.982000	-8.944200	28.687829	1.384452E-5	20.747700
2591.681683	-2.990700	2.979500	-8.909900	28.665749	1.348149E-5	20.751539
2592.682216	-2.996700	2.977800	-8.922400	28.605493	1.394353E-5	20.727834
2593.682492	-3.007000	2.975900	-8.947900	28.582519	1.420755E-5	20.744526
2594.680742	-3.002800	2.975100	-8.931600	28.569656	1.229340E-5	20.761918
2595.684305	-3.012000	2.973900	-8.956300	28.607664	1.325048E-5	20.738082
2596.687600	-2.999100	2.971700	-8.911600	28.598744	1.216140E-5	20.756599
2597.684797	-3.006100	2.970600	-8.929700	28.614448	1.196338E-5	20.745389
2598.684569	-2.990400	2.970000	-8.880200	28.643064	1.430655E-5	20.760934
2599.684424	-3.017400	2.967100	-8.952300	28.612491	1.272244E-5	20.745789
2600.684587	-3.017300	2.967000	-8.951600	28.635352	1.133633E-5	20.748899
2601.689616	-3.004000	2.964300	-8.904200	28.648983	1.367951E-5	20.746981
2602.685348	-2.993500	2.963800	-8.870600	28.685826	1.569265E-5	20.743786
2603.685351	-3.008300	2.961600	-8.908700	28.628069	1.110532E-5	20.754366
2604.683594	-3.024600	2.960300	-8.953100	28.627124	1.288745E-5	20.757207
2605.683112	-2.998800	2.958900	-8.872300	28.643675	1.239241E-5	20.735944
2606.686938	-3.001800	2.957600	-8.877600	28.669096	1.430655E-5	20.758230
2607.684321	-2.998900	2.955000	-8.861400	28.742799	1.486759E-5	20.738584
2608.688546	-3.005100	2.954200	-8.876900	28.723204	1.308546E-5	20.750141
2609.686293	-3.004700	2.953800	-8.874300	28.697686	1.288745E-5	20.748619
2610.686292	-3.018200	2.951900	-8.909200	28.776146	1.358050E-5	20.762692
2611.685521	-3.015100	2.950100	-8.893900	28.771162	1.364650E-5	20.742023
2612.685767	-3.022300	2.947600	-8.908100	28.755361	1.341549E-5	20.761195
2613.685651	-2.975300	2.947200	-8.767800	28.767449	1.394353E-5	20.770526
2614.688334	-2.985700	2.945500	-8.792700	28.785880	1.259043E-5	20.755902
2615.688885	-2.996100	2.943500	-8.818600	28.822992	1.443856E-5	20.763414
2616.685886	-2.996100	2.941900	-8.813600	28.851479	1.463658E-5	20.756075
2617.687699	-2.987500	2.940500	-8.783300	28.805404	1.430655E-5	20.754706
2618.686804	-2.980100	2.938400	-8.755600	28.799850	1.331648E-5	20.754801
2619.689746	-2.987800	2.939200	-8.781000	28.727360	1.351449E-5	20.745792
2620.687224	-2.994000	2.935600	-8.787400	28.706472	1.328348E-5	20.763633
2621.685898	-2.959400	2.935700	-8.687000	28.768784	1.272244E-5	20.755749
2622.685974	-3.013700	2.932600	-8.836800	28.824495	1.331648E-5	20.760661
2623.692050	-2.996300	2.931300	-8.781500	28.806043	1.166636E-5	20.739702
2624.688462	-2.997100	2.928800	-8.777100	28.760904	1.268943E-5	20.763934
2625.688594	-3.018400	2.927200	-8.834500	28.702505	1.189738E-5	20.761535
2626.688648	-3.013100	2.926600	-8.817300	28.761273	1.189738E-5	20.772841
2627.689947	-3.003700	2.924700	-8.784200	28.810374	1.249142E-5	20.759713
2628.690808	-3.036200	2.921200	-8.868000	28.874240	1.146834E-5	20.760038
2629.691883	-2.999500	2.921300	-8.762200	28.893884	1.199638E-5	20.740473
2630.693329	-2.976300	2.918900	-8.686200	28.841046	1.440556E-5	20.754575
2631.691123	-2.985600	2.917700	-8.709200	28.848647	1.226040E-5	20.771241
2632.691298	-2.982500	2.916200	-8.696700	28.890442	1.176537E-5	20.742221
2633.692225	-3.007700	2.912900	-8.760300	28.863246	1.127033E-5	20.757023
2634.691652	-2.988900	2.913000	-8.705900	28.868795	1.252442E-5	20.767830
2635.694090	-2.999500	2.910700	-8.729400	28.939193	1.206239E-5	20.770473
2636.692072	-3.005700	2.908200	-8.740300	28.928000	1.127033E-5	20.768205
2637.694921	-3.006300	2.907500	-8.740400	28.977989	1.222740E-5	20.744599
2638.693014	-3.002500	2.905200	-8.721200	28.981087	1.272244E-5	20.766687
2639.693996	-3.012900	2.903900	-8.748200	28.905556	1.235941E-5	20.740852
2640.698255	-2.978100	2.901700	-8.640600	28.845785	1.153435E-5	20.749865
2641.696852	-2.997000	2.899200	-8.688000	28.815489	1.285445E-5	20.760597
2642.694089	-2.987600	2.898300	-8.657600	28.868823	1.097331E-5	20.759798
2643.696155	-3.005600	2.895800	-8.702500	28.934842	1.338248E-5	20.744277
2644.696923	-2.967300	2.894900	-8.589500	28.960976	1.305246E-5	20.760176
2645.697084	-2.975500	2.892600	-8.606300	28.960927	1.143534E-5	20.770558
2646.704416	-3.003700	2.889900	-8.679500	28.972942	9.917230E-6	20.745679
2647.696708	-3.001600	2.888600	-8.669400	28.980746	1.229340E-5	20.755438
2648.700206	-2.997300	2.885800	-8.648400	29.015048	1.219440E-5	20.776248
2649.705374	-2.981100	2.884800	-8.598100	29.019659	1.394353E-5	20.763350
2650.697813	-3.005400	2.882600	-8.661700	29.057328	1.179837E-5	20.747250
2651.701893	-2.983900	2.881500	-8.597100	29.071596	1.150135E-5	20.782016
2652.706494	-3.019600	2.879000	-8.692700	28.992139	1.457057E-5	20.752692
2653.698753	-3.007200	2.878000	-8.652900	28.908791	1.315147E-5	20.757862
2654.698265	-3.003300	2.877000	-8.639700	28.841854	1.209539E-5	20.746379
2655.699450	-3.023900	2.873900	-8.689700	28.878223	1.176537E-5	20.758835
2656.699184	-2.982000	2.873100	-8.566800	28.946812	1.110532E-5	20.768665
2657.703824	-2.984500	2.870700	-8.566700	28.999423	1.311847E-5	20.769515
2658.700402	-2.981700	2.869200	-8.554300	28.980075	1.209539E-5	20.772781
2659.699839	-3.036600	2.866000	-8.702100	28.928657	1.179837E-5	20.753694
2660.706769	-3.015400	2.865000	-8.638300	28.928534	1.206239E-5	20.757363
2661.702199	-3.001000	2.862000	-8.588300	28.894050	1.004924E-5	20.789953
2662.707269	-2.990800	2.861100	-8.555900	28.889519	1.008224E-5	20.757413
2663.702740	-2.985800	2.857300	-8.530100	28.900983	9.983235E-6	20.760428
2664.702498	-2.982300	2.858500	-8.523800	28.925432	1.183137E-5	20.777947
2665.703025	-3.007700	2.854900	-8.585700	28.996006	1.457057E-5	20.765597
2666.703685	-3.008900	2.852600	-8.581300	29.018939	1.252442E-5	20.783962
2667.704017	-2.990600	2.852100	-8.528300	29.063003	1.117132E-5	20.767668
2668.703861	-2.980800	2.848800	-8.490300	29.127397	1.136934E-5	20.759058
2669.705363	-2.990000	2.847400	-8.512300	29.112192	1.371251E-5	20.785937
2670.705354	-3.019500	2.844200	-8.587000	29.112912	1.130333E-5	20.781921
2671.708953	-3.011500	2.843600	-8.563000	29.187630	1.295345E-5	20.785141
2672.706135	-3.000600	2.841700	-8.526300	29.212294	1.245842E-5	20.773485
2673.704753	-3.004500	2.837800	-8.525400	29.212343	1.120432E-5	20.764051
2674.705426	-3.000500	2.837300	-8.511900	29.186939	1.176537E-5	20.759787
2675.706060	-2.989300	2.835600	-8.475200	29.195011	1.400953E-5	20.790682
2676.709777	-2.992500	2.832600	-8.475200	29.213014	1.041227E-5	20.780849
2677.710252	-3.002700	2.830900	-8.499200	29.143301	1.153435E-5	20.780774
2678.707792	-2.983500	2.826500	-8.431800	29.085324	8.993162E-6	20.759812
2679.709303	-3.004900	2.824700	-8.487100	29.041233	1.008224E-5	20.776079
2680.714145	-3.012100	2.822500	-8.500700	29.019340	1.156735E-5	20.801435
2681.709653	-2.953700	2.821000	-8.331400	29.037296	1.295345E-5	20.755042
2682.711307	-3.005000	2.816200	-8.461800	29.052826	1.272244E-5	20.784914
2683.710370	-2.989900	2.816200	-8.419500	29.130986	1.552764E-5	20.777374
2684.709525	-2.964200	2.813900	-8.339700	29.156024	1.255742E-5	20.779844
2685.714624	-2.999100	2.810500	-8.428300	29.199436	1.259043E-5	20.771907
2686.710290	-3.021800	2.808100	-8.484900	29.213031	1.163336E-5	20.769960
2687.713526	-3.013300	2.804700	-8.450600	29.277662	1.318447E-5	20.775824
2688.710028	-3.000400	2.802400	-8.407300	29.292591	1.311847E-5	20.766213
2689.712394	-2.997000	2.799700	-8.389700	29.299378	1.268943E-5	20.781588
2690.711706	-3.013100	2.797200	-8.427400	29.289646	1.163336E-5	20.793591
2691.711004	-3.006700	2.795500	-8.404300	29.270728	1.199638E-5	20.772628
2692.711223	-2.992900	2.792700	-8.357500	29.253790	1.143534E-5	20.813406
2693.712311	-3.019900	2.789900	-8.424000	29.331321	1.259043E-5	20.779168
2694.712722	-2.983500	2.787600	-8.316000	29.390377	1.199638E-5	20.795540
2695.710329	-3.023600	2.784600	-8.417600	29.411445	1.262343E-5	20.796860
2696.711555	-3.006700	2.781200	-8.361500	29.446902	1.338248E-5	20.797985
2697.713010	-2.992000	2.778900	-8.313100	29.420955	1.173236E-5	20.794592
2698.712937	-2.978100	2.776500	-8.267400	29.359626	1.209539E-5	20.784935
2699.711017	-2.994300	2.773600	-8.304000	29.287493	1.160035E-5	20.766765
2700.711965	-2.987500	2.770900	-8.277600	29.337065	1.219440E-5	20.800130
2701.713823	-2.991600	2.766900	-8.276300	29.345737	1.371251E-5	20.789429
2702.712128	-3.007500	2.763400	-8.310300	29.416230	1.051127E-5	20.787458
2703.713308	-2.990200	2.761900	-8.257400	29.420611	1.044527E-5	20.771011
2704.712678	-2.997700	2.757700	-8.265800	29.397188	1.239241E-5	20.796241
2705.711605	-3.028100	2.754500	-8.339100	29.362702	1.242541E-5	20.818381
2706.715538	-3.002200	2.751300	-8.258900	29.394860	1.150135E-5	20.784412
2707.711481	-2.995000	2.748900	-8.231100	29.355968	1.262343E-5	20.808749
2708.719173	-3.006700	2.744600	-8.251300	29.397118	1.298646E-5	20.802808
2709.712364	-2.988000	2.742500	-8.193500	29.431262	1.153435E-5	20.784118
2710.713225	-2.992800	2.739600	-8.198000	29.428959	1.394353E-5	20.797918
2711.715839	-3.000600	2.734500	-8.203900	29.315132	1.229340E-5	20.793672
2712.712326	-2.976000	2.732500	-8.130400	29.255953	1.249142E-5	20.789507
2713.713493	-3.001400	2.728800	-8.189400	29.360746	1.298646E-5	20.789383
2714.715614	-3.001400	2.725900	-8.180300	29.284183	1.235941E-5	20.803258
2715.713160	-2.999500	2.722700	-8.166100	29.220223	1.097331E-5	20.805657
2716.712844	-3.001700	2.718700	-8.160200	29.246248	1.361350E-5	20.804383
2717.718575	-2.986400	2.714700	-8.106600	29.243822	1.080830E-5	20.821852
2718.713621	-3.003400	2.710600	-8.140000	29.316923	1.090730E-5	20.783149
2719.719141	-3.002700	2.706600	-8.126200	29.365574	1.143534E-5	20.807525
2720.721178	-3.000900	2.702900	-8.109400	29.389422	1.259043E-5	20.792207
2721.717875	-2.988700	2.699200	-8.066400	29.432281	1.018125E-5	20.813119
2722.717934	-2.997000	2.694100	-8.073700	29.498362	1.509861E-5	20.806234
2723.716525	-2.993700	2.692300	-8.059200	29.505762	1.232641E-5	20.807529
2724.721617	-3.010100	2.687600	-8.089400	29.496905	1.226040E-5	20.809033
2725.718766	-3.018600	2.681900	-8.094100	29.555429	1.212839E-5	20.809231
2726.718849	-2.999600	2.679100	-8.034900	29.595241	9.488198E-6	20.805268
2727.717110	-2.979300	2.676400	-7.972800	29.625985	1.196338E-5	20.794536
2728.716434	-3.012200	2.670300	-8.042500	29.595412	1.103931E-5	20.826304
2729.720109	-3.019300	2.665900	-8.047800	29.464971	1.146834E-5	20.810034
2730.722856	-3.002100	2.662300	-7.991800	29.432369	1.311847E-5	20.824114
2731.720895	-3.011200	2.657200	-7.999900	29.461583	1.080830E-5	20.793343
2732.720794	-2.997800	2.653000	-7.952600	29.504541	1.219440E-5	20.793496
2733.723004	-3.013300	2.647300	-7.977000	29.575419	1.282144E-5	20.800933
2734.724043	-2.972300	2.644500	-7.859700	29.515911	1.222740E-5	20.804957
2735.719040	-2.995700	2.639100	-7.904900	29.519772	1.245842E-5	20.809323
2736.723582	-3.017000	2.632700	-7.941200	29.619239	1.077529E-5	20.822822
2737.721629	-2.983200	2.630200	-7.845300	29.664345	1.414154E-5	20.797646
2738.721829	-3.001200	2.623200	-7.872100	29.575627	1.268943E-5	20.801143
2739.724596	-2.991200	2.619900	-7.835500	29.596813	1.278844E-5	20.804009
2740.728268	-2.963300	2.615400	-7.749600	29.641948	1.338248E-5	20.815371
2741.724442	-2.991300	2.608300	-7.801200	29.656683	1.206239E-5	20.813156
2742.722854	-2.953800	2.604500	-7.691400	29.644476	1.169936E-5	20.810806
2743.724398	-2.970300	2.598100	-7.716100	29.623785	1.216140E-5	20.808439
2744.723247	-2.982500	2.593300	-7.733600	29.699432	1.150135E-5	20.822589
2745.726706	-3.012600	2.585500	-7.788200	29.661614	1.367951E-5	20.816705
2746.724223	-2.995700	2.582900	-7.736400	29.637947	1.272244E-5	20.824139
2747.725029	-2.964200	2.576300	-7.635800	29.594259	1.265643E-5	20.816132
2748.738466	-3.008300	2.570500	-7.732100	29.634781	1.301946E-5	20.804827
2749.727312	-3.007000	2.564800	-7.711400	29.663626	1.374551E-5	20.823474
2750.731340	-3.011300	2.559000	-7.704500	29.633300	1.265643E-5	20.813765
2751.728310	-3.007600	2.552500	-7.676400	29.640727	1.315147E-5	20.810821
2752.730773	-3.015000	2.546200	-7.676000	29.702412	1.506561E-5	20.821800
2753.727839	-3.035100	2.539200	-7.706100	29.736424	1.400953E-5	20.805832
2754.727891	-3.015000	2.534200	-7.639900	29.717367	1.367951E-5	20.825972
2755.730590	-3.011100	2.527800	-7.611100	29.745167	1.463658E-5	20.806586
2756.732913	-2.982500	2.523200	-7.524200	29.808281	1.391052E-5	20.807159
2757.729329	-2.996500	2.516400	-7.539800	29.780581	1.245842E-5	20.828067
2758.728369	-2.954300	2.510800	-7.416800	29.818377	1.318447E-5	20.816865
2759.731093	-3.007700	2.504200	-7.530300	29.867408	1.420755E-5	20.832165
2760.729515	-2.987600	2.496700	-7.458700	29.893989	1.453757E-5	20.795907
