LabVIEW Measurement	
Writer_Version	2
Reader_Version	2
Separator	Tab
Decimal_Separator	.
Multi_Headings	No
X_Columns	One
Time_Pref	Absolute
Operator	admin
Description	Clolumns are: time, Current, Voltage, Power, Battery Temp, and Chamber Temp
Date	2024/08/16
Time	13:07:17.8513970375061035156
***End_of_Header***	
	
Channels	6						
Samples	1	1	1	1	1	1	
Date	2024/09/13	2024/09/13	2024/09/13	2024/09/13	2024/09/13	2024/09/13	
Time	06:08:35.9533152580261230469	06:08:35.9613137245178222656	06:08:35.9682450294494628906	06:08:35.9367265701293945313	06:08:35.9367265701293945313	06:08:35.9367265701293945313	
X_Dimension	Time	Time	Time	Time	Time	Time	
X0	0.0000000000000000E+0	0.0000000000000000E+0	0.0000000000000000E+0	0.0000000000000000E+0	0.0000000000000000E+0	0.0000000000000000E+0	
Delta_X	1.000000	1.000000	1.000000	1.000000	1.000000	1.000000	
***End_of_Header***							
X_Value	Untitled	Untitled 1	Untitled 2	Untitled 3	Untitled 4	Untitled 5	Comment
0.000000	0.010892	4.085100	0.044502	20.727984	0.000457	20.837040
1.001951	-2.992300	3.916400	-11.718000	20.716431	0.000456	20.807945
2.001583	-3.022900	3.910800	-11.821000	20.765295	0.000457	20.794693
3.001811	-3.011700	3.907400	-11.767000	20.729880	0.000458	20.801954
4.001818	-3.007600	3.903500	-11.740000	20.740140	0.000455	20.795143
5.000958	-3.013000	3.899500	-11.747000	20.753995	0.000456	20.806627
6.003206	-2.991800	3.898000	-11.661000	20.774655	0.000455	20.800260
7.001268	-3.003400	3.896700	-11.703000	20.760080	0.000452	20.791848
8.001741	-3.010300	3.894000	-11.721000	20.767825	0.000452	20.805284
9.003346	-3.003200	3.891600	-11.687000	20.773959	0.000452	20.813788
10.002397	-3.000900	3.891200	-11.676000	20.766329	0.000451	20.782450
11.004863	-2.999800	3.889700	-11.666000	20.764235	0.000451	20.824926
12.004327	-2.999300	3.888200	-11.661000	20.786698	0.000450	20.797604
13.002398	-2.972900	3.887000	-11.555000	20.806342	0.000448	20.784056
14.003979	-2.987900	3.884700	-11.606000	20.803349	0.000451	20.785805
15.003716	-2.993700	3.885900	-11.632000	20.784363	0.000450	20.796217
16.001865	-3.002200	3.883600	-11.659000	20.818976	0.000446	20.780096
17.004444	-2.993700	3.880900	-11.617000	20.832899	0.000450	20.773156
18.009498	-2.994400	3.881400	-11.622000	20.827560	0.000449	20.799111
19.006669	-2.985900	3.881200	-11.588000	20.818508	0.000449	20.788636
20.006381	-2.970500	3.881100	-11.528000	20.833360	0.000447	20.783100
21.012085	-3.027500	3.877200	-11.737000	20.868292	0.000447	20.793852
22.010445	-2.995500	3.879300	-11.620000	20.855877	0.000446	20.778117
23.006708	-3.003200	3.876700	-11.642000	20.892379	0.000445	20.772896
24.007812	-2.982400	3.877800	-11.564000	20.884437	0.000446	20.770643
25.008760	-3.015600	3.875400	-11.686000	20.897827	0.000445	20.784983
26.006183	-3.010600	3.875800	-11.668000	20.895752	0.000443	20.763941
27.008759	-2.979500	3.876200	-11.548000	20.908455	0.000444	20.772852
28.008525	-3.018100	3.873600	-11.690000	20.904865	0.000443	20.777796
29.007890	-3.020400	3.872400	-11.696000	20.932787	0.000443	20.771109
30.008899	-3.000100	3.874100	-11.622000	20.934930	0.000445	20.770407
31.008366	-2.994800	3.873600	-11.600000	20.933040	0.000445	20.771835
32.007808	-2.997200	3.872500	-11.606000	20.957125	0.000442	20.781699
33.011185	-2.983200	3.872200	-11.551000	20.947786	0.000443	20.772359
34.007256	-3.013800	3.872400	-11.669000	20.947939	0.000443	20.772512
35.007757	-2.993300	3.871200	-11.587000	20.969797	0.000443	20.784415
36.009345	-2.980600	3.871000	-11.537000	20.981303	0.000442	20.776484
37.012430	-2.990900	3.870200	-11.574000	20.976015	0.000442	20.779729
38.008412	-2.992300	3.871300	-11.583000	20.997230	0.000442	20.764438
39.012579	-3.004900	3.869400	-11.626000	21.011077	0.000442	20.768330
40.009782	-2.994700	3.871100	-11.592000	21.000845	0.000440	20.766630
41.008868	-3.002400	3.870200	-11.618000	21.024271	0.000443	20.778682
42.012379	-3.000600	3.867800	-11.604000	21.021082	0.000441	20.764586
43.012519	-3.015400	3.867500	-11.660000	21.021309	0.000443	20.769555
44.011667	-2.973300	3.868600	-11.502000	21.035229	0.000441	20.757873
45.012967	-2.976800	3.867600	-11.512000	21.063949	0.000444	20.777117
46.015616	-2.999100	3.868000	-11.600000	21.058888	0.000442	20.755933
47.011748	-2.988200	3.867800	-11.557000	21.064453	0.000442	20.779518
48.015305	-2.982100	3.868700	-11.536000	21.093019	0.000441	20.769210
49.014365	-3.015500	3.867100	-11.661000	21.084566	0.000442	20.764073
50.011609	-2.993500	3.867300	-11.576000	21.112484	0.000441	20.784413
51.015252	-3.007600	3.866800	-11.628000	21.119674	0.000442	20.766474
52.014407	-3.004200	3.865400	-11.611000	21.125639	0.000442	20.764380
53.011998	-3.014800	3.866400	-11.655000	21.147838	0.000440	20.766672
54.016844	-3.002000	3.865500	-11.603000	21.133865	0.000440	20.769763
55.017800	-2.997000	3.865300	-11.584000	21.136363	0.000441	20.745235
56.013601	-2.983300	3.866200	-11.533000	21.180772	0.000442	20.763580
57.020697	-2.980300	3.865000	-11.518000	21.155773	0.000440	20.753272
58.013560	-2.991100	3.864900	-11.559000	21.174309	0.000442	20.765649
59.016977	-2.997000	3.863900	-11.580000	21.166182	0.000440	20.777435
60.015244	-2.993600	3.862600	-11.562000	21.177756	0.000441	20.746337
61.019044	-3.010200	3.864100	-11.630000	21.165037	0.000440	20.748788
62.017522	-3.008300	3.863100	-11.621000	21.195041	0.000440	20.760310
63.014781	-2.981500	3.865300	-11.524000	21.228004	0.000442	20.756300
64.018095	-2.993600	3.863800	-11.565000	21.229198	0.000440	20.747538
65.014885	-3.010200	3.862500	-11.626000	21.227105	0.000442	20.760617
66.014271	-2.989700	3.863100	-11.548000	21.262554	0.000441	20.763364
67.013402	-2.995600	3.862500	-11.570000	21.229648	0.000438	20.745142
68.015294	-3.019300	3.861200	-11.656000	21.246212	0.000442	20.756972
69.016000	-3.011700	3.861300	-11.628000	21.256122	0.000441	20.745074
70.015269	-3.010100	3.860500	-11.619000	21.276680	0.000440	20.754735
71.014385	-3.007100	3.861700	-11.611000	21.270543	0.000441	20.758553
72.015712	-3.009600	3.861600	-11.622000	21.297134	0.000440	20.731101
73.016073	-3.003200	3.859700	-11.591000	21.308054	0.000440	20.765734
74.017205	-3.001600	3.861500	-11.589000	21.317262	0.000439	20.747445
75.017621	-3.010600	3.860900	-11.622000	21.315938	0.000438	20.754656
76.018129	-2.993700	3.861700	-11.559000	21.331258	0.000438	20.749593
77.018209	-3.000100	3.861400	-11.583000	21.331954	0.000441	20.760721
78.018186	-3.003500	3.860300	-11.594000	21.345821	0.000441	20.748042
79.021676	-3.006800	3.860100	-11.605000	21.356327	0.000440	20.737690
80.021339	-2.971300	3.859900	-11.468000	21.340539	0.000440	20.721420
81.019268	-2.970500	3.861100	-11.468000	21.361885	0.000442	20.742777
82.018268	-3.012800	3.860100	-11.629000	21.372994	0.000442	20.765271
83.020607	-3.002100	3.859300	-11.585000	21.380940	0.000442	20.740030
84.020740	-2.978700	3.861100	-11.500000	21.401453	0.000443	20.733052
85.023682	-3.004000	3.858800	-11.590000	21.389876	0.000442	20.729056
86.023464	-2.976500	3.858800	-11.484000	21.428317	0.000441	20.739069
87.020704	-2.982200	3.858300	-11.505000	21.445827	0.000442	20.733828
88.021221	-2.984500	3.859900	-11.518000	21.455181	0.000442	20.744611
89.023101	-3.001000	3.858500	-11.578000	21.470271	0.000441	20.733156
90.020043	-3.001300	3.858500	-11.580000	21.465182	0.000441	20.734702
91.023749	-2.997400	3.857900	-11.562000	21.462843	0.000441	20.766976
92.021128	-2.996400	3.858400	-11.561000	21.468954	0.000441	20.747012
93.021144	-2.986300	3.856900	-11.517000	21.485644	0.000442	20.733365
94.024415	-2.997300	3.857600	-11.561000	21.475766	0.000444	20.725852
95.028048	-3.004200	3.856900	-11.586000	21.499983	0.000441	20.729695
96.038396	-3.004800	3.857100	-11.588000	21.511860	0.000443	20.729251
97.022054	-3.010600	3.856500	-11.609000	21.519368	0.000441	20.725383
98.023357	-2.993700	3.856300	-11.543000	21.546057	0.000444	20.729804
99.024691	-2.976700	3.856700	-11.478000	21.549226	0.000442	20.734398
100.024891	-2.980700	3.857800	-11.499000	21.534783	0.000443	20.740335
101.027969	-3.026000	3.855500	-11.666000	21.549226	0.000443	20.729657
102.024201	-3.001700	3.856100	-11.574000	21.552296	0.000446	20.715184
103.029067	-3.014700	3.855900	-11.623000	21.569478	0.000443	20.724791
104.026032	-3.009500	3.855200	-11.601000	21.570056	0.000445	20.737698
105.025921	-3.012700	3.854900	-11.613000	21.562702	0.000444	20.723226
106.028731	-2.991700	3.856200	-11.535000	21.588264	0.000445	20.707554
107.029168	-3.021400	3.854500	-11.644000	21.594128	0.000442	20.729544
108.026049	-3.023900	3.856000	-11.659000	21.595832	0.000443	20.727456
109.027822	-2.987600	3.855200	-11.517000	21.611191	0.000445	20.749940
110.028455	-2.972300	3.856100	-11.460000	21.607604	0.000445	20.734969
111.027766	-2.976000	3.855400	-11.473000	21.624138	0.000446	20.713107
112.032734	-2.999900	3.854200	-11.562000	21.623935	0.000445	20.711482
113.027415	-2.969100	3.855700	-11.447000	21.625017	0.000445	20.717781
114.027357	-2.990400	3.854500	-11.525000	21.642247	0.000446	20.727437
115.027320	-2.982900	3.854100	-11.495000	21.648018	0.000446	20.708555
116.026535	-2.985500	3.855300	-11.509000	21.683221	0.000447	20.729087
117.030651	-2.982300	3.853400	-11.491000	21.665942	0.000446	20.740719
118.026108	-2.993900	3.852900	-11.534000	21.688334	0.000446	20.706227
119.030975	-2.998400	3.851900	-11.548000	21.706122	0.000445	20.717392
120.031118	-2.993900	3.853800	-11.536000	21.706546	0.000448	20.719713
121.026433	-3.002900	3.854200	-11.572000	21.729668	0.000448	20.721991
122.028882	-2.996800	3.851900	-11.543000	21.718747	0.000446	20.724337
123.030635	-2.996000	3.852500	-11.541000	21.740737	0.000448	20.708886
124.027289	-3.005700	3.851600	-11.576000	21.744360	0.000448	20.721048
125.030205	-2.985800	3.852900	-11.503000	21.749547	0.000447	20.707272
126.030317	-2.998700	3.851400	-11.548000	21.765803	0.000448	20.719275
127.029465	-2.978600	3.853300	-11.476000	21.757681	0.000448	20.725371
128.031904	-2.995800	3.852100	-11.539000	21.769401	0.000451	20.693477
129.028347	-2.981800	3.852700	-11.486000	21.786032	0.000448	20.703484
130.028929	-2.998900	3.850900	-11.547000	21.776292	0.000449	20.722660
131.029274	-2.956200	3.853000	-11.389000	21.807411	0.000451	20.704019
132.030942	-2.980700	3.851400	-11.479000	21.786246	0.000449	20.702750
133.032042	-2.995200	3.851600	-11.536000	21.815722	0.000451	20.714709
134.032350	-2.994200	3.852200	-11.534000	21.824071	0.000451	20.711686
135.028956	-2.976600	3.851800	-11.464000	21.830186	0.000450	20.724445
136.028945	-3.001100	3.849800	-11.552000	21.828069	0.000450	20.719007
137.028657	-3.004300	3.851300	-11.569000	21.842005	0.000450	20.711143
138.029157	-2.965400	3.852000	-11.422000	21.840909	0.000451	20.720479
139.032714	-2.979500	3.849800	-11.469000	21.827306	0.000451	20.719665
140.031014	-2.999800	3.848700	-11.544000	21.842059	0.000452	20.699343
141.030349	-2.990000	3.849500	-11.509000	21.866003	0.000453	20.694385
142.033050	-3.003300	3.849400	-11.560000	21.874259	0.000452	20.719720
143.030133	-3.004000	3.848400	-11.559000	21.889042	0.000453	20.700851
144.034667	-3.014800	3.849100	-11.603000	21.882391	0.000452	20.703677
145.032081	-3.005600	3.849000	-11.567000	21.869897	0.000454	20.704922
146.031782	-2.989400	3.849600	-11.507000	21.895384	0.000455	20.706251
147.032099	-2.981800	3.849000	-11.476000	21.895458	0.000456	20.709645
148.035486	-2.989600	3.850100	-11.509000	21.916054	0.000454	20.717459
149.032190	-3.000700	3.848800	-11.548000	21.920422	0.000453	20.708554
150.033687	-2.998400	3.848600	-11.539000	21.913815	0.000452	20.697198
151.031390	-2.997300	3.847100	-11.530000	21.907090	0.000451	20.708011
152.032126	-3.001500	3.848400	-11.550000	21.944290	0.000455	20.712531
153.036912	-3.010500	3.846800	-11.580000	21.952896	0.000455	20.701230
154.031515	-3.004600	3.847500	-11.559000	21.963034	0.000456	20.706638
155.036499	-2.998200	3.846300	-11.531000	21.991534	0.000456	20.692492
156.060800	-3.024400	3.846300	-11.632000	21.989516	0.000456	20.709440
157.036173	-2.987800	3.847900	-11.496000	22.008684	0.000457	20.708239
158.033477	-2.998100	3.845900	-11.530000	22.016865	0.000454	20.698884
159.042333	-3.006800	3.846200	-11.563000	22.047682	0.000457	20.688956
160.036151	-2.983500	3.847400	-11.477000	22.018870	0.000460	20.700417
161.035761	-3.023700	3.844000	-11.622000	22.049177	0.000455	20.704205
162.034464	-2.995100	3.846400	-11.520000	22.054491	0.000458	20.683918
163.035747	-3.002200	3.845500	-11.544000	22.080713	0.000458	20.694998
164.033308	-2.994300	3.845500	-11.514000	22.084084	0.000459	20.697898
165.038154	-2.994500	3.845500	-11.514000	22.079471	0.000459	20.701340
166.033278	-2.993300	3.845100	-11.509000	22.074710	0.000458	20.687090
167.037641	-2.989000	3.845900	-11.494000	22.059726	0.000459	20.683943
168.034005	-3.001200	3.843800	-11.535000	22.074685	0.000457	20.688962
169.034781	-2.976600	3.845400	-11.445000	22.102580	0.000459	20.671367
170.035955	-2.997600	3.844700	-11.524000	22.103023	0.000459	20.660904
171.042957	-3.017500	3.842900	-11.594000	22.107088	0.000462	20.709550
172.036337	-2.982200	3.845300	-11.466000	22.118775	0.000461	20.685686
173.037880	-3.007100	3.842600	-11.553000	22.121691	0.000463	20.672483
174.036945	-2.999100	3.843500	-11.526000	22.108952	0.000462	20.707148
175.039541	-2.988000	3.843100	-11.482000	22.130862	0.000462	20.679294
176.040716	-3.009200	3.842100	-11.559000	22.129066	0.000464	20.667538
177.037305	-2.998400	3.843100	-11.522000	22.144713	0.000464	20.672773
178.038283	-3.002900	3.842600	-11.538000	22.190227	0.000463	20.687522
179.039230	-2.993900	3.842500	-11.503000	22.153331	0.000464	20.694205
180.039177	-2.993000	3.842600	-11.499000	22.176906	0.000465	20.665174
181.040127	-2.960100	3.843900	-11.377000	22.148910	0.000464	20.680294
182.038088	-2.990300	3.842400	-11.489000	22.179293	0.000467	20.698387
183.050702	-2.998700	3.840700	-11.516000	22.202641	0.000466	20.693788
184.042873	-2.998100	3.842200	-11.519000	22.191121	0.000465	20.679882
185.038685	-2.987700	3.841400	-11.476000	22.207420	0.000464	20.699996
186.040986	-2.993800	3.841500	-11.501000	22.218799	0.000467	20.700958
187.041066	-3.018900	3.839800	-11.591000	22.231684	0.000466	20.684934
188.040274	-3.009200	3.841000	-11.557000	22.240700	0.000465	20.659820
189.041389	-2.999300	3.839800	-11.516000	22.216795	0.000465	20.684251
190.040771	-2.998700	3.839600	-11.513000	22.211807	0.000466	20.676886
191.050433	-2.995900	3.839500	-11.502000	22.251852	0.000468	20.655812
192.046347	-2.994800	3.840400	-11.501000	22.263463	0.000468	20.670285
193.042223	-2.991500	3.840800	-11.489000	22.251748	0.000468	20.671357
194.043345	-3.006000	3.840500	-11.543000	22.293660	0.000468	20.684875
195.046371	-3.012000	3.838900	-11.562000	22.296754	0.000468	20.673272
196.043576	-2.998100	3.839000	-11.509000	22.280322	0.000470	20.666776
197.046614	-3.004600	3.838800	-11.533000	22.296773	0.000469	20.683250
198.046139	-2.989200	3.838900	-11.474000	22.306785	0.000469	20.681421
199.045057	-2.992200	3.838600	-11.484000	22.319330	0.000469	20.676438
200.044881	-3.014400	3.838100	-11.569000	22.308279	0.000470	20.681495
201.050223	-2.984100	3.839400	-11.457000	22.334441	0.000470	20.682087
202.047055	-3.003400	3.838100	-11.527000	22.347103	0.000469	20.681015
203.046016	-3.020900	3.838000	-11.592000	22.341735	0.000472	20.695556
204.050384	-2.997200	3.838200	-11.503000	22.372248	0.000473	20.698136
205.045627	-3.010900	3.837000	-11.552000	22.379763	0.000470	20.680056
206.046033	-3.025200	3.836800	-11.606000	22.401347	0.000472	20.680333
207.046353	-3.008000	3.835700	-11.537000	22.403616	0.000474	20.696357
208.050593	-2.978300	3.837200	-11.428000	22.413781	0.000474	20.691837
209.051170	-2.987000	3.837200	-11.460000	22.407976	0.000473	20.704517
210.051781	-2.992800	3.836900	-11.481000	22.389233	0.000473	20.681004
211.051521	-2.999500	3.837200	-11.508000	22.379991	0.000474	20.668903
212.051353	-3.010800	3.835000	-11.546000	22.368547	0.000473	20.672142
213.052754	-3.006400	3.834500	-11.527000	22.399650	0.000475	20.655871
214.050916	-3.004600	3.835700	-11.524000	22.402239	0.000476	20.684546
215.050119	-2.993400	3.835000	-11.480000	22.416542	0.000475	20.679428
216.053237	-3.005400	3.835200	-11.525000	22.431398	0.000476	20.673916
217.052400	-3.010800	3.835700	-11.548000	22.439540	0.000475	20.687287
218.055015	-3.006000	3.835000	-11.527000	22.451328	0.000477	20.679176
219.055202	-3.003300	3.834600	-11.515000	22.472210	0.000476	20.667370
220.051881	-3.006200	3.833400	-11.523000	22.459549	0.000478	20.671761
221.056507	-3.023100	3.832600	-11.586000	22.454015	0.000478	20.687558
222.053452	-2.999000	3.833200	-11.495000	22.454286	0.000478	20.681190
223.052580	-3.007000	3.833400	-11.526000	22.475179	0.000480	20.672715
224.059464	-3.020500	3.832700	-11.576000	22.476342	0.000479	20.667715
225.052750	-3.028000	3.832400	-11.603000	22.520397	0.000478	20.696666
226.053870	-2.984700	3.834500	-11.444000	22.534171	0.000478	20.682958
227.056115	-2.991500	3.832000	-11.462000	22.556649	0.000479	20.687454
228.053302	-3.024900	3.832500	-11.592000	22.534343	0.000479	20.693089
229.056112	-2.994800	3.832300	-11.475000	22.537282	0.000480	20.678013
230.055424	-3.006800	3.832000	-11.521000	22.580714	0.000482	20.671251
231.055302	-3.013000	3.832500	-11.546000	22.581809	0.000481	20.661915
232.055333	-2.981500	3.831500	-11.423000	22.566684	0.000480	20.688021
233.055429	-3.017100	3.830500	-11.555000	22.576724	0.000480	20.660142
234.056886	-3.008700	3.831300	-11.526000	22.600844	0.000481	20.661065
235.062035	-3.007400	3.831400	-11.522000	22.593362	0.000483	20.703836
236.057740	-2.997000	3.831600	-11.482000	22.610730	0.000482	20.697998
237.057082	-3.015600	3.831000	-11.551000	22.624755	0.000482	20.686439
238.061469	-3.014500	3.830700	-11.547000	22.624823	0.000483	20.701682
239.059987	-3.022500	3.830100	-11.575000	22.635593	0.000483	20.690658
240.060905	-3.004800	3.830100	-11.508000	22.595220	0.000483	20.681039
241.057710	-2.998900	3.830600	-11.486000	22.633270	0.000482	20.680743
242.058607	-3.015900	3.829800	-11.549000	22.653245	0.000484	20.686527
243.059348	-3.008100	3.829800	-11.519000	22.634039	0.000484	20.677246
244.059328	-2.993900	3.829800	-11.465000	22.656731	0.000485	20.689545
245.062839	-3.021600	3.829400	-11.569000	22.653196	0.000485	20.691694
246.059641	-2.979000	3.828500	-11.404000	22.655016	0.000484	20.693991
247.060067	-3.005300	3.829400	-11.508000	22.668892	0.000486	20.696984
248.064012	-2.997700	3.828900	-11.476000	22.682116	0.000486	20.705489
249.067914	-3.027300	3.827700	-11.587000	22.691436	0.000486	20.683054
250.063102	-3.002600	3.827300	-11.490000	22.688043	0.000486	20.684871
251.060233	-2.992200	3.826600	-11.448000	22.696539	0.000488	20.695279
252.058589	-3.005400	3.828000	-11.504000	22.730467	0.000487	20.701764
253.060163	-2.995100	3.826800	-11.461000	22.712184	0.000487	20.707158
254.060635	-2.986200	3.828000	-11.430000	22.723939	0.000488	20.690956
255.060406	-2.991200	3.827500	-11.448000	22.741754	0.000485	20.691732
256.066626	-2.984900	3.827800	-11.424000	22.748903	0.000487	20.703636
257.060629	-2.992400	3.826500	-11.450000	22.733430	0.000489	20.708526
258.060896	-2.979500	3.826300	-11.399000	22.730738	0.000491	20.723848
259.061738	-2.986400	3.826400	-11.427000	22.739425	0.000489	20.698409
260.061945	-2.987600	3.826100	-11.430000	22.750736	0.000490	20.705472
261.062473	-2.977000	3.827000	-11.392000	22.762195	0.000491	20.680439
262.062810	-2.991900	3.826800	-11.448000	22.769517	0.000491	20.697732
263.061608	-2.973900	3.825400	-11.375000	22.757303	0.000492	20.707309
264.065694	-3.001900	3.824500	-11.479000	22.772400	0.000491	20.692085
265.063755	-2.996500	3.825700	-11.462000	22.792403	0.000491	20.685570
266.063013	-3.015200	3.825100	-11.532000	22.795563	0.000490	20.703436
267.064939	-3.001000	3.826000	-11.481000	22.788759	0.000491	20.695670
268.064138	-2.993000	3.824900	-11.447000	22.797131	0.000493	20.707851
269.064090	-2.988800	3.824500	-11.429000	22.826698	0.000492	20.704280
270.064212	-2.975200	3.823800	-11.375000	22.832876	0.000492	20.708572
271.066757	-3.005200	3.823400	-11.488000	22.821363	0.000494	20.706996
272.066503	-2.986600	3.823100	-11.416000	22.793905	0.000493	20.716000
273.065565	-3.020900	3.823100	-11.549000	22.810767	0.000493	20.705864
274.064476	-3.007100	3.822200	-11.493000	22.815352	0.000493	20.714726
275.070314	-3.018300	3.822800	-11.538000	22.831144	0.000494	20.691189
276.065544	-2.998700	3.822800	-11.462000	22.861632	0.000494	20.714147
277.073338	-2.990600	3.821200	-11.427000	22.880011	0.000495	20.706481
278.065140	-2.995100	3.820900	-11.444000	22.905870	0.000494	20.711050
279.065893	-3.016100	3.822100	-11.526000	22.930505	0.000496	20.715342
280.066606	-3.013400	3.821000	-11.514000	22.944352	0.000495	20.704559
281.067560	-2.999500	3.822100	-11.464000	22.951076	0.000495	20.714142
282.066751	-3.022900	3.819800	-11.546000	22.942405	0.000494	20.704979
283.070642	-2.997700	3.820300	-11.451000	22.958175	0.000497	20.691381
284.065632	-3.002400	3.821200	-11.472000	22.975078	0.000497	20.711162
285.065960	-3.017700	3.819600	-11.526000	22.945644	0.000497	20.723398
286.073622	-2.985600	3.821400	-11.408000	22.968053	0.000499	20.725936
287.066883	-3.004900	3.819400	-11.477000	22.970701	0.000497	20.699664
288.072170	-2.994000	3.821200	-11.440000	22.959185	0.000499	20.710411
289.068678	-3.000700	3.819500	-11.460000	22.988225	0.000499	20.708687
290.069692	-2.986700	3.821100	-11.411000	22.946062	0.000497	20.717179
291.071245	-2.997700	3.819800	-11.450000	22.955473	0.000497	20.712382
292.071685	-2.999000	3.818400	-11.450000	22.992484	0.000500	20.712007
293.069316	-2.992900	3.820300	-11.433000	22.978878	0.000498	20.719237
294.069784	-3.002400	3.819500	-11.466000	22.985233	0.000500	20.730821
295.070475	-2.993700	3.817500	-11.428000	23.011108	0.000499	20.724977
296.069826	-3.016500	3.818400	-11.518000	23.044657	0.000500	20.734411
297.070177	-3.011300	3.817900	-11.496000	23.023959	0.000500	20.713670
298.073081	-2.998200	3.817100	-11.444000	22.997980	0.000500	20.725100
299.070782	-3.022900	3.817200	-11.538000	23.008840	0.000501	20.718911
300.069849	-2.992200	3.818700	-11.426000	23.036257	0.000500	20.737374
301.076893	-2.988000	3.818500	-11.409000	23.021636	0.000501	20.726517
302.071896	-2.998700	3.816700	-11.445000	23.021508	0.000502	20.735398
303.071022	-3.009100	3.816900	-11.484000	23.024219	0.000502	20.723415
304.072747	-2.999500	3.816900	-11.448000	23.056950	0.000501	20.724917
305.074714	-2.989600	3.817700	-11.413000	23.059612	0.000503	20.743231
306.075374	-3.000800	3.816000	-11.449000	23.089098	0.000503	20.727732
307.072344	-2.992900	3.815500	-11.418000	23.089246	0.000505	20.720293
308.072515	-2.980900	3.815100	-11.371000	23.113256	0.000504	20.721592
309.075300	-3.000200	3.815200	-11.446000	23.137634	0.000503	20.736064
310.075176	-3.006500	3.815100	-11.468000	23.122216	0.000504	20.739106
311.073147	-2.983600	3.815000	-11.381000	23.142421	0.000504	20.719997
312.074342	-3.007300	3.815200	-11.473000	23.153397	0.000505	20.714400
313.074982	-3.034300	3.813900	-11.572000	23.144431	0.000504	20.743349
314.075558	-3.005900	3.814300	-11.465000	23.172821	0.000504	20.725805
315.074805	-2.986700	3.813200	-11.388000	23.183452	0.000505	20.761590
316.074083	-3.009400	3.813300	-11.475000	23.198022	0.000507	20.739679
317.076250	-2.959700	3.815300	-11.291000	23.190323	0.000505	20.729118
318.074842	-3.004200	3.813500	-11.456000	23.180964	0.000507	20.726378
319.075695	-3.009900	3.813300	-11.476000	23.161490	0.000506	20.725829
320.080303	-2.996600	3.813500	-11.427000	23.157127	0.000506	20.735683
321.075434	-2.990100	3.812800	-11.400000	23.154712	0.000505	20.721882
322.076690	-2.992000	3.811300	-11.402000	23.156329	0.000505	20.731563
323.077675	-2.986900	3.812500	-11.387000	23.176183	0.000507	20.737709
324.084513	-2.985600	3.813300	-11.384000	23.192191	0.000508	20.728145
325.081610	-2.993700	3.811000	-11.409000	23.227259	0.000507	20.722984
326.076909	-3.000500	3.811700	-11.436000	23.239486	0.000508	20.737136
327.078607	-3.003900	3.811100	-11.448000	23.244114	0.000510	20.742722
328.079331	-3.019000	3.809600	-11.500000	23.250817	0.000509	20.744698
329.079240	-2.962900	3.811600	-11.293000	23.244735	0.000510	20.741447
330.086592	-2.980100	3.810400	-11.355000	23.261300	0.000509	20.742401
331.083752	-3.012800	3.808200	-11.473000	23.243788	0.000507	20.735757
332.081675	-3.002500	3.809500	-11.437000	23.229176	0.000509	20.754305
333.082193	-3.021200	3.809200	-11.508000	23.236193	0.000510	20.751380
334.082850	-3.005500	3.811000	-11.453000	23.248974	0.000512	20.746644
335.080884	-3.032100	3.808300	-11.546000	23.234055	0.000513	20.742598
336.086741	-3.007600	3.809000	-11.454000	23.245883	0.000509	20.762988
337.082606	-2.997600	3.808000	-11.413000	23.243198	0.000512	20.742752
338.083763	-2.995900	3.808300	-11.408000	23.249717	0.000510	20.750234
339.086102	-2.998100	3.808200	-11.416000	23.255770	0.000510	20.770525
340.088016	-3.004300	3.807200	-11.437000	23.273054	0.000512	20.733318
341.086279	-2.997000	3.808100	-11.412000	23.297177	0.000514	20.754650
342.085094	-3.002800	3.808500	-11.435000	23.281939	0.000514	20.744120
343.084579	-2.990700	3.806900	-11.384000	23.285492	0.000512	20.765698
344.084627	-3.011300	3.805400	-11.458000	23.280238	0.000512	20.759011
345.085666	-2.998500	3.806600	-11.413000	23.282180	0.000513	20.740567
346.086888	-3.003800	3.806800	-11.433000	23.272195	0.000514	20.755217
347.088844	-3.011500	3.805500	-11.459000	23.311434	0.000513	20.753291
348.090254	-2.971900	3.806800	-11.313000	23.309167	0.000514	20.747699
349.085817	-2.990900	3.804900	-11.380000	23.342437	0.000516	20.778199
350.087746	-2.994600	3.804800	-11.393000	23.348256	0.000515	20.763643
351.086090	-2.976300	3.806600	-11.328000	23.364642	0.000511	20.738339
352.091182	-3.006500	3.806200	-11.442000	23.385832	0.000516	20.767639
353.088023	-3.005200	3.804200	-11.431000	23.373398	0.000515	20.760866
354.089640	-3.032600	3.801900	-11.528000	23.399042	0.000514	20.761439
355.089530	-3.015900	3.803500	-11.470000	23.392972	0.000515	20.738284
356.088839	-3.004200	3.803600	-11.426000	23.372482	0.000516	20.759474
357.092149	-3.000700	3.804500	-11.415000	23.399362	0.000517	20.774562
358.090817	-2.990900	3.802600	-11.371000	23.399668	0.000517	20.766334
359.090182	-3.005800	3.802400	-11.428000	23.384678	0.000515	20.775017
360.090837	-3.005800	3.802900	-11.430000	23.417995	0.000515	20.760521
361.091189	-2.987800	3.803400	-11.362000	23.424065	0.000518	20.754752
362.091174	-2.993100	3.803100	-11.381000	23.431610	0.000519	20.776064
363.091723	-3.014800	3.801300	-11.459000	23.467444	0.000515	20.765041
364.091705	-2.994600	3.802900	-11.388000	23.467444	0.000515	20.763144
365.090963	-2.995500	3.802800	-11.390000	23.455440	0.000516	20.771975
366.094389	-3.005600	3.801300	-11.425000	23.476899	0.000518	20.772148
367.091872	-2.990700	3.801500	-11.369000	23.463955	0.000518	20.758224
368.093933	-2.993600	3.800500	-11.376000	23.442747	0.000517	20.781538
369.091983	-3.005600	3.800300	-11.421000	23.423130	0.000515	20.767091
370.091878	-3.007800	3.800200	-11.429000	23.411323	0.000517	20.778490
371.093011	-2.969600	3.800900	-11.286000	23.480166	0.000518	20.776371
372.093725	-2.984300	3.800700	-11.341000	23.479171	0.000518	20.759726
373.093694	-2.978800	3.798800	-11.314000	23.504045	0.000519	20.766641
374.096919	-2.994400	3.800900	-11.380000	23.514377	0.000521	20.775576
375.093866	-3.012700	3.799300	-11.445000	23.537451	0.000520	20.760773
376.094056	-2.994100	3.799400	-11.374000	23.533200	0.000520	20.773581
377.095665	-3.012300	3.798200	-11.440000	23.533180	0.000519	20.791580
378.095567	-3.009000	3.797200	-11.425000	23.503583	0.000519	20.757169
379.098587	-3.013100	3.797000	-11.440000	23.502557	0.000520	20.781746
380.096957	-2.986900	3.799700	-11.348000	23.522129	0.000520	20.777657
381.098051	-2.998700	3.798000	-11.388000	23.518842	0.000522	20.800441
382.101045	-2.975300	3.798500	-11.300000	23.533186	0.000519	20.757446
383.099608	-2.983000	3.797600	-11.328000	23.510555	0.000523	20.781228
384.098599	-3.006100	3.796200	-11.411000	23.522903	0.000521	20.767527
385.099317	-2.983100	3.796900	-11.326000	23.532811	0.000522	20.762286
386.101948	-2.997900	3.796900	-11.381000	23.525948	0.000523	20.783856
387.100631	-2.990400	3.795600	-11.349000	23.578249	0.000520	20.767532
388.098521	-2.986800	3.796700	-11.338000	23.612102	0.000524	20.782977
389.102023	-3.009400	3.795200	-11.420000	23.597287	0.000523	20.774762
390.099964	-2.985800	3.795700	-11.333000	23.640431	0.000524	20.799048
391.098709	-2.994800	3.794300	-11.362000	23.634436	0.000523	20.769330
392.099948	-3.003100	3.794000	-11.393000	23.647624	0.000523	20.798673
393.098753	-2.974100	3.794600	-11.284000	23.646407	0.000523	20.792238
394.100043	-3.010600	3.794700	-11.423000	23.630947	0.000523	20.806136
395.103129	-3.032800	3.793200	-11.503000	23.671523	0.000523	20.785175
396.100563	-2.999400	3.792800	-11.376000	23.652753	0.000524	20.804763
397.100572	-3.018300	3.793800	-11.450000	23.646580	0.000525	20.781505
398.106681	-2.996400	3.793200	-11.365000	23.619270	0.000524	20.820983
399.100467	-3.000400	3.794100	-11.382000	23.644067	0.000528	20.784202
400.104112	-2.981700	3.793700	-11.311000	23.661671	0.000526	20.792841
401.101530	-2.993500	3.793400	-11.355000	23.677942	0.000526	20.765057
402.102209	-2.992100	3.792300	-11.346000	23.715034	0.000522	20.788494
403.101149	-2.997900	3.791600	-11.366000	23.703334	0.000523	20.796678
404.104393	-2.997200	3.791600	-11.363000	23.688347	0.000525	20.783075
405.103457	-2.986500	3.790900	-11.320000	23.673483	0.000525	20.791881
406.101846	-2.998400	3.790200	-11.364000	23.670755	0.000526	20.810009
407.109265	-2.997000	3.790900	-11.359000	23.703585	0.000524	20.774170
408.102285	-3.003500	3.790900	-11.385000	23.687199	0.000526	20.788088
409.102843	-2.997500	3.790600	-11.361000	23.672518	0.000526	20.793285
410.104032	-2.998400	3.791600	-11.368000	23.676302	0.000526	20.796604
411.104298	-3.029500	3.789400	-11.479000	23.683568	0.000525	20.811949
412.104285	-3.002600	3.790700	-11.381000	23.705299	0.000527	20.793907
413.103809	-3.014800	3.788600	-11.420000	23.694170	0.000526	20.796025
414.103696	-3.012800	3.789700	-11.415000	23.711467	0.000526	20.808625
415.104399	-2.993100	3.789300	-11.340000	23.717768	0.000527	20.808304
416.107790	-2.995800	3.788900	-11.349000	23.723763	0.000528	20.787762
417.105771	-2.994700	3.788400	-11.344000	23.727300	0.000527	20.809800
418.105516	-3.001600	3.786800	-11.366000	23.714944	0.000529	20.798361
419.112294	-3.010600	3.788100	-11.404000	23.711117	0.000527	20.791679
420.105209	-2.985400	3.788400	-11.309000	23.715176	0.000527	20.812344
421.110778	-3.008800	3.787200	-11.394000	23.726245	0.000527	20.808268
422.108299	-2.997200	3.787000	-11.349000	23.706486	0.000530	20.810269
423.106661	-3.024300	3.784900	-11.446000	23.753778	0.000527	20.805054
424.106239	-2.996900	3.786000	-11.345000	23.771749	0.000527	20.807424
425.108697	-3.013500	3.786700	-11.410000	23.801665	0.000529	20.810867
426.107895	-3.025000	3.786100	-11.451000	23.793946	0.000529	20.817825
427.107275	-3.003800	3.785700	-11.371000	23.789315	0.000529	20.794691
428.106643	-3.006800	3.785400	-11.381000	23.802778	0.000530	20.808663
429.107767	-2.983800	3.785000	-11.293000	23.793675	0.000529	20.813761
430.107450	-2.989200	3.784600	-11.311000	23.791280	0.000529	20.803300
431.107989	-3.014500	3.784300	-11.406000	23.782038	0.000531	20.828646
432.108967	-3.005100	3.784800	-11.373000	23.790182	0.000527	20.820215
433.108670	-2.996200	3.785300	-11.340000	23.805610	0.000529	20.830943
434.108328	-2.999000	3.785400	-11.352000	23.804664	0.000529	20.804865
435.110344	-3.014600	3.783800	-11.406000	23.811653	0.000531	20.820881
436.108978	-3.020900	3.783600	-11.429000	23.829525	0.000529	20.842119
437.111733	-3.005900	3.784500	-11.375000	23.842992	0.000532	20.816269
438.110666	-2.993900	3.783000	-11.325000	23.850504	0.000531	20.840395
439.110490	-3.009700	3.783100	-11.384000	23.875984	0.000532	20.824694
440.111252	-2.986300	3.783300	-11.297000	23.878673	0.000531	20.819330
441.111050	-3.000000	3.783100	-11.348000	23.874068	0.000530	20.840790
442.113185	-3.006400	3.782200	-11.370000	23.824041	0.000530	20.824294
443.114188	-3.000700	3.781300	-11.346000	23.864531	0.000532	20.832650
444.111510	-2.991000	3.782600	-11.312000	23.866073	0.000531	20.823765
445.111289	-2.970800	3.781300	-11.233000	23.875407	0.000533	20.841185
446.112830	-2.980600	3.781500	-11.270000	23.877274	0.000533	20.829781
447.111781	-2.998100	3.780700	-11.333000	23.908630	0.000530	20.823291
448.117505	-2.980000	3.781100	-11.266000	23.865526	0.000531	20.833174
449.112556	-2.985300	3.780400	-11.285000	23.845759	0.000535	20.817620
450.113760	-3.016200	3.780800	-11.403000	23.877717	0.000532	20.820742
451.116431	-3.003600	3.778200	-11.348000	23.921539	0.000530	20.828649
452.113279	-3.002200	3.779500	-11.345000	23.940079	0.000533	20.847713
453.118267	-2.995700	3.778800	-11.319000	23.990400	0.000533	20.820416
454.114918	-3.010300	3.777900	-11.372000	23.994656	0.000534	20.838907
455.114048	-2.980500	3.778400	-11.261000	23.944733	0.000532	20.844794
456.113531	-2.993100	3.779500	-11.311000	23.931690	0.000533	20.816543
457.114322	-2.995700	3.778400	-11.318000	23.918716	0.000533	20.836249
458.114189	-3.006000	3.778300	-11.357000	23.902565	0.000532	20.830011
459.118198	-2.982700	3.779400	-11.272000	23.920810	0.000534	20.848305
460.114445	-2.996100	3.777500	-11.317000	23.923568	0.000532	20.842062
461.114576	-3.028700	3.775500	-11.433000	23.974461	0.000533	20.827191
462.118331	-3.014300	3.776900	-11.383000	23.970083	0.000535	20.825171
463.115711	-3.003100	3.777500	-11.344000	23.977470	0.000533	20.848226
464.118814	-2.986100	3.777400	-11.278000	23.994585	0.000533	20.809913
465.116285	-2.981900	3.776400	-11.260000	23.992674	0.000534	20.819851
466.116434	-3.011400	3.776600	-11.372000	23.963163	0.000534	20.822499
467.117352	-3.015000	3.774500	-11.380000	23.961345	0.000530	20.833478
468.116118	-3.011000	3.774800	-11.366000	23.950465	0.000534	20.811662
469.119647	-3.002500	3.774700	-11.332000	23.938324	0.000532	20.821773
470.118189	-2.993300	3.775400	-11.300000	23.951859	0.000534	20.805948
471.117935	-3.021400	3.774500	-11.404000	23.949519	0.000533	20.820671
472.119353	-2.985500	3.774100	-11.266000	23.961892	0.000532	20.808422
473.118346	-2.991900	3.774400	-11.292000	23.955641	0.000534	20.813060
474.118945	-2.995000	3.774000	-11.303000	23.989242	0.000534	20.822099
475.118908	-2.985600	3.773000	-11.264000	24.007651	0.000533	20.805948
476.119332	-3.011900	3.772200	-11.359000	24.044431	0.000532	20.826711
477.128789	-2.987800	3.772500	-11.270000	24.056325	0.000534	20.794069
478.123654	-2.988900	3.772700	-11.275000	24.036468	0.000535	20.821570
479.126443	-3.014300	3.771500	-11.368000	24.052217	0.000534	20.798010
480.122165	-2.979200	3.773500	-11.241000	24.054133	0.000533	20.816053
481.121191	-2.997000	3.772600	-11.306000	24.050400	0.000533	20.777221
482.120855	-2.988600	3.772000	-11.272000	24.067174	0.000534	20.794044
483.121329	-3.020900	3.771100	-11.392000	24.097653	0.000532	20.811810
484.121195	-3.006700	3.769800	-11.334000	24.109817	0.000532	20.778016
485.125954	-3.023000	3.770200	-11.397000	24.130096	0.000534	20.818744
486.124909	-2.993400	3.770800	-11.286000	24.052059	0.000536	20.796903
487.123256	-2.987700	3.771700	-11.268000	24.038900	0.000535	20.789870
488.128983	-2.995500	3.770500	-11.294000	24.038323	0.000534	20.810629
489.123557	-3.011700	3.769100	-11.351000	24.078229	0.000535	20.791381
490.128064	-2.985500	3.768800	-11.251000	24.041652	0.000534	20.798320
491.124341	-2.985600	3.769600	-11.253000	24.037269	0.000534	20.778277
492.124848	-3.004700	3.768000	-11.321000	24.033363	0.000533	20.800913
493.123878	-3.009000	3.768900	-11.340000	24.039258	0.000535	20.793549
494.125518	-3.022700	3.768700	-11.390000	24.044109	0.000534	20.802681
495.127531	-3.004200	3.768200	-11.320000	24.053786	0.000535	20.794368
496.126758	-3.004600	3.767600	-11.319000	24.092800	0.000537	20.799831
497.126570	-2.989800	3.767400	-11.263000	24.081454	0.000535	20.804098
498.126498	-2.994800	3.768400	-11.285000	24.123653	0.000535	20.796161
499.125632	-3.018200	3.766200	-11.366000	24.139948	0.000536	20.792590
500.126787	-3.019400	3.766900	-11.373000	24.165408	0.000535	20.775451
501.129719	-2.977600	3.768400	-11.219000	24.177374	0.000533	20.789350
502.129483	-2.989300	3.765300	-11.255000	24.157538	0.000535	20.797904
503.126006	-3.009400	3.766500	-11.334000	24.152466	0.000536	20.779066
504.125901	-2.970800	3.767400	-11.191000	24.162812	0.000535	20.771425
505.126341	-2.977100	3.766300	-11.212000	24.151767	0.000533	20.779787
506.130199	-2.986700	3.765700	-11.246000	24.158410	0.000534	20.802572
507.126141	-2.987500	3.764200	-11.245000	24.149053	0.000535	20.769479
508.125954	-2.962100	3.766200	-11.155000	24.169909	0.000535	20.785181
509.128577	-2.989600	3.765500	-11.256000	24.213430	0.000535	20.783315
510.127094	-2.981300	3.765100	-11.224000	24.256318	0.000534	20.774177
511.129171	-2.972000	3.764900	-11.189000	24.217752	0.000535	20.768684
512.130290	-2.981000	3.763800	-11.219000	24.182200	0.000533	20.767637
513.126952	-2.980500	3.765300	-11.221000	24.164886	0.000534	20.788204
514.126995	-3.001400	3.762200	-11.291000	24.173469	0.000534	20.790175
515.127748	-2.991900	3.763800	-11.259000	24.150256	0.000534	20.777323
516.127708	-2.995100	3.762500	-11.268000	24.172499	0.000534	20.778296
517.129271	-2.991600	3.762900	-11.256000	24.200617	0.000534	20.793697
518.126822	-3.004900	3.762900	-11.306000	24.220550	0.000534	20.778129
519.125472	-2.994800	3.762300	-11.266000	24.205669	0.000535	20.775531
520.129319	-3.011100	3.761000	-11.323000	24.215602	0.000534	20.771269
521.128067	-3.009800	3.762100	-11.322000	24.191094	0.000533	20.777033
522.132281	-2.992700	3.761300	-11.255000	24.205699	0.000533	20.780302
523.127829	-2.993500	3.761800	-11.260000	24.208049	0.000534	20.785030
524.127493	-3.010000	3.760500	-11.318000	24.209885	0.000533	20.785449
525.127876	-3.008900	3.761000	-11.316000	24.208817	0.000537	20.763515
526.128872	-2.998400	3.761600	-11.278000	24.177874	0.000534	20.779894
527.130332	-2.973300	3.761100	-11.182000	24.213722	0.000533	20.761322
528.133181	-2.982200	3.759700	-11.211000	24.239751	0.000537	20.750920
529.129678	-2.981900	3.759200	-11.209000	24.265050	0.000535	20.763495
530.130722	-3.001000	3.759300	-11.281000	24.258260	0.000536	20.762849
531.134490	-3.008200	3.759100	-11.307000	24.282919	0.000536	20.749651
532.130916	-3.003400	3.759000	-11.289000	24.264288	0.000535	20.770317
533.134926	-2.992700	3.757900	-11.245000	24.259910	0.000536	20.773513
534.131256	-3.015600	3.757800	-11.330000	24.283176	0.000537	20.782152
535.132202	-2.995700	3.757700	-11.256000	24.310291	0.000536	20.752452
536.133437	-3.036200	3.757700	-11.408000	24.343383	0.000535	20.753406
537.134791	-2.970700	3.758200	-11.164000	24.343911	0.000536	20.755832
538.133024	-2.999700	3.756700	-11.268000	24.359410	0.000535	20.737714
539.134108	-2.993400	3.757600	-11.247000	24.378636	0.000537	20.768382
540.134153	-3.016500	3.755300	-11.327000	24.395730	0.000536	20.763720
541.133793	-2.957100	3.757400	-11.109000	24.392225	0.000536	20.756884
542.134985	-2.985500	3.755800	-11.212000	24.380532	0.000534	20.760327
543.136278	-2.973900	3.756300	-11.170000	24.334714	0.000536	20.753718
544.135520	-2.986000	3.756100	-11.215000	24.321509	0.000535	20.758490
545.134740	-2.949200	3.756100	-11.076000	24.296059	0.000536	20.765202
546.135548	-2.990100	3.754300	-11.225000	24.267924	0.000533	20.768749
547.138604	-3.018500	3.753200	-11.328000	24.277698	0.000537	20.750577
548.134202	-3.009900	3.754700	-11.300000	24.303376	0.000536	20.745041
549.138969	-3.016900	3.753500	-11.323000	24.361219	0.000535	20.737158
550.136393	-2.981200	3.754400	-11.192000	24.327132	0.000536	20.757018
551.135456	-2.981200	3.754200	-11.191000	24.321160	0.000534	20.768571
552.135592	-3.003100	3.752300	-11.267000	24.305408	0.000533	20.741864
553.137840	-2.997800	3.753300	-11.251000	24.330097	0.000535	20.749086
554.135752	-2.986200	3.753100	-11.206000	24.341539	0.000534	20.747288
555.139346	-2.999600	3.752400	-11.255000	24.367363	0.000534	20.761815
556.140690	-3.012600	3.751700	-11.301000	24.376018	0.000536	20.719287
557.136241	-3.014300	3.750900	-11.305000	24.378884	0.000535	20.737336
558.141052	-3.002500	3.751200	-11.262000	24.364054	0.000533	20.745219
559.138254	-2.978900	3.752700	-11.178000	24.346916	0.000536	20.737983
560.140326	-3.026300	3.750200	-11.348000	24.332539	0.000535	20.764339
561.138125	-3.014100	3.750700	-11.304000	24.344902	0.000536	20.755404
562.138591	-3.012500	3.750000	-11.296000	24.362888	0.000536	20.743100
563.139130	-2.991700	3.750800	-11.221000	24.345479	0.000534	20.749344
564.136078	-2.991700	3.749900	-11.217000	24.340249	0.000537	20.729872
565.140829	-3.000600	3.750500	-11.252000	24.370573	0.000536	20.762190
566.142018	-3.008000	3.749800	-11.278000	24.369776	0.000536	20.755226
567.139134	-3.006200	3.749500	-11.270000	24.351722	0.000535	20.748020
568.139977	-3.019300	3.749300	-11.319000	24.352336	0.000536	20.761439
569.140695	-3.012200	3.747500	-11.287000	24.341042	0.000536	20.757221
570.140987	-3.010400	3.748900	-11.285000	24.331815	0.000537	20.741801
571.141043	-3.018700	3.748800	-11.315000	24.352287	0.000536	20.757597
572.140303	-2.996200	3.747900	-11.228000	24.347481	0.000535	20.752301
573.140660	-3.001800	3.748400	-11.251000	24.338476	0.000535	20.758441
574.143006	-2.976500	3.747800	-11.154000	24.369199	0.000536	20.731887
575.139762	-2.997200	3.748800	-11.236000	24.380715	0.000537	20.732534
576.142448	-2.979300	3.748100	-11.166000	24.384944	0.000535	20.735828
577.140721	-2.987200	3.747300	-11.193000	24.390020	0.000534	20.739973
578.139990	-2.979100	3.747900	-11.164000	24.410988	0.000538	20.745361
579.141190	-2.984500	3.746400	-11.181000	24.426905	0.000535	20.739044
580.141066	-2.984000	3.746400	-11.179000	24.440586	0.000535	20.736174
581.142908	-2.999200	3.746900	-11.237000	24.409590	0.000536	20.743484
582.148962	-2.969200	3.745800	-11.121000	24.374264	0.000533	20.720847
583.143445	-2.979800	3.745400	-11.160000	24.370833	0.000535	20.724517
584.142493	-3.002000	3.744600	-11.241000	24.402396	0.000534	20.723464
585.146753	-2.994500	3.744900	-11.213000	24.418865	0.000534	20.736667
586.144473	-3.004200	3.744800	-11.249000	24.441846	0.000534	20.738386
587.147506	-2.974600	3.744600	-11.138000	24.445479	0.000534	20.742031
588.143734	-2.986000	3.744000	-11.179000	24.455060	0.000535	20.739315
589.145722	-2.995500	3.744900	-11.217000	24.460824	0.000534	20.749366
590.151646	-2.982900	3.743100	-11.164000	24.478734	0.000533	20.739833
591.144550	-3.000700	3.742900	-11.230000	24.518162	0.000533	20.732923
592.147010	-3.010700	3.742600	-11.266000	24.478488	0.000535	20.742906
593.146864	-3.023500	3.742300	-11.313000	24.473639	0.000535	20.746576
594.147504	-3.004200	3.741900	-11.241000	24.480177	0.000533	20.709036
595.148215	-2.990400	3.743600	-11.194000	24.503457	0.000536	20.725756
596.148427	-2.991600	3.742900	-11.196000	24.564671	0.000534	20.735966
597.148340	-3.020400	3.742500	-11.303000	24.566837	0.000533	20.734820
598.149088	-2.988200	3.742600	-11.183000	24.523385	0.000532	20.726309
599.158816	-2.984500	3.741800	-11.167000	24.485159	0.000533	20.736322
600.149757	-3.007300	3.741700	-11.251000	24.501676	0.000531	20.717804
601.150341	-2.995300	3.741600	-11.206000	24.487670	0.000533	20.745479
602.148668	-3.007400	3.740500	-11.249000	24.528889	0.000533	20.729936
603.150888	-2.978100	3.740700	-11.140000	24.557613	0.000532	20.737418
604.150518	-2.981300	3.741200	-11.153000	24.539040	0.000532	20.723524
605.149816	-2.987400	3.740000	-11.172000	24.546743	0.000531	20.729357
606.148439	-2.988600	3.740100	-11.177000	24.568640	0.000533	20.705333
607.150055	-2.987300	3.740000	-11.172000	24.594852	0.000532	20.724996
608.154948	-2.988200	3.740600	-11.177000	24.583658	0.000533	20.728464
609.155737	-3.004700	3.739700	-11.236000	24.581970	0.000532	20.710173
610.153835	-3.015700	3.737400	-11.270000	24.558741	0.000533	20.733808
611.152315	-2.984800	3.740100	-11.163000	24.575999	0.000532	20.721252
612.157027	-2.977600	3.738800	-11.132000	24.513649	0.000532	20.706108
613.154117	-2.995900	3.737700	-11.196000	24.513846	0.000533	20.705357
614.157086	-3.028900	3.736700	-11.317000	24.488798	0.000528	20.706780
615.154604	-2.997300	3.737800	-11.203000	24.487913	0.000531	20.705418
616.155006	-2.997700	3.737600	-11.203000	24.523923	0.000531	20.713098
617.154816	-2.982300	3.736800	-11.143000	24.531735	0.000530	20.711453
618.159196	-2.993400	3.736200	-11.183000	24.570334	0.000531	20.721258
619.160205	-3.001100	3.736700	-11.214000	24.572647	0.000530	20.725002
620.157645	-2.976300	3.736700	-11.119000	24.570861	0.000528	20.718467
621.156695	-2.978800	3.736800	-11.130000	24.518577	0.000530	20.719114
622.157161	-3.008800	3.736800	-11.242000	24.558924	0.000531	20.724508
623.157783	-2.972900	3.737300	-11.110000	24.585368	0.000531	20.715954
624.159518	-2.998300	3.735400	-11.199000	24.561360	0.000530	20.709883
625.158278	-2.999400	3.735600	-11.204000	24.607977	0.000529	20.727734
626.158703	-2.982900	3.735800	-11.142000	24.566416	0.000530	20.713534
627.163582	-2.993200	3.734800	-11.178000	24.549360	0.000531	20.706851
628.158852	-3.000000	3.734300	-11.202000	24.580003	0.000531	20.695871
629.161345	-2.990300	3.735000	-11.168000	24.612265	0.000532	20.710699
630.158414	-2.985700	3.734300	-11.148000	24.638949	0.000530	20.694799
631.160874	-2.999400	3.733800	-11.199000	24.618537	0.000531	20.704664
632.160098	-2.989700	3.733500	-11.161000	24.627264	0.000529	20.702989
633.160907	-3.003900	3.733900	-11.215000	24.627613	0.000529	20.705711
634.163514	-3.003500	3.733500	-11.213000	24.621776	0.000530	20.711234
635.160573	-3.009000	3.732200	-11.230000	24.627373	0.000528	20.703573
636.162030	-2.999000	3.733500	-11.195000	24.623997	0.000528	20.690701
637.162064	-2.996800	3.732400	-11.184000	24.604825	0.000529	20.698491
638.166942	-3.024100	3.732200	-11.286000	24.636313	0.000529	20.679824
639.163772	-3.038900	3.730700	-11.336000	24.630268	0.000530	20.692252
640.166538	-3.004300	3.731400	-11.209000	24.616846	0.000530	20.702493
641.162539	-2.993300	3.730500	-11.165000	24.606327	0.000529	20.694782
642.163433	-3.001500	3.730600	-11.196000	24.570959	0.000527	20.693908
643.162271	-2.974300	3.732000	-11.099000	24.618643	0.000528	20.698606
644.163194	-3.017900	3.729600	-11.254000	24.603497	0.000528	20.682933
645.166085	-2.991000	3.731000	-11.159000	24.592137	0.000529	20.712314
646.164393	-2.968300	3.730400	-11.071000	24.585270	0.000528	20.689300
647.162743	-2.973000	3.730600	-11.090000	24.542198	0.000528	20.677377
648.164254	-2.992700	3.729500	-11.160000	24.576548	0.000526	20.683393
649.165197	-2.989300	3.729000	-11.146000	24.621741	0.000528	20.670417
650.166478	-2.989100	3.729300	-11.146000	24.655591	0.000527	20.686842
651.166118	-2.980400	3.729100	-11.113000	24.672749	0.000529	20.688886
652.165249	-2.974400	3.729600	-11.092000	24.658549	0.000528	20.675584
653.165603	-2.983000	3.728400	-11.121000	24.660120	0.000527	20.679531
654.169075	-3.014300	3.727500	-11.234000	24.673449	0.000529	20.692907
655.169346	-2.996200	3.728900	-11.171000	24.637862	0.000527	20.675214
656.171023	-2.978400	3.728100	-11.103000	24.621648	0.000526	20.673643
657.166637	-3.006600	3.725200	-11.199000	24.613363	0.000526	20.681927
658.166087	-2.983300	3.727500	-11.119000	24.626226	0.000528	20.682979
659.170877	-2.993900	3.726900	-11.157000	24.660095	0.000525	20.687094
660.168960	-3.005200	3.726500	-11.198000	24.690489	0.000526	20.654527
661.173088	-3.013600	3.725300	-11.225000	24.739078	0.000526	20.673416
662.168546	-2.967100	3.727400	-11.058000	24.775115	0.000528	20.682555
663.170135	-2.983200	3.726500	-11.116000	24.759272	0.000529	20.697003
664.169529	-2.995000	3.724700	-11.154000	24.745196	0.000526	20.666278
665.170232	-2.996800	3.724700	-11.161000	24.696228	0.000525	20.679729
666.169945	-2.992900	3.724700	-11.146000	24.635371	0.000526	20.671766
667.172507	-2.983300	3.725300	-11.113000	24.633603	0.000524	20.685641
668.169376	-3.015600	3.724000	-11.229000	24.694387	0.000525	20.678830
669.169178	-2.983800	3.724700	-11.113000	24.713060	0.000525	20.674808
670.170121	-2.993300	3.723300	-11.144000	24.747572	0.000528	20.686208
671.173054	-3.023500	3.722400	-11.254000	24.769489	0.000526	20.660785
672.173697	-3.011500	3.724100	-11.214000	24.757942	0.000524	20.712739
673.172174	-2.988300	3.724800	-11.129000	24.705219	0.000525	20.694442
674.176174	-3.003400	3.723200	-11.181000	24.667344	0.000526	20.664968
675.173262	-3.003800	3.722600	-11.180000	24.668560	0.000524	20.683733
676.185977	-2.998700	3.721400	-11.158000	24.706085	0.000524	20.688673
677.176747	-2.987600	3.722300	-11.120000	24.712296	0.000526	20.665031
678.176342	-3.003100	3.722100	-11.176000	24.697722	0.000525	20.678857
679.174749	-3.022100	3.721100	-11.245000	24.710996	0.000524	20.669417
680.176634	-2.987500	3.720900	-11.115000	24.746168	0.000523	20.660141
681.177121	-2.993800	3.720500	-11.138000	24.707639	0.000524	20.658461
682.182131	-2.987100	3.722200	-11.118000	24.689255	0.000522	20.678421
683.180323	-2.993800	3.722100	-11.142000	24.716291	0.000522	20.665248
684.188982	-2.981400	3.720500	-11.092000	24.765848	0.000523	20.687480
685.176879	-2.983200	3.721200	-11.101000	24.768235	0.000522	20.682763
686.176816	-2.985100	3.720100	-11.104000	24.738242	0.000524	20.681113
687.177820	-3.017400	3.718700	-11.220000	24.727503	0.000524	20.660851
688.179691	-3.000100	3.719200	-11.157000	24.742495	0.000522	20.678742
689.179173	-3.005800	3.718800	-11.176000	24.737598	0.000524	20.667662
690.178977	-2.989400	3.719700	-11.118000	24.758559	0.000523	20.664041
691.177731	-2.995000	3.718600	-11.136000	24.767905	0.000522	20.683854
692.179491	-2.994900	3.718800	-11.136000	24.702400	0.000523	20.678336
693.180348	-3.003800	3.718300	-11.168000	24.708494	0.000520	20.670700
694.180382	-3.002700	3.718900	-11.166000	24.712899	0.000522	20.678440
695.180369	-2.974000	3.718900	-11.059000	24.698197	0.000521	20.679808
696.180584	-2.980600	3.717800	-11.080000	24.734118	0.000520	20.677448
697.181707	-2.993500	3.716800	-11.126000	24.739733	0.000520	20.673600
698.180385	-2.978500	3.718900	-11.076000	24.752613	0.000522	20.681310
699.183418	-3.007100	3.715400	-11.172000	24.757068	0.000519	20.653061
700.185145	-2.967900	3.717600	-11.033000	24.771985	0.000520	20.693639
701.180928	-2.999300	3.715200	-11.142000	24.760872	0.000520	20.676796
702.180593	-2.992000	3.715400	-11.115000	24.776986	0.000521	20.664990
703.181187	-3.001400	3.715600	-11.150000	24.823489	0.000521	20.668986
704.184502	-3.008800	3.715400	-11.178000	24.824582	0.000521	20.682886
705.184492	-2.985500	3.714100	-11.088000	24.835374	0.000519	20.677596
706.183743	-2.989600	3.715300	-11.105000	24.804635	0.000520	20.678514
707.183749	-2.997200	3.713300	-11.128000	24.789398	0.000519	20.667016
708.184552	-2.980400	3.714900	-11.071000	24.834110	0.000520	20.680595
709.183003	-2.976400	3.713600	-11.052000	24.827520	0.000518	20.673506
710.187985	-2.990600	3.713800	-11.105000	24.832515	0.000520	20.693694
711.183842	-2.988300	3.713300	-11.096000	24.823795	0.000520	20.685416
712.185112	-2.972500	3.713800	-11.038000	24.832846	0.000518	20.682171
713.187330	-3.003800	3.711800	-11.149000	24.821802	0.000517	20.688157
714.185698	-3.003200	3.713400	-11.151000	24.827600	0.000518	20.663153
715.187119	-2.983300	3.713400	-11.078000	24.789600	0.000519	20.696619
716.185571	-3.015700	3.712200	-11.194000	24.807849	0.000518	20.676524
717.186678	-3.001300	3.713200	-11.144000	24.769934	0.000518	20.680674
718.186485	-2.997200	3.712100	-11.125000	24.753397	0.000517	20.668819
719.186545	-2.971800	3.712000	-11.030000	24.770868	0.000516	20.687302
720.186896	-2.986500	3.711800	-11.085000	24.782391	0.000515	20.680847
721.192365	-2.999200	3.712000	-11.132000	24.789699	0.000517	20.669688
722.188771	-2.997000	3.711700	-11.123000	24.795226	0.000519	20.684720
723.188178	-2.983200	3.711100	-11.070000	24.770805	0.000516	20.671590
724.190316	-3.000700	3.711900	-11.137000	24.724029	0.000516	20.694352
725.187592	-2.994900	3.709400	-11.109000	24.754943	0.000516	20.693132
726.191971	-2.977400	3.711200	-11.048000	24.741039	0.000516	20.690558
727.188434	-3.012500	3.709900	-11.175000	24.699765	0.000515	20.684701
728.189676	-3.006700	3.709200	-11.152000	24.731919	0.000516	20.673345
729.189419	-2.998100	3.709600	-11.121000	24.740277	0.000517	20.691690
730.189291	-2.977300	3.710000	-11.045000	24.743210	0.000515	20.671398
731.192963	-3.023300	3.708700	-11.212000	24.714161	0.000516	20.678284
732.193333	-3.021200	3.708800	-11.203000	24.687277	0.000513	20.681179
733.191237	-3.001500	3.708000	-11.128000	24.700882	0.000516	20.675864
734.191289	-3.024000	3.707200	-11.209000	24.751961	0.000515	20.686820
735.193121	-3.003200	3.707100	-11.132000	24.769970	0.000515	20.687349
736.190622	-3.010800	3.709000	-11.167000	24.764152	0.000514	20.693839
737.190569	-3.009900	3.709000	-11.163000	24.830789	0.000514	20.691962
738.191462	-3.002600	3.707300	-11.131000	24.828427	0.000515	20.695755
739.190130	-3.009000	3.707000	-11.154000	24.814051	0.000516	20.681327
740.194141	-2.995300	3.706800	-11.103000	24.823757	0.000514	20.683481
741.192021	-3.018700	3.707600	-11.191000	24.868738	0.000513	20.689270
742.195505	-3.015000	3.705700	-11.171000	24.894795	0.000513	20.680334
743.192247	-2.980600	3.707000	-11.048000	24.893561	0.000513	20.680518
744.198369	-2.990300	3.707500	-11.085000	24.896641	0.000515	20.682187
745.192883	-3.000500	3.705800	-11.118000	24.897212	0.000510	20.704573
746.193046	-2.993400	3.705700	-11.091000	24.885549	0.000512	20.682434
747.192910	-2.996300	3.704900	-11.100000	24.919145	0.000513	20.686757
748.194727	-3.001700	3.705200	-11.121000	24.931979	0.000513	20.678300
749.193205	-3.002900	3.705400	-11.126000	24.937869	0.000513	20.680419
750.194376	-3.000800	3.704900	-11.117000	24.962636	0.000510	20.700538
751.195199	-2.991300	3.706000	-11.084000	24.942299	0.000510	20.694823
752.196584	-3.011000	3.703200	-11.150000	24.931979	0.000511	20.693001
753.194455	-2.987500	3.704100	-11.065000	24.918654	0.000511	20.689583
754.195413	-2.999600	3.703500	-11.108000	24.906021	0.000510	20.695870
755.194722	-3.004300	3.704200	-11.127000	24.871466	0.000510	20.685370
756.194577	-2.982900	3.702700	-11.044000	24.864783	0.000509	20.687672
757.195861	-2.978600	3.703200	-11.029000	24.863361	0.000510	20.698099
758.193811	-3.017500	3.703500	-11.175000	24.890319	0.000511	20.693861
759.196845	-2.976000	3.703800	-11.021000	24.896160	0.000509	20.690715
760.197204	-2.987400	3.704100	-11.064000	24.862200	0.000509	20.723489
761.197577	-2.989700	3.702800	-11.070000	24.844217	0.000507	20.713975
762.196540	-3.019500	3.703000	-11.181000	24.872736	0.000510	20.696602
763.201321	-3.028500	3.702200	-11.211000	24.882736	0.000508	20.693362
764.198716	-3.010200	3.701500	-11.142000	24.911204	0.000508	20.699650
765.206604	-2.996000	3.702300	-11.091000	24.913965	0.000507	20.699102
766.200084	-3.004000	3.701000	-11.117000	24.920879	0.000509	20.688971
767.197836	-2.988600	3.701600	-11.062000	24.890196	0.000508	20.667183
768.202226	-3.025700	3.699800	-11.194000	24.888031	0.000508	20.703893
769.198274	-3.003700	3.700800	-11.116000	24.898951	0.000507	20.722442
770.197598	-2.988400	3.699200	-11.054000	24.902529	0.000507	20.699478
771.198045	-3.005800	3.700300	-11.122000	24.947978	0.000506	20.700999
772.200094	-2.996400	3.700400	-11.087000	24.959469	0.000509	20.713007
773.201533	-2.989700	3.699600	-11.060000	24.971727	0.000509	20.698283
774.203303	-3.001700	3.699500	-11.103000	24.934658	0.000506	20.701854
775.201106	-2.993700	3.699200	-11.073000	24.940627	0.000506	20.713062
776.201106	-3.005200	3.698100	-11.112000	24.939033	0.000507	20.717152
777.202915	-2.995100	3.698100	-11.075000	24.949125	0.000506	20.704521
778.201137	-3.020300	3.698000	-11.168000	24.971653	0.000508	20.711012
779.203647	-3.019500	3.697800	-11.165000	24.989112	0.000504	20.711467
780.200705	-3.003200	3.697600	-11.104000	24.972223	0.000507	20.707791
781.201194	-3.032200	3.695600	-11.205000	24.973897	0.000507	20.711842
782.201572	-2.991800	3.696400	-11.058000	24.950542	0.000504	20.702150
783.201801	-2.995000	3.697000	-11.072000	24.931248	0.000504	20.704595
784.202695	-2.982300	3.697600	-11.026000	24.940800	0.000505	20.715606
785.202318	-2.989500	3.696200	-11.049000	24.902288	0.000504	20.716307
786.202378	-2.998800	3.695000	-11.080000	24.941272	0.000505	20.725089
787.201420	-3.002800	3.695600	-11.096000	24.973542	0.000505	20.698406
788.200203	-3.006500	3.695800	-11.110000	25.024131	0.000502	20.718168
789.202861	-3.005000	3.695100	-11.103000	24.982316	0.000502	20.699428
790.200094	-2.986200	3.695400	-11.035000	24.960758	0.000504	20.713353
791.201043	-3.013400	3.694600	-11.133000	24.907701	0.000503	20.698030
792.202380	-3.010600	3.695000	-11.123000	24.929205	0.000502	20.707287
793.201688	-3.006800	3.695400	-11.110000	24.942752	0.000503	20.722781
794.205692	-3.004100	3.694600	-11.098000	24.938923	0.000502	20.717516
795.204997	-2.994100	3.694600	-11.060000	24.989445	0.000501	20.729820
796.202526	-2.996200	3.694900	-11.070000	24.997279	0.000502	20.713501
797.206027	-3.005900	3.694500	-11.104000	25.001402	0.000502	20.724278
798.203443	-3.000800	3.693500	-11.083000	25.011573	0.000504	20.716943
799.203560	-3.023400	3.692800	-11.163000	24.999414	0.000502	20.733189
800.207805	-2.998200	3.693200	-11.071000	25.031688	0.000501	20.727178
801.210361	-3.014900	3.693400	-11.134000	24.993819	0.000500	20.724253
802.207501	-2.996000	3.692700	-11.063000	24.989022	0.000500	20.733189
803.209124	-3.025500	3.691400	-11.167000	24.983757	0.000499	20.701824
804.206877	-2.978100	3.693000	-10.997000	24.974574	0.000498	20.718212
805.213411	-3.008000	3.691900	-11.104000	24.936592	0.000502	20.732246
806.209522	-2.998900	3.691100	-11.068000	24.977212	0.000500	20.705212
807.211767	-3.004300	3.690600	-11.087000	24.975273	0.000499	20.735036
808.208305	-3.012900	3.691700	-11.122000	24.945169	0.000498	20.720940
809.209420	-3.007500	3.691200	-11.100000	24.944297	0.000497	20.721014
810.209154	-3.002700	3.690200	-11.080000	24.938358	0.000496	20.725484
811.212740	-3.003900	3.690800	-11.085000	24.944082	0.000496	20.730281
812.209043	-3.026900	3.689300	-11.166000	24.942506	0.000499	20.737234
813.208611	-3.013600	3.689000	-11.116000	24.945469	0.000498	20.720767
814.214721	-2.987200	3.689800	-11.021000	24.915363	0.000498	20.727534
815.209567	-3.010600	3.688100	-11.103000	24.916731	0.000496	20.734598
816.209505	-2.993100	3.690600	-11.046000	24.900541	0.000499	20.747272
817.209743	-2.991900	3.688600	-11.035000	24.910633	0.000497	20.728951
818.208914	-2.972500	3.689400	-10.965000	24.918867	0.000498	20.738638
819.210994	-2.996600	3.687800	-11.050000	24.941523	0.000500	20.727712
820.209680	-2.988800	3.688900	-11.024000	24.945272	0.000497	20.737640
821.210261	-2.991000	3.688900	-11.033000	24.935002	0.000496	20.733496
822.211974	-3.001300	3.688400	-11.070000	24.907327	0.000497	20.755505
823.210390	-3.011900	3.685900	-11.101000	24.930996	0.000495	20.748916
824.211110	-2.996100	3.687400	-11.047000	24.945218	0.000494	20.734266
825.211292	-3.022800	3.686500	-11.143000	24.932586	0.000496	20.737234
826.210600	-3.001000	3.687300	-11.065000	24.965476	0.000493	20.740375
827.212041	-3.005200	3.687000	-11.080000	24.962101	0.000495	20.744100
828.213383	-2.977800	3.686500	-10.977000	24.980888	0.000496	20.735930
829.210698	-2.985600	3.686800	-11.006000	24.998893	0.000495	20.755900
830.214446	-2.982200	3.686600	-10.994000	25.001145	0.000494	20.737772
831.212479	-3.009500	3.684900	-11.089000	24.987894	0.000494	20.761930
832.216914	-3.014600	3.684600	-11.106000	25.013949	0.000495	20.739718
833.213779	-3.002400	3.683800	-11.059000	25.018347	0.000493	20.739391
834.215928	-3.009800	3.685000	-11.091000	24.986452	0.000491	20.738196
835.214830	-3.006400	3.684500	-11.076000	24.964348	0.000494	20.737821
836.215886	-3.004900	3.683400	-11.067000	24.984710	0.000491	20.719377
837.216981	-2.985700	3.684900	-11.000000	24.991324	0.000492	20.729809
838.215718	-2.966900	3.685800	-10.935000	25.016526	0.000490	20.727605
839.213803	-2.986600	3.683900	-11.001000	25.001913	0.000491	20.757034
840.215008	-3.007500	3.682700	-11.075000	25.014219	0.000490	20.776974
841.214995	-2.997200	3.682700	-11.037000	24.982097	0.000492	20.743782
842.221303	-2.987200	3.683400	-11.002000	24.989207	0.000490	20.746178
843.216060	-3.028200	3.681600	-11.147000	24.973324	0.000491	20.754891
844.215673	-3.010200	3.682800	-11.085000	24.983667	0.000492	20.774283
845.216442	-2.992500	3.682600	-11.019000	24.999477	0.000490	20.743684
846.216269	-3.010300	3.680300	-11.078000	24.977103	0.000490	20.752994
847.216318	-2.975900	3.683000	-10.959000	24.998980	0.000490	20.761203
848.217259	-2.998000	3.681700	-11.037000	25.002390	0.000492	20.758937
849.216355	-3.003800	3.680800	-11.056000	24.972207	0.000488	20.768469
850.216517	-2.990800	3.681000	-11.008000	25.011532	0.000489	20.756733
851.219329	-3.003700	3.680900	-11.056000	25.044426	0.000488	20.758931
852.216521	-2.990300	3.680000	-11.004000	25.084821	0.000489	20.770084
853.219292	-2.986100	3.680100	-10.988000	25.116817	0.000491	20.770909
854.219294	-3.022600	3.679500	-11.120000	25.145378	0.000488	20.755009
855.219688	-2.993400	3.679800	-11.014000	25.136728	0.000488	20.758180
856.219918	-2.985800	3.679300	-10.985000	25.089269	0.000488	20.762694
857.219884	-3.012000	3.679100	-11.081000	25.039997	0.000488	20.754960
858.219986	-3.004700	3.679700	-11.054000	25.078577	0.000485	20.771402
859.224242	-2.990400	3.679200	-11.002000	25.124019	0.000488	20.764862
860.219265	-2.994000	3.678100	-11.011000	25.122976	0.000486	20.772350
861.221581	-2.994700	3.678200	-11.015000	25.106224	0.000486	20.772128
862.226515	-2.997500	3.678200	-11.025000	25.113948	0.000485	20.756174
863.221130	-2.990000	3.679400	-11.001000	25.077400	0.000489	20.769747
864.224626	-2.981600	3.677600	-10.964000	25.043746	0.000486	20.782905
865.220850	-3.018100	3.677500	-11.098000	25.048341	0.000485	20.783251
866.220146	-3.004000	3.677500	-11.046000	25.038624	0.000485	20.782505
867.221714	-3.013700	3.677200	-11.080000	25.048188	0.000484	20.759863
868.221141	-3.009700	3.675900	-11.063000	25.034716	0.000487	20.789489
869.224379	-3.007900	3.677100	-11.059000	25.070714	0.000483	20.763983
870.226398	-3.007300	3.676000	-11.054000	25.099458	0.000483	20.762492
871.223117	-3.008100	3.675700	-11.056000	25.131596	0.000484	20.786693
872.222840	-3.010000	3.674300	-11.059000	25.098164	0.000482	20.765460
873.225033	-3.014300	3.675400	-11.077000	25.066984	0.000483	20.783947
874.224497	-3.006500	3.676200	-11.051000	25.055323	0.000483	20.796423
875.226130	-2.987800	3.674200	-10.976000	25.074842	0.000482	20.778558
876.225428	-2.974300	3.674500	-10.928000	25.098361	0.000480	20.777985
877.225807	-3.013500	3.674500	-11.072000	25.082424	0.000483	20.791385
878.226106	-2.995100	3.674300	-11.004000	25.061138	0.000482	20.780449
879.226861	-3.010600	3.673900	-11.059000	25.062605	0.000483	20.774335
880.229749	-3.009700	3.673800	-11.055000	25.035656	0.000480	20.783319
881.226819	-3.001400	3.674500	-11.027000	25.076524	0.000481	20.799687
882.227933	-3.009200	3.673400	-11.053000	25.063470	0.000481	20.779945
883.227931	-2.992900	3.673700	-10.994000	25.102950	0.000480	20.786860
884.227987	-3.004900	3.672600	-11.035000	25.159009	0.000480	20.780548
885.231771	-2.999600	3.672900	-11.016000	25.169916	0.000478	20.784385
886.232917	-3.013200	3.672500	-11.065000	25.176656	0.000478	20.794946
887.253918	-3.001600	3.672400	-11.022000	25.163181	0.000480	20.785684
888.227348	-2.971400	3.670700	-10.906000	25.160991	0.000479	20.787754
889.228559	-3.008800	3.670300	-11.042000	25.191740	0.000479	20.796338
890.251083	-2.990400	3.671000	-10.977000	25.221887	0.000480	20.790569
891.230428	-2.982800	3.671600	-10.951000	25.210208	0.000479	20.803499
892.232795	-3.010700	3.669900	-11.048000	25.196807	0.000478	20.803795
893.229666	-2.984400	3.671600	-10.956000	25.216097	0.000478	20.798506
894.233933	-3.012800	3.670300	-11.057000	25.179430	0.000478	20.785876
895.237620	-3.027600	3.668700	-11.106000	25.171953	0.000478	20.801603
896.232361	-2.985300	3.669800	-10.955000	25.118526	0.000477	20.796332
897.243939	-3.001100	3.670200	-11.013000	25.135383	0.000477	20.795236
898.231078	-2.987600	3.670200	-10.964000	25.128120	0.000477	20.823981
899.231122	-2.982700	3.669900	-10.945000	25.149227	0.000476	20.813876
900.237252	-2.997600	3.669400	-10.999000	25.218508	0.000476	20.812305
901.230684	-2.986900	3.667900	-10.955000	25.234928	0.000474	20.811722
902.236252	-2.989500	3.667800	-10.965000	25.220146	0.000475	20.815847
903.231850	-2.984400	3.668300	-10.947000	25.205996	0.000475	20.812073
904.232674	-2.981300	3.668800	-10.936000	25.208161	0.000474	20.809504
905.233423	-2.985500	3.666900	-10.946000	25.154092	0.000475	20.821605
906.233974	-2.981800	3.667700	-10.936000	25.167519	0.000476	20.811376
907.236718	-3.001000	3.666400	-11.002000	25.160754	0.000474	20.809800
908.232742	-2.983600	3.666700	-10.939000	25.172236	0.000475	20.818957
909.231800	-3.025800	3.665500	-11.090000	25.204039	0.000473	20.817694
910.233616	-2.997500	3.665800	-10.988000	25.211743	0.000474	20.817368
911.231923	-3.000200	3.666200	-10.999000	25.226880	0.000473	20.833039
912.236405	-2.998200	3.665600	-10.989000	25.221882	0.000472	20.819486
913.235621	-3.011900	3.665100	-11.037000	25.198617	0.000474	20.807035
914.234311	-2.973800	3.665900	-10.900000	25.173408	0.000473	20.823452
915.235921	-2.993500	3.665000	-10.970000	25.161827	0.000472	20.792386
916.236551	-2.992800	3.665400	-10.969000	25.158122	0.000473	20.822805
917.234857	-2.984200	3.664100	-10.933000	25.167647	0.000471	20.823359
918.237483	-2.979800	3.663800	-10.917000	25.179651	0.000469	20.847263
919.235089	-2.989600	3.663800	-10.952000	25.183725	0.000473	20.834757
920.235723	-2.998300	3.664000	-10.985000	25.195415	0.000469	20.826579
921.237692	-2.994900	3.663000	-10.970000	25.214847	0.000471	20.825699
922.237512	-2.998900	3.663100	-10.984000	25.249028	0.000471	20.819714
923.240457	-2.986200	3.662300	-10.935000	25.260043	0.000470	20.832195
924.235463	-2.975500	3.662800	-10.897000	25.278486	0.000468	20.830323
925.237278	-3.000100	3.661900	-10.985000	25.275155	0.000470	20.830772
926.237638	-2.999100	3.661800	-10.981000	25.283809	0.000469	20.813383
927.238039	-2.998800	3.663500	-10.985000	25.297799	0.000468	20.835015
928.237409	-3.004100	3.661500	-10.999000	25.313806	0.000468	20.827854
929.238544	-3.028100	3.661500	-11.087000	25.313978	0.000468	20.827552
930.236936	-3.017800	3.660800	-11.047000	25.279376	0.000468	20.838328
931.237192	-3.008400	3.662200	-11.016000	25.262276	0.000468	20.844394
932.239984	-3.017900	3.660400	-11.045000	25.256118	0.000469	20.850064
933.236836	-2.989200	3.660000	-10.939000	25.284846	0.000468	20.837657
934.240396	-2.997000	3.661000	-10.971000	25.307219	0.000465	20.820292
935.236798	-3.003800	3.660000	-10.993000	25.343153	0.000467	20.851629
936.236547	-2.994300	3.659100	-10.956000	25.327722	0.000464	20.845145
937.235328	-2.994200	3.660400	-10.959000	25.325754	0.000462	20.833212
938.237489	-2.996100	3.659900	-10.964000	25.326030	0.000467	20.851031
939.239910	-3.023900	3.658300	-11.061000	25.296328	0.000464	20.830693
940.236816	-2.995400	3.657800	-10.956000	25.249948	0.000465	20.834862
941.236113	-2.997500	3.657700	-10.962000	25.237492	0.000464	20.847011
942.237298	-2.965600	3.659000	-10.851000	25.251518	0.000465	20.841653
943.236823	-3.018800	3.658400	-11.042000	25.266477	0.000464	20.854775
944.245745	-2.996200	3.656600	-10.955000	25.278456	0.000463	20.838827
945.239140	-2.999600	3.657200	-10.969000	25.295727	0.000465	20.828668
946.237619	-3.010700	3.656500	-11.008000	25.306024	0.000464	20.834264
947.238859	-2.968000	3.658200	-10.856000	25.254499	0.000460	20.860292
948.242972	-2.996300	3.656600	-10.956000	25.266109	0.000463	20.840181
949.240315	-2.990500	3.655900	-10.931000	25.266759	0.000462	20.823290
950.242254	-3.015200	3.654900	-11.018000	25.273144	0.000461	20.846296
951.240408	-3.032000	3.655100	-11.081000	25.234123	0.000460	20.835569
952.242648	-3.031100	3.654900	-11.077000	25.237478	0.000461	20.831825
953.240626	-3.013100	3.655000	-11.012000	25.245709	0.000459	20.826812
954.239553	-3.027500	3.652000	-11.056000	25.266936	0.000460	20.825839
955.248392	-3.001400	3.654000	-10.966000	25.308996	0.000461	20.835352
956.243820	-2.979800	3.654500	-10.889000	25.336386	0.000459	20.846257
957.240067	-3.022100	3.653400	-11.041000	25.310536	0.000458	20.845906
958.240313	-3.001800	3.653800	-10.967000	25.299508	0.000459	20.841472
959.244145	-3.017300	3.652900	-11.020000	25.305770	0.000458	20.831164
960.240389	-3.019400	3.652900	-11.029000	25.333736	0.000458	20.821786
961.242867	-3.024100	3.652300	-11.044000	25.302721	0.000458	20.811982
962.241951	-2.975000	3.653200	-10.868000	25.297310	0.000457	20.813188
963.240128	-2.987300	3.652600	-10.911000	25.284560	0.000457	20.821248
964.240718	-2.995700	3.652200	-10.940000	25.304241	0.000458	20.828207
965.241272	-2.997100	3.651300	-10.943000	25.273201	0.000457	20.833077
966.242653	-3.005500	3.651200	-10.973000	25.255531	0.000455	20.839992
967.242009	-2.990300	3.651500	-10.919000	25.248619	0.000458	20.816932
968.240081	-2.985200	3.651500	-10.900000	25.202622	0.000457	20.841875
969.242197	-2.987500	3.652300	-10.910000	25.244950	0.000456	20.818464
970.245773	-3.002700	3.649200	-10.957000	25.274757	0.000455	20.814251
971.241406	-2.987400	3.650100	-10.903000	25.293273	0.000453	20.827152
972.241467	-2.983800	3.651100	-10.893000	25.305355	0.000456	20.806566
973.255132	-3.013200	3.647900	-10.991000	25.336345	0.000455	20.813026
974.245676	-3.002600	3.649000	-10.956000	25.310899	0.000454	20.823038
975.252093	-2.967800	3.650500	-10.834000	25.301080	0.000452	20.807016
976.245909	-2.994600	3.649400	-10.927000	25.309783	0.000453	20.796313
977.242325	-3.005300	3.646600	-10.958000	25.305833	0.000455	20.828857
978.242211	-3.000000	3.649200	-10.946000	25.299546	0.000452	20.818752
979.243299	-3.002400	3.647100	-10.949000	25.259429	0.000452	20.793646
980.243458	-2.967000	3.648800	-10.825000	25.253658	0.000453	20.802551
981.245185	-2.993300	3.647400	-10.917000	25.286023	0.000452	20.797588
982.248112	-3.002200	3.647200	-10.948000	25.248297	0.000453	20.806177
983.244679	-2.997700	3.646300	-10.930000	25.267212	0.000450	20.797193
984.243889	-2.957700	3.648200	-10.790000	25.303054	0.000449	20.808523
985.249688	-2.999200	3.646300	-10.935000	25.267261	0.000451	20.815734
986.246539	-3.011200	3.645800	-10.978000	25.306930	0.000450	20.800561
987.248819	-2.997500	3.645700	-10.927000	25.332333	0.000451	20.799040
988.247407	-3.016500	3.645700	-10.996000	25.342746	0.000448	20.794323
989.255971	-3.000700	3.644700	-10.936000	25.390214	0.000448	20.805950
990.245646	-3.004700	3.646100	-10.954000	25.355349	0.000448	20.789908
991.247469	-2.987300	3.645600	-10.888000	25.370558	0.000448	20.804231
992.253850	-2.998000	3.643200	-10.921000	25.407464	0.000448	20.801460
993.245541	-2.977400	3.645100	-10.852000	25.415866	0.000448	20.802784
994.245912	-3.017500	3.643400	-10.993000	25.340838	0.000448	20.802365
995.252236	-3.026600	3.642500	-11.022000	25.309070	0.000447	20.789908
996.254467	-2.999500	3.643600	-10.928000	25.289432	0.000448	20.796744
997.247951	-3.006300	3.642000	-10.948000	25.307954	0.000448	20.797796
998.249746	-2.994000	3.642700	-10.905000	25.323066	0.000446	20.790210
999.256544	-3.000500	3.642800	-10.929000	25.380278	0.000448	20.808775
1000.247754	-3.008000	3.642000	-10.954000	25.386889	0.000446	20.783171
1001.250876	-3.003200	3.641500	-10.935000	25.375955	0.000446	20.796374
1002.255338	-3.011300	3.640600	-10.961000	25.317300	0.000445	20.801491
1003.253789	-2.987200	3.641100	-10.876000	25.339919	0.000443	20.809502
1004.253049	-2.992300	3.640600	-10.893000	25.322741	0.000445	20.798892
1005.267186	-2.974600	3.639900	-10.827000	25.314511	0.000444	20.798215
1006.252152	-2.988300	3.641200	-10.880000	25.275448	0.000445	20.802143
1007.256464	-3.010300	3.639300	-10.954000	25.312210	0.000443	20.767455
1008.258386	-3.009100	3.639600	-10.951000	25.338526	0.000444	20.776336
1009.252226	-3.004500	3.640900	-10.938000	25.352117	0.000442	20.780025
1010.259357	-2.991000	3.640300	-10.887000	25.355458	0.000443	20.783854
1011.262742	-3.011400	3.638600	-10.957000	25.378665	0.000442	20.782500
1012.268699	-2.999500	3.638800	-10.914000	25.420599	0.000444	20.798528
1013.262158	-3.013100	3.638900	-10.963000	25.374844	0.000440	20.781982
1014.256293	-3.015300	3.637500	-10.967000	25.330032	0.000443	20.791988
1015.258284	-2.993800	3.637000	-10.887000	25.302219	0.000440	20.788244
1016.252723	-3.006300	3.637800	-10.936000	25.263052	0.000439	20.790171
1017.255386	-2.998600	3.638600	-10.910000	25.254649	0.000439	20.782209
1018.254050	-3.000400	3.636000	-10.909000	25.249025	0.000438	20.775141
1019.259160	-3.011400	3.636000	-10.948000	25.260341	0.000438	20.780811
1020.260945	-3.017500	3.636300	-10.971000	25.306504	0.000439	20.799186
1021.258037	-3.012900	3.635400	-10.952000	25.323849	0.000437	20.771556
1022.254691	-2.992200	3.635900	-10.878000	25.328296	0.000440	20.795935
1023.258337	-3.023600	3.634200	-10.987000	25.332453	0.000437	20.781143
1024.254634	-3.002300	3.635400	-10.913000	25.337102	0.000437	20.775853
1025.257647	-2.977100	3.636500	-10.824000	25.300316	0.000437	20.793921
1026.254643	-3.006300	3.633800	-10.924000	25.309393	0.000437	20.780274
1027.260245	-2.984300	3.634100	-10.845000	25.355843	0.000436	20.784714
1028.258012	-2.988200	3.634300	-10.859000	25.371304	0.000437	20.768470
1029.256289	-2.993000	3.634200	-10.876000	25.385574	0.000437	20.782324
1030.257861	-3.009400	3.633300	-10.934000	25.422725	0.000437	20.782171
1031.263539	-3.026800	3.633500	-10.997000	25.414433	0.000436	20.771948
1032.262290	-3.018100	3.633900	-10.967000	25.386426	0.000433	20.768955
1033.257059	-3.006700	3.632500	-10.921000	25.434093	0.000435	20.789793
1034.260148	-3.010300	3.632500	-10.935000	25.431812	0.000434	20.764742
1035.259057	-2.984700	3.634100	-10.846000	25.410489	0.000433	20.755659
1036.258466	-3.017800	3.630800	-10.956000	25.434970	0.000435	20.768862
1037.257182	-3.027100	3.630600	-10.990000	25.448491	0.000435	20.775327
1038.259245	-2.995600	3.631000	-10.875000	25.473197	0.000432	20.782593
1039.259525	-3.030300	3.630200	-10.999000	25.456333	0.000432	20.764710
1040.260218	-3.005000	3.629700	-10.906000	25.483891	0.000434	20.769624
1041.265133	-3.026700	3.629700	-10.984000	25.481983	0.000434	20.766286
1042.262925	-2.985400	3.631500	-10.841000	25.445601	0.000430	20.760097
1043.262293	-2.986800	3.630900	-10.844000	25.401441	0.000430	20.770756
1044.261435	-2.993600	3.629300	-10.864000	25.406887	0.000432	20.758680
1045.261808	-2.962300	3.629800	-10.752000	25.415790	0.000430	20.762405
1046.264510	-2.999600	3.628000	-10.882000	25.446807	0.000429	20.774585
1047.261122	-2.988800	3.628800	-10.844000	25.471464	0.000432	20.782276
1048.261755	-3.022400	3.628200	-10.965000	25.407523	0.000430	20.769276
1049.260061	-2.997900	3.627900	-10.876000	25.404149	0.000429	20.763518
1050.264123	-3.021400	3.626300	-10.955000	25.425103	0.000428	20.767015
1051.261203	-3.002800	3.629000	-10.897000	25.466036	0.000431	20.765445
1052.263705	-2.997600	3.627900	-10.875000	25.485199	0.000428	20.750548
1053.273945	-2.986700	3.628000	-10.835000	25.445768	0.000427	20.741772
1054.264413	-2.970600	3.627300	-10.774000	25.443511	0.000428	20.772697
1055.268765	-2.999100	3.626400	-10.875000	25.464440	0.000427	20.768583
1056.274199	-2.972900	3.627500	-10.784000	25.486706	0.000426	20.769132
1057.264604	-2.998800	3.625000	-10.870000	25.431215	0.000425	20.759876
1058.266903	-2.978600	3.625700	-10.798000	25.417159	0.000426	20.758089
1059.265490	-2.972200	3.626700	-10.779000	25.380971	0.000423	20.778177
1060.266622	-3.011100	3.624600	-10.913000	25.370165	0.000424	20.753101
1061.266222	-2.978600	3.624600	-10.795000	25.397479	0.000425	20.754449
1062.266645	-3.004300	3.622600	-10.883000	25.394234	0.000425	20.755932
1063.266929	-2.992500	3.624800	-10.846000	25.421199	0.000425	20.746498
1064.267310	-3.009000	3.623300	-10.901000	25.427790	0.000424	20.758808
1065.267934	-3.012200	3.623700	-10.913000	25.445163	0.000424	20.757286
1066.267148	-3.002500	3.624300	-10.880000	25.452650	0.000422	20.736829
1067.272930	-3.017700	3.622200	-10.929000	25.497334	0.000422	20.753726
1068.270129	-3.000400	3.623200	-10.870000	25.532279	0.000423	20.757525
1069.267912	-2.992500	3.622400	-10.839000	25.518145	0.000423	20.751391
1070.266938	-3.010300	3.622300	-10.904000	25.486382	0.000422	20.751262
1071.268298	-3.010900	3.620600	-10.900000	25.480544	0.000422	20.741606
1072.267121	-2.998600	3.621600	-10.859000	25.421331	0.000422	20.760856
1073.273755	-2.967300	3.622600	-10.749000	25.430622	0.000422	20.734148
1074.269401	-2.996200	3.620200	-10.846000	25.373957	0.000419	20.748848
1075.270217	-3.002600	3.620600	-10.870000	25.395654	0.000420	20.736021
1076.275316	-3.012000	3.619500	-10.901000	25.409752	0.000420	20.730262
1077.270376	-2.998200	3.619300	-10.850000	25.410991	0.000419	20.752370
1078.275690	-2.998200	3.619200	-10.850000	25.408508	0.000417	20.736125
1079.284052	-2.985800	3.619300	-10.806000	25.432841	0.000418	20.739696
1080.273883	-2.990000	3.619300	-10.821000	25.457290	0.000418	20.717306
1081.275548	-3.003300	3.617900	-10.865000	25.483088	0.000417	20.754119
1082.273270	-2.999300	3.617900	-10.850000	25.487662	0.000418	20.718882
1083.277073	-2.987600	3.618100	-10.809000	25.426519	0.000417	20.748048
1084.280729	-2.998000	3.617600	-10.845000	25.439519	0.000417	20.733600
1085.272522	-3.004600	3.616100	-10.863000	25.408600	0.000417	20.728157
1086.274011	-2.967000	3.617300	-10.732000	25.382659	0.000416	20.754741
1087.275885	-2.999000	3.615700	-10.843000	25.388639	0.000415	20.718070
1088.275249	-3.006600	3.616100	-10.872000	25.410514	0.000416	20.741458
1089.271657	-3.019400	3.617500	-10.922000	25.429745	0.000415	20.767883
1090.279258	-2.996400	3.616900	-10.836000	25.433523	0.000416	20.739907
1091.272405	-3.007900	3.615500	-10.874000	25.469403	0.000413	20.726624
1092.273972	-3.012400	3.615300	-10.890000	25.500713	0.000414	20.742894
1093.279211	-3.001900	3.614300	-10.849000	25.490080	0.000413	20.714671
1094.279290	-2.998500	3.615300	-10.840000	25.487394	0.000413	20.746589
1095.275682	-3.004900	3.614400	-10.859000	25.431874	0.000414	20.720706
1096.275411	-3.013200	3.613900	-10.889000	25.416335	0.000413	20.749201
1097.280918	-3.013400	3.613900	-10.889000	25.395484	0.000412	20.748179
1098.277394	-3.009600	3.613600	-10.874000	25.390836	0.000412	20.733079
1099.279829	-2.997600	3.613000	-10.830000	25.336905	0.000411	20.738196
1100.276896	-2.991100	3.613500	-10.807000	25.350324	0.000412	20.739816
1101.277838	-2.983900	3.613000	-10.781000	25.390609	0.000412	20.714358
1102.280888	-2.992200	3.611400	-10.805000	25.410068	0.000410	20.752865
1103.281631	-3.005700	3.611500	-10.854000	25.421824	0.000411	20.725314
1104.281705	-3.016000	3.611800	-10.892000	25.438842	0.000410	20.743826
1105.280246	-3.009300	3.611600	-10.867000	25.438615	0.000410	20.736011
1106.285442	-2.996800	3.610100	-10.818000	25.420194	0.000412	20.732212
1107.280561	-2.997800	3.610400	-10.822000	25.405856	0.000408	20.717340
1108.284597	-2.991700	3.609700	-10.798000	25.429190	0.000408	20.733185
1109.286796	-3.022800	3.609600	-10.911000	25.501348	0.000408	20.728832
1110.286181	-2.982800	3.609600	-10.765000	25.532486	0.000409	20.728808
1111.283618	-2.999400	3.610200	-10.827000	25.540591	0.000409	20.735052
1112.288345	-3.018700	3.607400	-10.889000	25.555222	0.000408	20.745004
1113.284446	-2.996900	3.608500	-10.813000	25.600295	0.000407	20.718198
1114.284338	-2.994800	3.609800	-10.810000	25.580736	0.000407	20.730323
1115.287462	-2.999600	3.608000	-10.822000	25.554567	0.000404	20.736759
1116.285310	-2.998600	3.608600	-10.819000	25.481261	0.000405	20.731894
1117.286623	-2.995900	3.607900	-10.808000	25.488993	0.000404	20.732072
1118.285850	-3.006400	3.606800	-10.843000	25.449674	0.000405	20.722460
1119.286618	-2.987200	3.607100	-10.775000	25.426359	0.000404	20.722281
1120.289510	-2.978100	3.608000	-10.744000	25.442512	0.000404	20.717164
1121.287811	-2.957800	3.606700	-10.666000	25.450613	0.000404	20.755646
1122.290002	-2.996800	3.606100	-10.806000	25.398549	0.000402	20.725176
1123.289636	-2.981700	3.606800	-10.754000	25.400364	0.000404	20.734111
1124.293303	-2.992000	3.604200	-10.783000	25.465182	0.000404	20.715273
1125.290182	-2.999000	3.605600	-10.812000	25.518476	0.000404	20.738447
1126.292953	-2.991800	3.603600	-10.780000	25.566114	0.000403	20.761158
1127.290007	-2.996300	3.604900	-10.800000	25.569842	0.000403	20.724123
1128.291705	-3.007700	3.603700	-10.838000	25.574740	0.000403	20.728569
1129.296131	-3.018400	3.604700	-10.879000	25.553440	0.000402	20.715711
1130.292845	-3.004200	3.603200	-10.823000	25.548172	0.000401	20.718956
1131.294487	-3.009200	3.602400	-10.840000	25.562342	0.000401	20.735558
1132.292315	-2.978500	3.603700	-10.732000	25.581104	0.000401	20.733538
1133.291658	-2.962400	3.603000	-10.672000	25.582821	0.000400	20.729572
1134.292935	-2.977600	3.603300	-10.728000	25.558338	0.000398	20.726796
1135.291775	-2.977900	3.603900	-10.731000	25.518635	0.000400	20.706836
1136.291854	-2.987200	3.601800	-10.759000	25.501564	0.000400	20.719091
1137.294814	-2.999600	3.601700	-10.802000	25.511430	0.000400	20.698652
1138.293384	-2.982400	3.601300	-10.740000	25.573452	0.000398	20.719214
1139.293246	-3.018500	3.602000	-10.872000	25.553604	0.000398	20.696908
1140.293859	-3.014800	3.600000	-10.852000	25.546271	0.000397	20.699975
1141.293417	-3.000800	3.600800	-10.804000	25.565585	0.000398	20.724115
1142.293399	-3.012400	3.599400	-10.841000	25.568196	0.000396	20.712513
1143.295161	-2.976400	3.600300	-10.713000	25.520584	0.000393	20.718751
1144.295382	-2.996600	3.598600	-10.783000	25.547422	0.000394	20.713461
1145.295626	-2.990600	3.599400	-10.764000	25.511673	0.000395	20.706009
1146.298486	-3.005200	3.597900	-10.811000	25.481504	0.000398	20.722655
1147.299294	-2.990600	3.599200	-10.763000	25.442982	0.000395	20.701039
1148.295106	-2.998500	3.598800	-10.790000	25.438989	0.000393	20.689442
1149.296329	-3.021700	3.597500	-10.869000	25.470000	0.000395	20.711576
1150.299755	-2.994900	3.597500	-10.774000	25.508251	0.000393	20.693088
1151.297019	-3.007700	3.596300	-10.815000	25.499905	0.000393	20.716003
1152.300590	-3.010100	3.594800	-10.820000	25.489818	0.000392	20.702553
1153.296798	-2.986100	3.597400	-10.741000	25.464896	0.000392	20.705976
1154.296800	-2.997400	3.597000	-10.781000	25.477743	0.000392	20.679520
1155.301914	-3.010600	3.595300	-10.823000	25.465246	0.000392	20.693524
1156.299153	-3.008700	3.595800	-10.818000	25.489572	0.000391	20.701832
1157.300240	-2.985800	3.596400	-10.737000	25.475235	0.000390	20.718730
1158.305630	-3.006800	3.594900	-10.808000	25.453925	0.000393	20.698277
1159.300982	-2.991600	3.595800	-10.756000	25.449902	0.000392	20.699453
1160.302117	-2.992500	3.595700	-10.759000	25.432131	0.000391	20.716697
1161.307073	-3.002600	3.593800	-10.790000	25.504404	0.000388	20.713882
1162.299964	-3.007800	3.594200	-10.809000	25.539465	0.000391	20.699780
1163.301756	-3.000500	3.595200	-10.787000	25.518568	0.000389	20.673101
1164.299833	-3.031600	3.592500	-10.890000	25.533584	0.000389	20.698615
1165.300099	-3.030600	3.593200	-10.889000	25.511019	0.000388	20.683065
1166.302476	-2.983700	3.592500	-10.718000	25.477692	0.000389	20.678520
1167.302471	-2.999300	3.592200	-10.774000	25.477630	0.000389	20.706909
1168.304645	-3.008000	3.591900	-10.804000	25.436152	0.000388	20.701767
1169.304035	-3.015400	3.591000	-10.826000	25.384142	0.000387	20.698380
1170.304526	-2.994900	3.592700	-10.759000	25.438316	0.000388	20.702518
1171.305600	-2.994100	3.592400	-10.756000	25.468468	0.000387	20.695337
1172.303177	-3.001000	3.590200	-10.773000	25.489115	0.000387	20.696631
1173.303820	-3.002400	3.591100	-10.781000	25.500900	0.000385	20.692344
1174.304153	-3.023500	3.589300	-10.850000	25.487778	0.000386	20.696710
1175.303294	-2.997700	3.589500	-10.759000	25.509178	0.000387	20.687854
1176.303113	-3.011200	3.588800	-10.806000	25.502843	0.000385	20.690976
1177.307950	-3.008800	3.588900	-10.797000	25.463132	0.000385	20.697566
1178.305505	-2.990800	3.588500	-10.731000	25.487158	0.000385	20.686604
1179.308766	-3.004600	3.587100	-10.776000	25.466940	0.000384	20.688112
1180.306504	-2.994900	3.588600	-10.747000	25.452652	0.000383	20.684195
1181.307557	-3.007000	3.588200	-10.789000	25.438707	0.000384	20.695324
1182.327966	-2.994500	3.587200	-10.741000	25.476383	0.000384	20.677680
1183.306268	-3.030000	3.586100	-10.865000	25.443055	0.000383	20.684042
1184.310662	-2.999300	3.586400	-10.756000	25.448464	0.000382	20.690897
1185.309547	-2.976000	3.586700	-10.673000	25.489623	0.000383	20.685760
1186.308578	-2.991400	3.586100	-10.727000	25.529854	0.000382	20.692498
1187.308096	-2.985900	3.585700	-10.706000	25.514200	0.000381	20.698588
1188.310465	-2.988300	3.587000	-10.718000	25.512207	0.000381	20.680939
1189.310445	-3.013000	3.585500	-10.802000	25.486306	0.000381	20.684326
1190.314518	-2.979800	3.585000	-10.681000	25.490089	0.000380	20.675322
1191.309957	-2.992100	3.585200	-10.727000	25.470381	0.000380	20.676868
1192.309512	-3.007800	3.584600	-10.781000	25.477728	0.000379	20.702740
1193.310334	-3.006900	3.584200	-10.776000	25.521994	0.000379	20.669429
1194.312359	-2.991600	3.585400	-10.725000	25.534791	0.000378	20.688446
1195.312017	-2.985000	3.584000	-10.698000	25.530959	0.000379	20.664681
1196.309376	-2.994100	3.583900	-10.730000	25.505389	0.000379	20.684049
1197.309685	-2.999900	3.582200	-10.745000	25.494947	0.000377	20.686365
1198.312443	-3.004600	3.581400	-10.760000	25.540022	0.000377	20.697020
1199.313700	-2.995300	3.582200	-10.729000	25.522553	0.000379	20.702236
1200.318475	-2.992600	3.582000	-10.719000	25.511216	0.000375	20.697488
1201.311043	-3.015200	3.581900	-10.799000	25.522105	0.000376	20.685664
1202.312275	-3.005100	3.581800	-10.763000	25.549159	0.000376	20.692445
1203.313774	-2.995000	3.581300	-10.725000	25.546007	0.000375	20.671259
1204.311991	-2.984100	3.581000	-10.684000	25.517648	0.000375	20.684981
1205.315895	-2.997400	3.579500	-10.728000	25.497223	0.000375	20.674899
1206.315055	-3.015700	3.579200	-10.792000	25.493661	0.000374	20.684125
1207.312611	-2.998800	3.581200	-10.738000	25.528772	0.000373	20.689988
1208.313406	-3.009400	3.579000	-10.770000	25.561601	0.000373	20.676489
1209.317422	-3.010000	3.578800	-10.771000	25.544451	0.000375	20.701942
1210.313920	-3.012500	3.578700	-10.780000	25.504313	0.000371	20.698143
1211.316789	-2.976700	3.578400	-10.651000	25.532096	0.000374	20.696646
1212.319015	-3.022800	3.577500	-10.813000	25.501327	0.000372	20.683763
1213.314755	-2.997000	3.577100	-10.719000	25.523475	0.000372	20.698420
1214.314090	-3.015300	3.577500	-10.787000	25.578311	0.000371	20.688530
1215.315355	-3.004000	3.578100	-10.748000	25.516013	0.000372	20.692822
1216.316797	-2.985200	3.578400	-10.682000	25.484771	0.000372	20.693691
1217.314870	-2.986200	3.578100	-10.684000	25.467877	0.000369	20.706124
1218.324414	-3.028900	3.576900	-10.833000	25.474733	0.000368	20.673177
1219.315662	-3.016800	3.576900	-10.790000	25.454552	0.000369	20.695114
1220.315510	-3.018700	3.576000	-10.794000	25.462530	0.000371	20.710713
1221.314424	-2.995600	3.575200	-10.709000	25.494386	0.000369	20.683431
1222.315082	-3.008500	3.575400	-10.756000	25.484195	0.000367	20.690742
1223.319874	-3.003500	3.575400	-10.738000	25.463965	0.000368	20.702196
1224.322032	-2.987700	3.576000	-10.684000	25.508527	0.000368	20.709013
1225.316260	-2.998300	3.574700	-10.717000	25.498808	0.000367	20.687398
1226.325004	-2.986400	3.575100	-10.676000	25.463739	0.000367	20.701494
1227.318251	-3.000600	3.574800	-10.725000	25.450794	0.000366	20.701297
1228.315640	-2.986500	3.573500	-10.671000	25.494779	0.000366	20.684774
1229.315562	-3.002800	3.573000	-10.728000	25.511182	0.000367	20.704093
1230.315884	-3.015100	3.573100	-10.771000	25.526291	0.000364	20.702196
1231.318528	-3.009600	3.572300	-10.750000	25.565086	0.000366	20.689947
1232.319925	-3.004000	3.571600	-10.729000	25.583671	0.000365	20.715252
1233.317347	-3.021000	3.571500	-10.789000	25.589159	0.000366	20.702744
1234.317575	-3.012100	3.570600	-10.754000	25.619791	0.000365	20.693680
1235.320249	-2.989100	3.570900	-10.673000	25.633439	0.000362	20.696955
1236.326406	-2.994900	3.572100	-10.696000	25.597485	0.000365	20.690717
1237.321896	-2.997800	3.570000	-10.701000	25.596467	0.000364	20.698704
1238.320921	-2.988600	3.571300	-10.672000	25.613867	0.000361	20.707171
1239.320338	-2.992800	3.569600	-10.683000	25.640900	0.000362	20.709191
1240.320037	-3.014300	3.569300	-10.758000	25.589937	0.000366	20.700206
1241.319102	-3.002700	3.569800	-10.718000	25.534353	0.000364	20.692274
1242.319915	-2.997500	3.569200	-10.698000	25.493276	0.000362	20.702706
1243.320650	-3.014200	3.568100	-10.754000	25.487413	0.000361	20.699664
1244.319893	-2.994600	3.568100	-10.685000	25.535996	0.000361	20.705779
1245.320521	-2.999900	3.569400	-10.707000	25.553165	0.000360	20.737248
1246.319202	-3.010600	3.567800	-10.741000	25.515964	0.000360	20.702257
1247.319988	-2.998600	3.566300	-10.693000	25.494673	0.000359	20.711223
1248.322493	-2.972500	3.569000	-10.608000	25.519471	0.000357	20.705305
1249.318754	-2.995700	3.567700	-10.687000	25.544023	0.000360	20.703882
1250.319700	-3.015600	3.566700	-10.755000	25.571609	0.000358	20.710724
1251.321617	-3.014700	3.565700	-10.749000	25.545598	0.000357	20.710206
1252.320483	-3.022700	3.566200	-10.779000	25.530931	0.000358	20.703537
1253.327241	-2.975700	3.566600	-10.612000	25.567758	0.000357	20.716814
1254.322608	-2.987600	3.566100	-10.653000	25.601904	0.000359	20.709855
1255.322671	-2.995300	3.565300	-10.679000	25.606797	0.000355	20.730418
1256.322802	-2.985900	3.565200	-10.644000	25.559786	0.000356	20.715921
1257.322675	-3.000000	3.563900	-10.691000	25.577378	0.000355	20.733589
1258.322654	-2.981600	3.563800	-10.625000	25.588120	0.000354	20.715927
1259.322157	-2.989100	3.563900	-10.652000	25.631235	0.000355	20.715606
1260.322788	-3.002200	3.563200	-10.697000	25.663809	0.000354	20.722719
1261.322935	-3.010000	3.562600	-10.723000	25.633246	0.000355	20.708617
1262.322557	-2.976500	3.563300	-10.605000	25.621468	0.000355	20.718125
1263.323331	-3.021000	3.562200	-10.761000	25.565340	0.000352	20.721025
1264.325765	-3.001900	3.562200	-10.692000	25.530206	0.000352	20.713241
1265.323821	-2.981700	3.563300	-10.624000	25.520266	0.000353	20.727916
1266.324912	-3.013100	3.560600	-10.727000	25.553095	0.000352	20.709675
1267.327341	-2.995200	3.562200	-10.669000	25.572483	0.000351	20.713024
1268.327527	-2.975400	3.561200	-10.595000	25.555707	0.000351	20.725575
1269.328539	-2.993100	3.561500	-10.658000	25.543437	0.000353	20.707562
1270.326800	-3.005200	3.560000	-10.697000	25.558122	0.000352	20.710930
1271.327441	-2.984800	3.560700	-10.627000	25.523613	0.000351	20.718948
1272.329522	-3.022100	3.560000	-10.758000	25.521301	0.000354	20.736542
1273.326404	-3.009500	3.558900	-10.710000	25.517966	0.000351	20.719441
1274.330093	-3.004400	3.558600	-10.690000	25.534349	0.000352	20.716928
1275.329637	-3.017000	3.559000	-10.737000	25.584322	0.000350	20.731079
1276.332940	-3.019500	3.557600	-10.741000	25.608523	0.000350	20.719348
1277.328958	-3.020000	3.558000	-10.744000	25.613991	0.000349	20.742860
1278.332302	-2.986600	3.557200	-10.623000	25.640981	0.000347	20.732034
1279.328735	-3.014500	3.557000	-10.722000	25.643887	0.000348	20.722624
1280.332500	-3.003900	3.555800	-10.680000	25.643445	0.000348	20.716490
1281.330905	-2.991900	3.556600	-10.641000	25.648166	0.000348	20.719809
1282.330010	-2.998500	3.556800	-10.663000	25.644365	0.000347	20.737803
1283.332745	-3.010000	3.555900	-10.702000	25.641336	0.000347	20.725277
1284.329210	-3.001400	3.556900	-10.675000	25.683352	0.000347	20.712949
1285.334513	-3.018200	3.554700	-10.728000	25.702609	0.000346	20.729446
1286.331454	-2.986800	3.555500	-10.618000	25.668398	0.000347	20.714999
1287.330864	-2.994100	3.554600	-10.643000	25.694564	0.000348	20.718995
1288.332115	-2.991300	3.554000	-10.630000	25.666362	0.000346	20.729551
1289.334124	-2.984300	3.554000	-10.606000	25.657644	0.000345	20.731226
1290.332186	-2.999200	3.553300	-10.656000	25.622034	0.000346	20.722487
1291.334649	-3.019500	3.552200	-10.725000	25.599294	0.000346	20.719563
1292.333796	-2.992100	3.554300	-10.634000	25.593064	0.000344	20.724686
1293.336674	-2.999200	3.554200	-10.659000	25.592046	0.000344	20.740734
1294.336281	-3.027300	3.551600	-10.751000	25.544931	0.000343	20.738461
1295.334044	-2.996900	3.553600	-10.649000	25.569659	0.000344	20.741959
1296.337675	-3.010900	3.551400	-10.692000	25.608619	0.000343	20.735093
1297.337487	-3.009200	3.551400	-10.686000	25.650415	0.000344	20.723965
1298.335662	-2.975500	3.551600	-10.567000	25.665890	0.000344	20.713428
1299.334859	-2.986300	3.551400	-10.605000	25.686662	0.000342	20.739034
1300.335824	-2.978000	3.552300	-10.578000	25.659374	0.000343	20.749085
1301.338007	-2.975300	3.551800	-10.566000	25.659674	0.000341	20.732790
1302.336851	-3.000000	3.551000	-10.652000	25.592763	0.000339	20.734342
1303.338377	-3.010300	3.550000	-10.686000	25.573774	0.000343	20.739928
1304.343494	-3.019300	3.548800	-10.714000	25.592807	0.000340	20.751930
1305.337283	-3.014900	3.548800	-10.698000	25.635769	0.000339	20.740550
1306.339176	-3.019900	3.548000	-10.714000	25.649588	0.000339	20.762016
1307.337450	-2.997300	3.548400	-10.635000	25.681537	0.000339	20.738154
1308.338124	-2.998300	3.548500	-10.638000	25.702903	0.000339	20.738277
1309.338051	-2.986800	3.549200	-10.600000	25.682579	0.000339	20.736356
1310.339099	-3.012800	3.547600	-10.687000	25.643470	0.000339	20.742120
1311.340227	-2.991900	3.546800	-10.610000	25.655106	0.000337	20.758549
1312.345002	-3.007600	3.546200	-10.664000	25.652390	0.000336	20.744442
1313.342947	-2.999900	3.548100	-10.643000	25.666185	0.000336	20.740753
1314.344971	-3.017100	3.545400	-10.696000	25.670158	0.000336	20.737631
1315.341581	-2.990600	3.545900	-10.603000	25.690304	0.000337	20.737003
1316.340318	-3.002600	3.545900	-10.646000	25.664989	0.000337	20.751881
1317.347019	-3.020600	3.544000	-10.704000	25.592285	0.000336	20.750932
1318.343751	-3.026100	3.543600	-10.723000	25.575068	0.000336	20.759245
1319.340636	-2.996700	3.545400	-10.624000	25.586295	0.000337	20.755348
1320.340619	-2.983100	3.544100	-10.571000	25.575958	0.000334	20.757294
1321.343589	-2.990200	3.544800	-10.598000	25.596799	0.000336	20.742189
1322.341053	-3.012300	3.543200	-10.673000	25.624476	0.000333	20.752916
1323.344595	-3.033100	3.542300	-10.743000	25.631661	0.000334	20.735950
1324.349202	-2.997000	3.543900	-10.620000	25.613145	0.000333	20.754813
1325.342209	-2.997000	3.543500	-10.619000	25.634942	0.000335	20.757263
1326.342123	-2.988500	3.543500	-10.589000	25.645303	0.000332	20.753445
1327.342071	-2.997000	3.542500	-10.616000	25.599086	0.000332	20.757762
1328.345168	-3.037200	3.541900	-10.757000	25.595254	0.000332	20.751069
1329.343903	-2.992900	3.541500	-10.599000	25.629025	0.000332	20.751321
1330.341715	-3.011700	3.541400	-10.664000	25.577939	0.000332	20.763551
1331.343237	-3.004700	3.541200	-10.639000	25.619583	0.000331	20.758434
1332.343465	-3.014300	3.540600	-10.672000	25.610165	0.000331	20.759407
1333.348076	-2.957800	3.542200	-10.476000	25.619136	0.000332	20.764622
1334.348064	-2.980600	3.540300	-10.551000	25.616903	0.000331	20.759061
1335.355755	-2.983100	3.539300	-10.556000	25.634868	0.000329	20.753396
1336.349994	-2.998400	3.539300	-10.611000	25.669227	0.000331	20.761353
1337.348897	-2.985100	3.539700	-10.565000	25.683321	0.000328	20.770768
1338.345602	-3.010400	3.538100	-10.650000	25.723074	0.000330	20.788410
1339.348387	-2.953700	3.539800	-10.454000	25.726599	0.000326	20.742638
1340.347617	-3.000200	3.538400	-10.615000	25.705416	0.000329	20.749337
1341.356541	-3.023200	3.536400	-10.690000	25.703651	0.000327	20.773169
1342.348013	-3.001200	3.537900	-10.617000	25.713240	0.000327	20.775213
1343.347310	-2.998200	3.537500	-10.605000	25.697618	0.000326	20.759522
1344.350273	-2.996500	3.537000	-10.597000	25.664640	0.000328	20.762436
1345.353871	-2.992900	3.536700	-10.584000	25.670409	0.000327	20.753531
1346.347269	-3.006200	3.536400	-10.630000	25.652672	0.000326	20.761795
1347.349617	-3.017200	3.534700	-10.664000	25.695288	0.000326	20.768088
1348.351421	-3.003400	3.534900	-10.615000	25.736204	0.000326	20.772202
1349.353394	-3.016300	3.534000	-10.658000	25.748055	0.000327	20.753284
1350.351322	-2.981800	3.535400	-10.542000	25.775906	0.000326	20.771777
1351.349634	-2.988500	3.534500	-10.562000	25.763117	0.000323	20.768888
1352.349850	-3.025600	3.532900	-10.688000	25.755736	0.000326	20.771431
1353.352742	-3.000900	3.533300	-10.603000	25.695563	0.000322	20.781641
1354.350550	-2.988600	3.533700	-10.560000	25.668876	0.000324	20.773802
1355.354949	-2.999100	3.532400	-10.593000	25.659587	0.000321	20.786758
1356.352155	-3.029900	3.530800	-10.697000	25.675466	0.000321	20.781370
1357.351355	-2.994600	3.531300	-10.573000	25.658968	0.000322	20.785662
1358.352861	-2.982900	3.531500	-10.534000	25.678550	0.000321	20.767871
1359.366111	-2.993500	3.531100	-10.568000	25.691315	0.000319	20.787331
1360.354170	-2.984100	3.530700	-10.534000	25.699695	0.000322	20.785317
1361.356580	-3.000400	3.530600	-10.592000	25.673283	0.000323	20.773013
1362.352429	-3.016700	3.530700	-10.649000	25.644540	0.000321	20.776387
1363.352293	-3.011300	3.529200	-10.626000	25.648587	0.000321	20.770020
1364.357901	-2.976600	3.530100	-10.507000	25.657863	0.000319	20.771750
1365.355997	-2.986300	3.530000	-10.540000	25.647275	0.000320	20.762064
1366.356194	-3.006000	3.528600	-10.606000	25.651554	0.000318	20.794337
1367.357339	-3.005000	3.529000	-10.603000	25.632271	0.000318	20.789195
1368.354198	-3.002700	3.527100	-10.590000	25.662442	0.000319	20.786781
1369.356808	-2.989200	3.527700	-10.544000	25.703262	0.000318	20.802176
1370.355565	-2.971500	3.529700	-10.486000	25.718920	0.000318	20.780444
1371.357725	-2.995700	3.526700	-10.563000	25.698375	0.000318	20.785414
1372.355746	-2.977400	3.526600	-10.499000	25.727122	0.000317	20.782045
1373.355928	-3.005100	3.527500	-10.599000	25.686456	0.000315	20.775813
1374.355463	-2.991400	3.527100	-10.550000	25.679522	0.000318	20.794453
1375.357913	-2.991400	3.525000	-10.544000	25.633312	0.000317	20.799250
1376.357069	-2.992700	3.524700	-10.547000	25.662503	0.000314	20.805334
1377.362424	-3.000300	3.525600	-10.577000	25.674335	0.000314	20.765061
1378.358610	-2.986800	3.524000	-10.525000	25.701961	0.000315	20.787119
1379.358742	-2.995400	3.525200	-10.559000	25.722260	0.000316	20.776687
1380.361022	-3.009300	3.525400	-10.608000	25.710164	0.000316	20.779236
1381.359967	-3.021300	3.523600	-10.645000	25.723106	0.000316	20.811202
1382.366861	-3.002900	3.523500	-10.581000	25.738384	0.000313	20.819909
1383.359319	-2.988500	3.523200	-10.529000	25.721659	0.000315	20.814965
1384.370230	-2.981400	3.523500	-10.503000	25.713040	0.000313	20.775012
1385.359082	-2.993400	3.523500	-10.546000	25.735950	0.000312	20.802766
1386.367501	-2.975700	3.523500	-10.484000	25.795550	0.000312	20.791509
1387.360660	-3.022200	3.521700	-10.643000	25.804494	0.000315	20.802390
1388.359460	-3.022800	3.520900	-10.641000	25.790603	0.000314	20.805506
1389.359870	-3.025100	3.521800	-10.652000	25.782303	0.000311	20.805704
1390.363289	-2.998100	3.521700	-10.558000	25.740468	0.000312	20.821055
1391.360549	-3.021600	3.521000	-10.638000	25.720121	0.000312	20.795875
1392.365757	-2.996700	3.521300	-10.551000	25.750111	0.000309	20.796128
1393.370824	-3.017600	3.519600	-10.620000	25.746010	0.000311	20.801491
1394.361598	-2.987500	3.519200	-10.512000	25.792644	0.000313	20.793806
1395.362799	-3.009600	3.520200	-10.593000	25.837737	0.000311	20.805912
1396.362640	-3.005700	3.519500	-10.578000	25.826011	0.000309	20.799348
1397.364808	-3.015600	3.519700	-10.613000	25.826649	0.000309	20.809946
1398.362800	-2.974300	3.518600	-10.464000	25.803550	0.000310	20.830839
1399.365092	-3.008000	3.518400	-10.582000	25.782860	0.000306	20.816220
1400.363066	-3.006200	3.518300	-10.575000	25.707828	0.000311	20.826202
1401.364689	-3.020000	3.517900	-10.622000	25.701072	0.000308	20.812304
1402.365015	-3.015300	3.517200	-10.605000	25.679430	0.000307	20.822809
1403.369767	-3.020300	3.517600	-10.624000	25.641245	0.000308	20.800105
1404.370891	-3.005500	3.517700	-10.572000	25.624495	0.000309	20.804619
1405.365781	-3.001600	3.516000	-10.553000	25.618008	0.000307	20.819915
1406.367177	-2.987600	3.516500	-10.504000	25.669393	0.000305	20.819841
1407.367374	-3.011300	3.516100	-10.587000	25.692758	0.000305	20.817229
1408.368797	-3.001100	3.515400	-10.549000	25.646119	0.000304	20.814483
1409.366374	-3.003000	3.515300	-10.556000	25.655010	0.000304	20.829102
1410.368101	-3.005300	3.514000	-10.560000	25.608272	0.000308	20.813455
1411.369189	-2.985100	3.514500	-10.490000	25.617364	0.000304	20.818794
1412.368969	-3.016500	3.514000	-10.598000	25.616567	0.000305	20.843123
1413.372345	-2.995300	3.513300	-10.522000	25.620148	0.000306	20.821590
1414.369717	-3.030200	3.513000	-10.644000	25.644029	0.000304	20.816651
1415.370075	-3.008200	3.513200	-10.567000	25.706087	0.000303	20.834410
1416.374569	-3.034000	3.511000	-10.651000	25.750589	0.000303	20.833591
1417.372638	-2.991600	3.514200	-10.512000	25.743435	0.000303	20.833043
1418.376441	-3.015900	3.512400	-10.592000	25.753673	0.000305	20.830998
1419.373762	-3.004300	3.511400	-10.549000	25.768674	0.000303	20.819989
1420.373734	-3.011300	3.511600	-10.573000	25.756726	0.000302	20.836910
1421.375050	-3.005900	3.510900	-10.552000	25.748082	0.000300	20.820641
1422.375796	-3.001800	3.511600	-10.540000	25.739216	0.000301	20.838763
1423.375416	-3.002200	3.510100	-10.537000	25.747487	0.000299	20.850863
1424.378886	-2.992800	3.510000	-10.503000	25.793379	0.000301	20.833424
1425.379169	-3.002100	3.510200	-10.537000	25.777900	0.000301	20.835419
1426.377738	-2.987100	3.510700	-10.486000	25.758625	0.000298	20.844982
1427.384645	-2.987200	3.509300	-10.482000	25.745782	0.000300	20.833030
1428.378489	-3.001600	3.508800	-10.531000	25.747026	0.000299	20.830486
1429.381105	-2.997900	3.508100	-10.517000	25.724416	0.000301	20.843337
1430.377781	-2.988100	3.507200	-10.479000	25.693762	0.000298	20.848583
1431.377932	-2.996200	3.507400	-10.509000	25.720419	0.000298	20.832210
1432.384052	-3.012400	3.506700	-10.563000	25.750036	0.000298	20.854846
1433.378383	-2.987500	3.507300	-10.477000	25.791772	0.000298	20.849353
1434.379822	-2.998200	3.507000	-10.514000	25.814803	0.000297	20.839772
1435.380450	-3.010900	3.505800	-10.554000	25.808048	0.000298	20.860486
1436.380646	-3.013000	3.504700	-10.558000	25.813687	0.000296	20.829168
1437.380856	-3.002900	3.505700	-10.526000	25.811082	0.000295	20.824180
1438.380042	-3.022700	3.505000	-10.593000	25.770315	0.000296	20.857672
1439.383997	-3.007900	3.505700	-10.544000	25.796381	0.000297	20.816052
1440.379179	-3.000300	3.505100	-10.515000	25.762468	0.000296	20.844574
1441.380026	-3.022300	3.502900	-10.585000	25.789827	0.000295	20.841710
1442.381764	-2.990900	3.503700	-10.479000	25.775636	0.000296	20.829827
1443.381050	-3.002300	3.502800	-10.516000	25.763890	0.000294	20.849321
1444.384265	-2.996100	3.503200	-10.495000	25.806447	0.000293	20.839913
1445.384526	-3.002400	3.502600	-10.516000	25.821478	0.000293	20.827037
1446.389813	-3.001500	3.502300	-10.511000	25.784193	0.000295	20.836999
1447.380731	-2.999200	3.501400	-10.500000	25.790802	0.000293	20.849327
1448.386624	-2.999100	3.501800	-10.502000	25.767426	0.000291	20.859511
1449.383704	-2.991300	3.500400	-10.469000	25.739098	0.000293	20.829161
1450.384191	-3.015400	3.500800	-10.555000	25.737859	0.000291	20.844512
1451.381761	-3.017100	3.500200	-10.559000	25.784248	0.000292	20.848908
1452.382727	-3.005600	3.499500	-10.517000	25.780619	0.000290	20.826771
1453.384428	-3.018600	3.499600	-10.562000	25.735303	0.000292	20.812547
1454.381589	-2.993400	3.501400	-10.480000	25.759732	0.000291	20.823335
1455.394366	-2.996300	3.500300	-10.486000	25.810786	0.000291	20.840478
1456.380960	-3.011300	3.498200	-10.534000	25.803902	0.000290	20.841149
1457.382054	-3.002300	3.498700	-10.502000	25.785768	0.000291	20.851383
1458.390664	-2.986000	3.500200	-10.451000	25.822414	0.000292	20.827029
1459.389941	-2.985400	3.499000	-10.445000	25.828177	0.000289	20.833766
1460.386028	-2.993000	3.497400	-10.467000	25.813667	0.000289	20.830096
1461.382257	-3.004400	3.497300	-10.506000	25.840051	0.000289	20.826728
1462.381853	-3.001600	3.496700	-10.494000	25.848001	0.000289	20.812904
1463.382005	-2.993700	3.497300	-10.469000	25.858219	0.000289	20.824116
1464.382312	-2.985300	3.497100	-10.439000	25.878264	0.000288	20.819123
1465.382321	-3.027900	3.496100	-10.585000	25.852550	0.000289	20.836438
1466.389750	-2.992600	3.495700	-10.460000	25.858888	0.000286	20.822891
1467.383321	-2.995200	3.495800	-10.470000	25.848381	0.000288	20.823716
1468.386804	-3.000900	3.494900	-10.487000	25.845101	0.000287	20.823741
1469.386728	-2.997100	3.493600	-10.470000	25.809946	0.000289	20.824462
1470.383008	-3.009400	3.495400	-10.518000	25.782169	0.000284	20.813630
1471.387390	-2.973600	3.494400	-10.390000	25.808658	0.000286	20.820797
1472.385460	-3.008400	3.494000	-10.511000	25.821997	0.000285	20.819498
1473.389006	-3.020000	3.493500	-10.549000	25.830401	0.000285	20.817983
1474.382413	-3.003500	3.492800	-10.489000	25.823615	0.000285	20.821124
1475.383401	-3.011900	3.493100	-10.520000	25.821457	0.000284	20.812318
1476.388059	-2.983400	3.492600	-10.418000	25.807174	0.000282	20.814565
1477.386057	-2.998800	3.492300	-10.472000	25.841926	0.000284	20.821025
1478.384210	-3.007200	3.491800	-10.500000	25.910622	0.000285	20.807533
1479.384421	-2.987800	3.490500	-10.428000	25.962661	0.000282	20.812398
1480.384537	-2.980100	3.492000	-10.405000	25.924506	0.000282	20.798721
1481.384433	-3.011100	3.489700	-10.506000	25.966682	0.000282	20.805058
1482.387378	-3.017700	3.489600	-10.529000	25.969544	0.000283	20.796553
1483.389380	-2.981200	3.489700	-10.403000	25.901458	0.000282	20.837681
1484.386552	-2.978400	3.490200	-10.394000	25.839062	0.000280	20.798708
1485.388791	-2.993500	3.490600	-10.449000	25.816448	0.000280	20.797329
1486.385116	-3.020400	3.487100	-10.531000	25.845793	0.000281	20.811633
1487.394245	-2.978500	3.490600	-10.395000	25.850807	0.000280	20.802920
1488.388316	-2.968400	3.488700	-10.355000	25.885348	0.000280	20.798739
1489.387022	-3.003200	3.487200	-10.472000	25.920894	0.000279	20.805050
1490.390207	-3.001700	3.488600	-10.471000	25.913839	0.000279	20.807446
1491.386040	-3.002000	3.488900	-10.473000	25.872703	0.000278	20.792673
1492.392166	-2.977000	3.488400	-10.384000	25.907084	0.000278	20.802082
1493.390615	-2.980900	3.487400	-10.394000	25.859113	0.000280	20.790401
1494.390141	-2.996400	3.485400	-10.442000	25.810428	0.000276	20.804083
1495.390801	-2.995100	3.486700	-10.442000	25.829480	0.000277	20.778177
1496.398171	-2.970400	3.486600	-10.356000	25.843003	0.000279	20.800296
1497.392568	-2.980700	3.485600	-10.388000	25.902818	0.000277	20.777882
1498.391150	-3.015600	3.485700	-10.511000	25.852516	0.000277	20.795154
1499.393955	-2.982500	3.484600	-10.392000	25.839202	0.000276	20.777986
1500.394591	-3.016800	3.485300	-10.513000	25.808747	0.000276	20.772524
1501.392278	-3.005700	3.485200	-10.474000	25.809765	0.000277	20.776865
1502.392553	-2.992500	3.484000	-10.425000	25.833317	0.000273	20.799575
1503.391161	-3.020500	3.483500	-10.521000	25.835928	0.000276	20.790345
1504.392925	-3.014600	3.483700	-10.501000	25.864003	0.000276	20.785831
1505.394922	-3.026100	3.482000	-10.535000	25.896099	0.000272	20.798633
1506.392692	-3.013900	3.482800	-10.496000	25.903558	0.000275	20.782893
1507.395974	-2.991900	3.484200	-10.423000	25.882717	0.000273	20.774284
1508.393485	-3.013500	3.481900	-10.492000	25.875937	0.000274	20.776956
1509.405201	-3.009100	3.481000	-10.474000	25.855298	0.000275	20.771870
1510.395162	-3.026200	3.481600	-10.535000	25.805687	0.000271	20.769450
1511.401456	-3.014500	3.480600	-10.492000	25.775723	0.000272	20.785818
1512.400016	-3.015200	3.480700	-10.494000	25.760874	0.000273	20.775170
1513.397720	-3.013600	3.479100	-10.483000	25.821325	0.000272	20.795589
1514.395499	-2.998100	3.480100	-10.433000	25.839960	0.000272	20.781592
1515.405699	-2.988300	3.480400	-10.399000	25.872007	0.000271	20.795294
1516.398893	-3.024000	3.478800	-10.519000	25.861874	0.000271	20.786537
1517.399013	-2.995300	3.479100	-10.419000	25.893449	0.000269	20.775108
1518.397074	-3.040800	3.476800	-10.571000	25.902122	0.000271	20.777657
1519.396243	-2.997600	3.477400	-10.423000	25.868365	0.000271	20.784049
1520.395983	-3.010700	3.478600	-10.472000	25.845538	0.000267	20.777238
1521.395479	-3.001000	3.476900	-10.434000	25.837170	0.000269	20.755081
1522.397645	-2.998800	3.478300	-10.430000	25.847958	0.000270	20.806222
1523.405767	-3.000000	3.477700	-10.432000	25.889623	0.000269	20.746607
1524.396379	-3.008000	3.476300	-10.456000	25.891756	0.000268	20.774830
1525.403407	-3.023100	3.475300	-10.506000	25.849901	0.000269	20.769293
1526.403862	-3.008200	3.476700	-10.458000	25.845757	0.000267	20.774614
1527.397786	-3.002200	3.475500	-10.434000	25.820839	0.000270	20.750055
1528.400774	-3.034300	3.474900	-10.542000	25.826558	0.000269	20.773345
1529.408083	-3.015600	3.474200	-10.476000	25.858636	0.000267	20.768584
1530.403334	-3.000900	3.475400	-10.428000	25.851807	0.000268	20.777846
1531.400131	-3.005900	3.473800	-10.442000	25.876056	0.000266	20.782292
1532.400997	-3.042900	3.473200	-10.567000	25.891553	0.000267	20.776522
1533.399442	-3.006200	3.474800	-10.445000	25.909096	0.000266	20.752419
1534.404263	-2.997200	3.473300	-10.408000	25.889346	0.000266	20.793745
1535.403142	-2.970800	3.474400	-10.321000	25.906092	0.000265	20.789706
1536.402301	-3.017700	3.473200	-10.480000	25.910861	0.000265	20.763202
1537.401381	-2.968600	3.474000	-10.312000	25.918437	0.000262	20.760382
1538.401473	-2.989900	3.471800	-10.379000	25.917346	0.000263	20.772088
1539.404451	-3.002200	3.471200	-10.420000	25.913325	0.000264	20.768048
1540.403022	-2.997300	3.472100	-10.406000	25.915169	0.000263	20.770376
1541.411923	-2.985900	3.472300	-10.367000	25.918345	0.000263	20.756021
1542.402805	-2.998300	3.470500	-10.404000	25.915194	0.000261	20.748114
1543.404411	-2.972200	3.471400	-10.315000	25.900710	0.000262	20.763910
1544.412447	-2.986000	3.470200	-10.361000	25.898074	0.000262	20.768849
1545.403223	-2.996000	3.469400	-10.393000	25.938768	0.000260	20.771798
1546.412710	-2.998300	3.470300	-10.404000	25.938302	0.000261	20.742405
1547.407840	-3.002200	3.469200	-10.415000	25.940785	0.000262	20.759599
1548.405521	-2.995400	3.469900	-10.393000	25.904890	0.000260	20.769057
1549.404003	-3.017100	3.468600	-10.464000	25.905539	0.000261	20.775874
1550.405354	-3.014800	3.468200	-10.455000	25.869319	0.000260	20.775997
1551.405671	-2.975200	3.469400	-10.322000	25.817079	0.000260	20.748649
1552.414982	-2.981500	3.467500	-10.337000	25.782400	0.000259	20.762179
1553.405377	-2.985100	3.467100	-10.349000	25.775442	0.000258	20.753767
1554.419460	-2.986900	3.467000	-10.355000	25.759491	0.000259	20.738692
1555.411894	-3.010800	3.466100	-10.435000	25.744091	0.000258	20.738870
1556.411160	-3.004400	3.466400	-10.413000	25.775399	0.000255	20.764155
1557.415752	-2.990000	3.466000	-10.362000	25.798179	0.000258	20.755743
1558.416775	-2.998800	3.467000	-10.396000	25.857635	0.000257	20.755250
1559.415867	-2.998200	3.466300	-10.392000	25.878899	0.000258	20.752430
1560.410500	-3.002200	3.465900	-10.405000	25.890104	0.000255	20.771273
1561.413145	-3.005600	3.464400	-10.412000	25.895946	0.000257	20.758175
1562.412731	-2.984800	3.465800	-10.344000	25.902278	0.000256	20.767382
1563.417432	-3.010100	3.464200	-10.426000	25.847477	0.000256	20.751211
1564.414240	-3.016500	3.463700	-10.447000	25.831754	0.000255	20.761969
1565.414063	-2.993700	3.464400	-10.371000	25.792263	0.000254	20.765447
1566.413894	-2.997500	3.463200	-10.381000	25.838104	0.000254	20.739897
1567.415390	-2.981000	3.463100	-10.322000	25.889380	0.000254	20.741147
1568.415196	-2.980800	3.463300	-10.322000	25.904637	0.000256	20.743672
1569.431072	-3.013100	3.461600	-10.429000	25.912961	0.000253	20.752983
1570.432518	-2.994300	3.462400	-10.367000	25.937534	0.000254	20.736892
1571.424787	-2.985000	3.462800	-10.335000	25.890838	0.000254	20.755889
1572.419029	-2.981700	3.461700	-10.320000	25.942412	0.000256	20.741319
1573.415367	-2.988300	3.462000	-10.344000	25.960923	0.000251	20.746165
1574.416126	-3.002800	3.461400	-10.393000	25.953292	0.000251	20.743240
1575.417848	-3.012800	3.460600	-10.425000	25.910894	0.000251	20.745691
1576.415955	-3.005500	3.459800	-10.398000	25.913290	0.000252	20.742408
1577.424809	-2.981100	3.460200	-10.314000	25.925213	0.000249	20.730203
1578.417433	-3.009300	3.459300	-10.409000	25.867985	0.000250	20.756640
1579.417161	-3.018300	3.459700	-10.441000	25.803154	0.000249	20.737032
1580.425408	-3.007200	3.459000	-10.401000	25.848615	0.000251	20.734335
1581.421149	-3.009500	3.459500	-10.410000	25.886160	0.000250	20.736016
1582.419541	-2.990500	3.457900	-10.340000	25.912217	0.000250	20.757926
1583.423417	-3.011600	3.456800	-10.410000	25.891303	0.000250	20.733595
1584.438234	-2.970600	3.458500	-10.273000	25.840707	0.000249	20.741564
1585.419380	-3.010400	3.458000	-10.409000	25.825259	0.000249	20.743116
1586.433761	-2.991200	3.456700	-10.339000	25.838647	0.000248	20.745185
1587.421281	-2.981500	3.457400	-10.308000	25.884192	0.000249	20.733090
1588.424432	-2.993800	3.455800	-10.345000	25.879742	0.000249	20.736680
1589.426399	-3.006000	3.454700	-10.384000	25.871914	0.000248	20.746835
1590.428849	-3.015400	3.454300	-10.415000	25.880912	0.000247	20.722208
1591.420220	-3.014200	3.454100	-10.411000	25.884786	0.000247	20.760715
1592.428580	-3.001700	3.454600	-10.369000	25.884216	0.000248	20.738331
1593.425156	-2.994000	3.454800	-10.343000	25.909158	0.000248	20.732566
1594.433811	-3.002400	3.453900	-10.369000	25.864613	0.000250	20.745191
1595.440878	-2.998200	3.452900	-10.351000	25.898817	0.000246	20.744464
1596.423830	-3.006400	3.452600	-10.379000	25.957942	0.000246	20.728946
1597.427487	-2.996500	3.453100	-10.346000	25.986303	0.000247	20.737998
1598.424108	-2.980000	3.453600	-10.291000	25.951250	0.000246	20.726015
1599.429099	-3.000900	3.452800	-10.360000	25.978231	0.000244	20.721353
1600.428607	-3.012100	3.451100	-10.394000	25.982901	0.000245	20.722726
1601.442519	-2.997800	3.450900	-10.344000	25.985334	0.000244	20.726119
1602.429525	-2.994700	3.451900	-10.336000	25.937305	0.000242	20.728127
1603.432802	-3.003800	3.451300	-10.365000	25.901913	0.000243	20.721020
1604.435381	-2.985300	3.450400	-10.299000	25.861616	0.000244	20.732696
1605.428824	-2.990900	3.451700	-10.323000	25.889690	0.000244	20.733398
1606.431295	-2.992100	3.450100	-10.322000	25.880373	0.000241	20.727831
1607.430570	-3.000500	3.451000	-10.353000	25.880588	0.000243	20.716193
1608.435320	-2.980700	3.451900	-10.288000	25.885431	0.000241	20.734335
1609.432301	-2.999800	3.450100	-10.349000	25.899271	0.000243	20.738282
1610.432089	-3.018900	3.448800	-10.411000	25.916784	0.000241	20.746392
1611.435331	-3.019600	3.447900	-10.410000	25.881759	0.000241	20.731120
1612.431411	-3.003800	3.447800	-10.356000	25.864117	0.000239	20.724303
1613.432662	-2.978400	3.448000	-10.268000	25.878528	0.000239	20.710330
1614.433416	-3.011900	3.447000	-10.381000	25.895569	0.000238	20.697576
1615.435085	-2.997500	3.446700	-10.330000	25.884438	0.000238	20.727173
1616.434350	-2.999600	3.447700	-10.340000	25.925849	0.000240	20.714721
1617.432901	-2.982500	3.447400	-10.281000	25.936006	0.000239	20.726822
1618.433673	-3.002100	3.446300	-10.345000	25.957520	0.000239	20.713822
1619.445766	-2.981200	3.446400	-10.273000	26.015049	0.000238	20.715195
1620.435792	-3.014300	3.445000	-10.383000	26.019229	0.000237	20.690943
1621.436660	-3.005400	3.445400	-10.354000	26.013437	0.000238	20.696504
1622.432973	-2.992600	3.444700	-10.307000	26.017518	0.000238	20.702028
1623.433022	-3.002700	3.445400	-10.345000	26.001595	0.000237	20.721119
1624.437335	-3.005000	3.444500	-10.349000	25.925371	0.000237	20.717559
1625.436352	-3.007300	3.445100	-10.359000	25.868187	0.000237	20.715114
1626.435496	-3.022600	3.444500	-10.411000	25.847370	0.000238	20.721229
1627.431537	-3.018500	3.442800	-10.391000	25.886031	0.000234	20.702219
1628.433321	-3.012600	3.443400	-10.372000	25.931457	0.000232	20.736003
1629.434487	-2.980100	3.443200	-10.260000	25.840596	0.000232	20.701147
1630.436225	-2.988300	3.442800	-10.287000	25.839676	0.000234	20.713975
1631.434463	-2.977700	3.443000	-10.251000	25.792774	0.000233	20.709535
1632.433364	-3.008500	3.441300	-10.352000	25.763759	0.000234	20.726858
1633.439652	-2.983300	3.441900	-10.267000	25.749156	0.000231	20.721672
1634.439090	-3.007400	3.441000	-10.348000	25.789329	0.000233	20.710815
1635.435659	-3.021000	3.440300	-10.392000	25.840056	0.000234	20.716253
1636.444686	-2.991200	3.441200	-10.292000	25.846823	0.000233	20.724948
1637.435752	-2.976500	3.440000	-10.238000	25.902893	0.000232	20.704934
1638.444002	-2.999800	3.440000	-10.319000	25.914275	0.000232	20.702144
1639.438946	-2.991600	3.440000	-10.291000	25.854106	0.000231	20.706658
1640.435528	-2.999700	3.439100	-10.315000	25.845566	0.000233	20.717521
1641.438802	-2.991500	3.440000	-10.290000	25.839106	0.000233	20.706763
1642.435921	-3.006300	3.437300	-10.333000	25.879348	0.000230	20.706412
1643.445827	-3.004100	3.438600	-10.329000	25.908942	0.000231	20.702476
1644.437193	-2.997300	3.436900	-10.300000	25.946902	0.000230	20.697463
1645.439117	-2.992000	3.437200	-10.283000	25.997873	0.000229	20.713112
1646.440888	-2.987100	3.436900	-10.266000	25.982673	0.000230	20.699262
1647.453194	-3.015600	3.437000	-10.364000	26.001453	0.000229	20.706750
1648.441537	-3.014800	3.436000	-10.358000	26.014220	0.000228	20.707723
1649.451298	-2.998000	3.435700	-10.299000	26.049418	0.000229	20.732184
1650.449014	-3.003000	3.436400	-10.319000	26.023640	0.000230	20.705334
1651.443152	-3.003500	3.435800	-10.319000	26.015911	0.000228	20.690455
1652.443293	-2.977500	3.434800	-10.226000	25.997291	0.000228	20.701146
1653.440189	-2.997600	3.434700	-10.295000	25.933730	0.000227	20.719319
1654.441568	-2.999800	3.434500	-10.301000	25.911100	0.000226	20.698479
1655.443094	-3.007500	3.434100	-10.327000	25.911424	0.000227	20.702599
1656.451306	-3.009200	3.433700	-10.332000	25.932093	0.000225	20.695862
1657.444308	-3.005200	3.432000	-10.313000	25.981955	0.000226	20.705179
1658.443752	-3.000100	3.433500	-10.300000	25.952050	0.000226	20.707852
1659.457743	-2.991000	3.432600	-10.266000	25.940472	0.000225	20.720877
1660.444244	-3.016800	3.431700	-10.352000	25.933871	0.000224	20.701915
1661.445410	-3.017600	3.431600	-10.354000	25.915120	0.000226	20.709157
1662.445678	-3.000200	3.433000	-10.299000	25.915096	0.000225	20.708658
1663.447964	-2.997600	3.432600	-10.288000	25.958523	0.000225	20.689223
1664.446191	-3.003500	3.431100	-10.305000	25.962574	0.000224	20.701354
1665.448653	-2.992600	3.431400	-10.267000	25.952810	0.000223	20.691070
1666.452375	-3.018100	3.430700	-10.353000	25.997597	0.000222	20.701927
1667.447226	-2.996800	3.431200	-10.282000	25.980539	0.000224	20.688582
1668.450318	-2.975800	3.430400	-10.207000	25.938915	0.000222	20.689912
1669.451405	-2.969100	3.430100	-10.183000	25.987974	0.000221	20.698897
1670.455262	-3.014100	3.430000	-10.338000	26.006330	0.000223	20.696003
1671.449375	-2.982800	3.430200	-10.230000	25.972847	0.000223	20.690337
1672.449231	-3.027300	3.428100	-10.376000	25.967116	0.000221	20.701176
1673.450879	-2.989400	3.429000	-10.249000	25.952038	0.000222	20.701200
1674.449341	-3.010800	3.427500	-10.319000	25.981354	0.000221	20.705049
1675.455805	-3.013400	3.428800	-10.331000	26.011240	0.000221	20.702832
1676.449916	-3.011500	3.426400	-10.317000	25.995537	0.000220	20.705548
1677.458750	-3.010200	3.426200	-10.313000	26.026789	0.000220	20.694746
1678.458010	-3.001700	3.426900	-10.286000	26.014997	0.000220	20.719884
1679.452908	-3.009400	3.427000	-10.312000	26.034340	0.000221	20.699488
1680.451020	-2.990200	3.426100	-10.242000	25.999024	0.000220	20.706207
1681.451778	-3.013600	3.425700	-10.322000	25.978982	0.000219	20.696027
1682.457617	-2.982900	3.425900	-10.218000	25.942567	0.000219	20.701643
1683.457839	-2.997100	3.426200	-10.268000	26.010731	0.000219	20.705640
1684.453407	-3.005600	3.424900	-10.293000	25.990235	0.000218	20.702592
1685.456469	-2.975100	3.425100	-10.189000	26.016492	0.000218	20.706687
1686.464823	-3.001700	3.424500	-10.277000	26.005264	0.000217	20.715795
1687.452653	-2.997800	3.424300	-10.264000	26.012324	0.000218	20.693015
1688.454296	-3.019000	3.422900	-10.332000	25.962617	0.000217	20.693810
1689.455185	-3.007900	3.423100	-10.295000	25.935543	0.000215	20.706915
1690.459797	-2.985600	3.422600	-10.218000	25.977204	0.000216	20.704199
1691.455055	-2.984600	3.422600	-10.215000	26.030484	0.000216	20.705572
1692.456770	-2.998900	3.422300	-10.262000	25.998613	0.000215	20.709113
1693.460587	-2.995200	3.423200	-10.252000	25.980134	0.000214	20.719471
1694.469293	-3.007500	3.421400	-10.289000	25.938283	0.000215	20.721522
1695.461671	-3.004700	3.422200	-10.281000	25.922683	0.000212	20.710591
1696.458666	-2.986700	3.421900	-10.219000	25.974667	0.000217	20.708762
1697.474896	-2.982700	3.422500	-10.207000	26.021315	0.000214	20.721966
1698.460144	-2.982700	3.420200	-10.200000	26.055674	0.000214	20.709544
1699.460917	-2.975600	3.420200	-10.176000	26.019955	0.000214	20.702105
1700.463210	-3.001300	3.419200	-10.261000	26.026782	0.000213	20.708017
1701.467672	-3.023800	3.418300	-10.335000	25.981200	0.000212	20.706317
1702.463229	-2.964000	3.419800	-10.134000	25.966276	0.000211	20.696538
1703.463033	-2.971100	3.420400	-10.161000	25.961084	0.000213	20.717876
1704.462672	-3.004300	3.416700	-10.263000	25.927372	0.000213	20.702973
1705.463521	-3.013300	3.416900	-10.296000	25.916695	0.000211	20.709316
1706.465827	-2.991300	3.418200	-10.224000	25.948911	0.000211	20.719872
1707.463329	-2.990500	3.416700	-10.217000	25.965828	0.000213	20.714582
1708.463342	-2.992800	3.417600	-10.228000	26.027849	0.000210	20.710037
1709.467762	-2.981500	3.417200	-10.187000	26.048344	0.000210	20.692221
1710.464705	-2.988200	3.416800	-10.209000	26.073502	0.000210	20.710388
1711.465863	-2.983800	3.416600	-10.192000	26.064665	0.000209	20.710517
1712.471857	-2.977300	3.416400	-10.170000	26.096154	0.000211	20.729830
1713.467251	-2.985400	3.417100	-10.200000	26.052842	0.000209	20.708122
1714.468936	-3.000500	3.415600	-10.248000	26.045065	0.000208	20.709316
1715.476377	-2.973000	3.414800	-10.151000	26.055796	0.000209	20.714884
1716.467941	-2.980300	3.414700	-10.176000	26.087169	0.000207	20.717956
1717.466254	-2.981000	3.414900	-10.179000	26.129787	0.000207	20.715733
1718.472621	-2.995800	3.414300	-10.228000	26.144066	0.000207	20.718702
1719.466149	-2.992000	3.412700	-10.210000	26.145285	0.000206	20.720875
1720.467405	-2.988700	3.412600	-10.199000	26.107412	0.000206	20.716485
1721.468865	-2.963700	3.412600	-10.113000	26.135431	0.000206	20.717612
1722.468527	-2.970900	3.413600	-10.141000	26.129468	0.000205	20.716361
1723.474748	-3.000400	3.411200	-10.234000	26.137024	0.000205	20.716842
1724.468117	-3.013800	3.411200	-10.280000	26.126097	0.000206	20.730519
1725.489357	-3.017200	3.411300	-10.292000	26.109649	0.000205	20.707826
1726.471105	-2.984000	3.410700	-10.177000	26.113712	0.000205	20.692941
1727.475563	-3.013200	3.411000	-10.277000	26.109630	0.000205	20.744320
1728.487160	-3.000500	3.411700	-10.236000	26.076309	0.000204	20.722692
1729.471780	-2.981000	3.411500	-10.168000	26.090141	0.000204	20.729004
1730.474215	-2.985100	3.411600	-10.183000	26.067717	0.000203	20.734922
1731.474598	-2.990400	3.409900	-10.196000	26.035700	0.000203	20.713658
1732.486926	-3.010200	3.409900	-10.263000	26.070922	0.000202	20.726763
1733.472856	-2.975000	3.410300	-10.144000	26.051157	0.000203	20.740095
1734.472234	-2.989600	3.409100	-10.191000	26.035430	0.000204	20.716706
1735.473605	-2.998400	3.409600	-10.222000	26.022473	0.000201	20.725026
1736.474010	-2.998100	3.407500	-10.216000	26.009897	0.000202	20.717605
1737.479489	-2.998200	3.407900	-10.216000	26.033205	0.000202	20.714471
1738.475793	-2.993300	3.407500	-10.199000	26.093432	0.000201	20.747010
1739.474738	-2.998100	3.407800	-10.216000	26.076223	0.000201	20.724977
1740.474163	-2.986200	3.406900	-10.173000	26.062409	0.000200	20.732908
1741.490050	-2.988200	3.407800	-10.182000	26.096019	0.000199	20.739177
1742.475522	-2.966800	3.407800	-10.109000	26.072276	0.000200	20.739030
1743.480398	-3.001700	3.405700	-10.222000	26.073416	0.000198	20.752029
1744.484320	-2.996400	3.405700	-10.204000	26.080182	0.000199	20.737490
1745.477273	-2.998500	3.404200	-10.207000	26.104550	0.000197	20.740163
1746.480929	-2.986300	3.404900	-10.167000	26.111800	0.000199	20.728955
1747.480661	-2.991000	3.405300	-10.184000	26.071620	0.000197	20.739793
1748.482358	-2.981600	3.405400	-10.152000	26.092201	0.000199	20.744824
1749.478490	-2.990700	3.404200	-10.180000	26.063543	0.000196	20.740686
1750.478920	-3.001900	3.403500	-10.216000	26.059394	0.000197	20.736043
1751.477818	-2.990400	3.403100	-10.176000	26.104721	0.000198	20.746973
1752.478209	-2.999600	3.402400	-10.205000	26.092127	0.000196	20.734319
1753.477251	-2.997100	3.402300	-10.195000	26.136417	0.000198	20.752269
1754.490640	-2.999300	3.401900	-10.202000	26.165851	0.000195	20.751025
1755.485162	-3.020700	3.400500	-10.271000	26.127255	0.000195	20.751124
1756.481086	-2.988300	3.402500	-10.167000	26.122984	0.000194	20.745409
1757.483968	-2.988500	3.401500	-10.164000	26.064395	0.000193	20.746284
1758.480018	-3.012000	3.400600	-10.240000	26.067594	0.000196	20.745231
1759.481500	-2.998000	3.401200	-10.195000	26.043876	0.000193	20.725666
1760.485045	-2.993800	3.401900	-10.183000	26.077657	0.000194	20.746807
1761.483024	-3.003900	3.399500	-10.211000	26.034039	0.000194	20.748501
1762.480422	-2.997400	3.399500	-10.188000	26.073735	0.000192	20.727218
1763.482803	-2.996300	3.399700	-10.185000	26.105941	0.000194	20.750096
1764.487581	-3.003400	3.399200	-10.208000	26.115501	0.000193	20.765866
1765.488974	-3.010200	3.398300	-10.229000	26.093898	0.000194	20.748901
1766.481826	-3.027300	3.397300	-10.283000	26.118835	0.000193	20.739344
1767.483538	-3.001500	3.397300	-10.196000	26.125889	0.000192	20.775830
1768.485908	-3.005100	3.397700	-10.210000	26.146602	0.000191	20.732631
1769.483724	-3.015900	3.398200	-10.247000	26.111560	0.000193	20.756691
1770.484405	-3.014400	3.396400	-10.237000	26.131233	0.000191	20.764604
1771.489589	-3.003400	3.397900	-10.203000	26.143716	0.000190	20.755810
1772.482222	-3.015900	3.395700	-10.240000	26.133610	0.000189	20.762252
1773.489344	-2.979000	3.397000	-10.119000	26.115507	0.000187	20.758286
1774.490231	-2.981800	3.396400	-10.126000	26.095767	0.000188	20.762159
1775.488074	-3.007600	3.395100	-10.209000	26.095191	0.000189	20.762529
1776.484176	-3.003700	3.394900	-10.197000	26.082854	0.000189	20.771944
1777.483192	-2.989400	3.395300	-10.149000	26.090533	0.000187	20.761642
1778.485145	-2.982600	3.393700	-10.120000	26.113424	0.000191	20.741019
1779.483486	-3.006600	3.394200	-10.204000	26.110200	0.000189	20.759117
1780.484813	-2.984100	3.395100	-10.130000	26.128463	0.000188	20.763243
1781.498305	-2.998900	3.393900	-10.177000	26.133482	0.000188	20.747897
1782.489963	-2.996200	3.393700	-10.167000	26.173763	0.000186	20.764665
1783.488025	-3.000500	3.393800	-10.182000	26.186632	0.000187	20.759579
1784.487643	-2.962800	3.393300	-10.053000	26.165894	0.000187	20.764819
1785.487059	-3.002700	3.391500	-10.182000	26.122285	0.000185	20.763200
1786.488544	-2.995600	3.391800	-10.160000	26.068391	0.000187	20.756463
1787.498637	-2.990300	3.391900	-10.141000	26.109777	0.000185	20.768650
1788.485199	-3.002700	3.391700	-10.183000	26.142282	0.000184	20.765275
1789.487265	-2.958400	3.392000	-10.033000	26.146229	0.000187	20.759758
1790.489202	-2.984500	3.391400	-10.121000	26.126710	0.000186	20.761956
1791.487150	-2.988800	3.390600	-10.133000	26.141737	0.000184	20.759985
1792.500293	-3.000200	3.390200	-10.170000	26.130117	0.000184	20.765380
1793.484880	-3.005200	3.389200	-10.184000	26.150727	0.000184	20.742466
1794.486454	-2.975700	3.389900	-10.087000	26.153509	0.000182	20.756167
1795.486777	-2.981200	3.389900	-10.105000	26.143005	0.000182	20.787339
1796.484216	-2.985900	3.388500	-10.117000	26.197546	0.000184	20.751580
1797.485829	-2.997600	3.388400	-10.156000	26.188176	0.000182	20.774407
1798.486966	-2.979300	3.387700	-10.092000	26.178794	0.000184	20.776834
1799.485723	-2.983100	3.388600	-10.107000	26.181674	0.000182	20.783521
1800.493971	-2.993700	3.387000	-10.138000	26.231960	0.000180	20.770041
1801.489403	-3.002200	3.387500	-10.169000	26.255803	0.000179	20.765552
1802.488592	-2.991800	3.386300	-10.130000	26.254877	0.000181	20.768416
1803.489421	-3.004400	3.386100	-10.173000	26.241145	0.000180	20.788281
1804.488719	-3.000900	3.385900	-10.160000	26.253787	0.000180	20.787234
1805.495078	-2.994700	3.385500	-10.137000	26.218693	0.000179	20.765244
1806.492160	-3.001600	3.386400	-10.164000	26.170509	0.000180	20.776095
1807.493117	-3.009200	3.386100	-10.188000	26.203588	0.000182	20.788472
1808.501274	-3.008600	3.384000	-10.180000	26.188611	0.000180	20.785276
1809.499608	-2.973200	3.385100	-10.063000	26.137147	0.000180	20.773866
1810.492661	-3.010200	3.383200	-10.183000	26.098255	0.000180	20.779833
1811.503303	-2.987600	3.383300	-10.107000	26.146210	0.000179	20.783921
1812.495237	-2.982800	3.383900	-10.092000	26.180577	0.000177	20.785738
1813.497092	-2.998800	3.382200	-10.142000	26.224999	0.000178	20.791022
1814.501379	-2.998700	3.382800	-10.144000	26.231041	0.000177	20.792826
1815.495372	-2.983100	3.382700	-10.090000	26.251170	0.000177	20.784605
1816.498827	-3.002100	3.382800	-10.155000	26.231304	0.000176	20.781711
1817.502783	-2.999400	3.381800	-10.143000	26.225765	0.000177	20.790843
1818.500189	-2.996100	3.382200	-10.132000	26.244761	0.000176	20.799501
1819.496691	-3.010000	3.381500	-10.177000	26.271281	0.000177	20.792013
1820.506972	-3.008900	3.381800	-10.175000	26.255564	0.000175	20.796607
1821.497776	-3.009400	3.381300	-10.175000	26.288781	0.000177	20.812919
1822.498581	-3.008000	3.381100	-10.169000	26.283843	0.000174	20.797998
1823.499030	-2.995700	3.381600	-10.129000	26.299357	0.000175	20.772338
1824.500358	-2.994500	3.378900	-10.117000	26.270307	0.000172	20.792456
1825.502203	-3.018400	3.380300	-10.202000	26.271324	0.000173	20.820979
1826.500798	-3.001900	3.379100	-10.143000	26.297691	0.000173	20.812389
1827.505646	-3.024100	3.379000	-10.218000	26.254118	0.000172	20.807007
1828.501487	-3.003000	3.378700	-10.145000	26.277458	0.000172	20.797272
1829.501495	-2.977200	3.379100	-10.059000	26.293242	0.000171	20.785634
1830.501839	-3.000900	3.378700	-10.138000	26.316342	0.000173	20.799365
1831.502612	-2.993200	3.376800	-10.106000	26.334166	0.000173	20.805425
1832.507068	-2.972400	3.377900	-10.039000	26.282574	0.000172	20.805258
1833.503030	-3.025900	3.377000	-10.218000	26.276508	0.000170	20.820973
1834.505324	-3.026100	3.376200	-10.216000	26.300074	0.000170	20.814785
1835.506192	-3.011000	3.376400	-10.166000	26.339019	0.000170	20.801293
1836.504330	-3.002500	3.375900	-10.135000	26.357192	0.000169	20.807229
1837.503762	-2.979700	3.376400	-10.059000	26.356004	0.000170	20.784697
1838.509903	-2.993800	3.376500	-10.108000	26.310436	0.000167	20.808602
1839.506254	-2.967400	3.376000	-10.017000	26.288861	0.000170	20.812525
1840.506581	-3.002100	3.376400	-10.135000	26.270356	0.000169	20.812420
1841.511094	-3.016300	3.374700	-10.178000	26.220513	0.000168	20.802161
1842.506563	-3.006100	3.374200	-10.142000	26.265889	0.000168	20.820733
1843.509445	-2.991000	3.373900	-10.089000	26.284437	0.000168	20.818510
1844.506190	-2.988800	3.374100	-10.084000	26.313493	0.000168	20.804088
1845.528774	-2.986300	3.374900	-10.078000	26.246967	0.000169	20.818313
1846.514046	-2.989700	3.372200	-10.081000	26.266109	0.000167	20.826170
1847.507575	-2.976400	3.374100	-10.042000	26.262439	0.000166	20.823904
1848.507294	-2.984700	3.372400	-10.064000	26.285889	0.000164	20.832771
1849.509192	-2.992900	3.372500	-10.093000	26.239074	0.000164	20.830296
1850.514543	-3.006600	3.371700	-10.136000	26.252310	0.000165	20.817993
1851.510794	-3.022000	3.371600	-10.188000	26.258946	0.000165	20.818023
1852.509696	-3.012900	3.370800	-10.155000	26.294982	0.000165	20.816305
1853.511155	-2.973900	3.371300	-10.025000	26.293316	0.000167	20.828855
1854.510878	-3.003300	3.371000	-10.123000	26.314927	0.000164	20.818331
1855.511191	-2.992700	3.370600	-10.087000	26.347781	0.000164	20.816736
1856.515324	-3.013000	3.369500	-10.151000	26.327396	0.000165	20.820905
1857.510481	-2.978800	3.370600	-10.039000	26.323327	0.000164	20.811601
1858.513999	-3.002000	3.368500	-10.111000	26.308505	0.000163	20.825628
1859.512275	-2.980600	3.369200	-10.041000	26.265049	0.000162	20.837907
1860.513674	-2.994900	3.368100	-10.087000	26.239448	0.000163	20.845844
1861.515646	-3.012200	3.368000	-10.144000	26.267439	0.000163	20.825136
1862.514489	-2.980100	3.368300	-10.037000	26.273897	0.000163	20.831626
1863.512913	-3.001200	3.368200	-10.108000	26.272261	0.000163	20.840413
1864.513299	-3.028900	3.367100	-10.198000	26.266600	0.000163	20.843732
1865.514112	-3.004900	3.366300	-10.114000	26.288524	0.000161	20.844902
1866.515656	-2.987200	3.366300	-10.055000	26.321777	0.000160	20.822845
1867.514044	-2.983700	3.367200	-10.045000	26.382019	0.000159	20.837395
1868.517154	-2.978600	3.367000	-10.028000	26.362014	0.000159	20.828670
1869.524830	-2.994900	3.366900	-10.082000	26.361236	0.000160	20.838793
1870.514222	-2.996700	3.365900	-10.086000	26.365163	0.000158	20.835628
1871.515524	-2.988600	3.366500	-10.060000	26.317280	0.000160	20.836817
1872.519859	-3.005700	3.364600	-10.113000	26.322727	0.000158	20.856041
1873.516743	-3.041300	3.364000	-10.230000	26.280760	0.000157	20.827143
1874.517146	-3.006400	3.364000	-10.113000	26.256225	0.000159	20.823350
1875.518857	-3.009700	3.364600	-10.126000	26.245949	0.000158	20.831515
1876.519242	-3.009800	3.363900	-10.124000	26.258419	0.000157	20.850683
1877.522606	-2.979900	3.363700	-10.022000	26.269786	0.000156	20.830813
1878.518877	-3.010700	3.362600	-10.123000	26.324093	0.000157	20.848405
1879.516800	-3.025200	3.362000	-10.170000	26.364544	0.000156	20.825523
1880.519671	-2.979900	3.363900	-10.023000	26.418332	0.000157	20.832642
1881.519288	-2.989200	3.362400	-10.050000	26.407084	0.000156	20.847888
1882.522009	-2.992000	3.362700	-10.060000	26.393825	0.000156	20.841201
1883.520401	-2.993200	3.361500	-10.060000	26.404853	0.000154	20.837586
1884.521187	-2.964900	3.360900	-9.964100	26.433680	0.000155	20.841429
1885.520214	-3.009600	3.359600	-10.110000	26.438618	0.000155	20.837383
1886.520649	-2.999800	3.360400	-10.080000	26.487979	0.000152	20.857598
1887.523945	-2.989600	3.359800	-10.044000	26.520919	0.000155	20.831441
1888.523501	-2.989100	3.359800	-10.041000	26.431247	0.000153	20.825708
1889.523939	-2.989600	3.361200	-10.047000	26.380989	0.000154	20.824507
1890.518919	-2.983500	3.358300	-10.018000	26.379176	0.000152	20.819840
1891.525885	-2.997600	3.359100	-10.068000	26.408873	0.000152	20.834988
1892.519575	-2.996100	3.359100	-10.063000	26.420097	0.000154	20.823036
1893.524154	-2.998700	3.358700	-10.070000	26.385658	0.000152	20.839631
1894.520381	-2.993700	3.356900	-10.049000	26.384065	0.000152	20.802943
1895.522225	-2.996100	3.356900	-10.057000	26.375420	0.000151	20.841195
1896.526169	-3.004300	3.356900	-10.084000	26.386124	0.000152	20.825400
1897.525581	-2.990000	3.356700	-10.036000	26.404523	0.000151	20.846262
1898.527925	-2.994000	3.356400	-10.049000	26.465280	0.000149	20.826724
1899.521640	-3.000000	3.356200	-10.068000	26.458382	0.000149	20.837334
1900.531930	-3.007300	3.356100	-10.091000	26.492340	0.000148	20.826897
1901.522978	-3.004700	3.354900	-10.080000	26.476075	0.000149	20.824298
1902.522754	-2.991500	3.356400	-10.041000	26.512925	0.000149	20.807284
1903.525856	-3.004400	3.355900	-10.081000	26.525440	0.000147	20.818442
1904.526889	-2.993900	3.356600	-10.049000	26.550563	0.000148	20.810979
1905.523794	-2.985600	3.354500	-10.014000	26.583484	0.000149	20.820363
1906.529913	-2.988600	3.353600	-10.021000	26.556273	0.000148	20.811028
1907.527842	-2.984900	3.355000	-10.014000	26.561915	0.000147	20.829975
1908.526618	-2.995600	3.354200	-10.047000	26.527327	0.000147	20.829347
1909.528475	-2.983000	3.353200	-10.001000	26.517801	0.000145	20.812186
1910.527475	-3.004200	3.353700	-10.074000	26.521379	0.000148	20.818153
1911.527761	-3.007100	3.352200	-10.080000	26.470531	0.000145	20.815406
1912.527073	-3.001200	3.352200	-10.059000	26.468472	0.000144	20.810018
1913.525940	-3.005900	3.350900	-10.071000	26.491293	0.000144	20.824421
1914.528234	-3.010200	3.351000	-10.087000	26.485363	0.000143	20.808029
1915.527350	-3.012000	3.351600	-10.094000	26.452341	0.000144	20.836952
1916.526541	-3.025300	3.349900	-10.133000	26.451698	0.000144	20.799322
1917.527125	-2.998500	3.351600	-10.050000	26.449762	0.000142	20.809230
1918.528990	-3.001600	3.350600	-10.056000	26.469704	0.000143	20.805092
1919.526833	-2.996000	3.350800	-10.038000	26.450638	0.000143	20.802050
1920.531123	-2.995200	3.350000	-10.033000	26.466261	0.000143	20.794045
1921.534231	-2.993900	3.348900	-10.025000	26.509065	0.000143	20.801508
1922.527419	-2.984600	3.350300	-9.998200	26.552217	0.000143	20.795098
1923.529245	-3.012000	3.347900	-10.083000	26.525606	0.000142	20.789211
1924.528936	-2.971900	3.349800	-9.953700	26.553614	0.000143	20.800295
1925.529787	-2.996900	3.348900	-10.035000	26.559648	0.000141	20.807783
1926.527172	-2.990700	3.348900	-10.014000	26.519388	0.000140	20.802875
1927.536811	-2.993500	3.349000	-10.025000	26.494338	0.000140	20.776748
1928.527994	-2.984700	3.348300	-9.992900	26.497193	0.000139	20.788626
1929.528463	-3.006100	3.346500	-10.059000	26.491887	0.000139	20.797044
1930.531273	-2.991100	3.346300	-10.008000	26.478648	0.000140	20.792272
1931.531772	-2.994400	3.346700	-10.020000	26.435800	0.000137	20.794248
1932.528360	-2.987200	3.346400	-9.995700	26.458278	0.000138	20.786970
1933.530179	-2.976800	3.346400	-9.960600	26.513764	0.000137	20.788214
1934.534742	-3.006000	3.345200	-10.055000	26.554460	0.000138	20.790714
1935.530397	-2.983900	3.346000	-9.983300	26.556120	0.000137	20.785270
1936.533386	-2.978200	3.345500	-9.962500	26.576384	0.000137	20.786674
1937.539152	-3.016700	3.344100	-10.087000	26.554962	0.000137	20.789322
1938.530147	-2.986700	3.344000	-9.986500	26.535978	0.000135	20.791576
1939.530437	-2.986100	3.343900	-9.984400	26.594412	0.000138	20.786305
1940.544468	-2.988200	3.342800	-9.988000	26.579049	0.000138	20.792672
1941.531385	-3.009100	3.343100	-10.059000	26.575079	0.000136	20.786311
1942.531854	-2.979200	3.342300	-9.956300	26.616716	0.000135	20.767948
1943.531576	-3.005800	3.341000	-10.041000	26.602884	0.000135	20.784390
1944.531991	-2.988700	3.342300	-9.987900	26.615105	0.000135	20.776286
1945.532750	-3.008900	3.342200	-10.055000	26.591926	0.000136	20.761519
1946.535556	-3.000500	3.342200	-10.027000	26.567269	0.000135	20.779408
1947.534490	-3.013500	3.340800	-10.066000	26.604587	0.000134	20.783257
1948.536050	-3.005300	3.341000	-10.039000	26.586841	0.000133	20.777746
1949.533402	-2.994100	3.341600	-10.003000	26.523879	0.000134	20.788423
1950.538113	-2.991800	3.340900	-9.994400	26.526041	0.000132	20.761673
1951.535704	-3.020200	3.339000	-10.084000	26.483636	0.000133	20.768361
1952.537404	-3.006700	3.340800	-10.044000	26.537117	0.000132	20.760953
1953.537630	-3.011400	3.338400	-10.053000	26.557995	0.000132	20.781465
1954.536283	-2.993000	3.340000	-9.996100	26.554203	0.000132	20.770067
1955.535625	-3.001600	3.339300	-10.023000	26.590020	0.000133	20.788528
1956.536590	-3.010100	3.340000	-10.054000	26.664850	0.000130	20.770818
1957.537467	-3.008500	3.338100	-10.041000	26.708014	0.000131	20.777229
1958.540707	-2.999500	3.338000	-10.012000	26.682999	0.000131	20.774365
1959.536880	-3.001300	3.338600	-10.019000	26.690172	0.000131	20.775886
1960.537425	-3.008100	3.338000	-10.040000	26.707549	0.000130	20.768700
1961.541727	-3.002400	3.337600	-10.020000	26.685902	0.000129	20.779181
1962.537921	-3.001200	3.335300	-10.009000	26.675104	0.000128	20.788713
1963.542582	-2.999300	3.335700	-10.003000	26.663833	0.000128	20.771218
1964.539085	-3.009200	3.336100	-10.038000	26.637592	0.000129	20.765701
1965.539476	-2.993100	3.334900	-9.980500	26.646933	0.000127	20.782678
1966.538663	-2.991600	3.335200	-9.976600	26.699537	0.000124	20.781034
1967.548168	-2.989800	3.335300	-9.970800	26.696162	0.000126	20.774796
1968.540198	-2.982600	3.333700	-9.942000	26.695421	0.000125	20.769310
1969.539089	-3.015000	3.332700	-10.047000	26.639166	0.000127	20.772499
1970.545200	-2.996500	3.333800	-9.988900	26.601121	0.000125	20.767444
1971.540050	-3.022500	3.333000	-10.072000	26.635822	0.000123	20.775301
1972.541427	-3.003100	3.333200	-10.009000	26.656158	0.000124	20.777254
1973.540967	-3.023300	3.333200	-10.077000	26.606481	0.000124	20.766668
1974.542765	-2.980300	3.334200	-9.935800	26.565898	0.000124	20.760011
1975.547523	-3.006300	3.331600	-10.014000	26.582057	0.000124	20.763928
1976.542181	-2.968800	3.333000	-9.894200	26.539979	0.000123	20.759088
1977.559447	-3.005200	3.333300	-10.017000	26.549590	0.000123	20.767801
1978.544424	-3.008700	3.331300	-10.022000	26.517913	0.000122	20.766779
1979.545837	-3.004000	3.330900	-10.005000	26.547452	0.000120	20.772764
1980.542953	-3.032500	3.330500	-10.098000	26.603314	0.000120	20.762062
1981.546446	-3.008400	3.330200	-10.018000	26.571037	0.000121	20.762333
1982.543628	-3.002800	3.330700	-10.001000	26.565156	0.000121	20.766379
1983.542910	-2.999600	3.329500	-9.986100	26.567343	0.000120	20.754826
1984.545024	-3.002200	3.329800	-9.995900	26.563123	0.000119	20.756273
1985.546945	-2.981900	3.329000	-9.926400	26.597831	0.000120	20.750861
1986.543638	-2.997500	3.328900	-9.977800	26.658480	0.000120	20.760621
1987.544377	-2.992600	3.329200	-9.962600	26.649917	0.000119	20.788049
1988.547099	-3.012400	3.328000	-10.024000	26.617446	0.000119	20.744499
1989.543765	-2.994500	3.327500	-9.962500	26.605305	0.000118	20.781607
1990.545465	-3.021400	3.325800	-10.047000	26.600545	0.000118	20.753115
1991.551619	-3.033400	3.326400	-10.089000	26.609060	0.000117	20.776373
1992.544926	-3.022700	3.326000	-10.053000	26.611516	0.000117	20.768411
1993.543762	-3.002900	3.326500	-9.989000	26.591038	0.000118	20.744031
1994.547313	-3.036800	3.326400	-10.100000	26.597942	0.000116	20.768042
1995.542749	-3.005400	3.326200	-9.995400	26.634218	0.000116	20.758989
1996.544626	-2.988300	3.325200	-9.936300	26.640000	0.000116	20.753423
1997.551728	-2.997400	3.324500	-9.963500	26.623051	0.000117	20.756299
1998.547859	-3.018300	3.324300	-10.033000	26.625330	0.000115	20.768073
1999.545821	-2.997600	3.324700	-9.964300	26.707452	0.000116	20.752481
2000.546382	-3.017500	3.324500	-10.031000	26.666321	0.000115	20.751908
2001.551517	-2.989000	3.324400	-9.936000	26.672875	0.000115	20.739530
2002.547129	-2.978600	3.323800	-9.899500	26.743056	0.000114	20.738015
2003.548697	-2.996200	3.322300	-9.953100	26.759661	0.000113	20.768935
2004.548016	-2.995300	3.322300	-9.949800	26.771224	0.000114	20.749740
2005.547625	-3.016500	3.322800	-10.022000	26.746382	0.000114	20.725711
2006.551991	-3.026100	3.322100	-10.052000	26.721484	0.000113	20.758528
2007.551221	-3.002200	3.321500	-9.971500	26.706864	0.000112	20.746199
2008.548473	-2.985100	3.322700	-9.917400	26.666652	0.000113	20.749870
2009.550011	-3.012400	3.321100	-10.003000	26.669482	0.000112	20.721893
2010.554680	-3.039700	3.319200	-10.089000	26.720774	0.000111	20.745011
2011.550904	-2.995500	3.322000	-9.950400	26.738273	0.000113	20.761656
2012.551890	-2.992300	3.321300	-9.937300	26.750112	0.000109	20.728513
2013.551822	-3.009700	3.319800	-9.990800	26.764530	0.000110	20.752019
2014.552492	-2.996600	3.318900	-9.944900	26.740876	0.000111	20.725865
2015.553760	-3.019400	3.318200	-10.018000	26.763188	0.000107	20.739290
2016.550591	-2.997300	3.319000	-9.946800	26.787491	0.000110	20.746181
2017.554877	-2.985800	3.318900	-9.908000	26.830399	0.000109	20.752339
2018.551887	-2.997100	3.318500	-9.945100	26.871279	0.000108	20.748398
2019.552139	-3.011800	3.318400	-9.993700	26.818285	0.000107	20.750590
2020.551777	-2.997900	3.317100	-9.943500	26.762888	0.000107	20.754636
2021.552209	-2.977300	3.318000	-9.877700	26.705620	0.000107	20.765339
2022.551954	-3.023000	3.315700	-10.023000	26.673653	0.000105	20.728932
2023.553265	-3.016300	3.315700	-10.000000	26.710808	0.000109	20.753484
2024.554963	-3.010800	3.316700	-9.985600	26.747221	0.000105	20.737935
2025.553200	-2.981500	3.315900	-9.885500	26.800138	0.000106	20.728550
2026.554153	-2.989300	3.314700	-9.907800	26.835115	0.000107	20.735269
2027.568892	-3.026000	3.314400	-10.029000	26.833002	0.000106	20.741205
2028.556266	-2.986900	3.315400	-9.902500	26.874297	0.000106	20.756175
2029.557568	-3.028100	3.313400	-10.033000	26.877825	0.000106	20.742652
2030.553599	-3.004700	3.314500	-9.957600	26.847449	0.000107	20.751465
2031.558526	-3.009100	3.313200	-9.969000	26.834092	0.000105	20.741827
2032.555802	-2.993100	3.313900	-9.917400	26.812008	0.000105	20.731001
2033.557792	-2.998000	3.313100	-9.931400	26.781225	0.000104	20.746520
2034.555822	-2.996700	3.311200	-9.921600	26.835213	0.000103	20.745799
2035.558057	-3.001200	3.311900	-9.938800	26.753156	0.000105	20.721616
2036.558548	-2.986500	3.313900	-9.895300	26.768811	0.000102	20.735459
2037.557365	-2.988900	3.312200	-9.898800	26.784870	0.000100	20.744968
2038.557555	-3.008500	3.311300	-9.961600	26.770128	0.000102	20.753854
2039.557823	-3.017700	3.311000	-9.990800	26.772210	0.000101	20.717065
2040.567507	-3.024400	3.312100	-10.017000	26.772632	0.000102	20.744992
2041.556849	-3.003500	3.311200	-9.944400	26.738493	0.000102	20.737695
2042.558934	-3.014100	3.310200	-9.975500	26.756194	0.000101	20.736051
2043.556490	-3.035000	3.308800	-10.041000	26.751974	9.965081E-5	20.724695
2044.558901	-3.001100	3.310100	-9.933300	26.691306	0.000102	20.733877
2045.557225	-2.988500	3.308900	-9.886800	26.732233	9.770366E-5	20.738988
2046.557074	-3.023500	3.309200	-10.004000	26.771027	9.776967E-5	20.726308
2047.559319	-2.989700	3.308300	-9.890100	26.769484	9.753865E-5	20.744672
2048.557590	-2.980100	3.307600	-9.856400	26.797308	9.836371E-5	20.708634
2049.568245	-2.989400	3.307400	-9.886400	26.787797	9.740664E-5	20.713770
2050.560122	-2.995800	3.308400	-9.909600	26.852574	9.730764E-5	20.733858
2051.558032	-3.006700	3.306600	-9.940500	26.883452	9.701061E-5	20.737405
2052.560039	-2.985100	3.308500	-9.874800	26.871982	9.572352E-5	20.734880
2053.563765	-3.029500	3.305400	-10.013000	26.885541	9.638357E-5	20.720064
2054.558799	-2.980300	3.305400	-9.850300	26.852623	9.585553E-5	20.714940
2055.559235	-3.001100	3.305100	-9.918800	26.841257	9.450243E-5	20.744290
2056.558263	-3.001400	3.305000	-9.918900	26.786137	9.473345E-5	20.732491
2057.566981	-2.992800	3.305700	-9.892000	26.780667	9.400739E-5	20.724146
2058.561532	-3.004600	3.304500	-9.928000	26.753657	9.410640E-5	20.737768
2059.559096	-3.016300	3.304900	-9.967300	26.752671	9.483245E-5	20.706903
2060.561642	-2.991300	3.303900	-9.882200	26.758986	9.572352E-5	20.706140
2061.559228	-3.008500	3.304400	-9.939200	26.755152	9.473345E-5	20.731684
2062.564838	-3.003300	3.302300	-9.916700	26.730757	9.367737E-5	20.716165
2063.558671	-3.011200	3.302600	-9.943700	26.744305	9.047614E-5	20.733106
2064.557710	-2.997600	3.303100	-9.898800	26.808222	9.176323E-5	20.717711
2065.560997	-3.007800	3.301400	-9.928100	26.857560	9.374338E-5	20.723223
2066.558724	-3.006700	3.302800	-9.929700	26.922437	9.328134E-5	20.722551
2067.560063	-2.990700	3.301300	-9.871600	26.946045	9.311633E-5	20.714047
2068.560225	-3.009700	3.300300	-9.932000	26.924232	9.011311E-5	20.712501
2069.561442	-2.992100	3.301300	-9.876500	26.935475	9.225827E-5	20.718118
2070.559205	-2.980200	3.299800	-9.833300	26.960662	9.209325E-5	20.714047
2071.561029	-3.004600	3.300900	-9.916700	26.988554	9.001410E-5	20.696102
2072.560010	-2.963900	3.300500	-9.781600	26.994911	8.866100E-5	20.721461
2073.559475	-2.997400	3.299700	-9.889700	26.988358	8.968408E-5	20.696853
2074.562161	-2.986000	3.300100	-9.852600	26.955977	8.899103E-5	20.717397
2075.559821	-3.000900	3.297600	-9.894800	26.910435	8.803396E-5	20.704791
2076.562846	-2.983300	3.299000	-9.841300	26.931850	8.635083E-5	20.722533
2077.560708	-2.976100	3.297700	-9.813800	26.972480	8.859500E-5	20.713604
2078.561982	-3.015600	3.298300	-9.945800	26.985958	8.730790E-5	20.711510
2079.565022	-3.017400	3.296800	-9.945900	26.990000	8.770393E-5	20.705142
2080.561558	-3.009100	3.296600	-9.918500	26.989063	8.697788E-5	20.735022
2081.565549	-3.022100	3.297000	-9.962000	27.027995	8.819897E-5	20.716326
2082.563998	-3.003800	3.297100	-9.902600	27.033879	8.582280E-5	20.719873
2083.564770	-2.993900	3.296200	-9.867600	27.036831	8.648284E-5	20.702925
2084.566148	-2.985600	3.296100	-9.839500	27.090677	8.598781E-5	20.693540
2085.565834	-2.984100	3.295700	-9.834000	27.001444	8.493173E-5	20.701004
2086.566184	-2.988100	3.294000	-9.842200	27.002565	8.400766E-5	20.703553
2087.566634	-2.966000	3.295100	-9.773200	26.996674	8.384265E-5	20.703793
2088.565488	-3.001000	3.294700	-9.886700	26.974936	8.417268E-5	20.706115
2089.565217	-2.987000	3.294400	-9.838700	27.018069	8.179650E-5	20.705869
2090.565319	-2.990900	3.293300	-9.849300	27.037547	8.298459E-5	20.710758
2091.566036	-2.980800	3.294400	-9.819500	27.095146	8.473372E-5	20.704674
2092.575175	-3.010000	3.291000	-9.904400	27.096487	7.915631E-5	20.713136
2093.567428	-2.997400	3.291500	-9.864300	26.999362	8.163149E-5	20.697962
2094.567317	-2.965100	3.294100	-9.766500	26.982609	8.206052E-5	20.695338
2095.575718	-2.979800	3.290700	-9.804400	27.027977	8.093844E-5	20.700185
2096.571574	-3.004700	3.291700	-9.888500	27.032091	8.318260E-5	20.710962
2097.579661	-3.019900	3.289800	-9.933700	27.009184	8.166449E-5	20.692191
2098.578275	-3.023500	3.289800	-9.945500	26.951740	7.859527E-5	20.694168
2099.567467	-3.009200	3.290200	-9.899600	26.901366	8.080643E-5	20.694722
2100.568185	-2.993700	3.289000	-9.845100	26.891003	8.143348E-5	20.690467
2101.572558	-2.994300	3.289900	-9.850200	26.887954	8.024539E-5	20.700203
2102.574965	-2.997200	3.289000	-9.856600	26.874677	7.793522E-5	20.682110
2103.569325	-2.969300	3.288300	-9.762900	26.930001	8.060842E-5	20.701232
2104.568938	-3.002000	3.289000	-9.871400	26.990324	7.833125E-5	20.708314
2105.567659	-3.002200	3.287500	-9.869000	27.045073	8.004737E-5	20.690824
2106.572260	-2.995100	3.288100	-9.847300	27.070802	8.093844E-5	20.699630
2107.568748	-2.987800	3.286700	-9.819800	27.086238	7.793522E-5	20.695240
2108.571987	-2.977600	3.286400	-9.784300	27.128472	7.678014E-5	20.685559
2109.594100	-3.012300	3.286000	-9.896900	27.107820	7.760520E-5	20.689444
2110.567381	-2.993600	3.287100	-9.839000	27.078841	7.671413E-5	20.685429
2111.571005	-3.013900	3.286300	-9.904500	27.042856	7.592207E-5	20.687646
2112.581542	-2.983200	3.286600	-9.803700	27.082729	7.605408E-5	20.683175
2113.570414	-3.007200	3.285400	-9.878400	27.068909	7.770420E-5	20.721911
2114.577872	-3.001100	3.283500	-9.853100	27.021535	7.793522E-5	20.696551
2115.580903	-3.026600	3.283700	-9.936800	27.052879	7.394193E-5	20.683976
2116.569954	-2.987300	3.284400	-9.810400	27.073024	7.595507E-5	20.695227
2117.569513	-2.984200	3.284300	-9.800700	27.122276	7.493200E-5	20.708252
2118.570313	-2.986100	3.283900	-9.804700	27.133615	7.536103E-5	20.706854
2119.574602	-3.015500	3.283700	-9.901100	27.147158	7.400793E-5	20.669263
2120.580140	-3.004100	3.282900	-9.861300	27.154866	7.305086E-5	20.717323
2121.572169	-3.000300	3.282100	-9.846300	27.183905	7.503101E-5	20.693897
2122.591138	-3.007600	3.281000	-9.865500	27.200539	7.357890E-5	20.700671
2123.585228	-3.027900	3.280000	-9.930500	27.203025	7.331488E-5	20.683255
2124.578336	-3.006900	3.281700	-9.866200	27.203741	7.341389E-5	20.706262
2125.574744	-3.002700	3.280700	-9.850200	27.231352	7.334788E-5	20.697050
2126.576780	-3.004900	3.280300	-9.856300	27.215593	7.288585E-5	20.707753
2127.574925	-2.993000	3.280700	-9.818500	27.223754	7.202779E-5	20.689407
2128.585477	-3.008800	3.280100	-9.868500	27.230152	7.275384E-5	20.692049
2129.580714	-3.007500	3.279200	-9.861600	27.258135	7.328188E-5	20.678469
2130.578835	-3.014000	3.278100	-9.880000	27.284128	7.341389E-5	20.702247
2131.575387	-2.996000	3.279000	-9.822700	27.287826	7.169776E-5	20.698854
2132.575672	-2.995300	3.277400	-9.816500	27.314425	6.948660E-5	20.704747
2133.579061	-3.004900	3.277700	-9.848000	27.282463	7.262183E-5	20.710056
2134.576860	-2.993800	3.277300	-9.810900	27.324978	7.126873E-5	20.718683
2135.578259	-2.984600	3.277400	-9.781300	27.313071	6.984963E-5	20.686315
2136.578410	-3.026600	3.276600	-9.916200	27.289699	6.889256E-5	20.703583
2137.578838	-3.006400	3.276100	-9.848000	27.229906	6.968462E-5	20.707451
2138.578910	-3.007800	3.275600	-9.850900	27.214742	6.664839E-5	20.704525
2139.579247	-2.994900	3.276200	-9.810600	27.236971	6.932159E-5	20.699383
2140.593822	-3.002500	3.275300	-9.832500	27.274529	6.955261E-5	20.694961
2141.580648	-2.989200	3.275000	-9.788600	27.275772	6.862854E-5	20.713282
2142.582762	-2.977500	3.274600	-9.749100	27.294621	6.740745E-5	20.704741
2143.578001	-3.010900	3.274000	-9.856900	27.282787	6.720943E-5	20.690466
2144.578346	-2.981400	3.272200	-9.754500	27.333223	6.697842E-5	20.709433
2145.578968	-2.987200	3.273000	-9.776500	27.373441	6.707742E-5	20.696310
2146.587251	-2.993000	3.273300	-9.796500	27.351257	6.602135E-5	20.706237
2147.588037	-2.991200	3.272000	-9.787100	27.331289	6.711043E-5	20.699900
2148.577966	-2.983500	3.271500	-9.759900	27.293005	6.707742E-5	20.734885
2149.582209	-3.028000	3.271300	-9.904400	27.283577	6.526229E-5	20.705012
2150.578410	-3.009700	3.269700	-9.840100	27.307519	6.734144E-5	20.700171
2151.582622	-2.981300	3.271500	-9.752000	27.301385	6.348016E-5	20.699691
2152.580871	-3.004600	3.268900	-9.821100	27.281238	6.483326E-5	20.714040
2153.579981	-3.001100	3.270700	-9.815000	27.247403	6.364517E-5	20.725051
2154.592314	-3.001800	3.270000	-9.814900	27.220037	6.173103E-5	20.710326
2155.581710	-2.973900	3.269900	-9.723100	27.198793	6.334815E-5	20.705079
2156.581223	-2.987200	3.269500	-9.765900	27.200483	6.291912E-5	20.715314
2157.581637	-3.014900	3.268000	-9.851200	27.193981	6.140101E-5	20.705929
2158.587252	-2.977000	3.267200	-9.724800	27.233922	5.994890E-5	20.698687
2159.588083	-2.995700	3.265900	-9.782300	27.264918	6.298513E-5	20.710425
2160.585503	-3.010100	3.266900	-9.832400	27.221966	6.258910E-5	20.717482
2161.582115	-2.998800	3.266600	-9.795100	27.237008	6.242408E-5	20.722655
2162.595650	-3.013300	3.266400	-9.842200	27.249803	6.087297E-5	20.724145
2163.581649	-2.998400	3.267500	-9.796300	27.232961	6.206106E-5	20.703410
2164.584571	-3.033500	3.265000	-9.903300	27.212764	6.133500E-5	20.713442
2165.586014	-2.983600	3.266800	-9.745300	27.233224	6.074096E-5	20.722168
2166.585618	-3.021400	3.264300	-9.861500	27.279304	6.209406E-5	20.710671
2167.585777	-2.991300	3.264100	-9.763000	27.338518	6.060895E-5	20.732779
2168.585355	-2.981100	3.264000	-9.729200	27.356038	5.948687E-5	20.727169
2169.586920	-2.992100	3.263100	-9.762500	27.359582	6.090597E-5	20.717457
2170.585498	-2.962200	3.264300	-9.668900	27.446030	6.060895E-5	20.720025
2171.587054	-2.988500	3.264000	-9.752700	27.450994	5.872781E-5	20.711268
2172.584317	-2.985000	3.262400	-9.737000	27.425843	5.899183E-5	20.730538
2173.586647	-2.985200	3.261500	-9.735800	27.373428	5.915684E-5	20.703885
2174.592920	-3.016900	3.260500	-9.836200	27.361939	5.760573E-5	20.713664
2175.586160	-3.009400	3.260900	-9.812500	27.354624	5.704469E-5	20.713892
2176.600975	-2.984500	3.261000	-9.731500	27.372235	5.654965E-5	20.704581
2177.591539	-3.014900	3.260100	-9.827300	27.435741	5.885982E-5	20.705880
2178.588774	-3.006000	3.262000	-9.805100	27.486714	5.780375E-5	20.707851
2179.593710	-2.987800	3.258800	-9.735800	27.547998	5.724270E-5	20.723991
2180.591464	-2.991800	3.259300	-9.750700	27.529325	5.542757E-5	20.728438
2181.586287	-3.028300	3.259200	-9.868600	27.520218	5.727571E-5	20.721171
2182.608213	-3.005500	3.257900	-9.791000	27.537526	5.572459E-5	20.716774
2183.585495	-3.013700	3.258100	-9.818000	27.448258	5.668166E-5	20.729854
2184.588941	-3.010700	3.257500	-9.805700	27.399413	5.661566E-5	20.731449
2185.585602	-2.994500	3.256800	-9.751600	27.397295	5.529556E-5	20.724102
2186.596741	-2.994100	3.257800	-9.752900	27.394191	5.374445E-5	20.713867
2187.591869	-3.010800	3.255500	-9.801100	27.380057	5.219333E-5	20.720986
2188.587331	-2.988700	3.256400	-9.732200	27.416741	5.183031E-5	20.733235
2189.606132	-2.992600	3.256100	-9.743800	27.429258	5.384346E-5	20.726861
2190.609754	-2.989500	3.255300	-9.731300	27.377835	5.522956E-5	20.727760
2191.587215	-2.992300	3.253900	-9.735800	27.368856	5.298539E-5	20.728210
2192.589175	-2.994200	3.254900	-9.744100	27.367086	5.232534E-5	20.751561
2193.596067	-3.009200	3.254800	-9.793000	27.399217	5.371145E-5	20.756857
2194.591311	-3.007800	3.252700	-9.781800	27.402161	5.163229E-5	20.744171
2195.589624	-2.991000	3.254000	-9.731900	27.416123	5.186331E-5	20.735932
2196.589900	-3.001600	3.252200	-9.760200	27.432619	5.268837E-5	20.742096
2197.589908	-2.986300	3.252400	-9.711500	27.410094	5.103825E-5	20.736505
2198.589031	-2.985000	3.251600	-9.705400	27.438917	5.074123E-5	20.735156
2199.598204	-2.997400	3.250900	-9.743300	27.464612	4.948714E-5	20.715487
2200.593056	-2.987800	3.250800	-9.712100	27.509629	5.212733E-5	20.745132
2201.594553	-3.012200	3.250400	-9.790200	27.517267	5.113726E-5	20.723418
2202.595045	-2.986200	3.250800	-9.706800	27.537875	5.249036E-5	20.726134
2203.598692	-3.004000	3.250500	-9.763500	27.503252	5.047721E-5	20.746302
2204.597042	-3.012800	3.249100	-9.787900	27.479241	5.123626E-5	20.717876
2205.597037	-3.023800	3.247900	-9.819000	27.502205	4.882709E-5	20.755681
2206.603921	-3.011400	3.248000	-9.780200	27.495038	5.024619E-5	20.745151
2207.601657	-3.017300	3.247300	-9.796900	27.514556	4.737498E-5	20.733019
2208.593752	-2.997600	3.247300	-9.733400	27.537152	5.051021E-5	20.759074
2209.600791	-2.988100	3.247000	-9.701700	27.525371	4.862907E-5	20.755755
2210.598260	-3.013100	3.245600	-9.778100	27.531944	4.938813E-5	20.738186
2211.597261	-2.983200	3.246300	-9.683100	27.495081	4.968515E-5	20.751358
2212.602210	-3.000600	3.248200	-9.746100	27.447958	4.671493E-5	20.758477
2213.601946	-3.005700	3.245300	-9.753500	27.435649	4.592287E-5	20.748938
2214.598669	-3.017700	3.244000	-9.788200	27.487314	4.777101E-5	20.745440
2215.597383	-3.012900	3.244400	-9.774600	27.538089	4.796902E-5	20.745317
2216.607094	-2.992200	3.244200	-9.706400	27.599602	4.638491E-5	20.749837
2217.603542	-2.995700	3.244300	-9.718200	27.638781	4.658292E-5	20.743266
2218.611368	-2.995600	3.243600	-9.715600	27.629559	4.536183E-5	20.750108
2219.603706	-3.006100	3.243800	-9.750300	27.655010	4.605488E-5	20.747269
2220.599071	-2.997800	3.241900	-9.717300	27.644295	4.724297E-5	20.737434
2221.600374	-2.988600	3.242900	-9.690500	27.636804	4.648392E-5	20.752657
2222.600198	-3.001700	3.241800	-9.730100	27.681814	4.588987E-5	20.730617
2223.622046	-3.001400	3.242300	-9.730200	27.701855	4.440476E-5	20.762165
2224.600113	-2.986600	3.241900	-9.681200	27.676937	4.470179E-5	20.747996
2225.604846	-2.997500	3.239600	-9.709600	27.662599	4.351370E-5	20.745422
2226.616775	-2.999400	3.239700	-9.717000	27.599112	4.338169E-5	20.745077
2227.605056	-2.990300	3.240700	-9.689600	27.552875	4.430576E-5	20.753082
2228.605342	-2.992400	3.239800	-9.693400	27.546253	4.532883E-5	20.756851
2229.603949	-2.985500	3.239500	-9.671000	27.545757	4.410774E-5	20.761568
2230.607203	-3.015900	3.238000	-9.764200	27.568059	4.529583E-5	20.750342
2231.602787	-2.988500	3.237300	-9.673500	27.592460	4.305166E-5	20.755453
2232.619733	-2.994300	3.237800	-9.694600	27.575177	4.357970E-5	20.753236
2233.610457	-3.012300	3.237200	-9.750900	27.639460	4.331568E-5	20.777616
2234.606469	-3.006800	3.237600	-9.733600	27.634975	4.394273E-5	20.755084
2235.607647	-3.007000	3.236700	-9.731900	27.618531	4.344769E-5	20.750391
2236.619485	-2.981600	3.238500	-9.655400	27.535371	4.077450E-5	20.745902
2237.607332	-2.987700	3.235300	-9.665000	27.512775	4.216060E-5	20.757307
2238.609817	-2.994500	3.235600	-9.688300	27.541871	4.255663E-5	20.751019
2239.607498	-3.022000	3.234100	-9.772500	27.559387	4.169856E-5	20.769592
2240.605805	-2.980000	3.235500	-9.641400	27.626346	4.232561E-5	20.766790
2241.606773	-2.995900	3.234600	-9.689800	27.676961	4.143455E-5	20.764142
2242.604624	-3.002900	3.233800	-9.710400	27.723517	4.133554E-5	20.759782
2243.610421	-2.984800	3.233800	-9.650800	27.728694	3.965241E-5	20.758353
2244.613217	-3.020600	3.231800	-9.760800	27.780792	4.103852E-5	20.749615
2245.606516	-2.987800	3.232200	-9.656700	27.755777	4.225961E-5	20.772080
2246.605719	-2.992900	3.233100	-9.675900	27.672445	4.031246E-5	20.760546
2247.604017	-3.004600	3.230400	-9.705600	27.666246	3.866234E-5	20.775171
2248.608322	-3.025900	3.230800	-9.775400	27.628004	3.806830E-5	20.777942
2249.604092	-3.004100	3.229400	-9.700100	27.566419	3.899237E-5	20.770029
2250.623675	-2.995100	3.230500	-9.674700	27.619198	3.760626E-5	20.775799
2251.604422	-3.050300	3.228500	-9.845800	27.624730	3.882735E-5	20.774648
2252.604729	-3.010500	3.228300	-9.717600	27.616040	3.961941E-5	20.758317
2253.608339	-2.992000	3.228100	-9.656800	27.658896	3.806830E-5	20.766353
2254.610255	-2.997200	3.228700	-9.676200	27.697884	3.862934E-5	20.774290
2255.606161	-3.001800	3.228100	-9.688900	27.739690	4.074149E-5	20.781273
2256.609630	-2.991900	3.227800	-9.656300	27.761389	3.767227E-5	20.751426
2257.608953	-3.009100	3.226300	-9.707400	27.754168	3.800229E-5	20.754591
2258.607233	-3.023800	3.226800	-9.756500	27.749206	3.836532E-5	20.781840
2259.607035	-3.019000	3.224800	-9.734500	27.767679	3.754026E-5	20.768188
2260.609541	-3.007300	3.225100	-9.698100	27.754046	3.651718E-5	20.773434
2261.608813	-3.012300	3.224400	-9.712100	27.818667	3.707823E-5	20.784414
2262.619158	-2.991200	3.223700	-9.642200	27.828506	3.717723E-5	20.783884
2263.617618	-3.009800	3.225700	-9.707800	27.770604	3.717723E-5	20.773976
2264.610203	-2.987500	3.224500	-9.632800	27.746030	3.688021E-5	20.786231
2265.613189	-2.956900	3.223500	-9.530600	27.780627	3.549411E-5	20.785011
2266.613470	-3.001300	3.222300	-9.670400	27.848923	3.486706E-5	20.782148
2267.621042	-2.973400	3.223000	-9.582600	27.845246	3.582413E-5	20.811164
2268.611456	-3.006200	3.221000	-9.682100	27.859655	3.546111E-5	20.773982
2269.612161	-2.961100	3.222900	-9.542500	27.883033	3.641818E-5	20.767640
2270.615549	-2.989900	3.220200	-9.626700	27.898757	3.443803E-5	20.788207
2271.624108	-2.988900	3.220200	-9.623200	27.922263	3.562612E-5	20.793848
2272.612746	-3.005600	3.220300	-9.677900	27.871482	3.664919E-5	20.758858
2273.612749	-3.005600	3.219900	-9.676500	27.841630	3.377798E-5	20.776704
2274.620161	-3.008800	3.220100	-9.686800	27.749683	3.546111E-5	20.770940
2275.623326	-2.985400	3.221300	-9.615500	27.733645	3.258990E-5	20.794156
2276.614768	-3.001100	3.218700	-9.658300	27.693123	3.183084E-5	20.769025
2277.626892	-2.981900	3.219400	-9.599200	27.654160	3.202886E-5	20.769647
2278.620748	-2.999400	3.217500	-9.650300	27.678418	3.212786E-5	20.776039
2279.618038	-3.022400	3.216300	-9.720400	27.780119	3.150082E-5	20.782604
2280.617911	-3.001800	3.216400	-9.654300	27.803780	3.285392E-5	20.781286
2281.617549	-2.988000	3.215900	-9.608500	27.850049	3.166583E-5	20.808411
2282.615819	-2.992800	3.216700	-9.626000	27.885260	3.146781E-5	20.785054
2283.616302	-2.990500	3.216800	-9.619500	27.896916	3.199585E-5	20.765965
2284.620572	-3.020500	3.212900	-9.703400	27.888338	3.034573E-5	20.776772
2285.627112	-3.017600	3.215100	-9.700500	27.806319	2.866261E-5	20.801859
2286.621976	-3.008000	3.213200	-9.664500	27.775517	3.021372E-5	20.774654
2287.620033	-3.000900	3.213100	-9.641100	27.759675	2.935566E-5	20.781945
2288.630370	-2.988200	3.212200	-9.598300	27.761707	2.770554E-5	20.785412
2289.620531	-2.996600	3.212800	-9.627000	27.769056	2.806856E-5	20.805135
2290.628123	-2.997800	3.213700	-9.633100	27.835512	2.846459E-5	20.772917
2291.634645	-3.002400	3.211800	-9.642100	27.827307	2.843159E-5	20.806859
2292.620424	-2.986300	3.210400	-9.586700	27.838889	2.846459E-5	20.816619
2293.627861	-3.000700	3.211400	-9.634400	27.858609	2.790355E-5	20.803276
2294.632809	-3.006700	3.209400	-9.648700	27.877894	2.866261E-5	20.792339
2295.626600	-3.006100	3.209300	-9.646900	27.892352	2.955367E-5	20.818744
2296.623382	-3.003400	3.208800	-9.636200	27.925732	2.853060E-5	20.790701
2297.639295	-2.999400	3.208600	-9.622900	27.863400	2.820057E-5	20.790079
2298.619590	-3.029200	3.207100	-9.714200	27.826377	2.810157E-5	20.792647
2299.624600	-3.014600	3.207100	-9.666700	27.853678	2.922365E-5	20.788355
2300.621817	-3.011900	3.207600	-9.659800	27.870840	2.919065E-5	20.794248
2301.621990	-3.017200	3.205700	-9.670600	27.871360	2.661646E-5	20.798565
2302.622754	-2.993900	3.205100	-9.593700	27.834845	2.711149E-5	20.808756
2303.623668	-3.012400	3.204800	-9.653600	27.748943	2.853060E-5	20.795800
2304.620682	-3.015300	3.205800	-9.665200	27.721792	2.740852E-5	20.819686
2305.632093	-2.991500	3.203800	-9.583000	27.741912	2.678147E-5	20.795363
2306.622558	-2.984800	3.203800	-9.562400	27.724497	2.658346E-5	20.818615
2307.624122	-3.011300	3.202200	-9.642300	27.772978	2.592341E-5	20.802919
2308.624099	-2.997900	3.202800	-9.600900	27.774324	2.559338E-5	20.813756
2309.624322	-3.013000	3.202000	-9.646900	27.800525	2.529636E-5	20.807408
2310.625679	-2.992700	3.203000	-9.584900	27.803450	2.773854E-5	20.809403
2311.628463	-2.969300	3.201000	-9.502800	27.815638	2.569239E-5	20.799858
2312.627282	-3.012100	3.200500	-9.638900	27.916506	2.651745E-5	20.785683
2313.627384	-3.003500	3.199200	-9.608300	27.877876	2.608842E-5	20.818873
2314.627762	-2.995900	3.200800	-9.588400	27.932052	2.707849E-5	20.798959
2315.625249	-3.006100	3.199400	-9.616900	27.925531	2.364624E-5	20.814680
2316.627887	-3.002100	3.199600	-9.604300	27.882563	2.311820E-5	20.794193
2317.629230	-3.013000	3.197900	-9.634900	27.954334	2.377825E-5	20.810480
2318.631613	-3.004200	3.197000	-9.603300	27.943059	2.582440E-5	20.811934
2319.627926	-2.993700	3.196800	-9.569500	27.949923	2.278818E-5	20.822162
2320.632301	-2.983000	3.197200	-9.536300	27.971176	2.255716E-5	20.806096
2321.628590	-2.972100	3.197900	-9.503400	27.963835	2.358023E-5	20.816724
2322.629328	-2.996400	3.195600	-9.573900	27.991854	2.618743E-5	20.817426
2323.630414	-3.001900	3.195400	-9.590900	27.950498	2.407527E-5	20.818947
2324.647214	-2.994600	3.194800	-9.566100	27.927115	2.384425E-5	20.805844
2325.628431	-3.013500	3.194500	-9.624900	27.927140	2.490033E-5	20.801127
2326.629599	-3.000700	3.192900	-9.578900	27.936659	2.440530E-5	20.814501
2327.632670	-2.992800	3.192100	-9.552300	27.919480	2.321721E-5	20.809538
2328.635656	-2.979300	3.193000	-9.511600	27.954438	2.222714E-5	20.843775
2329.633678	-3.023300	3.192200	-9.649600	27.971494	2.549438E-5	20.814003
2330.631495	-3.020200	3.191700	-9.638900	27.897412	2.193011E-5	20.808190
2331.634509	-3.011800	3.190400	-9.607900	27.931704	2.305220E-5	20.818996
2332.632209	-3.009000	3.189600	-9.596500	27.946252	2.272217E-5	20.817993
2333.633589	-2.996300	3.190700	-9.559100	27.917179	2.189711E-5	20.835672
2334.636258	-2.998400	3.188700	-9.559600	27.913105	2.222714E-5	20.831570
2335.631825	-3.003200	3.188800	-9.575400	27.924539	2.074203E-5	20.830277
2336.630126	-2.977300	3.189600	-9.495300	27.950798	2.061002E-5	20.827309
2337.631733	-3.012300	3.188000	-9.603000	27.926828	2.143508E-5	20.837322
2338.635899	-2.996300	3.187900	-9.550300	27.935650	2.222714E-5	20.826287
2339.631701	-2.991000	3.187900	-9.534700	28.001251	2.097304E-5	20.844428
2340.632845	-3.003700	3.187100	-9.572500	28.046722	2.206212E-5	20.825240
2341.640666	-3.005500	3.184600	-9.570600	28.062964	2.262316E-5	20.827839
2342.638849	-3.003900	3.184400	-9.565100	28.033362	2.051101E-5	20.826965
2343.638035	-2.994300	3.186300	-9.539500	28.056712	2.011498E-5	20.827236
2344.634173	-3.002500	3.183000	-9.556200	28.089959	2.014798E-5	20.838418
2345.639170	-2.987100	3.183400	-9.508300	28.088895	2.034600E-5	20.848252
2346.640690	-2.988500	3.182400	-9.509800	28.042930	2.004897E-5	20.808621
2347.635564	-3.003600	3.180900	-9.552600	28.026443	1.836585E-5	20.843707
2348.637484	-3.000200	3.181900	-9.545700	27.944833	1.866287E-5	20.851176
2349.641146	-2.991000	3.182200	-9.517300	27.948302	1.928992E-5	20.840918
2350.639298	-3.013800	3.179400	-9.581600	27.979044	1.968595E-5	20.829188
2351.646538	-3.010200	3.180100	-9.571900	27.970864	2.021399E-5	20.832334
2352.638144	-3.010600	3.179700	-9.572000	28.010905	2.070902E-5	20.846558
2353.640665	-3.008600	3.178900	-9.563000	28.091458	1.892689E-5	20.828073
2354.645542	-2.975200	3.178800	-9.456500	28.098615	1.961994E-5	20.823898
2355.640955	-2.989300	3.177300	-9.497300	28.144461	1.876188E-5	20.851558
2356.641634	-2.994200	3.176700	-9.511000	28.184837	1.856387E-5	20.817291
2357.646468	-2.981100	3.175800	-9.466400	28.140393	1.872888E-5	20.831817
2358.639838	-2.996500	3.175500	-9.514800	28.146474	1.697975E-5	20.835567
2359.640185	-3.011200	3.174400	-9.557600	28.152168	1.813483E-5	20.840826
2360.639758	-2.993300	3.175700	-9.504800	28.165931	1.671573E-5	20.839982
2361.642838	-2.996400	3.172800	-9.506100	28.158126	1.615469E-5	20.836392
2362.641068	-2.997700	3.172600	-9.509500	28.190250	1.664973E-5	20.839335
2363.641253	-3.005800	3.171900	-9.533300	28.159337	1.724377E-5	20.822439
2364.642196	-3.006700	3.172000	-9.536500	28.188562	1.763980E-5	20.855179
2365.640961	-2.982000	3.170400	-9.452300	28.273713	1.641871E-5	20.838966
2366.642318	-2.988000	3.169700	-9.470300	28.198330	1.397653E-5	20.794366
2367.645669	-2.991000	3.169200	-9.478900	28.158677	1.513161E-5	20.825093
2368.642169	-3.003800	3.168800	-9.518200	28.112788	1.529663E-5	20.822519
2369.642502	-2.995000	3.168000	-9.487500	28.055158	1.443856E-5	20.814292
2370.644166	-2.990300	3.168600	-9.473600	28.014747	1.457057E-5	20.808701
2371.641675	-2.987800	3.168000	-9.464600	28.029172	1.529663E-5	20.811841
2372.643273	-2.999200	3.166300	-9.495200	28.036788	1.384452E-5	20.819508
2373.642214	-3.009500	3.165500	-9.525800	28.116568	1.466958E-5	20.808781
2374.642611	-2.984600	3.165500	-9.447000	28.135060	1.344849E-5	20.797051
2375.641648	-3.000500	3.164500	-9.494700	28.145593	1.381152E-5	20.826146
2376.640974	-3.007200	3.163200	-9.511300	28.112384	1.242541E-5	20.831596
2377.644342	-3.009600	3.163300	-9.519200	28.152743	1.239241E-5	20.819120
2378.644288	-3.006800	3.162400	-9.507700	28.148731	1.328348E-5	20.821719
2379.641500	-3.001500	3.161500	-9.487900	28.150168	1.391052E-5	20.815105
2380.644676	-2.988000	3.161500	-9.444800	28.177485	1.229340E-5	20.813209
2381.646799	-3.016000	3.158800	-9.526200	28.191248	1.440556E-5	20.807150
2382.643419	-2.970500	3.161100	-9.389100	28.098560	1.430655E-5	20.800610
2383.644129	-2.997200	3.158600	-9.466200	28.070109	1.259043E-5	20.798048
2384.643663	-3.001700	3.158300	-9.479600	28.020602	1.298646E-5	20.790887
2385.648171	-3.002600	3.157500	-9.479000	28.032953	1.407554E-5	20.807587
2386.647099	-2.996400	3.157400	-9.460200	28.084271	1.275544E-5	20.809933
2387.644310	-3.010300	3.154800	-9.495700	28.180630	1.143534E-5	20.782709
2388.666498	-2.988500	3.156600	-9.432800	28.224950	1.189738E-5	20.795087
2389.645771	-3.001200	3.154100	-9.465000	28.203561	1.011524E-5	20.792993
2390.644514	-3.006400	3.153300	-9.478900	28.274680	1.070929E-5	20.778775
2391.645419	-3.002900	3.153300	-9.468400	28.246766	9.752218E-6	20.805672
2392.644147	-3.012200	3.151300	-9.491900	28.286429	1.123733E-5	20.801984
2393.646359	-2.972400	3.150600	-9.364200	28.294362	1.080830E-5	20.783892
2394.649491	-2.971400	3.150800	-9.361000	28.300459	9.323186E-6	20.798092
2395.645433	-2.992600	3.150600	-9.427200	28.314758	1.143534E-5	20.775979
2396.645048	-2.990200	3.149200	-9.415800	28.343637	9.554203E-6	20.776133
2397.652852	-3.011600	3.148200	-9.479800	28.314734	9.323186E-6	20.773583
2398.646813	-2.985400	3.147900	-9.396300	28.342279	7.805075E-6	20.776663
2399.651501	-2.984500	3.146500	-9.390000	28.334341	8.036092E-6	20.786213
2400.647351	-2.999900	3.144300	-9.432000	28.296894	7.508053E-6	20.791657
2401.647987	-3.028100	3.144700	-9.520200	28.287597	9.587206E-6	20.783719
2402.646799	-3.002600	3.143100	-9.436100	28.199438	8.201104E-6	20.782679
2403.647089	-3.023300	3.142800	-9.500300	28.230124	9.290184E-6	20.787020
2404.651899	-2.975500	3.142800	-9.350200	28.232950	9.587206E-6	20.792710
2405.648616	-3.020300	3.142200	-9.489300	28.260491	1.001624E-5	20.777291
2406.648122	-3.041400	3.140700	-9.551400	28.315914	9.257181E-6	20.774772
2407.651016	-2.990000	3.139800	-9.387400	28.293854	7.145026E-6	20.773898
2408.652255	-3.002900	3.138700	-9.424700	28.250326	8.696140E-6	20.791712
2409.650961	-2.997500	3.138000	-9.406000	28.295200	7.244033E-6	20.765295
2410.652014	-2.986300	3.139200	-9.372400	28.281665	7.640062E-6	20.778221
2411.657065	-3.013800	3.136300	-9.451000	28.247586	7.409045E-6	20.785635
2412.651674	-2.988300	3.136500	-9.371600	28.284240	8.102096E-6	20.772752
2413.653073	-3.009300	3.135000	-9.433500	28.282613	7.970087E-6	20.778227
2414.650654	-2.988800	3.134200	-9.366600	28.278571	9.257181E-6	20.767044
2415.654539	-3.014100	3.132900	-9.441000	28.331387	8.795147E-6	20.776127
2416.652130	-2.985000	3.133100	-9.351200	28.367280	8.894155E-6	20.782396
2417.653754	-3.002900	3.131100	-9.401500	28.394090	8.762145E-6	20.777623
2418.654355	-3.008200	3.130800	-9.417400	28.388243	5.692919E-6	20.788332
2419.663045	-3.016600	3.129100	-9.438000	28.399545	6.748997E-6	20.777901
2420.655048	-3.012100	3.128900	-9.423900	28.331167	7.673065E-6	20.758361
2421.662302	-3.024700	3.128900	-9.462500	28.250192	6.154953E-6	20.776878
2422.660107	-3.009100	3.128000	-9.410900	28.274130	4.735849E-6	20.788178
2423.652350	-3.027700	3.125400	-9.462200	28.261017	7.211031E-6	20.774501
2424.653214	-3.002500	3.126900	-9.387700	28.233580	6.451975E-6	20.762524
2425.652454	-2.991000	3.125900	-9.348200	28.200368	6.352968E-6	20.768916
2426.656752	-2.988600	3.124700	-9.337800	28.287047	6.220958E-6	20.750448
2427.653141	-3.027500	3.123300	-9.454700	28.328586	3.778778E-6	20.753392
2428.652871	-2.989600	3.122900	-9.335300	28.376538	5.164880E-6	20.753786
2429.652962	-2.994500	3.123200	-9.351400	28.462017	5.725922E-6	20.753090
2430.661477	-2.973500	3.120700	-9.278500	28.500571	4.471829E-6	20.771053
2431.658391	-3.010800	3.119200	-9.390400	28.469673	4.438827E-6	20.781189
2432.653548	-3.019900	3.118200	-9.415500	28.422312	5.560909E-6	20.760048
2433.662291	-3.001500	3.117500	-9.356800	28.451065	4.405824E-6	20.763398
2434.654905	-2.994700	3.117600	-9.335500	28.437924	4.141805E-6	20.745897
2435.668787	-3.009300	3.115400	-9.373600	28.448533	4.125304E-7	20.785031
2436.654600	-2.998900	3.114000	-9.337500	28.415175	3.514759E-6	20.764242
2437.655858	-3.003000	3.113300	-9.348400	28.406473	2.293669E-6	20.756427
2438.663549	-2.984800	3.113600	-9.292500	28.363182	3.943790E-6	20.771632
2439.661955	-3.004100	3.111700	-9.347100	28.390665	2.788705E-6	20.767062
2440.655318	-2.982100	3.112200	-9.280300	28.348933	1.435606E-6	20.760603
2441.665733	-2.960700	3.110800	-9.209200	28.382434	1.105581E-6	20.773473
2442.656745	-3.003400	3.109000	-9.335900	28.440333	3.184734E-6	20.757807
2443.659197	-2.976700	3.108300	-9.251800	28.476534	4.075800E-6	20.748742
2444.661166	-2.994100	3.108100	-9.305100	28.540646	7.755571E-7	20.744555
2445.661159	-3.023700	3.106300	-9.391400	28.565941	9.735717E-7	20.762918
2446.658655	-3.018300	3.105400	-9.371700	28.573847	-3.795279E-7	20.761397
2447.663246	-3.000700	3.105800	-9.319100	28.534024	2.128657E-6	20.754481
2448.661544	-2.987100	3.104800	-9.273600	28.501421	1.996647E-6	20.743459
2449.659678	-2.996700	3.102200	-9.295400	28.547635	9.405693E-7	20.768189
2450.660472	-3.015500	3.101500	-9.351500	28.546620	2.227664E-6	20.768116
2451.670716	-3.005800	3.100700	-9.319700	28.541386	1.270594E-6	20.777069
2452.660531	-3.010500	3.099600	-9.330600	28.496119	1.105581E-6	20.747129
2453.665258	-3.002700	3.098200	-9.302100	28.515350	-5.775425E-7	20.744210
2454.666529	-3.022800	3.097600	-9.362700	28.421951	1.039577E-6	20.747357
2455.662913	-2.997100	3.096800	-9.280100	28.444626	2.590691E-6	20.748853
2456.672935	-2.996300	3.095200	-9.273300	28.489687	2.145158E-7	20.753928
2457.662209	-3.028000	3.095100	-9.370200	28.489448	1.303596E-6	20.746100
2458.675300	-2.974300	3.094700	-9.203500	28.537039	-3.465255E-7	20.761785
2459.663216	-3.015400	3.093400	-9.326900	28.522241	1.534613E-6	20.737873
2460.663337	-2.994600	3.091900	-9.257600	28.523263	9.405693E-7	20.762610
2461.665654	-3.000400	3.090900	-9.272900	28.558134	2.805207E-7	20.755529
2462.666515	-2.997700	3.090500	-9.263800	28.609970	-4.455328E-7	20.735663
2463.663916	-3.019000	3.088100	-9.322100	28.640436	-1.815134E-7	20.736950
2464.667923	-3.019500	3.087900	-9.322900	28.623348	2.293669E-6	20.746766
2465.664300	-3.033800	3.086600	-9.363300	28.584266	1.171586E-6	20.743914
2466.664028	-2.995600	3.086500	-9.245400	28.599313	-5.775425E-7	20.756225
2467.675775	-2.996000	3.085900	-9.244200	28.614403	-5.445401E-7	20.747240
2468.674026	-2.994900	3.084600	-9.237700	28.641384	4.125304E-7	20.738378
2469.669994	-2.986500	3.084000	-9.208900	28.569305	5.115377E-7	20.735958
2470.663214	-3.003700	3.082400	-9.258300	28.498113	-7.755571E-7	20.738231
2471.663591	-2.987600	3.081400	-9.204900	28.508820	-2.590691E-6	20.757074
2472.670765	-2.991400	3.080200	-9.213700	28.508893	8.250607E-8	20.745768
2473.667774	-2.984900	3.078400	-9.188000	28.575969	-6.435474E-7	20.727971
2474.668760	-3.016600	3.075700	-9.277500	28.557510	-7.425547E-7	20.735934
2475.668151	-3.004800	3.076400	-9.242400	28.638462	-1.485109E-7	20.744444
2476.665778	-3.026900	3.074300	-9.304900	28.658760	-7.095522E-7	20.739758
2477.668057	-3.010800	3.073800	-9.254300	28.651521	-2.145158E-7	20.732467
2478.668769	-3.010600	3.072600	-9.249800	28.681252	-6.765498E-7	20.730644
2479.666912	-2.998400	3.071900	-9.209500	28.676942	-2.722700E-6	20.730570
2480.672588	-2.981600	3.071600	-9.157200	28.741483	-1.336598E-6	20.733464
2481.676635	-2.988100	3.069500	-9.171900	28.733358	-2.689698E-6	20.731919
2482.667342	-3.006400	3.068800	-9.225300	28.738457	-1.831635E-6	20.718561
2483.667415	-3.008600	3.066000	-9.222100	28.733609	-2.788705E-6	20.735016
2484.674830	-2.967000	3.065800	-9.095400	28.677810	-2.326671E-6	20.740928
2485.675229	-2.998300	3.064200	-9.186400	28.673451	-2.986720E-6	20.749340
2486.669906	-3.034100	3.062700	-9.291100	28.713416	-1.765630E-6	20.727004
2487.679773	-3.013600	3.062100	-9.226500	28.714351	-4.405824E-6	20.745491
2488.670866	-2.996700	3.060900	-9.171600	28.704142	-3.481756E-6	20.751329
2489.671130	-2.994000	3.061600	-9.165300	28.691884	-1.897640E-6	20.724282
2490.671498	-3.005400	3.058800	-9.192200	28.667227	-3.943790E-6	20.743071
2491.672908	-2.992500	3.058700	-9.151800	28.653105	-4.570837E-6	20.732639
2492.671942	-2.994300	3.056700	-9.151800	28.681075	-3.547761E-6	20.737104
2493.672135	-3.005500	3.055100	-9.180900	28.724628	-5.197883E-6	20.733082
2494.673857	-3.003700	3.054600	-9.173800	28.679412	-4.306817E-6	20.746335
2495.683209	-3.005200	3.052700	-9.173100	28.675695	-3.448754E-6	20.725520
2496.673522	-2.998100	3.052900	-9.152200	28.695265	-4.306817E-6	20.733852
2497.685067	-2.985200	3.049700	-9.103200	28.742436	-2.029649E-6	20.727786
2498.681469	-3.016900	3.048700	-9.197000	28.744295	-3.811781E-6	20.728710
2499.673858	-3.017400	3.048100	-9.196300	28.749943	-4.570837E-6	20.738193
2500.675389	-3.005700	3.045500	-9.152200	28.728632	-2.194662E-6	20.719097
2501.677446	-2.984100	3.045700	-9.088000	28.772214	-1.963645E-6	20.709890
2502.674374	-2.999900	3.045100	-9.134000	28.725905	-4.471829E-6	20.720144
2503.673335	-3.024800	3.043000	-9.203500	28.744031	-4.405824E-6	20.717539
2504.676814	-2.975400	3.041800	-9.049200	28.708886	-5.725922E-6	20.740934
2505.676972	-3.008400	3.040600	-9.146800	28.725428	-5.197883E-6	20.717766
2506.678170	-2.986300	3.039700	-9.077000	28.713067	-4.075800E-6	20.720488
2507.674970	-3.001100	3.037800	-9.115600	28.744031	-4.933863E-6	20.714693
2508.682704	-2.998600	3.036900	-9.105800	28.705187	-2.986720E-6	20.727724
2509.676016	-3.018600	3.036300	-9.164100	28.702857	-3.778778E-6	20.728223
2510.679329	-2.972500	3.035400	-9.021900	28.755237	-2.821708E-6	20.718869
2511.674140	-3.002000	3.033100	-9.104000	28.768338	-3.415752E-6	20.693657
2512.680133	-2.999100	3.031400	-9.090100	28.796904	-3.349747E-6	20.706786
2513.676293	-2.999000	3.029400	-9.084400	28.883975	-4.768851E-6	20.705357
2514.677612	-2.997200	3.030100	-9.080700	28.905283	-3.976793E-6	20.719712
2515.677301	-2.980300	3.029100	-9.026000	28.877831	-5.197883E-6	20.721455
2516.687046	-2.993800	3.027300	-9.062500	28.857599	-2.524686E-6	20.710081
2517.694341	-3.016200	3.025200	-9.123200	28.823728	-3.217737E-6	20.735705
2518.677353	-2.994700	3.024900	-9.058000	28.863864	-2.920715E-6	20.722083
2519.680726	-2.984000	3.023100	-9.020300	28.836412	-3.184735E-6	20.707704
2520.687813	-2.977000	3.021600	-8.994600	28.734299	-3.415752E-6	20.697777
2521.690310	-2.998300	3.019900	-9.053400	28.745743	-4.372822E-6	20.718789
2522.679578	-3.020300	3.018000	-9.113600	28.781640	-4.207810E-6	20.697099
2523.688814	-3.002300	3.017300	-9.058600	28.814491	-2.227664E-6	20.701268
2524.683088	-2.999600	3.016700	-9.048100	28.872856	-4.009795E-6	20.707907
2525.682177	-3.018900	3.014200	-9.099100	28.864628	-3.184735E-6	20.715266
2526.682573	-2.999600	3.013100	-9.037100	28.778687	-3.283742E-6	20.719257
2527.680298	-3.021200	3.010900	-9.095500	28.705902	-3.184735E-6	20.713271
2528.693773	-2.963700	3.011300	-8.923400	28.719847	-7.145026E-6	20.708825
2529.680916	-2.995100	3.009300	-9.011800	28.747027	-3.184735E-6	20.715814
2530.681389	-2.989700	3.007900	-8.991600	28.682413	-4.075800E-6	20.705733
2531.683253	-2.981900	3.006800	-8.964700	28.712914	-3.811781E-6	20.707531
2532.680354	-3.000900	3.005100	-9.016400	28.711380	-4.867859E-6	20.714047
2533.688408	-2.995300	3.003100	-8.994100	28.728173	-3.217737E-6	20.708203
2534.685960	-2.997200	3.003100	-8.998500	28.786640	-3.250739E-6	20.711146
2535.681944	-3.025000	3.001200	-9.077300	28.779702	-4.306817E-6	20.703682
2536.682743	-3.020800	2.999100	-9.059100	28.801403	-3.712773E-6	20.689980
2537.682902	-3.001300	2.999400	-9.001400	28.855135	-4.603839E-6	20.713763
2538.696715	-2.995000	2.995200	-8.969900	28.915429	-4.240812E-6	20.701010
2539.685570	-2.993400	2.994300	-8.961700	28.835318	-2.887713E-6	20.699488
2540.683990	-3.017200	2.992800	-9.029400	28.798231	-5.428900E-6	20.702432
2541.687872	-3.006300	2.992500	-8.995700	28.731609	-5.131878E-6	20.692222
2542.689949	-2.969700	2.991900	-8.884100	28.677302	-6.649990E-6	20.706749
2543.683514	-3.029000	2.989000	-9.052200	28.715848	-3.547761E-6	20.707642
2544.686378	-2.986600	2.988400	-8.924300	28.755592	-6.253961E-6	20.703103
2545.684542	-2.999000	2.986500	-8.954700	28.839896	-3.448754E-6	20.692246
2546.700493	-2.995700	2.984500	-8.940000	28.840538	-4.801854E-6	20.716128
2547.686176	-2.986600	2.983300	-8.909600	28.873063	-7.607060E-6	20.697210
2548.693329	-2.995900	2.983200	-8.935800	28.892807	-5.296890E-6	20.701453
2549.691863	-2.999100	2.981000	-8.939500	28.902318	-6.947012E-6	20.700603
2550.690513	-3.014700	2.977800	-8.976400	28.890032	-4.405824E-6	20.689173
2551.688529	-3.001900	2.977600	-8.936200	28.953251	-6.848004E-6	20.711614
2552.691335	-3.018000	2.976100	-8.980700	29.024455	-3.085727E-6	20.681407
2553.688314	-3.017800	2.974400	-8.975600	29.033427	-4.603839E-6	20.703725
2554.691647	-3.009100	2.972800	-8.944900	28.974350	-8.498126E-6	20.685928
2555.691216	-2.990400	2.971100	-8.884000	28.904744	-8.003089E-6	20.686925
2556.701058	-2.990800	2.970300	-8.883100	28.838289	-4.669844E-6	20.705327
2557.691187	-3.006400	2.967500	-8.920700	28.875490	-5.131878E-6	20.690171
2558.691088	-2.980100	2.968300	-8.845100	28.829364	-6.550982E-6	20.692068
2559.711177	-3.003800	2.964700	-8.904100	28.840263	-6.616987E-6	20.691667
2560.697909	-2.998200	2.963100	-8.883200	28.823789	-3.745776E-6	20.693564
2561.689380	-2.971900	2.962800	-8.803800	28.841822	-5.296890E-6	20.700350
2562.688711	-3.014000	2.960800	-8.922800	28.864194	-5.659917E-6	20.689697
2563.689740	-2.982500	2.960200	-8.828200	28.855624	-6.154953E-6	20.710463
2564.689241	-2.991100	2.958100	-8.846900	28.890967	-4.075800E-6	20.685847
2565.694036	-3.011100	2.956600	-8.901900	28.886829	-6.881007E-6	20.710604
2566.693557	-2.992200	2.954900	-8.841000	28.791488	-7.277036E-6	20.693268
2567.692688	-3.016700	2.954100	-8.910900	28.789177	-5.164880E-6	20.677663
2568.704649	-3.007900	2.951400	-8.877000	28.807015	-7.673065E-6	20.703220
2569.697972	-2.984000	2.951600	-8.807100	28.878699	-5.494905E-6	20.695775
2570.707705	-3.017500	2.948700	-8.896300	28.926510	-4.108803E-6	20.671393
2571.696920	-3.022900	2.946200	-8.905200	28.939487	-6.484978E-6	20.698220
2572.698177	-3.003000	2.947400	-8.850300	28.924774	-5.824929E-6	20.687190
2573.694598	-2.994000	2.944600	-8.814300	28.827487	-5.395897E-6	20.681167
2574.694132	-2.980000	2.943700	-8.771400	28.847127	-5.758924E-6	20.681037
2575.703462	-3.008600	2.941100	-8.847600	28.945990	-5.989941E-6	20.698133
2576.697568	-3.004700	2.939100	-8.830100	29.021130	-5.032871E-6	20.669995
2577.692985	-3.017100	2.937100	-8.860700	29.026850	-4.405824E-6	20.700892
2578.695921	-2.981100	2.937800	-8.756700	29.037473	-4.735849E-6	20.691679
2579.705496	-2.989500	2.935900	-8.775800	28.969032	-4.669844E-6	20.666817
2580.696595	-2.979300	2.933600	-8.738900	28.977901	-4.570837E-6	20.692350
2581.695784	-2.990700	2.930600	-8.763800	28.926320	-5.890934E-6	20.696335
2582.706041	-2.995900	2.928800	-8.773700	28.932090	-5.527907E-6	20.699777
2583.700002	-3.024600	2.926900	-8.852300	28.899481	-5.197883E-6	20.679251
2584.710319	-3.028600	2.925700	-8.859700	28.966777	-5.824929E-6	20.690626
2585.699786	-3.016500	2.924800	-8.821900	29.006926	-4.867859E-6	20.680815
2586.697762	-2.986000	2.924200	-8.730800	29.036983	-5.989941E-6	20.682650
2587.701016	-3.022400	2.921000	-8.827600	29.142245	-5.593912E-6	20.686770
2588.696610	-2.983600	2.920400	-8.712100	29.185773	-5.362895E-6	20.695072
2589.696414	-3.034500	2.917700	-8.853000	29.248296	-5.263888E-6	20.702129
2590.701146	-3.006900	2.916600	-8.768300	29.232953	-6.319965E-6	20.680975
2591.699054	-3.009400	2.915100	-8.771500	29.229623	-6.947012E-6	20.697535
2592.701046	-3.025600	2.912500	-8.811500	29.210631	-5.593912E-6	20.699734
2593.710351	-2.970300	2.911500	-8.646100	29.183408	-5.428900E-6	20.698379
2594.698936	-2.981800	2.910800	-8.677800	29.136720	-8.828150E-6	20.699223
2595.699105	-2.967600	2.908200	-8.629100	29.115093	-6.715995E-6	20.696870
2596.701621	-3.023700	2.905000	-8.782900	29.088662	-4.108803E-6	20.705800
2597.700986	-2.961800	2.905400	-8.604400	29.091882	-8.333114E-6	20.707148
2598.701746	-3.008700	2.903000	-8.733200	29.116499	-5.461902E-6	20.707296
2599.700441	-2.983300	2.902100	-8.656800	29.138199	-6.286963E-6	20.687435
2600.714568	-2.997500	2.899600	-8.690300	29.208993	-6.815002E-6	20.686702
2601.700699	-3.003800	2.897300	-8.702000	29.202828	-7.145026E-6	20.696611
2602.704602	-3.013300	2.895100	-8.722400	29.253514	-6.848004E-6	20.717821
2603.707473	-3.022700	2.893300	-8.744200	29.208352	-6.550982E-6	20.688901
2604.700058	-3.010700	2.891400	-8.704600	29.237908	-6.088948E-6	20.708257
2605.701590	-2.993700	2.890400	-8.652300	29.291477	-6.815002E-6	20.693963
2606.703007	-2.998300	2.887900	-8.658200	29.312502	-6.055946E-6	20.705196
2607.709566	-3.003700	2.885700	-8.666400	29.250985	-8.762145E-6	20.695829
2608.702609	-3.005200	2.883100	-8.663700	29.212177	-6.881007E-6	20.681375
2609.705429	-3.016700	2.883500	-8.698000	29.147170	-5.824929E-6	20.695053
2610.703187	-2.993500	2.880600	-8.622100	29.141059	-7.838077E-6	20.712605
2611.705748	-2.982100	2.878400	-8.582000	29.118815	-5.857931E-6	20.677859
2612.703881	-2.985400	2.877500	-8.589100	29.123600	-6.616987E-6	20.708288
2613.702626	-2.996300	2.875500	-8.614400	29.223127	-6.022944E-6	20.685298
2614.708485	-2.996700	2.872500	-8.606700	29.241477	-5.857931E-6	20.702369
2615.703549	-3.029100	2.870200	-8.693100	29.297044	-6.088948E-6	20.684873
2616.711620	-2.979400	2.870200	-8.550100	29.309869	-4.966866E-6	20.685945
2617.716783	-3.014700	2.865600	-8.638200	29.328608	-6.815002E-6	20.711946
2618.704072	-3.009400	2.865800	-8.622900	29.373980	-4.570837E-6	20.700300
2619.710867	-2.987400	2.862000	-8.549000	29.289620	-6.187956E-6	20.717697
2620.707134	-2.981900	2.861800	-8.532600	29.211908	-5.395897E-6	20.719988
2621.706074	-2.992600	2.858500	-8.553700	29.169243	-7.475051E-6	20.702597
2622.705765	-3.008100	2.857200	-8.593900	29.217353	-3.085727E-6	20.706982
2623.717126	-2.973900	2.857100	-8.496400	29.231767	-6.253961E-6	20.709655
2624.715529	-2.997200	2.853300	-8.550600	29.262197	-5.923936E-6	20.707604
2625.710681	-2.987000	2.851100	-8.514700	29.322865	-7.838077E-6	20.711847
2626.707289	-3.000200	2.849700	-8.548700	29.326855	-5.956939E-6	20.716343
2627.708351	-3.001200	2.847900	-8.546700	29.298052	-5.065873E-6	20.702012
2628.707275	-3.051600	2.843700	-8.677100	29.327551	-6.451975E-6	20.715148
2629.728665	-2.987600	2.842200	-8.490700	29.265717	-4.042798E-6	20.707358
2630.711948	-2.994900	2.841500	-8.509000	29.272383	-4.669844E-6	20.707438
2631.718295	-3.021800	2.837000	-8.571900	29.345453	-5.494905E-6	20.720863
2632.712408	-2.985300	2.835500	-8.463900	29.286644	-5.857931E-6	20.717069
2633.711366	-2.973700	2.834400	-8.427700	29.236271	-5.725922E-6	20.732212
2634.715412	-2.996900	2.830800	-8.482700	29.279636	-6.550982E-6	20.702893
2635.712023	-3.000400	2.828900	-8.486700	29.252341	-3.712773E-6	20.718535
2636.725460	-3.018600	2.826700	-8.531300	29.238947	-6.154953E-6	20.723055
2637.715365	-2.980100	2.826800	-8.423400	29.267910	-5.428900E-6	20.729484
2638.711125	-3.021700	2.823100	-8.529700	29.286363	-6.286963E-6	20.703034
2639.710214	-2.990800	2.820100	-8.432200	29.227722	-7.112024E-6	20.721226
2640.710912	-3.005600	2.817700	-8.468000	29.247923	-6.748997E-6	20.716928
2641.710360	-2.985200	2.815100	-8.402400	29.208400	-3.910788E-6	20.719773
2642.714769	-3.012200	2.813200	-8.472900	29.207588	-6.121951E-6	20.727489
2643.709428	-3.009800	2.810800	-8.458900	29.182619	-4.570837E-6	20.725561
2644.711557	-3.036300	2.806700	-8.520900	29.105003	-7.904082E-6	20.718473
2645.720072	-3.007300	2.805600	-8.435800	29.137869	-7.607060E-6	20.729780
2646.716563	-2.974700	2.804200	-8.339700	29.216650	-6.583985E-6	20.719077
2647.726680	-3.012100	2.800300	-8.433900	29.284591	-5.263888E-6	20.719742
2648.711152	-3.033500	2.796700	-8.483100	29.340205	-5.956939E-6	20.722686
2649.715071	-2.999900	2.795100	-8.384100	29.354368	-5.923936E-6	20.718467
2650.714800	-2.995100	2.791600	-8.360000	29.300288	-5.197883E-6	20.719914
2651.719190	-2.996700	2.789400	-8.358200	29.240738	-6.253961E-6	20.735766
2652.712762	-3.003800	2.787100	-8.371500	29.285874	-5.362895E-6	20.730519
2653.714804	-2.995700	2.784900	-8.342200	29.296078	-7.277036E-6	20.725629
2654.713760	-2.995500	2.780400	-8.328000	29.316181	-6.583985E-6	20.725500
2655.726967	-3.017600	2.777000	-8.379400	29.309893	-6.748997E-6	20.722008
2656.718386	-3.000600	2.774200	-8.322900	29.317665	-8.498126E-6	20.710874
2657.726659	-2.981500	2.773500	-8.268000	29.318435	-8.168102E-6	20.728721
2658.716301	-3.010800	2.769300	-8.337300	29.283693	-6.022944E-6	20.730691
2659.717326	-3.011100	2.766600	-8.329800	29.305262	-5.560910E-6	20.731092
2660.731886	-3.005700	2.763800	-8.305900	29.270972	-8.003089E-6	20.730199
2661.716909	-3.029000	2.758800	-8.355700	29.349559	-7.079021E-6	20.737330
2662.719146	-2.999900	2.757100	-8.270600	29.431586	-3.151732E-6	20.735606
2663.717026	-2.994900	2.753700	-8.246200	29.433743	-5.395897E-6	20.733986
2664.723361	-3.013800	2.750400	-8.288200	29.516216	-6.914009E-6	20.728450
2665.716738	-3.019800	2.748200	-8.298300	29.557089	-6.550982E-6	20.716072
2666.718263	-3.013600	2.743300	-8.266000	29.607417	-4.933863E-6	20.726030
2667.739130	-2.985100	2.741500	-8.182800	29.510345	-5.956939E-6	20.742447
2668.720524	-3.018700	2.737900	-8.264400	29.510742	-6.187956E-6	20.738106
2669.724037	-3.012300	2.733300	-8.232100	29.584266	-5.329893E-6	20.720235
2670.716173	-3.028700	2.729100	-8.264200	29.580852	-5.131878E-6	20.741924
2671.721885	-2.994900	2.728400	-8.170700	29.599935	-5.791927E-6	20.714218
2672.716621	-2.998200	2.723700	-8.165100	29.630513	-5.626914E-6	20.743623
2673.720680	-3.037000	2.718200	-8.253600	29.685485	-6.649990E-6	20.736455
2674.719560	-2.990600	2.717000	-8.123700	29.666923	-3.547761E-6	20.734337
2675.721104	-3.000200	2.713700	-8.140200	29.685485	-6.947012E-6	20.720333
2676.720115	-2.997600	2.709400	-8.121300	29.684367	-5.857931E-6	20.732009
2677.720745	-2.991700	2.704700	-8.090600	29.694042	-7.805075E-6	20.737970
2678.719886	-2.987000	2.700500	-8.065200	29.699606	-4.174807E-6	20.745477
2679.721582	-2.998100	2.696500	-8.083900	29.639333	-5.824929E-6	20.749197
2680.737926	-2.973700	2.693600	-8.008900	29.625822	-5.758924E-6	20.741265
2681.719363	-3.002000	2.689900	-8.074500	29.647921	-7.244034E-6	20.742207
2682.722622	-2.978500	2.685800	-7.997800	29.688570	-6.947012E-6	20.746204
2683.740226	-3.010900	2.680800	-8.071000	29.763272	-7.508053E-6	20.741862
2684.723319	-3.006100	2.677000	-8.046000	29.805816	-6.881007E-6	20.744455
2685.724451	-2.990400	2.670800	-7.985800	29.862837	-5.428900E-6	20.740785
2686.721145	-3.009000	2.666600	-8.023400	29.843362	-6.187956E-6	20.754339
2687.726918	-2.992200	2.663900	-7.969700	29.770815	-7.277036E-6	20.745674
2688.726678	-3.002200	2.659800	-7.984600	29.647823	-5.560910E-6	20.750644
2689.724592	-2.999200	2.655700	-7.963200	29.630959	-5.362895E-6	20.763988
2690.728852	-3.008700	2.648900	-7.968900	29.661823	-7.937085E-6	20.751955
2691.732307	-3.006400	2.646100	-7.954000	29.682865	-6.286963E-6	20.763686
2692.736975	-2.996300	2.641500	-7.914200	29.686829	-6.220958E-6	20.752035
2693.729523	-2.985300	2.637800	-7.874000	29.658531	-5.659917E-6	20.747214
2694.730190	-3.007500	2.630900	-7.911400	29.601840	-4.999868E-6	20.751229
2695.733891	-3.032600	2.625100	-7.959600	29.626970	-5.461902E-6	20.758070
2696.724776	-3.001800	2.621000	-7.866700	29.703925	-3.349747E-6	20.761211
2697.741180	-3.002000	2.614500	-7.848000	29.744883	-4.108803E-6	20.773582
2698.725273	-3.045400	2.609100	-7.943900	29.736167	-5.560910E-6	20.770011
2699.728963	-3.021500	2.605400	-7.871300	29.720208	-4.867859E-6	20.746333
2700.729466	-2.992500	2.601100	-7.782500	29.771194	-3.943790E-6	20.756962
2701.724928	-2.998100	2.595200	-7.779500	29.851600	-5.692919E-6	20.765017
2702.725464	-2.998900	2.588600	-7.762000	29.802127	-5.098876E-6	20.741684
2703.732582	-3.012600	2.582400	-7.779200	29.782718	-5.296890E-6	20.753883
2704.726694	-2.977500	2.578200	-7.676100	29.814421	-5.758924E-6	20.773995
2705.729315	-3.014500	2.571000	-7.749900	29.841029	-5.956939E-6	20.792764
2706.725692	-2.995700	2.565700	-7.685600	29.899923	-2.821708E-6	20.763009
2707.731529	-3.024900	2.558800	-7.738600	29.897175	-3.085727E-6	20.766402
2708.727229	-2.991300	2.553400	-7.636800	29.912375	-5.329893E-6	20.762763
2709.728351	-2.993100	2.548300	-7.626400	29.915391	-3.778778E-6	20.760115
2710.729737	-2.999100	2.541600	-7.621700	29.935683	-5.725922E-6	20.767301
2711.731189	-2.991700	2.535200	-7.583600	29.834886	-3.910788E-6	20.761913
2712.732867	-2.994100	2.530200	-7.575100	29.809932	-4.999868E-6	20.769943
2713.731578	-3.012500	2.523600	-7.600900	29.846300	-7.871080E-6	20.775319
2714.735745	-2.998200	2.515900	-7.541500	29.894104	-5.956939E-6	20.765202
2715.732859	-3.011400	2.509800	-7.556800	29.914988	-5.725922E-6	20.765399
2716.740655	-2.998600	2.504500	-7.509100	29.911703	-5.197883E-6	20.789587
2717.732266	-2.984700	2.497700	-7.454100	29.910738	-4.867859E-6	20.759216
