LabVIEW Measurement	
Writer_Version	2
Reader_Version	2
Separator	Tab
Decimal_Separator	.
Multi_Headings	No
X_Columns	One
Time_Pref	Absolute
Operator	admin
Description	Clolumns are: time, Current, Voltage, Power, Battery Temp, and Chamber Temp
Date	2024/06/17
Time	15:57:57.1458311080932617187
***End_of_Header***	
	
Channels	6						
Samples	1	1	1	1	1	1	
Date	2024/06/19	2024/06/19	2024/06/19	2024/06/19	2024/06/19	2024/06/19	
Time	02:46:15.3494272232055664062	02:46:15.355449676513671875	02:46:15.3615007400512695312	02:46:15.3330135345458984375	02:46:15.3330135345458984375	02:46:15.3330135345458984375	
X_Dimension	Time	Time	Time	Time	Time	Time	
X0	0.0000000000000000E+0	0.0000000000000000E+0	0.0000000000000000E+0	0.0000000000000000E+0	0.0000000000000000E+0	0.0000000000000000E+0	
Delta_X	1.000000	1.000000	1.000000	1.000000	1.000000	1.000000	
***End_of_Header***							
X_Value	Untitled	Untitled 1	Untitled 2	Untitled 3	Untitled 4	Untitled 5	Comment
0.000000	0.023762	4.120300	0.097900	20.952652	0.000169	21.072116
1.004475	-2.997000	4.021500	-12.052000	20.962819	0.000169	21.047203
2.000425	-2.990200	4.016100	-12.008000	20.942565	0.000168	21.041647
3.000607	-2.996600	4.011000	-12.018000	20.966795	0.000167	21.063030
4.003201	-2.995800	4.008700	-12.009000	20.965163	0.000167	21.057132
5.000318	-3.008800	4.005000	-12.050000	20.957841	0.000164	21.076831
6.001181	-3.007000	4.003000	-12.036000	20.942882	0.000164	21.062348
7.003234	-2.986200	4.000400	-11.945000	20.951994	0.000165	21.071932
8.001390	-2.984100	3.999300	-11.933000	20.945409	0.000164	21.070563
8.999941	-2.996900	3.996500	-11.976000	20.955365	0.000164	21.077199
10.003494	-2.997100	3.994300	-11.971000	20.975565	0.000164	21.068955
11.000863	-3.014300	3.992000	-12.032000	20.961449	0.000163	21.067640
12.001611	-3.033100	3.989600	-12.098000	20.946856	0.000161	21.082439
13.005473	-2.998800	3.988400	-11.959000	20.974721	0.000158	21.079014
14.001450	-3.000000	3.987500	-11.962000	20.984862	0.000160	21.076355
15.001368	-2.982400	3.986800	-11.890000	20.995633	0.000159	21.078593
16.006370	-2.975200	3.985000	-11.855000	20.979594	0.000159	21.083413
17.003296	-2.974600	3.983100	-11.847000	21.019837	0.000159	21.077671
18.002323	-2.998300	3.981600	-11.937000	20.993262	0.000159	21.080489
19.005949	-2.996100	3.982600	-11.932000	21.014594	0.000160	21.063896
20.003074	-2.992400	3.980100	-11.910000	21.003982	0.000158	21.069402
21.003748	-3.007800	3.978800	-11.967000	21.011804	0.000158	21.080067
22.004591	-2.995500	3.978500	-11.917000	21.016623	0.000157	21.082990
23.004318	-3.021300	3.976900	-12.015000	21.007406	0.000157	21.089891
24.010058	-3.003300	3.976300	-11.941000	21.006483	0.000159	21.104611
25.005171	-3.017100	3.975600	-11.992000	21.034190	0.000157	21.085387
26.004931	-2.993900	3.975400	-11.901000	21.026974	0.000156	21.107087
27.006409	-2.982200	3.974300	-11.852000	21.029659	0.000154	21.102662
28.007805	-3.014400	3.973500	-11.976000	21.049384	0.000153	21.094892
29.008121	-2.993000	3.973800	-11.892000	21.045513	0.000154	21.094814
30.009034	-3.024000	3.970700	-12.006000	21.029527	0.000154	21.092101
31.009686	-3.004900	3.971000	-11.932000	21.048673	0.000154	21.106980
32.008678	-3.017200	3.970000	-11.977000	21.062763	0.000154	21.092153
33.011214	-3.000900	3.969400	-11.911000	21.042509	0.000156	21.113615
34.015253	-2.992100	3.969900	-11.878000	21.068714	0.000154	21.092416
35.011743	-2.994600	3.967400	-11.881000	21.058284	0.000153	21.097155
36.012452	-2.986400	3.968100	-11.850000	21.071688	0.000155	21.121462
37.015170	-3.005600	3.966600	-11.921000	21.100870	0.000151	21.093759
38.012495	-3.023100	3.964300	-11.983000	21.086305	0.000151	21.096259
39.013582	-2.996100	3.965800	-11.881000	21.099025	0.000152	21.112772
40.019085	-3.016100	3.964700	-11.957000	21.091257	0.000151	21.096945
41.015871	-3.011400	3.963400	-11.934000	21.122226	0.000151	21.104213
42.016501	-2.980200	3.962500	-11.808000	21.088385	0.000149	21.110190
43.022985	-3.004400	3.962700	-11.905000	21.098867	0.000150	21.095075
44.018195	-3.000600	3.962700	-11.890000	21.088621	0.000150	21.096680
45.017318	-3.001700	3.961600	-11.891000	21.102921	0.000151	21.117616
46.023050	-2.988300	3.961900	-11.837000	21.112429	0.000150	21.098208
47.019259	-3.008900	3.961100	-11.917000	21.112928	0.000149	21.103922
48.020134	-3.000700	3.960900	-11.884000	21.109162	0.000151	21.103474
49.022681	-2.996800	3.960500	-11.867000	21.131864	0.000150	21.101052
50.019112	-2.993300	3.959300	-11.851000	21.134522	0.000149	21.104184
51.021426	-3.014600	3.960000	-11.936000	21.141212	0.000148	21.106608
52.018692	-2.988700	3.958000	-11.828000	21.153351	0.000147	21.109741
53.020170	-2.987200	3.958100	-11.823000	21.143844	0.000148	21.103079
54.020770	-3.003200	3.957700	-11.885000	21.142685	0.000148	21.082010
55.021936	-2.984700	3.956100	-11.807000	21.154326	0.000145	21.083697
56.021667	-2.999700	3.957900	-11.871000	21.150375	0.000146	21.106292
57.022166	-2.993900	3.956500	-11.845000	21.158013	0.000150	21.093547
58.022571	-2.969600	3.956500	-11.748000	21.146213	0.000145	21.107344
59.023735	-2.987100	3.955400	-11.814000	21.163621	0.000147	21.084460
60.023309	-2.989000	3.956000	-11.823000	21.153850	0.000146	21.096019
61.022213	-3.000200	3.955200	-11.865000	21.178841	0.000145	21.088778
62.022949	-2.981700	3.953200	-11.787000	21.177814	0.000145	21.092965
63.025239	-3.019700	3.952700	-11.936000	21.180712	0.000146	21.086856
64.023953	-2.995400	3.953500	-11.842000	21.187059	0.000142	21.097470
65.025050	-3.015200	3.951200	-11.912000	21.182791	0.000143	21.090359
66.025138	-3.026200	3.952100	-11.958000	21.194668	0.000144	21.079482
67.027267	-2.985900	3.951900	-11.799000	21.176208	0.000142	21.093729
68.026308	-2.998700	3.952700	-11.852000	21.199645	0.000144	21.095837
69.026836	-3.016100	3.950800	-11.915000	21.204700	0.000145	21.077191
70.026065	-3.002300	3.950900	-11.860000	21.197564	0.000144	21.066261
71.026078	-3.017100	3.950200	-11.918000	21.210993	0.000142	21.088225
72.025827	-2.990400	3.950700	-11.813000	21.216815	0.000145	21.076982
73.025653	-3.014300	3.950000	-11.906000	21.218815	0.000141	21.093677
74.025202	-3.016600	3.950100	-11.915000	21.205490	0.000143	21.081773
75.025909	-3.006100	3.948800	-11.870000	21.250967	0.000143	21.070845
76.027197	-2.992900	3.949100	-11.819000	21.261894	0.000143	21.058545
77.026237	-2.984300	3.948600	-11.783000	21.254915	0.000141	21.051092
78.026490	-2.977000	3.948500	-11.754000	21.245567	0.000141	21.066393
79.027743	-2.986400	3.948400	-11.791000	21.244726	0.000142	21.070765
80.027292	-2.998900	3.948400	-11.840000	21.240381	0.000140	21.060732
81.028085	-2.987500	3.946700	-11.790000	21.237747	0.000142	21.061416
82.027504	-3.002100	3.946400	-11.848000	21.237195	0.000140	21.053278
83.029716	-3.030700	3.945900	-11.958000	21.237168	0.000140	21.049934
84.026258	-2.980800	3.947400	-11.765000	21.266818	0.000141	21.056360
85.027314	-3.013600	3.945900	-11.891000	21.275271	0.000138	21.069081
86.028808	-2.985800	3.946000	-11.781000	21.276588	0.000141	21.081301
87.028998	-2.987100	3.945200	-11.784000	21.278692	0.000140	21.044534
88.028979	-3.002400	3.945700	-11.845000	21.260051	0.000139	21.079931
89.030453	-3.006600	3.944000	-11.858000	21.277588	0.000140	21.061917
90.028257	-2.990100	3.944600	-11.794000	21.281855	0.000140	21.038690
91.030253	-3.018300	3.945500	-11.908000	21.279668	0.000139	21.048828
92.031738	-3.021200	3.945300	-11.919000	21.291148	0.000140	21.053673
93.029049	-2.990000	3.943600	-11.790000	21.288989	0.000137	21.050092
94.031682	-3.008000	3.942900	-11.859000	21.313818	0.000139	21.073031
95.031034	-2.981900	3.943500	-11.758000	21.306076	0.000140	21.066235
96.030203	-2.983900	3.942600	-11.764000	21.312897	0.000140	21.051725
97.030127	-2.984400	3.942400	-11.765000	21.297334	0.000139	21.069816
98.031398	-3.010500	3.941400	-11.865000	21.309920	0.000138	21.054436
99.030892	-2.980000	3.942300	-11.747000	21.308893	0.000138	21.046772
100.029653	-3.008000	3.942200	-11.857000	21.322743	0.000137	21.048774
101.031465	-3.017100	3.941300	-11.890000	21.310947	0.000138	21.057360
102.030791	-3.009800	3.941900	-11.863000	21.331853	0.000139	21.037976
103.033307	-2.994500	3.940500	-11.800000	21.342122	0.000138	21.059625
104.031698	-2.984000	3.942000	-11.762000	21.331510	0.000139	21.051855
105.030997	-2.993500	3.940700	-11.796000	21.358813	0.000138	21.061625
106.031254	-2.974400	3.942200	-11.724000	21.354574	0.000138	21.045533
107.034680	-3.016400	3.940300	-11.885000	21.361025	0.000139	21.024965
108.033107	-3.007500	3.940500	-11.850000	21.355943	0.000139	21.068709
109.032728	-3.008600	3.939800	-11.853000	21.371688	0.000137	21.043216
110.034986	-2.954600	3.940600	-11.643000	21.370504	0.000138	21.052460
111.032208	-2.996400	3.939800	-11.804000	21.387091	0.000137	21.055305
112.033395	-2.995900	3.938700	-11.799000	21.380536	0.000136	21.035000
113.034797	-2.998100	3.938800	-11.809000	21.403966	0.000137	21.055119
114.033173	-3.015700	3.938100	-11.874000	21.386300	0.000136	21.037448
115.032877	-3.005700	3.938900	-11.838000	21.373373	0.000135	21.045376
116.036541	-3.006200	3.938800	-11.840000	21.382088	0.000138	21.066418
117.034180	-3.001700	3.938400	-11.822000	21.389275	0.000135	21.022884
118.034773	-3.003300	3.939400	-11.830000	21.389775	0.000138	21.040924
119.033105	-3.002600	3.937300	-11.822000	21.396648	0.000137	21.041162
120.035926	-2.966400	3.939100	-11.684000	21.393225	0.000137	21.022569
121.036107	-2.990800	3.937700	-11.777000	21.400649	0.000138	21.032839
122.037377	-2.978300	3.937700	-11.727000	21.420028	0.000138	21.019514
123.036033	-2.990700	3.936100	-11.771000	21.425344	0.000138	21.020566
124.035434	-2.995400	3.937800	-11.795000	21.448381	0.000136	21.034130
125.040503	-3.002200	3.937200	-11.820000	21.440193	0.000136	21.039686
126.037058	-3.017300	3.934500	-11.870000	21.448249	0.000136	21.033523
127.036980	-3.024400	3.935500	-11.902000	21.449117	0.000140	21.033917
128.040777	-2.964700	3.937200	-11.672000	21.449853	0.000138	21.032284
129.037125	-3.000900	3.936400	-11.812000	21.462122	0.000137	21.043609
130.039237	-2.992900	3.935100	-11.777000	21.455935	0.000137	21.031731
131.042161	-3.026300	3.934300	-11.906000	21.463359	0.000134	21.042477
132.040737	-3.030700	3.933200	-11.920000	21.483341	0.000134	21.029756
133.041159	-2.997600	3.935400	-11.796000	21.439294	0.000137	21.041157
134.042755	-2.995700	3.934900	-11.787000	21.459225	0.000139	21.016059
135.037736	-3.004900	3.934000	-11.820000	21.470833	0.000136	21.047582
136.039698	-3.013000	3.934500	-11.854000	21.483891	0.000139	21.020825
137.045391	-3.004500	3.934200	-11.820000	21.475968	0.000137	21.034231
138.039256	-3.000500	3.933700	-11.802000	21.478126	0.000138	21.034968
139.038622	-2.989800	3.933500	-11.760000	21.493525	0.000138	21.030463
140.041307	-3.027300	3.932200	-11.902000	21.478520	0.000138	21.016874
141.039081	-2.996400	3.932800	-11.783000	21.484680	0.000136	21.031570
142.039395	-3.019500	3.931600	-11.871000	21.484732	0.000137	21.042524
143.041903	-2.982600	3.932600	-11.729000	21.495947	0.000136	21.020086
144.039134	-3.019100	3.931800	-11.870000	21.519825	0.000140	21.025486
145.039482	-2.995700	3.933000	-11.782000	21.523825	0.000136	21.035176
146.041411	-2.988200	3.931800	-11.748000	21.532987	0.000135	21.021587
147.039226	-2.978600	3.931900	-11.710000	21.524274	0.000138	21.011922
148.040506	-2.984700	3.932800	-11.738000	21.518745	0.000137	21.028198
149.044482	-3.020000	3.931000	-11.871000	21.534248	0.000136	21.001516
150.039234	-3.011600	3.931100	-11.838000	21.523746	0.000138	21.029882
151.045398	-3.001700	3.930500	-11.798000	21.554045	0.000136	21.039336
152.042963	-3.002900	3.930500	-11.802000	21.538355	0.000137	21.017477
153.039958	-2.992500	3.931500	-11.763000	21.557916	0.000135	21.026617
154.042075	-3.000300	3.930300	-11.790000	21.546516	0.000138	21.031804
155.042065	-2.971800	3.930600	-11.680000	21.553098	0.000137	21.009946
156.039274	-2.984400	3.930900	-11.730000	21.538857	0.000139	21.019401
157.044596	-3.012300	3.929500	-11.836000	21.548675	0.000138	21.006468
158.042976	-2.984600	3.930900	-11.732000	21.554440	0.000137	21.024087
159.041002	-3.008900	3.929000	-11.821000	21.562864	0.000137	21.007864
160.046449	-2.987700	3.930000	-11.741000	21.559205	0.000138	21.003729
161.042981	-3.007700	3.929100	-11.816000	21.586082	0.000138	21.030619
162.041427	-2.998200	3.929000	-11.779000	21.585765	0.000138	21.015606
163.044213	-3.009300	3.930000	-11.826000	21.574340	0.000137	21.011761
164.042813	-3.004600	3.928400	-11.803000	21.579763	0.000137	21.025246
165.039435	-3.000100	3.928200	-11.784000	21.579606	0.000137	21.009444
166.047353	-3.003200	3.928200	-11.797000	21.588661	0.000138	20.995749
167.044670	-2.988900	3.927700	-11.739000	21.582420	0.000138	21.000408
168.042376	-3.001800	3.927900	-11.790000	21.605324	0.000136	21.017634
169.043911	-3.021000	3.926800	-11.861000	21.603007	0.000139	21.026220
170.044004	-2.979100	3.927100	-11.699000	21.620300	0.000137	21.012708
171.043514	-2.976800	3.928500	-11.692000	21.626512	0.000138	21.011338
172.043892	-2.992800	3.927300	-11.752000	21.611061	0.000137	20.999197
173.047315	-3.002100	3.927000	-11.788000	21.644859	0.000139	21.008836
174.045519	-2.997900	3.926600	-11.770000	21.623510	0.000139	20.998853
175.046066	-2.999300	3.927300	-11.778000	21.617115	0.000139	20.993876
176.047629	-3.010700	3.925200	-11.816000	21.638015	0.000138	21.010995
177.047194	-2.989100	3.925800	-11.734000	21.645147	0.000140	21.008176
178.047242	-2.988300	3.927500	-11.735000	21.628775	0.000138	20.999854
179.049519	-3.007000	3.925400	-11.802000	21.636987	0.000139	21.001434
180.049403	-2.994300	3.925800	-11.755000	21.626326	0.000140	20.993611
181.048929	-3.011800	3.924700	-11.820000	21.654464	0.000140	21.008017
182.050356	-3.009500	3.924700	-11.811000	21.653122	0.000138	21.010466
183.050862	-2.973700	3.925100	-11.672000	21.677864	0.000138	20.995401
184.049950	-2.996600	3.924700	-11.761000	21.666942	0.000140	20.983998
185.052390	-2.989700	3.924700	-11.733000	21.676812	0.000140	20.993874
186.051614	-2.980400	3.924800	-11.696000	21.675496	0.000139	21.014839
187.050670	-2.980300	3.926000	-11.700000	21.693579	0.000138	20.990740
188.053260	-2.991700	3.924000	-11.739000	21.672680	0.000140	21.016288
189.052663	-3.006300	3.924900	-11.798000	21.690921	0.000139	21.005148
190.050983	-2.997000	3.923500	-11.758000	21.672811	0.000138	20.995560
191.055639	-3.018800	3.924200	-11.846000	21.704029	0.000140	20.983182
192.053498	-3.000500	3.924500	-11.775000	21.705635	0.000138	20.993322
193.054305	-3.000900	3.923900	-11.774000	21.711242	0.000139	20.981391
194.055884	-2.991900	3.923000	-11.737000	21.702714	0.000138	21.006517
195.054352	-2.989500	3.922700	-11.725000	21.696897	0.000138	20.988371
196.055595	-3.000100	3.922700	-11.768000	21.731747	0.000141	20.989110
197.057111	-3.013500	3.922500	-11.820000	21.734141	0.000139	20.980128
198.055336	-3.000300	3.922200	-11.767000	21.714611	0.000141	20.996614
199.055171	-2.989400	3.923100	-11.727000	21.734061	0.000141	20.996641
200.056627	-2.984600	3.923600	-11.710000	21.736063	0.000141	20.986317
201.055644	-3.014700	3.921200	-11.820000	21.738379	0.000141	20.997168
202.056430	-3.020300	3.921200	-11.842000	21.723008	0.000144	20.994114
203.057921	-3.005800	3.921400	-11.786000	21.749591	0.000141	20.990373
204.055816	-3.005200	3.922200	-11.786000	21.744484	0.000141	21.010863
205.056993	-3.014400	3.920000	-11.816000	21.750169	0.000142	20.973411
206.058438	-3.019400	3.919100	-11.832000	21.769672	0.000142	20.976334
207.058455	-2.982300	3.921900	-11.696000	21.749774	0.000142	21.000512
208.057961	-3.001100	3.919900	-11.762000	21.763670	0.000144	20.977913
209.061881	-2.991700	3.921100	-11.731000	21.786726	0.000140	20.990081
210.058984	-2.978800	3.920500	-11.678000	21.774804	0.000141	20.995217
211.058967	-3.008100	3.920700	-11.792000	21.789278	0.000144	20.978886
212.061202	-2.986900	3.920900	-11.710000	21.786014	0.000142	20.992687
213.059478	-2.997600	3.919900	-11.750000	21.786305	0.000142	20.980652
214.059161	-3.004900	3.919800	-11.779000	21.786514	0.000143	20.966165
215.063919	-3.010500	3.919000	-11.798000	21.789093	0.000144	20.981072
216.059733	-3.014500	3.919900	-11.816000	21.794673	0.000143	20.985233
217.059281	-3.003300	3.918800	-11.768000	21.807991	0.000142	20.990028
218.063465	-3.020500	3.919100	-11.837000	21.807911	0.000141	20.977148
219.059682	-3.011000	3.919800	-11.802000	21.822332	0.000144	20.981623
220.060617	-3.004800	3.919700	-11.777000	21.830069	0.000143	20.984151
221.066824	-3.026400	3.918700	-11.859000	21.849624	0.000143	20.983336
222.062531	-2.978400	3.918400	-11.669000	21.845623	0.000141	20.981702
223.062800	-2.980500	3.918200	-11.677000	21.819673	0.000143	20.977541
224.064954	-3.002900	3.918200	-11.765000	21.826201	0.000142	20.967954
225.062885	-2.995700	3.919700	-11.741000	21.825384	0.000142	20.996530
226.064564	-3.001300	3.917100	-11.755000	21.825201	0.000143	20.971694
227.065816	-3.019100	3.916900	-11.825000	21.819752	0.000145	20.962449
228.064500	-3.004400	3.917700	-11.770000	21.835647	0.000144	20.966029
229.064987	-2.994000	3.916500	-11.725000	21.836122	0.000145	20.970771
230.066761	-2.992800	3.917300	-11.723000	21.840884	0.000144	20.965107
231.064002	-3.010300	3.917200	-11.791000	21.853096	0.000141	20.969269
232.065162	-2.991300	3.916400	-11.714000	21.856517	0.000145	20.982174
233.066065	-3.012400	3.917200	-11.799000	21.873728	0.000143	20.965265
234.065300	-2.986800	3.917200	-11.699000	21.867437	0.000143	20.965132
235.066277	-2.992400	3.917700	-11.723000	21.848543	0.000144	20.970876
236.067125	-2.981400	3.915000	-11.671000	21.841804	0.000146	20.975035
237.065070	-2.976300	3.917500	-11.659000	21.848279	0.000145	20.969663
238.067342	-3.010100	3.916000	-11.786000	21.877255	0.000145	20.945090
239.067883	-3.005700	3.916300	-11.771000	21.869358	0.000148	20.950936
240.066449	-2.990700	3.916300	-11.712000	21.878385	0.000145	20.955703
241.067186	-3.013400	3.914700	-11.796000	21.892254	0.000147	20.959153
242.068133	-3.013200	3.914000	-11.793000	21.888939	0.000147	20.968162
243.066414	-3.014700	3.915100	-11.802000	21.882149	0.000146	20.963736
244.067597	-2.989200	3.914700	-11.701000	21.892255	0.000148	20.965791
245.070027	-2.981200	3.915500	-11.672000	21.896938	0.000147	20.942033
246.068181	-2.984600	3.915600	-11.685000	21.889019	0.000146	20.936004
247.068048	-2.978500	3.915200	-11.661000	21.909126	0.000149	20.954705
248.067914	-2.988700	3.913700	-11.697000	21.898598	0.000147	20.961236
249.068130	-2.993100	3.914100	-11.715000	21.929703	0.000148	20.967240
250.067573	-2.998800	3.914800	-11.739000	21.935125	0.000148	20.963184
251.069747	-3.003400	3.914200	-11.755000	21.951099	0.000146	20.977276
252.069128	-2.997800	3.913500	-11.731000	21.907335	0.000148	20.951964
253.069685	-2.997100	3.913500	-11.728000	21.931625	0.000150	20.957311
254.071067	-3.012000	3.913300	-11.786000	21.933599	0.000148	20.957864
255.069650	-3.003300	3.912700	-11.750000	21.926099	0.000149	20.957943
256.072706	-2.998200	3.913000	-11.731000	21.933441	0.000150	20.944906
257.071165	-2.995000	3.913500	-11.720000	21.937046	0.000150	20.960840
258.071599	-3.004700	3.912000	-11.754000	21.936992	0.000150	20.963157
259.069586	-2.986600	3.913700	-11.688000	21.926597	0.000150	20.939953
260.071183	-3.003700	3.911600	-11.749000	21.963728	0.000151	20.940611
261.069761	-3.010800	3.912200	-11.778000	21.961202	0.000151	20.965580
262.071363	-3.008300	3.911800	-11.766000	21.955150	0.000149	20.948144
263.072114	-3.021400	3.912800	-11.822000	21.978465	0.000151	20.941138
264.070576	-3.007000	3.911100	-11.759000	21.959624	0.000150	20.944562
265.071327	-3.011800	3.910300	-11.776000	21.980649	0.000151	20.954228
266.072411	-2.994700	3.911100	-11.712000	21.998885	0.000152	20.926019
267.070195	-2.981500	3.910200	-11.658000	21.980412	0.000151	20.947353
268.071227	-3.010300	3.910500	-11.771000	21.996359	0.000152	20.944351
269.074018	-2.987300	3.912600	-11.687000	22.000201	0.000151	20.951989
270.072258	-3.008100	3.909500	-11.759000	22.030698	0.000151	20.947432
271.071570	-3.014600	3.911000	-11.789000	22.041092	0.000151	20.953569
272.075089	-3.009900	3.909700	-11.767000	22.003384	0.000155	20.931471
273.072765	-3.005700	3.910600	-11.753000	22.000041	0.000153	20.935236
274.074460	-2.986900	3.910500	-11.679000	22.009725	0.000152	20.919328
275.075034	-2.967700	3.910800	-11.605000	22.024118	0.000152	20.935157
276.074315	-2.993100	3.908600	-11.698000	22.026197	0.000154	20.933919
277.074483	-2.982900	3.910400	-11.664000	22.017409	0.000155	20.936501
278.075935	-2.988400	3.909600	-11.683000	22.040222	0.000153	20.920934
279.075012	-2.987400	3.910200	-11.680000	22.044249	0.000154	20.934447
280.074858	-3.018900	3.909400	-11.801000	22.048722	0.000153	20.935131
281.074389	-3.006400	3.910000	-11.754000	22.054800	0.000155	20.913717
282.075830	-3.016300	3.907700	-11.786000	22.070666	0.000153	20.904472
283.076103	-2.995800	3.909800	-11.712000	22.053984	0.000155	20.927598
284.075085	-2.985000	3.909400	-11.669000	22.053511	0.000155	20.928072
285.076243	-2.982700	3.909500	-11.660000	22.031933	0.000152	20.918800
286.076295	-2.999300	3.909000	-11.724000	22.020118	0.000156	20.920723
287.076122	-2.994700	3.907300	-11.700000	22.051352	0.000155	20.938712
288.074590	-2.983900	3.908200	-11.660000	22.063930	0.000153	20.919064
289.075177	-3.012200	3.908700	-11.772000	22.077350	0.000156	20.922066
290.074999	-2.996800	3.907200	-11.708000	22.062431	0.000157	20.931786
291.076136	-2.996900	3.908700	-11.712000	22.065666	0.000155	20.937395
292.076316	-3.011600	3.907600	-11.766000	22.055694	0.000156	20.925042
293.076584	-3.011800	3.907400	-11.768000	22.060561	0.000156	20.913795
294.081399	-3.002100	3.906800	-11.728000	22.061562	0.000157	20.918116
295.077963	-2.984000	3.908300	-11.661000	22.042142	0.000157	20.950353
296.078130	-2.999000	3.906500	-11.714000	22.077033	0.000156	20.931232
297.079537	-3.030500	3.905500	-11.834000	22.091347	0.000156	20.929915
298.076709	-2.987400	3.905900	-11.667000	22.089268	0.000157	20.930204
299.076103	-2.987700	3.907200	-11.673000	22.074297	0.000160	20.911425
300.081113	-3.000900	3.906300	-11.721000	22.084533	0.000159	20.907448
301.078283	-3.000400	3.906500	-11.721000	22.108267	0.000158	20.912717
302.078423	-3.023800	3.905400	-11.807000	22.105216	0.000158	20.924833
303.081517	-2.995500	3.906200	-11.700000	22.126290	0.000160	20.905156
304.079670	-3.011800	3.905000	-11.759000	22.133527	0.000159	20.936106
305.078276	-2.994700	3.906600	-11.698000	22.141130	0.000160	20.938976
306.082165	-2.974200	3.904900	-11.614000	22.129316	0.000160	20.921935
307.079577	-2.987600	3.904200	-11.663000	22.147340	0.000159	20.919592
308.080699	-2.993300	3.905100	-11.688000	22.153786	0.000159	20.925570
309.084000	-3.006600	3.905000	-11.739000	22.151471	0.000159	20.926098
310.079984	-2.987300	3.905600	-11.666000	22.151840	0.000160	20.914140
311.081885	-2.996000	3.906300	-11.702000	22.147078	0.000160	20.910321
312.084761	-2.998700	3.905000	-11.709000	22.131950	0.000162	20.930261
313.082600	-2.986100	3.904400	-11.658000	22.156445	0.000161	20.951937
314.083005	-2.979600	3.904000	-11.631000	22.178939	0.000158	20.946958
315.085427	-2.972600	3.904200	-11.605000	22.148289	0.000159	20.937135
316.080250	-2.997900	3.902700	-11.699000	22.189044	0.000162	20.914405
317.083527	-3.009700	3.903400	-11.747000	22.168469	0.000159	20.932210
318.086294	-3.000900	3.904800	-11.717000	22.186124	0.000162	20.931868
319.083403	-3.003300	3.903000	-11.721000	22.193201	0.000164	20.928048
320.083201	-3.003100	3.902600	-11.719000	22.201830	0.000160	20.917249
321.087171	-2.982700	3.902500	-11.639000	22.165838	0.000161	20.921990
322.083724	-2.999300	3.903100	-11.706000	22.166969	0.000163	20.909373
323.083517	-3.009200	3.902300	-11.742000	22.166286	0.000163	20.917698
324.087397	-2.993900	3.902600	-11.683000	22.190755	0.000162	20.911851
325.083971	-2.997700	3.901500	-11.695000	22.156629	0.000163	20.934106
326.083399	-3.022500	3.901900	-11.792000	22.174020	0.000161	20.934448
327.086679	-2.997100	3.902100	-11.694000	22.183388	0.000163	20.926284
328.083849	-3.004100	3.901000	-11.718000	22.203752	0.000165	20.953307
329.083398	-3.012500	3.900700	-11.750000	22.231954	0.000166	20.939347
330.086702	-2.997300	3.901600	-11.693000	22.213487	0.000164	20.936030
331.087040	-3.002100	3.900700	-11.709000	22.206331	0.000166	20.917013
332.088083	-3.005000	3.900700	-11.721000	22.234849	0.000165	20.940349
333.089485	-3.012500	3.899000	-11.745000	22.232193	0.000167	20.930104
334.087044	-3.010600	3.899000	-11.738000	22.224485	0.000166	20.943722
335.087547	-3.009400	3.900100	-11.736000	22.232430	0.000166	20.936505
336.086245	-3.005500	3.900300	-11.722000	22.195228	0.000168	20.949516
337.085618	-3.008700	3.900600	-11.735000	22.231404	0.000165	20.940693
338.087233	-3.002300	3.899500	-11.707000	22.217697	0.000168	20.924600
339.089562	-2.980200	3.900200	-11.622000	22.210489	0.000166	20.907427
340.087555	-2.982800	3.900900	-11.635000	22.240165	0.000168	20.934292
341.089001	-2.984300	3.901400	-11.641000	22.232983	0.000167	20.922835
342.090941	-2.998000	3.898700	-11.687000	22.231693	0.000167	20.909217
343.089062	-3.024800	3.899600	-11.794000	22.234588	0.000168	20.923968
344.092535	-3.001500	3.900000	-11.705000	22.245769	0.000171	20.952229
345.092696	-3.000900	3.898900	-11.699000	22.270393	0.000168	20.947962
346.089874	-3.000500	3.897400	-11.693000	22.286256	0.000171	20.944406
347.093918	-2.984300	3.899200	-11.636000	22.263133	0.000172	20.919359
348.094725	-3.002900	3.898700	-11.707000	22.261554	0.000169	20.942906
349.090777	-2.996000	3.899200	-11.680000	22.274103	0.000171	20.928445
350.093874	-2.991900	3.897300	-11.659000	22.274498	0.000174	20.929789
351.093710	-3.006600	3.898400	-11.721000	22.249715	0.000174	20.949542
352.091821	-3.010100	3.897500	-11.731000	22.272866	0.000171	20.934793
353.094183	-3.011800	3.897500	-11.738000	22.278154	0.000173	20.929182
354.097321	-3.003900	3.896500	-11.703000	22.287205	0.000173	20.929710
355.092897	-3.008000	3.897300	-11.723000	22.307092	0.000174	20.936346
356.096131	-3.015300	3.896800	-11.749000	22.305961	0.000173	20.956074
357.097841	-2.994800	3.896400	-11.668000	22.318141	0.000174	20.944564
358.094505	-2.994100	3.896800	-11.667000	22.317378	0.000175	20.957549
359.096201	-2.989600	3.897700	-11.652000	22.299463	0.000174	20.941983
360.096951	-3.008100	3.896600	-11.720000	22.312616	0.000174	20.954203
361.094365	-2.995000	3.896900	-11.671000	22.300357	0.000175	20.942879
362.093537	-2.979700	3.896600	-11.610000	22.342315	0.000176	20.947907
363.097165	-3.011600	3.896100	-11.733000	22.368333	0.000175	20.956890
364.093858	-3.006800	3.895300	-11.711000	22.321613	0.000178	20.949462
365.096600	-3.020000	3.894800	-11.761000	22.335450	0.000177	20.961419
366.098158	-2.995600	3.895400	-11.668000	22.340422	0.000178	20.950753
367.096439	-3.008300	3.895500	-11.718000	22.345604	0.000176	20.946933
368.101945	-2.993600	3.894900	-11.659000	22.351208	0.000174	20.958707
369.098770	-2.992200	3.895200	-11.654000	22.362494	0.000175	20.961947
370.097838	-3.002100	3.894300	-11.690000	22.376829	0.000176	20.961603
371.099313	-2.997100	3.895400	-11.674000	22.395427	0.000175	20.953202
372.099307	-2.996400	3.894300	-11.668000	22.384037	0.000178	20.938005
373.096314	-3.011900	3.894000	-11.727000	22.389957	0.000176	20.944406
374.097696	-3.008400	3.893900	-11.714000	22.401478	0.000177	20.942193
375.099629	-3.007000	3.892800	-11.704000	22.411369	0.000178	20.956363
376.099434	-3.002300	3.894600	-11.692000	22.412369	0.000177	20.954995
377.103397	-2.981700	3.892800	-11.606000	22.454534	0.000180	20.970191
378.103204	-3.001300	3.892900	-11.683000	22.409423	0.000180	20.969586
379.099920	-2.989100	3.893400	-11.637000	22.406503	0.000181	20.961921
380.102150	-2.983700	3.892900	-11.615000	22.401689	0.000179	20.975116
381.102214	-2.987200	3.892900	-11.628000	22.389378	0.000178	20.973694
382.101520	-3.017800	3.891600	-11.742000	22.393481	0.000180	20.975432
383.102637	-3.008200	3.892500	-11.708000	22.386431	0.000181	20.986862
384.107903	-3.017900	3.891600	-11.744000	22.416841	0.000181	20.968953
385.102752	-2.996400	3.892100	-11.661000	22.430597	0.000181	20.958075
386.104858	-3.011500	3.891700	-11.719000	22.419919	0.000181	20.948805
387.106056	-3.003800	3.891800	-11.689000	22.420366	0.000180	20.962528
388.102157	-3.002500	3.890600	-11.680000	22.429861	0.000180	20.963501
389.106433	-3.016900	3.889800	-11.735000	22.424128	0.000181	20.967242
390.106073	-3.009300	3.889700	-11.704000	22.419445	0.000183	20.986258
391.103005	-2.991100	3.890700	-11.636000	22.430362	0.000183	20.972536
392.106349	-3.011400	3.889600	-11.711000	22.414579	0.000181	20.970008
393.106650	-2.986900	3.889300	-11.615000	22.436937	0.000183	20.990023
394.104542	-2.989200	3.889600	-11.626000	22.454481	0.000184	20.975827
395.108976	-3.010900	3.888400	-11.707000	22.467371	0.000183	20.972615
396.106969	-2.986100	3.889900	-11.614000	22.475156	0.000186	20.981832
397.101682	-2.983700	3.888700	-11.601000	22.497357	0.000184	20.977040
398.109417	-2.992900	3.889400	-11.640000	22.507457	0.000184	20.975776
399.109046	-3.018400	3.888600	-11.737000	22.530421	0.000185	20.972696
400.104280	-2.996700	3.888500	-11.652000	22.505220	0.000184	20.987758
401.106640	-3.026300	3.888400	-11.766000	22.525054	0.000184	20.967322
402.108014	-3.009000	3.888600	-11.699000	22.522845	0.000185	20.992606
403.106136	-3.001400	3.889300	-11.672000	22.494464	0.000186	20.987417
404.108469	-3.011200	3.888200	-11.707000	22.509326	0.000185	20.992817
405.108407	-3.013500	3.888600	-11.718000	22.518216	0.000184	20.979438
406.106989	-3.006300	3.887800	-11.687000	22.532551	0.000185	20.995214
407.112087	-2.997900	3.887300	-11.653000	22.538179	0.000186	20.963398
408.110014	-2.998800	3.887300	-11.656000	22.502909	0.000186	20.972643
409.109101	-3.001300	3.886200	-11.663000	22.521899	0.000188	20.969851
410.110622	-2.995500	3.887500	-11.644000	22.543861	0.000188	21.006065
411.111737	-2.974300	3.887700	-11.562000	22.534709	0.000186	20.992160
412.110139	-2.985100	3.888000	-11.605000	22.529896	0.000188	20.982126
413.112030	-2.972200	3.888500	-11.556000	22.522663	0.000188	20.992424
414.113426	-3.002900	3.886100	-11.669000	22.513037	0.000188	20.981363
415.110482	-2.993000	3.885600	-11.628000	22.523375	0.000189	20.995507
416.112854	-2.998000	3.885500	-11.647000	22.527240	0.000190	20.979467
417.113310	-2.996500	3.886300	-11.645000	22.526031	0.000187	20.995796
418.111737	-2.988600	3.885400	-11.611000	22.530502	0.000189	20.986999
419.114379	-3.003600	3.884500	-11.666000	22.531738	0.000188	20.986815
420.113276	-2.996400	3.884500	-11.639000	22.524006	0.000189	20.996613
421.114082	-3.011400	3.884900	-11.699000	22.536815	0.000189	20.984314
422.116395	-3.005700	3.886400	-11.680000	22.555595	0.000190	21.007860
423.114666	-2.999800	3.885700	-11.655000	22.556279	0.000194	21.007597
424.114182	-3.004200	3.884800	-11.670000	22.573743	0.000191	20.985263
425.114386	-3.030300	3.882700	-11.765000	22.601596	0.000194	21.015999
426.116336	-2.980100	3.884200	-11.574000	22.593890	0.000192	21.010653
427.114052	-3.012600	3.883100	-11.698000	22.597125	0.000192	20.993981
428.119672	-3.022700	3.883900	-11.739000	22.608120	0.000191	21.021109
429.117632	-3.012200	3.883300	-11.697000	22.588631	0.000191	21.019608
430.114558	-3.020500	3.882100	-11.725000	22.585474	0.000192	20.992743
431.118911	-3.007800	3.882800	-11.678000	22.580477	0.000194	21.013813
432.119623	-3.001100	3.882200	-11.650000	22.592838	0.000195	21.002962
433.116136	-2.997000	3.881500	-11.632000	22.582292	0.000195	20.998564
434.118672	-2.994400	3.883100	-11.627000	22.619718	0.000194	21.006650
435.118742	-2.988700	3.882200	-11.602000	22.601019	0.000194	21.015895
436.115273	-2.988600	3.882200	-11.602000	22.641283	0.000197	20.994113
437.121928	-3.003700	3.881700	-11.659000	22.658195	0.000196	21.012471
438.121052	-2.998800	3.881300	-11.639000	22.650409	0.000194	20.986660
439.116960	-2.996500	3.881100	-11.629000	22.614669	0.000197	21.023875
440.121077	-2.972700	3.881400	-11.538000	22.619508	0.000195	20.998380
441.117499	-2.986500	3.881600	-11.592000	22.644624	0.000196	21.003622
442.115888	-2.988300	3.881900	-11.600000	22.648463	0.000197	21.013629
443.115605	-3.009100	3.880500	-11.676000	22.633473	0.000195	20.998618
444.117886	-2.988000	3.881100	-11.596000	22.663534	0.000196	21.012604
445.115786	-2.995400	3.880900	-11.624000	22.663192	0.000197	21.028853
446.117502	-2.979900	3.880600	-11.563000	22.646440	0.000198	21.007810
447.117252	-2.989900	3.879600	-11.599000	22.670846	0.000198	21.023244
448.118503	-2.978200	3.880100	-11.555000	22.704691	0.000199	21.017318
449.116576	-3.008100	3.879500	-11.669000	22.690754	0.000198	21.036070
450.120488	-2.988900	3.879900	-11.595000	22.670872	0.000198	21.025641
451.117445	-3.009600	3.879200	-11.674000	22.674053	0.000198	21.013183
452.121036	-3.003000	3.879500	-11.650000	22.689808	0.000198	21.019005
453.120662	-3.003800	3.878400	-11.649000	22.718552	0.000197	21.022666
454.118679	-2.997600	3.878400	-11.625000	22.711978	0.000200	21.035045
455.120358	-3.001800	3.878500	-11.641000	22.715974	0.000203	21.025774
456.121641	-3.008500	3.878100	-11.667000	22.707535	0.000200	21.010211
457.119437	-2.994200	3.878400	-11.612000	22.718973	0.000201	21.038732
458.121799	-2.995900	3.877600	-11.616000	22.725127	0.000200	21.034939
459.123566	-3.036500	3.876500	-11.770000	22.708559	0.000200	21.019295
460.119139	-2.994900	3.878000	-11.613000	22.712478	0.000201	21.038864
461.122163	-3.008100	3.876200	-11.659000	22.718581	0.000204	21.024117
462.122521	-3.006900	3.876900	-11.656000	22.698988	0.000200	21.017295
463.119796	-3.010700	3.876100	-11.669000	22.715475	0.000203	21.043761
464.121657	-3.023800	3.874300	-11.714000	22.737120	0.000201	21.011870
465.125269	-3.004300	3.876200	-11.644000	22.722997	0.000201	21.041340
466.121178	-2.997700	3.875800	-11.617000	22.734569	0.000203	21.015478
467.125315	-3.018700	3.873800	-11.693000	22.752135	0.000202	21.042078
468.123921	-3.019900	3.874200	-11.698000	22.765311	0.000204	21.026356
469.121543	-3.010000	3.875500	-11.663000	22.775381	0.000203	21.057300
470.126633	-2.996300	3.876600	-11.615000	22.794761	0.000203	21.064858
471.125671	-3.008600	3.873800	-11.654000	22.790318	0.000205	21.066097
472.122109	-3.008400	3.873500	-11.653000	22.769544	0.000203	21.027277
473.125918	-2.997900	3.874000	-11.613000	22.754292	0.000205	21.053245
474.125306	-3.012800	3.873300	-11.669000	22.780142	0.000203	21.045476
475.120927	-2.992700	3.872100	-11.587000	22.789292	0.000203	21.048478
476.126222	-2.983300	3.873500	-11.555000	22.785768	0.000204	21.047793
477.124008	-2.998400	3.873200	-11.613000	22.779695	0.000204	21.051665
478.120961	-2.983700	3.873100	-11.554000	22.779250	0.000205	21.058330
479.123844	-2.971600	3.873700	-11.510000	22.788768	0.000205	21.047953
480.125593	-2.999100	3.871600	-11.610000	22.769284	0.000205	21.044557
481.122640	-3.014100	3.871800	-11.669000	22.787401	0.000205	21.053221
482.128881	-2.984400	3.872600	-11.557000	22.776883	0.000204	21.053590
483.126494	-3.015300	3.872900	-11.677000	22.788032	0.000206	21.055749
484.125417	-3.013400	3.870800	-11.664000	22.784273	0.000205	21.056724
485.130316	-2.997200	3.871500	-11.602000	22.798946	0.000205	21.049614
486.128850	-2.977300	3.872700	-11.529000	22.792031	0.000206	21.055487
487.125731	-2.995500	3.870700	-11.594000	22.790426	0.000204	21.060991
488.127963	-2.995100	3.871300	-11.593000	22.809465	0.000205	21.062993
489.127871	-3.022500	3.870600	-11.698000	22.811699	0.000208	21.067127
490.126101	-2.966400	3.871200	-11.482000	22.848696	0.000207	21.076213
491.128071	-2.986400	3.870500	-11.558000	22.842360	0.000205	21.061807
492.128729	-2.994800	3.870400	-11.589000	22.856270	0.000207	21.056304
493.125333	-2.963900	3.870700	-11.471000	22.839996	0.000207	21.068446
494.130331	-2.995100	3.870000	-11.590000	22.837759	0.000210	21.066680
495.128824	-2.995300	3.868800	-11.587000	22.820456	0.000205	21.080164
496.125682	-3.000600	3.868700	-11.608000	22.847093	0.000204	21.075081
497.127946	-2.978500	3.869500	-11.524000	22.847907	0.000206	21.083007
498.127488	-2.997500	3.868600	-11.595000	22.842622	0.000207	21.068707
499.124789	-2.976900	3.869100	-11.517000	22.856637	0.000206	21.054302
500.129946	-2.999300	3.868100	-11.600000	22.840729	0.000208	21.067759
501.128990	-2.977000	3.868600	-11.516000	22.863473	0.000208	21.083428
502.127901	-2.994800	3.868600	-11.585000	22.867312	0.000207	21.083007
503.129480	-3.005000	3.867400	-11.620000	22.852982	0.000208	21.073395
504.129709	-3.003500	3.866000	-11.611000	22.851797	0.000210	21.092591
505.129306	-3.019900	3.866400	-11.675000	22.873937	0.000207	21.074947
506.129277	-2.996500	3.865800	-11.583000	22.854532	0.000211	21.081109
507.129285	-2.994100	3.865500	-11.573000	22.855898	0.000207	21.076789
508.129632	-3.001700	3.866200	-11.604000	22.858869	0.000210	21.082135
509.128661	-2.995000	3.864700	-11.574000	22.884057	0.000209	21.085083
510.132004	-3.008300	3.865200	-11.627000	22.880009	0.000210	21.072496
511.131605	-3.016700	3.864300	-11.657000	22.883033	0.000211	21.076947
512.131773	-3.018300	3.864900	-11.665000	22.917214	0.000208	21.090325
513.135333	-2.980300	3.864400	-11.516000	22.907984	0.000208	21.095301
514.130548	-3.009100	3.865100	-11.630000	22.913086	0.000210	21.095197
515.135639	-2.983700	3.865400	-11.533000	22.937565	0.000209	21.088903
516.134598	-3.004500	3.863400	-11.607000	22.933568	0.000209	21.091062
517.133257	-2.987700	3.864700	-11.546000	22.951395	0.000212	21.085216
518.134357	-2.996500	3.863600	-11.576000	22.935356	0.000210	21.104230
519.133763	-3.003500	3.862600	-11.601000	22.955338	0.000210	21.099120
520.135232	-2.993100	3.861900	-11.559000	22.955890	0.000212	21.103465
521.134639	-3.003900	3.862800	-11.602000	22.922236	0.000212	21.083029
522.138135	-2.995200	3.862300	-11.567000	22.953918	0.000212	21.088218
523.135189	-2.999800	3.862200	-11.585000	22.973715	0.000213	21.087664
524.137722	-2.994100	3.861600	-11.561000	22.945584	0.000212	21.085084
525.138533	-2.980500	3.862700	-11.512000	22.963488	0.000213	21.110602
526.136875	-2.999400	3.862300	-11.583000	22.959018	0.000213	21.099962
527.142999	-2.991500	3.861900	-11.552000	22.925627	0.000212	21.089745
528.141814	-3.000200	3.860400	-11.581000	22.937880	0.000211	21.094433
529.138098	-2.998700	3.859800	-11.574000	22.949869	0.000212	21.084635
530.146387	-2.988600	3.861800	-11.541000	22.941454	0.000213	21.091850
531.143547	-3.004800	3.859800	-11.597000	22.922971	0.000213	21.090403
532.142715	-2.996600	3.860600	-11.567000	22.945767	0.000216	21.087163
533.147420	-2.974600	3.859500	-11.479000	22.936511	0.000214	21.081211
534.145446	-3.004800	3.858800	-11.594000	22.946898	0.000214	21.069335
535.143113	-3.012100	3.858400	-11.620000	22.948449	0.000215	21.090798
536.144264	-3.000400	3.859100	-11.577000	22.920684	0.000218	21.088585
537.143758	-2.989100	3.858700	-11.534000	22.954232	0.000213	21.079525
538.143776	-3.012100	3.858700	-11.623000	22.942059	0.000212	21.071125
539.143912	-2.999300	3.859200	-11.574000	22.968009	0.000215	21.102805
540.147773	-3.029000	3.856100	-11.679000	22.965643	0.000212	21.076260
541.144942	-3.027000	3.856800	-11.673000	22.981735	0.000217	21.067729
542.145457	-3.013800	3.856400	-11.621000	22.978079	0.000214	21.071651
543.147441	-2.995600	3.857700	-11.555000	23.004738	0.000214	21.086030
544.145103	-2.990500	3.857000	-11.533000	22.990225	0.000215	21.067700
545.144745	-3.003500	3.856600	-11.582000	22.988358	0.000213	21.067727
546.149554	-3.023500	3.856500	-11.660000	22.997140	0.000217	21.072731
547.146172	-2.996000	3.856500	-11.552000	23.029161	0.000215	21.052662
548.146155	-3.013900	3.854100	-11.615000	23.025875	0.000216	21.058377
549.149125	-3.020100	3.855800	-11.644000	23.020013	0.000217	21.070044
550.146752	-3.005200	3.855400	-11.585000	23.020406	0.000215	21.064750
551.147466	-2.987500	3.853900	-11.512000	23.030658	0.000214	21.066487
552.148319	-2.994300	3.854500	-11.541000	23.064519	0.000216	21.067698
553.146878	-3.010800	3.852900	-11.600000	23.045931	0.000216	21.059981
554.146029	-2.993700	3.853000	-11.534000	23.026871	0.000215	21.077863
555.149759	-3.022600	3.852500	-11.644000	23.040200	0.000217	21.064669
556.147910	-3.013200	3.852800	-11.609000	23.050033	0.000216	21.049868
557.145645	-2.999700	3.853300	-11.557000	23.051583	0.000217	21.054739
558.149959	-2.997200	3.852900	-11.547000	23.060390	0.000216	21.053133
559.148780	-3.013400	3.853200	-11.611000	23.055447	0.000218	21.053395
560.150497	-3.002300	3.851800	-11.563000	23.024766	0.000215	21.055844
561.149939	-3.003100	3.851900	-11.567000	23.024162	0.000218	21.053817
562.150909	-2.993800	3.852400	-11.532000	23.027894	0.000216	21.057082
563.149796	-2.987800	3.850700	-11.504000	22.997765	0.000216	21.042070
564.152009	-2.976700	3.851200	-11.463000	23.010280	0.000218	21.046547
565.153282	-2.992400	3.851100	-11.522000	23.025291	0.000217	21.061110
566.150939	-3.004100	3.851500	-11.569000	23.025132	0.000217	21.060478
567.153086	-3.007300	3.849900	-11.577000	23.028288	0.000218	21.040884
568.152235	-3.000000	3.850000	-11.549000	23.024317	0.000217	21.056343
569.154243	-2.997900	3.849600	-11.540000	23.047636	0.000217	21.046519
570.154426	-2.995100	3.850600	-11.532000	23.043403	0.000217	21.054130
571.153568	-2.980500	3.849800	-11.473000	23.068378	0.000218	21.044543
572.154457	-3.007200	3.849200	-11.575000	23.088647	0.000219	21.053945
573.155129	-2.976000	3.849600	-11.455000	23.140435	0.000217	21.038512
574.155037	-3.005900	3.847900	-11.565000	23.135886	0.000216	21.023999
575.156199	-3.018700	3.848000	-11.615000	23.135046	0.000216	21.056341
576.155811	-3.006900	3.848100	-11.569000	23.132022	0.000217	21.037194
577.158540	-3.018800	3.847500	-11.614000	23.135175	0.000218	21.037982
578.158024	-2.994500	3.846000	-11.515000	23.121848	0.000219	21.051178
579.155914	-2.993500	3.847500	-11.517000	23.112332	0.000217	21.074828
580.157981	-3.008200	3.845900	-11.568000	23.113304	0.000219	21.027923
581.158609	-3.003600	3.846800	-11.553000	23.119955	0.000218	21.047860
582.159234	-2.994700	3.846600	-11.519000	23.129892	0.000220	21.049756
583.162713	-2.982000	3.845800	-11.468000	23.136701	0.000216	21.043778
584.159918	-3.007600	3.845300	-11.564000	23.161910	0.000217	21.045805
585.159920	-3.000000	3.844800	-11.534000	23.163697	0.000217	21.046174
586.161704	-2.991100	3.844700	-11.499000	23.181258	0.000217	21.024421
587.159616	-2.989200	3.844500	-11.491000	23.170716	0.000216	21.021444
588.159433	-2.973300	3.845600	-11.433000	23.191615	0.000218	21.035272
589.166170	-2.998500	3.844100	-11.526000	23.147136	0.000218	21.041907
590.161600	-3.015200	3.843200	-11.587000	23.165458	0.000220	21.037982
591.164357	-3.014400	3.843000	-11.584000	23.131022	0.000217	21.026237
592.167646	-3.004100	3.843800	-11.546000	23.130418	0.000218	21.014254
593.162693	-3.018500	3.842400	-11.597000	23.145743	0.000217	21.031030
594.165042	-2.997300	3.842600	-11.516000	23.171977	0.000218	21.022233
595.167091	-3.000400	3.842600	-11.528000	23.187565	0.000217	21.021259
596.164790	-2.984800	3.842500	-11.468000	23.167588	0.000219	21.021628
597.163881	-2.986000	3.842400	-11.472000	23.164274	0.000218	21.028738
598.169082	-3.015800	3.840800	-11.582000	23.136856	0.000218	21.024972
599.164274	-2.981800	3.841900	-11.454000	23.150974	0.000217	21.042908
600.165014	-3.005500	3.840000	-11.541000	23.137172	0.000216	21.040932
601.168821	-3.001500	3.840000	-11.525000	23.143769	0.000218	21.043275
602.164165	-2.994900	3.840800	-11.503000	23.164563	0.000218	21.043249
603.164562	-3.010500	3.839600	-11.558000	23.184961	0.000219	21.039983
604.168080	-3.011300	3.839800	-11.562000	23.207803	0.000218	21.033476
605.164505	-2.987400	3.839600	-11.470000	23.197527	0.000216	21.036454
606.165526	-3.013100	3.838700	-11.565000	23.204702	0.000216	21.037006
607.164855	-3.034100	3.837500	-11.642000	23.204412	0.000220	21.007324
608.164801	-3.004500	3.838700	-11.532000	23.189587	0.000218	21.044617
609.165347	-3.012000	3.837000	-11.556000	23.211035	0.000218	21.039559
610.167377	-2.988200	3.837200	-11.465000	23.203360	0.000219	21.031869
611.168168	-2.994000	3.836600	-11.486000	23.211561	0.000218	21.009272
612.167226	-3.001900	3.837200	-11.519000	23.191924	0.000218	21.033211
613.167702	-3.017200	3.837100	-11.577000	23.202860	0.000218	21.024258
614.169120	-2.994500	3.835800	-11.486000	23.163666	0.000221	21.016750
615.168965	-3.020700	3.836000	-11.586000	23.197286	0.000218	21.021991
616.169736	-2.987700	3.836300	-11.461000	23.198783	0.000218	21.020647
617.167704	-2.987500	3.835900	-11.459000	23.210297	0.000219	21.032657
618.168001	-3.006500	3.835600	-11.531000	23.169133	0.000216	21.027443
619.168411	-2.993900	3.836200	-11.484000	23.165556	0.000218	21.029074
620.168534	-3.023300	3.834900	-11.593000	23.190003	0.000217	21.023702
621.170155	-3.009800	3.834100	-11.539000	23.208957	0.000219	21.022781
622.170169	-2.988100	3.834600	-11.456000	23.225725	0.000219	21.026308
623.170381	-2.986700	3.833900	-11.449000	23.255927	0.000219	21.017696
624.171838	-3.002200	3.833900	-11.508000	23.265127	0.000220	21.024069
625.173176	-3.016600	3.832100	-11.559000	23.242363	0.000217	21.028282
626.171453	-2.999000	3.833600	-11.495000	23.223727	0.000219	21.018143
627.173285	-3.003800	3.832100	-11.510000	23.206589	0.000219	21.035578
628.174870	-2.993200	3.831700	-11.469000	23.247988	0.000218	21.004053
629.174109	-2.995300	3.832800	-11.480000	23.265573	0.000219	21.019301
630.173429	-3.013300	3.831400	-11.543000	23.263969	0.000217	21.027650
631.175995	-3.003800	3.831900	-11.510000	23.304631	0.000216	21.007240
632.175711	-2.997000	3.831300	-11.482000	23.292434	0.000218	21.017299
633.177083	-3.007300	3.830500	-11.519000	23.286363	0.000218	21.026385
634.177382	-2.997200	3.830600	-11.480000	23.297033	0.000217	21.013374
635.176718	-2.981900	3.831500	-11.425000	23.282445	0.000220	21.015349
636.175707	-3.002500	3.828900	-11.495000	23.266517	0.000217	21.018351
637.176979	-3.001700	3.829300	-11.494000	23.291749	0.000219	21.019931
638.176423	-3.004700	3.830300	-11.508000	23.274823	0.000219	21.004393
639.178712	-3.007400	3.828600	-11.513000	23.249589	0.000217	21.014664
640.177624	-3.010300	3.828500	-11.524000	23.233897	0.000218	21.026911
641.179400	-2.998500	3.828900	-11.480000	23.222357	0.000218	21.006815
642.178754	-2.992100	3.827700	-11.452000	23.256974	0.000218	21.010212
643.178086	-3.009100	3.828000	-11.518000	23.243332	0.000216	21.015032
644.179236	-3.016300	3.826500	-11.541000	23.226037	0.000218	21.024724
645.179931	-2.973000	3.826900	-11.377000	23.257421	0.000215	21.032941
646.180199	-2.984000	3.826900	-11.419000	23.253531	0.000215	21.027621
647.182345	-3.011000	3.826400	-11.521000	23.287228	0.000217	21.014452
648.179957	-3.005600	3.825100	-11.496000	23.300974	0.000218	21.015427
649.179475	-2.979800	3.825800	-11.399000	23.332279	0.000217	21.022618
650.181586	-2.999600	3.826400	-11.476000	23.295744	0.000216	21.023934
651.180326	-2.996700	3.825500	-11.463000	23.295534	0.000217	21.031783
652.180402	-2.986200	3.824700	-11.421000	23.252218	0.000217	21.037208
653.182899	-3.000500	3.824100	-11.473000	23.288990	0.000216	21.022381
654.183042	-3.013500	3.824600	-11.525000	23.316851	0.000219	21.009529
655.183390	-3.005600	3.823500	-11.491000	23.279766	0.000216	21.006028
656.186076	-2.975300	3.824200	-11.378000	23.269934	0.000213	21.009924
657.184575	-3.003900	3.822400	-11.482000	23.268306	0.000217	20.994545
658.184083	-3.022400	3.821300	-11.549000	23.290201	0.000217	21.003209
659.185202	-3.007600	3.823600	-11.499000	23.289939	0.000214	20.997732
660.185646	-2.978000	3.823000	-11.383000	23.261948	0.000214	21.001922
661.187117	-2.989700	3.821700	-11.425000	23.302635	0.000214	21.009980
662.187312	-2.988900	3.821900	-11.422000	23.328525	0.000216	21.011745
663.186324	-2.992100	3.821200	-11.432000	23.327973	0.000215	20.999814
664.186176	-2.994000	3.821000	-11.439000	23.360906	0.000216	21.012904
665.189512	-3.017800	3.819800	-11.526000	23.330155	0.000215	20.997260
666.188959	-2.999500	3.820200	-11.458000	23.309785	0.000214	21.017619
667.188707	-3.000900	3.819900	-11.462000	23.326239	0.000214	21.017514
668.189895	-3.003700	3.820200	-11.474000	23.350106	0.000215	20.985963
669.187772	-3.023500	3.819100	-11.547000	23.326003	0.000216	21.002581
670.189002	-3.004100	3.819200	-11.473000	23.349658	0.000212	21.010640
671.187996	-3.021400	3.818400	-11.535000	23.347214	0.000217	20.995865
672.188081	-3.003200	3.818800	-11.467000	23.322403	0.000214	21.012247
673.189459	-3.022000	3.817800	-11.537000	23.317671	0.000216	20.986646
674.189229	-3.012000	3.818100	-11.498000	23.351762	0.000215	20.991416
675.187963	-3.011400	3.816900	-11.493000	23.348712	0.000215	21.003055
676.188469	-3.003700	3.816400	-11.463000	23.351525	0.000213	20.985489
677.189979	-2.989700	3.817300	-11.411000	23.339934	0.000211	20.978140
678.189291	-2.986900	3.816200	-11.398000	23.352076	0.000215	20.992204
679.188241	-2.991500	3.816200	-11.415000	23.359987	0.000216	21.006295
680.188894	-3.008500	3.815900	-11.480000	23.355914	0.000215	20.973769
681.190181	-2.994800	3.816800	-11.430000	23.388082	0.000212	20.985619
682.189740	-2.993200	3.815900	-11.421000	23.373391	0.000215	20.987964
683.189408	-3.013500	3.815200	-11.496000	23.380986	0.000214	20.983249
684.189832	-3.000000	3.814200	-11.442000	23.357437	0.000213	20.985251
685.189835	-3.018900	3.813500	-11.512000	23.349605	0.000214	20.993521
686.190897	-3.007200	3.814200	-11.469000	23.315410	0.000212	20.981537
687.191695	-2.993800	3.814000	-11.418000	23.303346	0.000214	20.972293
688.191138	-3.002200	3.812000	-11.444000	23.335911	0.000210	20.998287
689.191958	-2.990300	3.812100	-11.399000	23.366663	0.000213	20.983118
690.191678	-2.989200	3.813100	-11.397000	23.351156	0.000213	20.998867
691.192722	-3.012400	3.811700	-11.481000	23.380039	0.000212	20.988463
692.190889	-2.990400	3.812600	-11.400000	23.403535	0.000213	21.005846
693.192090	-2.989600	3.811900	-11.395000	23.400172	0.000211	20.989676
694.190864	-2.988500	3.812100	-11.391000	23.413601	0.000212	20.978481
695.194569	-2.989800	3.811000	-11.392000	23.428766	0.000213	20.992731
696.192635	-2.995800	3.810600	-11.415000	23.406295	0.000215	20.973530
697.192675	-2.987400	3.810300	-11.382000	23.408502	0.000213	20.992808
698.192975	-3.007600	3.808800	-11.455000	23.425612	0.000213	20.982459
699.192257	-2.982000	3.811700	-11.365000	23.432077	0.000213	20.992731
700.192277	-2.995100	3.809000	-11.408000	23.420617	0.000212	20.979823
701.191817	-2.988400	3.809600	-11.384000	23.432338	0.000212	20.988726
702.194143	-3.001100	3.809600	-11.432000	23.422589	0.000211	20.991755
703.192500	-3.006700	3.808800	-11.450000	23.424139	0.000210	20.994257
704.194330	-3.015000	3.807600	-11.478000	23.370524	0.000212	20.995046
705.194444	-2.995700	3.807100	-11.404000	23.387737	0.000211	20.992385
706.194197	-3.005200	3.806700	-11.439000	23.387974	0.000212	20.994993
707.194561	-2.981800	3.807400	-11.352000	23.394176	0.000211	20.998838
708.193192	-3.005300	3.806900	-11.440000	23.387527	0.000212	20.970841
709.195586	-2.993700	3.807200	-11.396000	23.405347	0.000210	20.987750
710.194279	-3.006900	3.806500	-11.445000	23.391759	0.000207	20.967496
711.196390	-3.009300	3.804700	-11.448000	23.440433	0.000210	20.972185
712.195670	-3.006700	3.805400	-11.441000	23.412679	0.000212	20.977083
713.197314	-3.018000	3.804300	-11.481000	23.423402	0.000210	20.973133
714.197308	-3.014700	3.805500	-11.471000	23.411076	0.000210	20.975951
715.197567	-2.989200	3.804700	-11.372000	23.429656	0.000210	20.970393
716.198522	-2.983800	3.804700	-11.351000	23.453255	0.000207	20.953746
717.197466	-3.016800	3.803600	-11.473000	23.474805	0.000210	20.967759
718.197433	-2.983600	3.802900	-11.345000	23.474937	0.000209	20.965995
719.198742	-2.990300	3.803100	-11.371000	23.463637	0.000208	20.963677
720.198315	-2.994200	3.802400	-11.384000	23.479825	0.000208	20.965204
721.197165	-2.978100	3.802800	-11.324000	23.456831	0.000210	20.965390
722.199133	-2.985000	3.801900	-11.348000	23.448263	0.000208	20.975766
723.198753	-3.005000	3.801700	-11.423000	23.425241	0.000209	20.957909
724.199974	-3.010500	3.800400	-11.440000	23.399801	0.000206	20.949955
725.199972	-3.001300	3.799800	-11.403000	23.419196	0.000208	20.981718
726.199996	-2.980100	3.800400	-11.325000	23.403664	0.000209	20.969471
727.200115	-2.987500	3.800400	-11.353000	23.423665	0.000210	20.969604
728.199677	-2.997000	3.800200	-11.387000	23.430130	0.000208	20.958542
729.198622	-2.983500	3.800800	-11.339000	23.440405	0.000206	20.960306
730.198327	-2.978700	3.800100	-11.318000	23.424454	0.000208	20.979876
731.199739	-3.005000	3.797600	-11.411000	23.447134	0.000206	20.952827
732.199319	-2.969700	3.799100	-11.281000	23.460485	0.000209	20.953407
733.203450	-3.000400	3.798800	-11.397000	23.466188	0.000207	20.940159
734.200792	-2.983200	3.799400	-11.332000	23.491574	0.000208	20.967972
735.202071	-3.035800	3.797900	-11.528000	23.481274	0.000205	20.942478
736.206176	-3.006700	3.798200	-11.419000	23.507999	0.000206	20.941766
737.202818	-2.992100	3.798200	-11.363000	23.509130	0.000207	20.955226
738.202413	-3.006000	3.796800	-11.412000	23.514857	0.000207	20.963337
739.201415	-3.019200	3.796100	-11.460000	23.535488	0.000208	20.953198
740.203142	-3.022400	3.796900	-11.475000	23.515594	0.000208	20.956963
741.202254	-2.999200	3.796500	-11.386000	23.515016	0.000204	20.943109
742.202493	-3.020900	3.795400	-11.464000	23.516462	0.000205	20.955463
743.202725	-2.992000	3.795200	-11.355000	23.505031	0.000209	20.975296
744.203641	-3.012500	3.794500	-11.430000	23.524082	0.000205	20.949826
745.204857	-3.010700	3.794300	-11.423000	23.500931	0.000205	20.951749
746.203009	-3.019300	3.795200	-11.457000	23.458281	0.000206	20.954516
747.205250	-3.005900	3.793000	-11.400000	23.458359	0.000204	20.952225
748.203785	-2.984800	3.793500	-11.321000	23.462801	0.000205	20.942928
749.204162	-3.038000	3.792300	-11.520000	23.471290	0.000205	20.941005
750.204778	-2.987700	3.792800	-11.331000	23.488898	0.000202	20.956282
751.204271	-3.009000	3.792500	-11.411000	23.493550	0.000204	20.953833
752.204086	-3.001500	3.791800	-11.380000	23.495599	0.000202	20.933130
753.206127	-3.005400	3.793300	-11.399000	23.479727	0.000205	20.947091
754.205954	-3.021000	3.791500	-11.453000	23.493944	0.000203	20.928627
755.203491	-2.993100	3.791200	-11.348000	23.496468	0.000203	20.937320
756.205850	-2.983500	3.789700	-11.306000	23.473315	0.000203	20.935924
757.205192	-3.013000	3.790600	-11.421000	23.448113	0.000204	20.945274
758.206701	-2.993600	3.790700	-11.347000	23.470031	0.000203	20.927417
759.205651	-3.019300	3.790000	-11.443000	23.485852	0.000203	20.929525
760.206419	-2.965400	3.789400	-11.235000	23.505142	0.000201	20.947436
761.205039	-3.008700	3.789300	-11.400000	23.516283	0.000202	20.931579
762.204641	-3.013100	3.788100	-11.413000	23.541380	0.000202	20.942985
763.208809	-2.985300	3.789400	-11.312000	23.557436	0.000202	20.923520
764.206592	-3.000700	3.788400	-11.367000	23.552365	0.000203	20.945936
765.208158	-2.973100	3.788900	-11.264000	23.520357	0.000201	20.939929
766.206075	-2.994700	3.786500	-11.338000	23.514156	0.000203	20.934662
767.207531	-2.998200	3.787400	-11.355000	23.533760	0.000201	20.938665
768.207666	-2.985400	3.786200	-11.302000	23.523065	0.000201	20.940747
769.208715	-2.978600	3.787100	-11.279000	23.508664	0.000202	20.932476
770.209156	-2.990400	3.786600	-11.322000	23.471505	0.000199	20.959236
771.209538	-3.001300	3.785100	-11.360000	23.468168	0.000198	20.943565
772.211725	-2.993900	3.785000	-11.331000	23.495525	0.000201	20.933530
773.210261	-3.001600	3.785300	-11.361000	23.506115	0.000198	20.949359
774.211041	-2.983100	3.785900	-11.293000	23.513737	0.000199	20.932346
775.211073	-2.984400	3.785000	-11.295000	23.563298	0.000201	20.922758
776.212285	-2.980900	3.785400	-11.283000	23.533736	0.000198	20.937219
777.212438	-3.011600	3.783800	-11.395000	23.521593	0.000200	20.936427
778.211203	-3.006200	3.783500	-11.373000	23.510900	0.000197	20.934243
779.213243	-3.009800	3.784400	-11.389000	23.508718	0.000198	20.938694
780.213194	-3.010500	3.783100	-11.388000	23.519413	0.000200	20.942776
781.213127	-3.047600	3.781100	-11.522000	23.552262	0.000199	20.948676
782.213171	-3.006100	3.782100	-11.369000	23.537703	0.000196	20.948781
783.213322	-3.023200	3.780900	-11.430000	23.555941	0.000197	20.959001
784.212839	-2.995900	3.781300	-11.328000	23.578330	0.000199	20.961530
785.214519	-2.996700	3.780300	-11.327000	23.549530	0.000197	20.952575
786.212319	-2.997400	3.781600	-11.334000	23.544879	0.000194	20.941277
787.214467	-3.002900	3.781700	-11.355000	23.560226	0.000195	20.936273
788.214667	-2.998000	3.781800	-11.337000	23.556915	0.000196	20.943859
789.214427	-2.988400	3.780200	-11.296000	23.567350	0.000197	20.950050
790.213610	-2.997300	3.780100	-11.329000	23.552790	0.000194	20.962481
791.214078	-3.017100	3.780000	-11.403000	23.565509	0.000196	20.947731
792.216118	-3.009000	3.780200	-11.373000	23.580908	0.000196	20.944677
793.216339	-2.989600	3.780200	-11.301000	23.567008	0.000196	20.955871
794.216299	-3.010100	3.778000	-11.371000	23.535002	0.000196	20.950341
795.218351	-2.973500	3.779500	-11.238000	23.529588	0.000196	20.954870
796.218470	-3.000900	3.777200	-11.334000	23.562829	0.000192	20.948838
797.218216	-3.008100	3.776200	-11.358000	23.566299	0.000194	20.935248
798.216736	-3.011500	3.777100	-11.373000	23.538892	0.000194	20.953291
799.218380	-3.012100	3.776400	-11.375000	23.548851	0.000195	20.942414
800.218102	-3.026000	3.775700	-11.424000	23.560676	0.000193	20.953318
801.218915	-2.998400	3.777100	-11.324000	23.572529	0.000193	20.940545
802.220155	-3.004300	3.776800	-11.345000	23.581043	0.000192	20.932485
803.221714	-2.986600	3.776500	-11.277000	23.588242	0.000192	20.947287
804.221355	-2.992300	3.774400	-11.293000	23.596204	0.000192	20.930615
805.221878	-3.005800	3.774800	-11.345000	23.618330	0.000193	20.944259
806.222919	-2.988400	3.775600	-11.282000	23.623637	0.000193	20.957638
807.222929	-2.991200	3.775600	-11.293000	23.654828	0.000194	20.943390
808.222718	-2.998900	3.773600	-11.316000	23.662685	0.000194	20.948422
809.223391	-3.017000	3.773500	-11.384000	23.654671	0.000193	20.953189
810.224226	-3.019400	3.774100	-11.395000	23.635096	0.000192	20.956323
811.224088	-2.989200	3.773800	-11.279000	23.594970	0.000190	20.954505
812.225155	-3.009600	3.772400	-11.353000	23.586878	0.000193	20.954453
813.226119	-3.001300	3.772800	-11.323000	23.575237	0.000190	20.976919
814.226023	-3.012300	3.772200	-11.362000	23.618175	0.000190	20.946000
815.226763	-2.988400	3.772500	-11.273000	23.605850	0.000189	20.991010
816.226489	-2.991200	3.772000	-11.281000	23.570821	0.000189	20.965857
817.227362	-2.976000	3.771600	-11.222000	23.566513	0.000190	20.940678
818.229023	-2.989900	3.771200	-11.275000	23.547120	0.000188	20.949686
819.229221	-2.994700	3.771700	-11.294000	23.589060	0.000188	20.968018
820.229135	-2.992000	3.771700	-11.284000	23.574238	0.000187	20.974496
821.228964	-2.978800	3.771100	-11.233000	23.569929	0.000188	20.956428
822.229744	-2.984900	3.771800	-11.258000	23.583068	0.000190	20.975287
823.226668	-2.979500	3.770700	-11.234000	23.595445	0.000187	20.962092
824.229618	-2.997000	3.769400	-11.296000	23.590058	0.000186	20.969967
825.229531	-3.014800	3.770400	-11.366000	23.582280	0.000187	20.962171
826.229862	-2.985600	3.768800	-11.250000	23.562598	0.000188	20.989852
827.228608	-3.005500	3.768500	-11.326000	23.590452	0.000189	20.967992
828.230303	-3.005000	3.768200	-11.322000	23.577657	0.000189	20.961803
829.229948	-2.996200	3.768700	-11.291000	23.584435	0.000188	20.973812
830.230117	-3.002000	3.768200	-11.311000	23.587510	0.000186	20.978316
831.228882	-3.006400	3.768000	-11.327000	23.609162	0.000188	20.986271
832.229711	-2.989900	3.767600	-11.263000	23.608505	0.000189	20.982294
833.229776	-3.005700	3.767700	-11.323000	23.594080	0.000186	20.976369
834.229785	-3.003600	3.767200	-11.314000	23.607113	0.000185	20.964779
835.231267	-3.008300	3.766200	-11.329000	23.588193	0.000189	20.992750
836.231153	-2.998700	3.765300	-11.290000	23.619200	0.000186	20.968836
837.229527	-2.996900	3.766500	-11.287000	23.646528	0.000187	20.973472
838.230898	-2.987600	3.765900	-11.250000	23.646711	0.000187	20.987404
839.231398	-3.004200	3.766300	-11.314000	23.664395	0.000186	20.975737
840.232655	-3.021700	3.763700	-11.371000	23.626506	0.000186	20.979951
841.233986	-2.997000	3.765700	-11.286000	23.647869	0.000185	20.979083
842.233970	-3.022900	3.763900	-11.377000	23.663161	0.000184	20.961225
843.233955	-3.015000	3.762500	-11.344000	23.624483	0.000184	20.996886
844.234526	-3.000700	3.763400	-11.291000	23.631840	0.000186	20.979134
845.235983	-3.011700	3.762300	-11.330000	23.622776	0.000183	20.970049
846.235112	-3.018200	3.763100	-11.357000	23.629684	0.000185	20.985982
847.236763	-3.018000	3.762600	-11.355000	23.613683	0.000185	20.982269
848.235157	-3.016100	3.761400	-11.344000	23.643769	0.000183	20.977817
849.236173	-3.017600	3.761700	-11.350000	23.637412	0.000184	20.993727
850.235344	-2.992500	3.762700	-11.259000	23.658825	0.000181	20.986272
851.236523	-3.000300	3.761200	-11.284000	23.670753	0.000183	20.982584
852.236647	-3.003700	3.760700	-11.296000	23.661190	0.000181	20.988168
853.237848	-3.010600	3.760800	-11.321000	23.664999	0.000184	20.963068
854.236708	-3.027200	3.762000	-11.388000	23.634915	0.000182	20.973683
855.236901	-3.000600	3.761100	-11.285000	23.647948	0.000185	20.991014
856.236682	-3.013400	3.761000	-11.332000	23.681424	0.000182	21.000865
857.236504	-2.964400	3.761100	-11.149000	23.691170	0.000183	20.993568
858.237143	-2.998400	3.760200	-11.273000	23.694088	0.000181	20.992226
859.237681	-2.996600	3.760500	-11.267000	23.722358	0.000180	21.001601
860.237153	-3.003100	3.759400	-11.289000	23.707252	0.000180	20.997363
861.240524	-2.996900	3.759600	-11.266000	23.684550	0.000181	20.988354
862.239143	-2.992600	3.759700	-11.251000	23.650049	0.000181	20.988379
863.240985	-3.015900	3.759800	-11.339000	23.637360	0.000178	20.986564
864.240316	-3.015000	3.757100	-11.327000	23.609219	0.000179	20.982061
865.240047	-3.023500	3.756300	-11.356000	23.625378	0.000179	20.978820
866.240941	-3.000300	3.757500	-11.272000	23.627112	0.000181	21.002366
867.240162	-3.005900	3.757700	-11.295000	23.623381	0.000178	21.005263
868.239128	-3.019600	3.757200	-11.345000	23.611059	0.000177	21.011875
869.241690	-3.007000	3.756300	-11.295000	23.625195	0.000179	20.998075
870.239530	-3.011000	3.754800	-11.304000	23.619495	0.000177	20.986198
871.238805	0.000000	0.000000	0.000000	23.645795	0.000180	21.016826
