LabVIEW Measurement	
Writer_Version	2
Reader_Version	2
Separator	Tab
Decimal_Separator	.
Multi_Headings	No
X_Columns	One
Time_Pref	Absolute
Operator	admin
Description	Clolumns are: time, Current, Voltage, Power, Battery Temp, and Chamber Temp
Date	2024/08/16
Time	12:06:05.0160207748413085938
***End_of_Header***	
	
Channels	6						
Samples	1	1	1	1	1	1	
Date	2024/09/20	2024/09/20	2024/09/20	2024/09/20	2024/09/20	2024/09/20	
Time	16:05:46.1547799110412597656	16:05:46.1617798805236816406	16:05:46.1687793731689453125	16:05:46.1357798576354980469	16:05:46.1357798576354980469	16:05:46.1357798576354980469	
X_Dimension	Time	Time	Time	Time	Time	Time	
X0	0.0000000000000000E+0	0.0000000000000000E+0	0.0000000000000000E+0	0.0000000000000000E+0	0.0000000000000000E+0	0.0000000000000000E+0	
Delta_X	1.000000	1.000000	1.000000	1.000000	1.000000	1.000000	
***End_of_Header***							
X_Value	Untitled	Untitled 1	Untitled 2	Untitled 3	Untitled 4	Untitled 5	Comment
0.000000	0.032393	3.288700	0.106490	21.164044	0.000207	20.795211
0.995998	3.007400	3.461900	10.412000	21.153633	0.000208	20.799021
1.997000	3.015400	3.475400	10.481000	21.168524	0.000210	20.784045
2.999000	3.012300	3.485500	10.500000	21.177221	0.000211	20.806021
4.010003	2.995500	3.494100	10.468000	21.175676	0.000213	20.804001
4.996001	3.017200	3.503700	10.572000	21.163980	0.000213	20.780448
6.000001	3.008300	3.509000	10.557000	21.165641	0.000215	20.803446
6.999002	3.012200	3.516000	10.591000	21.164700	0.000217	20.793970
7.997000	3.012300	3.523000	10.613000	21.159184	0.000216	20.805048
8.999001	3.001900	3.528800	10.594000	21.166564	0.000219	20.784455
9.995999	2.990000	3.533000	10.564000	21.177115	0.000220	20.783630
10.997999	3.007600	3.538700	10.644000	21.194849	0.000219	20.779085
11.998999	2.998100	3.544900	10.629000	21.176405	0.000222	20.787187
13.002999	3.000000	3.549400	10.649000	21.183115	0.000223	20.789158
14.000002	3.003300	3.553200	10.671000	21.175759	0.000225	20.780377
14.998002	2.998900	3.558500	10.673000	21.175833	0.000226	20.793727
16.000001	3.013600	3.563200	10.739000	21.181472	0.000227	20.762857
17.001002	3.009200	3.566700	10.733000	21.197033	0.000227	20.765147
18.002658	3.010400	3.570600	10.750000	21.179291	0.000229	20.775375
19.003655	3.005500	3.574500	10.744000	21.181619	0.000231	20.799041
20.007655	2.993200	3.577600	10.709000	21.176373	0.000230	20.774353
21.000654	2.997900	3.580900	10.735000	21.205410	0.000232	20.762622
22.002652	2.994900	3.585200	10.738000	21.192366	0.000234	20.773756
23.003655	2.998500	3.587600	10.757000	21.213239	0.000232	20.790369
24.001657	3.010700	3.592200	10.816000	21.220626	0.000235	20.779741
25.001654	3.020100	3.597000	10.864000	21.212193	0.000238	20.760872
26.004656	2.990500	3.597200	10.758000	21.205884	0.000237	20.775424
27.002655	2.988000	3.599900	10.757000	21.201137	0.000238	20.757398
28.000652	2.995600	3.604000	10.797000	21.221461	0.000238	20.749281
29.006708	2.994900	3.606600	10.802000	21.226086	0.000240	20.762917
30.003707	3.002600	3.609400	10.838000	21.242218	0.000239	20.780952
31.002709	3.003500	3.611500	10.848000	21.235165	0.000241	20.786224
32.006763	3.006600	3.613900	10.867000	21.235860	0.000243	20.776488
33.002633	2.990800	3.616500	10.817000	21.239406	0.000245	20.755379
34.005809	2.992400	3.619600	10.832000	21.253323	0.000245	20.762189
35.012587	2.996200	3.621000	10.851000	21.246941	0.000246	20.762917
36.004298	3.003100	3.624300	10.885000	21.279465	0.000247	20.752305
37.003546	2.999600	3.625000	10.875000	21.284875	0.000248	20.748234
38.006505	2.978300	3.626600	10.802000	21.273107	0.000249	20.780559
39.009470	3.002400	3.631100	10.903000	21.309454	0.000248	20.753858
40.007571	3.007300	3.633200	10.927000	21.296060	0.000250	20.773650
41.010308	3.011900	3.635400	10.950000	21.291272	0.000250	20.766963
42.014990	2.982500	3.636100	10.846000	21.325045	0.000254	20.745274
43.010544	3.004500	3.638900	10.934000	21.343928	0.000254	20.761322
44.013523	3.004900	3.640400	10.940000	21.345807	0.000254	20.770314
45.017344	3.013900	3.642100	10.978000	21.372020	0.000255	20.751969
46.012987	3.004200	3.644400	10.949000	21.349949	0.000256	20.764975
47.017393	3.015000	3.645100	10.991000	21.352997	0.000258	20.739574
48.011125	2.989400	3.645300	10.898000	21.349679	0.000259	20.739574
49.014863	2.995400	3.648700	10.930000	21.353151	0.000259	20.742100
50.017766	3.003200	3.651000	10.966000	21.354345	0.000259	20.752777
51.010876	3.010200	3.651900	10.993000	21.370164	0.000259	20.755327
52.016799	2.999000	3.654100	10.959000	21.390591	0.000260	20.763911
53.015762	2.989700	3.653400	10.923000	21.374780	0.000262	20.745247
54.019287	2.999400	3.655300	10.964000	21.400607	0.000263	20.772036
55.016730	2.986100	3.656200	10.918000	21.424744	0.000264	20.744977
56.023641	3.013900	3.657900	11.025000	21.431428	0.000266	20.748819
57.016180	2.992400	3.659500	10.952000	21.432930	0.000265	20.738468
58.014543	2.991900	3.659800	10.950000	21.427774	0.000266	20.741844
59.014204	2.989600	3.661700	10.947000	21.431320	0.000268	20.724528
60.013576	2.995600	3.662500	10.973000	21.451093	0.000269	20.759487
61.016459	2.994800	3.664200	10.975000	21.457008	0.000269	20.759241
62.013939	2.995000	3.665300	10.979000	21.476690	0.000270	20.731044
63.015759	3.018900	3.666800	11.071000	21.503104	0.000273	20.739456
64.019254	2.990400	3.666200	10.964000	21.494770	0.000272	20.740127
65.013863	3.006600	3.666500	11.025000	21.497867	0.000271	20.755079
66.019461	3.014600	3.668500	11.060000	21.514673	0.000275	20.763361
67.017466	3.020300	3.669200	11.082000	21.541542	0.000275	20.738090
68.017965	2.993700	3.670700	10.990000	21.554442	0.000276	20.757637
69.018165	3.006800	3.670800	11.038000	21.553740	0.000276	20.744131
70.017489	3.014400	3.673700	11.074000	21.568299	0.000277	20.740682
71.019235	2.988400	3.673200	10.979000	21.561795	0.000278	20.743657
72.020977	3.022300	3.676800	11.113000	21.592749	0.000280	20.740967
73.016634	3.006200	3.675500	11.050000	21.609610	0.000283	20.748831
74.016433	2.982900	3.675100	10.964000	21.600509	0.000281	20.742569
75.020898	2.988200	3.676400	10.987000	21.618384	0.000282	20.731058
76.019463	2.989900	3.678200	10.998000	21.616415	0.000286	20.734304
77.021351	2.994000	3.677500	11.011000	21.643595	0.000284	20.724992
78.021339	2.979100	3.679500	10.962000	21.645890	0.000287	20.734402
79.020094	2.988700	3.678200	10.993000	21.671942	0.000287	20.746723
80.018287	2.998500	3.680700	11.037000	21.684513	0.000287	20.724690
81.018046	3.008300	3.683100	11.081000	21.665137	0.000289	20.734223
82.020879	2.999500	3.683200	11.048000	21.693213	0.000290	20.741932
83.020318	3.018100	3.683400	11.118000	21.738720	0.000290	20.721567
84.025920	2.992200	3.683600	11.023000	21.710669	0.000290	20.724314
85.019867	3.002700	3.685200	11.066000	21.755825	0.000292	20.751015
86.024423	2.995200	3.685400	11.039000	21.753726	0.000294	20.740380
87.022132	3.018700	3.687200	11.132000	21.734179	0.000295	20.732196
88.029977	2.983500	3.686900	11.000000	21.765415	0.000295	20.726000
89.021732	2.988300	3.688200	11.023000	21.792524	0.000296	20.718518
90.025331	3.003600	3.688100	11.079000	21.793570	0.000297	20.731419
91.027628	3.013200	3.689700	11.119000	21.811442	0.000298	20.725599
92.027445	3.012500	3.691100	11.120000	21.825180	0.000298	20.727970
93.027699	3.004100	3.691200	11.090000	21.823612	0.000298	20.728297
94.025877	2.983900	3.691200	11.015000	21.840813	0.000302	20.738402
95.029522	3.022300	3.692800	11.161000	21.866843	0.000304	20.723204
96.026356	3.006200	3.693500	11.104000	21.890897	0.000301	20.724046
97.026334	3.008300	3.693400	11.112000	21.896785	0.000303	20.724250
98.026870	3.025600	3.695300	11.181000	21.896680	0.000303	20.716558
99.026981	3.009000	3.694300	11.117000	21.905263	0.000304	20.727995
100.022439	3.009700	3.695300	11.123000	21.920014	0.000304	20.732803
101.022602	2.987800	3.695200	11.041000	21.934102	0.000306	20.714187
102.024817	3.025800	3.696800	11.187000	21.930835	0.000307	20.719452
103.024475	3.008700	3.698400	11.128000	21.977827	0.000308	20.732353
104.028256	3.001600	3.697600	11.100000	22.001927	0.000308	20.722339
105.025942	3.001000	3.699400	11.103000	22.014863	0.000309	20.717744
106.026447	2.995400	3.699400	11.082000	22.016186	0.000309	20.704843
107.028663	3.000900	3.700400	11.106000	22.007162	0.000312	20.711931
108.032640	3.004900	3.702300	11.126000	22.039738	0.000314	20.703290
109.029493	3.002200	3.702700	11.117000	22.061501	0.000315	20.710853
110.033045	3.006300	3.702600	11.132000	22.033500	0.000313	20.714590
111.036009	3.019000	3.702800	11.179000	22.048207	0.000315	20.715563
112.035005	3.015100	3.705000	11.172000	22.065896	0.000317	20.708614
113.034876	3.004400	3.705500	11.134000	22.085772	0.000316	20.722823
114.032728	3.000000	3.706400	11.120000	22.091399	0.000317	20.715654
115.036308	2.994200	3.705700	11.096000	22.116991	0.000318	20.714248
116.031317	2.996000	3.706800	11.107000	22.109715	0.000320	20.727353
117.032239	3.010300	3.708600	11.164000	22.118314	0.000321	20.726479
118.029858	3.005500	3.707600	11.144000	22.136858	0.000321	20.708533
119.033356	3.009800	3.708700	11.164000	22.151230	0.000322	20.716759
120.042774	2.988200	3.707600	11.080000	22.158496	0.000323	20.715973
121.032281	3.006400	3.710100	11.155000	22.177850	0.000323	20.721125
122.036603	2.994300	3.709400	11.107000	22.179246	0.000325	20.687907
123.032308	3.001600	3.711900	11.142000	22.205219	0.000324	20.729562
124.033329	3.014700	3.711700	11.190000	22.202581	0.000325	20.701315
125.038350	3.008500	3.712900	11.171000	22.227550	0.000327	20.711143
126.040324	2.991300	3.713000	11.108000	22.253996	0.000329	20.710595
127.053481	3.008800	3.714100	11.177000	22.228424	0.000328	20.702059
128.033700	3.002600	3.714600	11.154000	22.220913	0.000330	20.713981
129.033635	2.998000	3.714200	11.136000	22.255360	0.000329	20.729980
130.033439	3.006000	3.715300	11.169000	22.235895	0.000330	20.701005
131.040174	3.002200	3.715200	11.155000	22.260446	0.000331	20.719425
132.035064	3.009900	3.716900	11.188000	22.278441	0.000333	20.704251
133.035802	3.016000	3.717800	11.213000	22.274057	0.000332	20.704128
134.033908	3.003100	3.718300	11.168000	22.297334	0.000333	20.690925
135.035986	3.013900	3.718900	11.209000	22.316920	0.000334	20.697735
136.044369	2.998900	3.718900	11.153000	22.328039	0.000336	20.711241
137.036638	2.995700	3.719700	11.144000	22.343241	0.000336	20.710816
138.037928	3.005300	3.720000	11.180000	22.364605	0.000339	20.706131
139.037006	3.006400	3.721200	11.188000	22.343273	0.000338	20.706580
140.039671	2.998500	3.722700	11.163000	22.362540	0.000341	20.702165
141.040709	2.985600	3.721900	11.113000	22.379308	0.000342	20.678652
142.042576	3.005100	3.723600	11.190000	22.373030	0.000341	20.680900
143.040855	3.004900	3.723700	11.190000	22.392893	0.000342	20.707430
144.039042	3.002000	3.724200	11.181000	22.404534	0.000343	20.683524
145.046324	3.006400	3.724400	11.197000	22.419489	0.000343	20.698976
146.041655	2.997500	3.725700	11.168000	22.423775	0.000346	20.720339
147.040531	3.005100	3.727000	11.201000	22.449195	0.000347	20.696956
148.042192	2.996700	3.726600	11.168000	22.435325	0.000347	20.719577
149.045630	2.994400	3.727600	11.163000	22.461057	0.000348	20.702197
150.045235	2.995900	3.728400	11.170000	22.481489	0.000348	20.690890
151.046255	3.002300	3.730100	11.199000	22.464199	0.000350	20.714354
152.050391	2.996100	3.728700	11.172000	22.466012	0.000351	20.694831
153.047201	3.014900	3.730700	11.248000	22.480974	0.000351	20.685632
154.049019	2.997200	3.729600	11.179000	22.502581	0.000354	20.692099
155.047784	2.996800	3.731400	11.183000	22.508409	0.000350	20.674227
156.045170	2.991900	3.733400	11.171000	22.543714	0.000354	20.692517
157.052466	2.996700	3.732000	11.185000	22.538562	0.000354	20.706799
158.048037	2.992800	3.733200	11.174000	22.569310	0.000354	20.676900
159.046253	3.009800	3.734000	11.239000	22.559793	0.000354	20.692025
160.048149	2.994800	3.734500	11.184000	22.569335	0.000358	20.689728
161.048809	2.990600	3.734200	11.169000	22.578951	0.000359	20.676123
162.051679	3.010500	3.735100	11.245000	22.581129	0.000357	20.695851
163.054677	3.018300	3.735500	11.275000	22.569360	0.000359	20.706823
164.051606	2.994900	3.736700	11.191000	22.583194	0.000360	20.678003
165.049241	3.007100	3.737700	11.241000	22.605020	0.000362	20.688485
166.053061	2.999300	3.738400	11.213000	22.635668	0.000365	20.697371
167.056310	2.992900	3.736900	11.186000	22.660186	0.000363	20.677831
168.056474	3.006500	3.739600	11.243000	22.688385	0.000363	20.675730
169.054914	3.002900	3.739400	11.230000	22.696889	0.000365	20.700846
170.060343	3.000600	3.739300	11.221000	22.738765	0.000366	20.679728
171.055311	3.003600	3.740400	11.235000	22.759616	0.000364	20.690185
172.057401	2.996800	3.741400	11.213000	22.771467	0.000368	20.679770
173.059926	3.001300	3.741500	11.230000	22.815020	0.000371	20.693529
174.052463	3.001000	3.741700	11.230000	22.823270	0.000369	20.692310
175.058614	2.991700	3.742100	11.196000	22.806322	0.000371	20.691453
176.054342	3.011300	3.743200	11.273000	22.820644	0.000370	20.694895
177.054633	2.999500	3.743400	11.229000	22.816107	0.000372	20.669010
178.055138	3.015800	3.744800	11.295000	22.807766	0.000373	20.664922
179.058443	3.006600	3.744200	11.258000	22.824283	0.000374	20.679573
180.054820	2.996000	3.746200	11.224000	22.845680	0.000374	20.680620
181.057327	3.003400	3.745800	11.251000	22.855963	0.000374	20.685232
182.057974	2.991900	3.746000	11.209000	22.858403	0.000375	20.675821
183.055965	3.005700	3.747400	11.265000	22.862336	0.000378	20.714378
184.063743	3.000400	3.747600	11.245000	22.864654	0.000380	20.665013
185.053716	3.006800	3.748100	11.271000	22.866571	0.000379	20.690170
186.060637	2.989600	3.748700	11.208000	22.837896	0.000380	20.689892
187.064399	3.001400	3.748800	11.252000	22.830015	0.000381	20.681047
188.056122	3.004900	3.749500	11.267000	22.838990	0.000382	20.679608
189.067278	3.020700	3.751800	11.333000	22.855941	0.000383	20.692323
190.059074	2.995800	3.750600	11.237000	22.896668	0.000384	20.689976
191.059055	2.989500	3.750700	11.214000	22.922649	0.000384	20.691350
192.060225	3.000100	3.752100	11.258000	22.922421	0.000385	20.716727
193.059983	3.020800	3.753500	11.339000	22.932875	0.000387	20.671247
194.054851	3.004800	3.753100	11.277000	22.961369	0.000387	20.693632
195.059313	3.000200	3.752000	11.257000	22.949211	0.000387	20.684770
196.061729	3.016300	3.754900	11.327000	22.966592	0.000389	20.699340
197.059700	3.009400	3.754000	11.298000	22.976081	0.000390	20.687984
198.068902	3.002700	3.755600	11.278000	22.963777	0.000391	20.699839
199.062399	2.993300	3.756000	11.243000	22.980610	0.000392	20.681615
200.063638	2.992500	3.754900	11.237000	22.997272	0.000391	20.698310
201.062329	3.010200	3.757200	11.311000	23.025462	0.000391	20.690045
202.063796	2.992400	3.756700	11.242000	23.042369	0.000392	20.685173
203.063728	2.992200	3.757800	11.245000	23.076310	0.000396	20.683146
204.063122	2.993500	3.758300	11.252000	23.092571	0.000394	20.689957
205.062903	3.017000	3.759100	11.342000	23.099767	0.000396	20.708075
206.067793	3.004800	3.758300	11.294000	23.127310	0.000396	20.694421
207.076657	3.009500	3.760100	11.316000	23.119307	0.000397	20.700153
208.064166	2.993700	3.760800	11.259000	23.137485	0.000399	20.699402
209.061174	3.010800	3.760400	11.322000	23.129244	0.000398	20.686402
210.065053	2.995200	3.760400	11.264000	23.106370	0.000399	20.703311
211.066411	3.001200	3.761800	11.291000	23.135830	0.000399	20.684466
212.063306	3.010600	3.763100	11.330000	23.138563	0.000402	20.686257
213.067168	3.010800	3.762100	11.328000	23.141827	0.000402	20.705650
214.063642	3.001000	3.762800	11.293000	23.154122	0.000403	20.689520
215.063562	3.016200	3.765400	11.358000	23.152923	0.000405	20.702544
216.067309	2.996100	3.765200	11.281000	23.180882	0.000405	20.694051
217.069121	2.986400	3.765300	11.245000	23.195550	0.000407	20.689783
218.067736	2.992600	3.764700	11.268000	23.195297	0.000408	20.689530
219.068779	3.010700	3.766300	11.340000	23.217437	0.000407	20.695122
220.064649	3.019500	3.767600	11.377000	23.235539	0.000409	20.702832
221.068499	3.016000	3.766400	11.360000	23.243992	0.000410	20.692810
222.070480	3.017800	3.768000	11.372000	23.271581	0.000410	20.687267
223.066426	3.003400	3.767400	11.316000	23.267494	0.000413	20.698820
224.069486	3.015000	3.768700	11.364000	23.304888	0.000412	20.710692
225.067635	3.006900	3.766000	11.325000	23.311560	0.000413	20.693671
226.068707	3.012300	3.768700	11.354000	23.324025	0.000416	20.703319
227.072334	3.008100	3.769800	11.340000	23.338064	0.000415	20.724029
228.071787	3.011400	3.770200	11.354000	23.369631	0.000417	20.719157
229.069919	3.034000	3.771600	11.444000	23.362209	0.000415	20.714562
230.069976	3.012700	3.770400	11.360000	23.387121	0.000418	20.692114
231.070037	3.013300	3.772100	11.367000	23.381566	0.000418	20.711204
232.071833	3.000000	3.770500	11.312000	23.410269	0.000418	20.717214
233.077698	3.003100	3.772900	11.331000	23.408345	0.000421	20.738994
234.074233	3.011400	3.772500	11.361000	23.453538	0.000419	20.732609
235.073453	2.998300	3.772300	11.311000	23.425596	0.000422	20.716455
236.074038	3.002800	3.773500	11.332000	23.418567	0.000421	20.712254
237.072171	2.977400	3.774100	11.237000	23.436928	0.000423	20.699362
238.076579	2.980200	3.773100	11.245000	23.464519	0.000424	20.728917
239.072139	3.008000	3.774000	11.353000	23.459235	0.000423	20.718878
240.073627	3.004300	3.776000	11.345000	23.438168	0.000425	20.720996
241.073844	3.005600	3.775600	11.349000	23.447696	0.000427	20.717269
242.071095	3.007100	3.775400	11.354000	23.452647	0.000425	20.703265
243.076562	3.007500	3.777000	11.360000	23.436514	0.000428	20.722657
244.076357	2.995400	3.776900	11.314000	23.471390	0.000427	20.738649
245.075010	2.996800	3.776500	11.318000	23.468569	0.000427	20.706422
246.077403	2.990100	3.776800	11.294000	23.511019	0.000430	20.723370
247.076525	3.013400	3.778000	11.385000	23.521443	0.000432	20.728129
248.072141	3.011100	3.778600	11.378000	23.533569	0.000432	20.726060
249.079079	3.000500	3.779300	11.341000	23.537255	0.000432	20.706046
250.077714	3.005500	3.780400	11.363000	23.541032	0.000432	20.702720
251.087286	3.009900	3.781900	11.384000	23.551487	0.000433	20.726952
252.074670	3.010600	3.780300	11.381000	23.524592	0.000435	20.715164
253.077560	2.992200	3.781100	11.315000	23.521379	0.000437	20.734230
254.076671	2.998700	3.781700	11.341000	23.522896	0.000437	20.727216
255.079774	2.993700	3.781900	11.323000	23.530514	0.000439	20.729636
256.081086	2.987500	3.781300	11.297000	23.542356	0.000439	20.710211
257.078719	2.993900	3.782500	11.325000	23.540864	0.000439	20.740960
258.077449	3.007800	3.783300	11.380000	23.552633	0.000441	20.741377
259.080657	3.016000	3.782800	11.410000	23.595300	0.000442	20.733889
260.081902	2.997300	3.783400	11.341000	23.610747	0.000440	20.735150
261.080607	2.991300	3.782600	11.316000	23.631306	0.000442	20.721620
262.081880	3.005100	3.784100	11.373000	23.635913	0.000443	20.741886
263.079707	3.002800	3.784900	11.366000	23.643529	0.000443	20.714907
264.079349	2.985300	3.784100	11.298000	23.634242	0.000445	20.735943
265.083522	2.995900	3.786000	11.343000	23.665278	0.000445	20.726755
266.084686	2.997400	3.786700	11.351000	23.664560	0.000446	20.722716
267.079359	3.001600	3.787500	11.369000	23.646353	0.000448	20.725325
268.082161	3.014000	3.787400	11.416000	23.642464	0.000447	20.724271
269.083752	3.001300	3.786100	11.364000	23.635615	0.000449	20.721672
270.088073	3.002900	3.787300	11.374000	23.688414	0.000448	20.726242
271.085205	3.010300	3.788200	11.404000	23.692965	0.000450	20.746926
272.081886	3.010100	3.788300	11.404000	23.710887	0.000451	20.730755
273.087166	2.997500	3.788700	11.357000	23.735178	0.000451	20.744678
274.084430	2.991200	3.788100	11.331000	23.730228	0.000452	20.733551
275.086588	3.007100	3.790100	11.398000	23.728403	0.000454	20.741679
276.087742	2.998500	3.791600	11.370000	23.752333	0.000453	20.736747
277.089542	3.009100	3.789800	11.405000	23.755391	0.000453	20.757832
278.086777	2.984400	3.788600	11.308000	23.775555	0.000456	20.732055
279.087168	2.996500	3.790000	11.357000	23.825227	0.000455	20.744401
280.095161	2.991600	3.790600	11.341000	23.806987	0.000458	20.737966
281.085514	2.999800	3.790100	11.370000	23.838313	0.000457	20.736185
282.088226	3.019100	3.791600	11.448000	23.835157	0.000458	20.733495
283.085550	2.999000	3.792200	11.374000	23.846776	0.000459	20.740404
284.087121	3.008300	3.793000	11.411000	23.862146	0.000460	20.747755
285.086799	2.988300	3.792300	11.333000	23.885649	0.000461	20.746192
286.094499	3.001700	3.792500	11.385000	23.862251	0.000462	20.744541
287.088417	2.990700	3.792400	11.342000	23.873022	0.000461	20.740642
288.095816	3.002100	3.793800	11.390000	23.821079	0.000463	20.753045
289.094254	2.993700	3.794200	11.359000	23.822669	0.000465	20.766019
290.095940	3.011800	3.794700	11.430000	23.820631	0.000466	20.739318
291.094367	3.015900	3.795200	11.447000	23.841210	0.000465	20.752367
292.092863	3.010300	3.796100	11.428000	23.866997	0.000467	20.735075
293.100547	3.001100	3.796000	11.392000	23.862244	0.000468	20.734576
294.091974	3.014600	3.796300	11.445000	23.849347	0.000470	20.749620
295.097052	2.997300	3.796300	11.380000	23.881127	0.000470	20.746873
296.096066	2.984700	3.795300	11.329000	23.909092	0.000471	20.755001
297.099111	3.010700	3.797400	11.433000	23.914693	0.000470	20.754453
298.096905	3.004500	3.797800	11.411000	23.946748	0.000471	20.761941
299.095272	2.996700	3.797600	11.381000	23.986115	0.000473	20.745942
300.095974	2.997000	3.798200	11.385000	23.981982	0.000473	20.754600
301.097414	2.983200	3.796800	11.327000	23.993323	0.000473	20.769293
302.099475	3.000000	3.798500	11.397000	23.974743	0.000474	20.754927
303.095598	2.991100	3.797900	11.360000	23.965247	0.000475	20.759156
304.098039	3.000000	3.800000	11.401000	23.993543	0.000476	20.780420
305.097585	3.002300	3.799200	11.407000	23.998720	0.000477	20.748152
306.100579	3.005700	3.800100	11.422000	24.029126	0.000479	20.778646
307.101460	3.001300	3.800600	11.407000	24.059858	0.000481	20.769637
308.099471	3.010200	3.800400	11.440000	24.067373	0.000482	20.755363
309.109382	2.987600	3.801300	11.357000	24.088077	0.000480	20.771386
310.103111	2.993700	3.800500	11.378000	24.107177	0.000483	20.773472
311.100108	3.000200	3.801500	11.406000	24.104340	0.000481	20.750238
312.103723	2.989100	3.802100	11.366000	24.085951	0.000484	20.769728
313.102277	2.988600	3.802400	11.364000	24.098912	0.000484	20.759493
314.097274	2.998800	3.801900	11.402000	24.089506	0.000486	20.787518
315.102843	2.992200	3.801700	11.376000	24.101301	0.000485	20.784648
316.099090	2.989300	3.803000	11.369000	24.114139	0.000491	20.754375
317.100777	2.993500	3.803400	11.386000	24.148072	0.000487	20.799315
318.100315	2.992300	3.802900	11.380000	24.166159	0.000489	20.786636
319.103782	2.988300	3.803300	11.367000	24.147722	0.000489	20.761505
320.102149	3.004400	3.805500	11.434000	24.153517	0.000490	20.775379
321.099722	2.998400	3.803600	11.406000	24.130973	0.000490	20.783587
322.099022	2.997800	3.806200	11.411000	24.127558	0.000491	20.766886
323.103125	2.988900	3.805300	11.374000	24.127362	0.000492	20.769060
324.099278	2.981400	3.805700	11.347000	24.130290	0.000493	20.792860
325.099189	3.004300	3.806700	11.437000	24.112153	0.000491	20.769454
326.102742	3.004600	3.805900	11.436000	24.126924	0.000495	20.773363
327.099688	2.988100	3.806300	11.375000	24.126280	0.000494	20.790735
328.103484	2.989200	3.806900	11.380000	24.132223	0.000496	20.769194
329.106901	2.997600	3.806900	11.412000	24.168722	0.000497	20.771663
330.104607	2.998600	3.807500	11.418000	24.182179	0.000497	20.781842
331.104612	3.017600	3.808200	11.492000	24.206362	0.000498	20.787131
332.106254	2.981900	3.807600	11.355000	24.231262	0.000498	20.781761
333.104593	2.993200	3.808500	11.401000	24.276991	0.000500	20.794914
334.103825	2.996700	3.809200	11.416000	24.300244	0.000501	20.798799
335.104037	2.997500	3.809900	11.421000	24.344749	0.000503	20.787493
336.104399	3.006300	3.809300	11.452000	24.331041	0.000501	20.779432
337.105755	2.993600	3.810300	11.408000	24.347683	0.000503	20.797074
338.107337	2.995300	3.810000	11.413000	24.361985	0.000503	20.782973
339.114134	3.000500	3.810100	11.433000	24.365840	0.000505	20.795374
340.112043	3.009200	3.810000	11.466000	24.382277	0.000506	20.773458
341.106145	2.996600	3.811000	11.422000	24.374911	0.000507	20.785508
342.103487	2.993700	3.810200	11.408000	24.386002	0.000506	20.786678
343.105327	2.996900	3.810800	11.421000	24.437660	0.000510	20.798198
344.105897	3.011500	3.812500	11.482000	24.423222	0.000509	20.795567
345.108559	2.989700	3.811600	11.396000	24.410174	0.000507	20.790538
346.106627	2.993700	3.810900	11.410000	24.381360	0.000510	20.798616
347.108208	3.018800	3.813300	11.512000	24.389518	0.000511	20.796842
348.110148	3.005600	3.813100	11.462000	24.411602	0.000510	20.799083
349.115177	2.981700	3.812900	11.369000	24.388191	0.000510	20.790770
350.111431	2.997800	3.813000	11.430000	24.378486	0.000511	20.799052
351.111051	2.997400	3.813500	11.431000	24.436140	0.000513	20.816114
352.111535	2.996700	3.813400	11.428000	24.437029	0.000514	20.806101
353.110802	2.993100	3.815700	11.421000	24.435440	0.000517	20.800713
354.109373	2.982100	3.815900	11.381000	24.481112	0.000514	20.805282
355.112583	2.994700	3.815100	11.426000	24.499634	0.000517	20.818650
356.115678	2.966700	3.813600	11.316000	24.500678	0.000517	20.809265
357.110291	2.994200	3.815100	11.424000	24.525091	0.000518	20.801517
358.111017	3.009600	3.816400	11.487000	24.531886	0.000517	20.807860
359.115496	3.006300	3.816300	11.474000	24.545437	0.000519	20.825249
360.112817	3.013100	3.815600	11.498000	24.553586	0.000521	20.814460
361.114812	3.004200	3.818000	11.470000	24.558557	0.000521	20.818499
362.111870	3.011300	3.818300	11.499000	24.573329	0.000523	20.810561
363.114399	3.013200	3.818700	11.507000	24.586081	0.000521	20.818615
364.109607	3.005200	3.817800	11.474000	24.643781	0.000522	20.822931
365.121501	3.000300	3.819300	11.460000	24.622019	0.000523	20.818165
366.113704	2.999500	3.819100	11.456000	24.646301	0.000524	20.811236
367.114304	2.987900	3.817500	11.407000	24.651579	0.000522	20.817006
368.111465	3.005900	3.818900	11.480000	24.646724	0.000525	20.822566
369.113060	3.011700	3.820300	11.506000	24.677089	0.000526	20.815577
370.115861	3.000300	3.821400	11.466000	24.688674	0.000526	20.825306
371.115270	2.982700	3.818900	11.392000	24.690116	0.000528	20.819641
372.117296	2.998900	3.820100	11.457000	24.721539	0.000529	20.804233
373.112213	2.982900	3.820100	11.396000	24.731535	0.000530	20.821850
374.112239	2.995700	3.820400	11.446000	24.740831	0.000530	20.821695
375.113084	2.999900	3.821000	11.463000	24.720465	0.000531	20.828758
376.117291	3.014500	3.821300	11.520000	24.705100	0.000530	20.838469
377.115018	2.972900	3.821800	11.362000	24.683952	0.000531	20.837637
378.118353	2.999100	3.821700	11.462000	24.678828	0.000533	20.832495
379.112354	2.991800	3.822600	11.437000	24.646469	0.000534	20.853603
380.115649	2.986300	3.822900	11.417000	24.688002	0.000533	20.809459
381.115370	3.008200	3.823000	11.502000	24.670292	0.000534	20.853326
382.117404	3.004900	3.823900	11.492000	24.675594	0.000534	20.832569
383.120708	2.991100	3.823700	11.438000	24.656826	0.000534	20.815159
384.119982	3.001700	3.823900	11.479000	24.676126	0.000538	20.843060
385.118770	2.989900	3.823900	11.433000	24.656875	0.000536	20.849347
386.117407	3.000100	3.824300	11.474000	24.642601	0.000537	20.828860
387.126296	3.006000	3.825300	11.499000	24.640533	0.000538	20.843379
388.115755	2.989800	3.825800	11.439000	24.663809	0.000541	20.842554
389.119759	2.999600	3.824800	11.473000	24.660176	0.000543	20.834167
390.122299	3.005300	3.825000	11.496000	24.709262	0.000543	20.853551
391.118587	3.027700	3.827600	11.590000	24.740447	0.000542	20.855447
392.116202	3.014900	3.826600	11.537000	24.777048	0.000541	20.844289
393.124727	2.999300	3.826500	11.477000	24.789431	0.000544	20.841543
394.118615	3.000600	3.826200	11.482000	24.780503	0.000541	20.859609
395.117816	2.993500	3.827900	11.460000	24.763991	0.000543	20.860108
396.122344	3.000000	3.827900	11.485000	24.749354	0.000546	20.833567
397.119843	2.990900	3.828000	11.450000	24.743978	0.000545	20.852827
398.122449	3.005200	3.829400	11.509000	24.708996	0.000547	20.848543
399.119031	3.009500	3.829800	11.527000	24.728957	0.000547	20.863831
400.121297	3.009300	3.830100	11.527000	24.722839	0.000550	20.853899
401.118836	3.006700	3.829600	11.516000	24.727319	0.000549	20.872618
402.124345	3.003900	3.830400	11.507000	24.739996	0.000550	20.845986
403.119495	3.007500	3.830600	11.521000	24.751335	0.000548	20.855469
404.123127	3.001200	3.829500	11.493000	24.790072	0.000552	20.854039
405.121161	3.003600	3.830600	11.507000	24.791808	0.000551	20.851988
406.128843	2.982700	3.830400	11.425000	24.781917	0.000551	20.859132
407.128067	2.997000	3.832100	11.485000	24.810584	0.000554	20.853762
408.123131	3.015500	3.831900	11.556000	24.821940	0.000553	20.855676
409.123477	2.990700	3.831000	11.458000	24.826843	0.000555	20.848269
410.121829	3.011300	3.832600	11.542000	24.845881	0.000555	20.851254
411.126171	3.008000	3.833900	11.534000	24.848317	0.000556	20.869819
412.122153	2.992800	3.831500	11.468000	24.857895	0.000556	20.878009
413.124386	2.999100	3.832900	11.496000	24.872957	0.000557	20.844290
414.124248	3.006600	3.832600	11.523000	24.865626	0.000557	20.844518
415.122646	2.994800	3.833100	11.480000	24.906647	0.000559	20.865773
416.121503	2.985700	3.833000	11.445000	24.912046	0.000560	20.838003
417.122558	3.001800	3.834700	11.512000	24.952820	0.000559	20.841944
418.124446	2.997500	3.834300	11.493000	24.964508	0.000560	20.864579
419.125323	2.990200	3.834700	11.467000	24.976066	0.000562	20.842042
420.126769	3.004600	3.835500	11.525000	24.994188	0.000562	20.847430
421.122769	3.010800	3.836500	11.552000	25.016218	0.000563	20.817861
422.123796	2.998300	3.835800	11.502000	25.004384	0.000564	20.848181
423.125419	3.006300	3.836300	11.534000	25.034168	0.000566	20.860059
424.127089	3.021100	3.837400	11.594000	25.033223	0.000564	20.849628
425.125885	3.009100	3.836600	11.546000	24.992617	0.000565	20.852965
426.127018	3.012900	3.836900	11.561000	24.980268	0.000566	20.827769
427.128122	2.980300	3.836700	11.435000	24.949710	0.000567	20.820804
428.127783	3.008400	3.838300	11.548000	24.934145	0.000567	20.845010
429.127324	3.013900	3.838700	11.570000	24.905247	0.000568	20.837817
430.128750	3.007400	3.838300	11.544000	24.918727	0.000570	20.842337
431.127232	3.000200	3.839600	11.521000	24.934155	0.000569	20.851659
432.127033	2.991600	3.839400	11.486000	24.964322	0.000571	20.837368
433.126665	2.986300	3.838100	11.462000	24.981028	0.000573	20.819997
434.123514	2.996900	3.840600	11.510000	24.978200	0.000572	20.815262
435.132188	2.991700	3.839500	11.488000	24.959476	0.000575	20.830133
436.127377	3.035900	3.840900	11.662000	24.930310	0.000573	20.832152
437.125788	3.004200	3.840000	11.537000	24.904670	0.000573	20.821117
438.127275	2.989600	3.841400	11.485000	24.871908	0.000576	20.821426
439.131259	2.995700	3.841700	11.510000	24.905247	0.000576	20.829283
440.134208	3.011300	3.842200	11.571000	24.935537	0.000576	20.830287
441.128246	2.999000	3.843000	11.526000	24.959875	0.000579	20.832904
442.126775	3.006800	3.843300	11.556000	25.014181	0.000579	20.834309
443.127761	2.998900	3.841900	11.522000	25.030788	0.000577	20.837227
444.125943	3.002100	3.843600	11.539000	25.018678	0.000581	20.836925
445.126600	3.012100	3.843500	11.577000	24.996784	0.000581	20.829648
446.127594	3.016300	3.843300	11.593000	25.033500	0.000581	20.815768
447.125980	2.995800	3.844100	11.517000	25.035242	0.000583	20.820836
448.130369	2.993500	3.844100	11.509000	25.056953	0.000584	20.835042
449.127643	3.005400	3.844000	11.554000	25.067149	0.000585	20.841958
450.128733	3.000700	3.844800	11.538000	25.092263	0.000585	20.825444
451.132663	2.999400	3.843800	11.530000	25.048734	0.000583	20.826318
452.129851	3.026500	3.845800	11.640000	25.023177	0.000587	20.812045
453.131064	3.006800	3.845800	11.564000	25.003442	0.000587	20.829219
454.132724	3.011900	3.845900	11.583000	25.021277	0.000589	20.792594
455.129128	2.999600	3.845600	11.536000	25.038079	0.000587	20.827477
456.129457	3.007400	3.847600	11.572000	25.043233	0.000590	20.818900
457.137155	3.012400	3.847500	11.591000	25.092487	0.000591	20.821401
458.131198	2.995300	3.847100	11.524000	25.121226	0.000592	20.801887
459.130996	3.015200	3.847300	11.601000	25.153032	0.000593	20.795884
460.131526	3.018400	3.848300	11.616000	25.120540	0.000592	20.810207
461.134161	3.000800	3.848600	11.550000	25.131281	0.000593	20.830947
462.133591	3.008700	3.848600	11.580000	25.138813	0.000595	20.811482
463.135290	2.994800	3.848200	11.525000	25.132827	0.000596	20.806895
464.132570	2.997600	3.849000	11.539000	25.150026	0.000595	20.795238
465.133340	3.001200	3.849600	11.554000	25.161638	0.000596	20.798835
466.131603	3.000800	3.848900	11.550000	25.148242	0.000597	20.801982
467.132435	2.991200	3.849900	11.516000	25.180383	0.000597	20.826188
468.131883	3.002200	3.850400	11.561000	25.190309	0.000598	20.809125
469.136604	3.002500	3.849800	11.560000	25.220535	0.000597	20.796797
470.132731	3.010400	3.852000	11.597000	25.221326	0.000598	20.783841
471.135735	3.009900	3.852600	11.597000	25.227994	0.000599	20.799070
472.150606	2.997800	3.852200	11.548000	25.236666	0.000601	20.817734
473.136148	2.993100	3.851800	11.529000	25.243628	0.000602	20.788688
474.137453	2.993500	3.851800	11.532000	25.255655	0.000601	20.817832
475.135583	2.994200	3.851600	11.533000	25.249172	0.000601	20.781926
476.139063	3.006200	3.853300	11.585000	25.268682	0.000603	20.783971
477.135251	3.013600	3.853300	11.613000	25.273944	0.000604	20.809168
478.138379	3.008600	3.853500	11.595000	25.271246	0.000606	20.793657
479.136614	2.994000	3.853600	11.538000	25.279593	0.000607	20.795400
480.136645	3.003700	3.856200	11.584000	25.310793	0.000606	20.808707
481.137322	3.002100	3.852400	11.566000	25.325303	0.000607	20.787715
482.143513	3.005900	3.855400	11.589000	25.338102	0.000609	20.788238
483.147101	3.025700	3.855300	11.666000	25.336385	0.000609	20.808799
484.140724	3.009300	3.855500	11.603000	25.326898	0.000607	20.797851
485.143532	3.015200	3.856500	11.629000	25.369570	0.000610	20.779057
486.144419	3.001100	3.856500	11.575000	25.354361	0.000612	20.785597
487.140038	2.996700	3.857500	11.561000	25.339519	0.000611	20.803411
488.138773	2.991000	3.856100	11.534000	25.358286	0.000612	20.798072
489.143411	2.997600	3.856200	11.560000	25.364578	0.000613	20.805339
490.143014	2.998000	3.857600	11.566000	25.346830	0.000616	20.794630
491.141731	3.000500	3.858800	11.579000	25.357593	0.000615	20.791687
492.140407	3.002600	3.857800	11.584000	25.327021	0.000616	20.788491
493.143523	3.013900	3.858200	11.628000	25.301170	0.000617	20.784821
494.146944	3.008000	3.859100	11.609000	25.323372	0.000618	20.769654
495.155475	3.006600	3.858700	11.602000	25.330627	0.000618	20.800647
496.146558	2.988300	3.858600	11.532000	25.293817	0.000619	20.789766
497.149302	3.001900	3.860300	11.589000	25.316240	0.000620	20.761070
498.146562	2.994700	3.860000	11.560000	25.281839	0.000619	20.776317
499.146534	2.992000	3.859300	11.548000	25.283207	0.000621	20.793338
500.143748	2.997300	3.860400	11.572000	25.288125	0.000621	20.768878
501.142691	3.013900	3.861600	11.640000	25.259440	0.000622	20.791761
502.143900	3.003600	3.860900	11.597000	25.260986	0.000624	20.795684
503.145614	2.998100	3.860300	11.574000	25.254945	0.000625	20.756427
504.145307	3.004300	3.860700	11.599000	25.225394	0.000626	20.783184
505.146746	3.017500	3.862500	11.656000	25.240752	0.000625	20.774421
506.142931	3.005300	3.863500	11.612000	25.251086	0.000625	20.766778
507.144586	3.014200	3.863100	11.645000	25.279551	0.000628	20.760744
508.145386	2.984300	3.863800	11.531000	25.298049	0.000628	20.791645
509.144892	2.992600	3.862700	11.560000	25.314277	0.000630	20.771428
510.149738	3.002000	3.863500	11.599000	25.364701	0.000629	20.759469
511.148254	2.995500	3.863900	11.574000	25.390225	0.000632	20.779882
512.149426	2.999600	3.864400	11.593000	25.408641	0.000632	20.783676
513.148178	3.020000	3.866000	11.676000	25.454363	0.000631	20.779327
514.144635	3.007200	3.865200	11.624000	25.455626	0.000632	20.791975
515.154535	3.010400	3.866200	11.639000	25.470571	0.000633	20.781378
516.145712	2.995600	3.864500	11.577000	25.478266	0.000635	20.768717
517.154271	3.018800	3.867300	11.675000	25.487863	0.000636	20.800640
518.149402	2.980700	3.866100	11.525000	25.511041	0.000634	20.760853
519.146670	3.005000	3.868100	11.624000	25.488475	0.000637	20.788927
520.146276	2.994100	3.867200	11.580000	25.488702	0.000636	20.798164
521.149601	2.991700	3.866500	11.568000	25.483722	0.000636	20.780360
522.149185	2.996400	3.866600	11.586000	25.475775	0.000640	20.769061
523.154868	2.995400	3.867600	11.586000	25.463436	0.000639	20.770420
524.151776	3.002500	3.869000	11.618000	25.468581	0.000642	20.786019
525.153393	2.990400	3.867500	11.567000	25.450656	0.000641	20.787933
526.153675	2.991200	3.869000	11.574000	25.500339	0.000642	20.773339
527.152338	2.992900	3.867600	11.576000	25.483837	0.000645	20.768622
528.153577	2.999900	3.869700	11.609000	25.439796	0.000643	20.774182
529.152966	2.998400	3.868800	11.601000	25.446032	0.000642	20.756736
530.154945	2.986800	3.870000	11.560000	25.439869	0.000644	20.779472
531.155808	2.997300	3.870000	11.600000	25.486338	0.000646	20.756434
532.155483	2.996600	3.870500	11.599000	25.496873	0.000645	20.785980
533.153924	3.002600	3.871200	11.624000	25.524006	0.000647	20.758700
534.153321	2.992600	3.872200	11.589000	25.534614	0.000647	20.774095
535.153811	3.015800	3.873100	11.681000	25.545246	0.000648	20.775289
536.156929	2.995000	3.871400	11.595000	25.530039	0.000652	20.772345
537.168329	2.996300	3.871600	11.601000	25.548568	0.000651	20.780048
538.156832	3.010100	3.871900	11.656000	25.603489	0.000653	20.777358
539.155962	3.014400	3.873100	11.675000	25.627633	0.000651	20.775528
540.157610	3.002900	3.872700	11.630000	25.618418	0.000653	20.760109
541.157094	3.006900	3.874200	11.649000	25.634788	0.000655	20.748574
542.165067	3.005400	3.872800	11.640000	25.653647	0.000655	20.761352
543.158193	3.004900	3.874700	11.644000	25.647657	0.000654	20.767664
544.157969	2.983800	3.873500	11.558000	25.648301	0.000657	20.772103
545.159713	2.999600	3.874400	11.622000	25.681966	0.000655	20.752810
546.164291	2.995500	3.874800	11.607000	25.663401	0.000658	20.776364
547.161503	3.005600	3.876500	11.651000	25.709517	0.000657	20.775742
548.158704	2.985400	3.875400	11.571000	25.696121	0.000659	20.771296
549.159791	2.993400	3.876400	11.604000	25.681609	0.000661	20.773315
550.162044	2.982800	3.876400	11.563000	25.673234	0.000660	20.772490
551.168508	3.007900	3.877400	11.664000	25.671070	0.000661	20.749927
552.160491	3.016000	3.878300	11.698000	25.711147	0.000663	20.741816
553.164945	3.003000	3.876600	11.642000	25.718368	0.000663	20.749070
554.159238	3.006700	3.877500	11.659000	25.749622	0.000664	20.785205
555.165518	2.996200	3.875900	11.614000	25.727159	0.000663	20.754107
556.164462	3.024200	3.878000	11.729000	25.744233	0.000666	20.766041
557.164798	3.002900	3.878000	11.645000	25.742118	0.000666	20.772926
558.168186	2.990900	3.878000	11.599000	25.723481	0.000666	20.758473
559.169777	3.002800	3.878000	11.645000	25.700171	0.000667	20.773941
560.165944	3.014700	3.879700	11.697000	25.696622	0.000668	20.759944
561.165158	3.002300	3.879800	11.649000	25.699545	0.000667	20.760036
562.163365	3.002300	3.879400	11.648000	25.676445	0.000670	20.761490
563.164984	2.997400	3.879600	11.629000	25.637898	0.000671	20.766871
564.165338	3.004400	3.879400	11.656000	25.610295	0.000672	20.755269
565.167717	2.989900	3.882000	11.607000	25.609522	0.000670	20.747381
566.169679	3.001300	3.881700	11.651000	25.571336	0.000671	20.756920
567.170879	2.986100	3.880600	11.589000	25.550563	0.000674	20.767826
568.165143	2.999700	3.882800	11.647000	25.510479	0.000674	20.760763
569.170644	3.007700	3.881800	11.676000	25.485087	0.000674	20.765135
570.167098	3.005900	3.882400	11.671000	25.462049	0.000677	20.748638
571.167298	3.002600	3.884300	11.664000	25.423906	0.000675	20.738311
572.168709	3.001100	3.881400	11.650000	25.416320	0.000678	20.741599
573.172139	3.012900	3.881900	11.697000	25.452409	0.000677	20.750338
574.168379	2.993800	3.883000	11.625000	25.493537	0.000679	20.744697
575.176582	3.014300	3.884300	11.709000	25.522793	0.000677	20.753689
576.170019	3.004300	3.883800	11.669000	25.518250	0.000682	20.752919
577.166894	2.988100	3.884500	11.608000	25.565562	0.000682	20.747328
578.170317	2.997000	3.883200	11.639000	25.581761	0.000682	20.766916
579.169044	2.996500	3.884500	11.641000	25.614565	0.000682	20.744858
580.174272	2.996900	3.885200	11.644000	25.641359	0.000682	20.719137
581.167943	3.005000	3.884100	11.673000	25.687096	0.000683	20.742315
582.170545	2.994400	3.885800	11.636000	25.704839	0.000686	20.730264
583.169263	2.997200	3.885600	11.646000	25.727480	0.000684	20.736885
584.169413	2.991200	3.885100	11.622000	25.753223	0.000686	20.732870
585.170559	3.012300	3.886400	11.708000	25.748552	0.000686	20.740506
586.173138	3.011700	3.887600	11.709000	25.701492	0.000687	20.725954
587.171440	2.995100	3.887700	11.644000	25.705318	0.000688	20.752557
588.170411	2.998200	3.887100	11.655000	25.738019	0.000689	20.747945
589.174153	2.994700	3.887700	11.643000	25.741967	0.000689	20.729150
590.175798	2.994100	3.888300	11.642000	25.740674	0.000691	20.751086
591.179261	2.998400	3.890400	11.665000	25.778909	0.000691	20.730696
592.176098	3.017000	3.889400	11.735000	25.786696	0.000692	20.735673
593.171610	3.011900	3.890700	11.719000	25.824077	0.000693	20.727703
594.184367	3.028500	3.891200	11.785000	25.813920	0.000693	20.753063
595.180321	2.999800	3.888900	11.666000	25.809972	0.000693	20.740562
596.175167	3.013200	3.890700	11.724000	25.816256	0.000696	20.729804
597.175560	2.991900	3.890000	11.639000	25.778339	0.000697	20.723485
598.173679	2.990200	3.890800	11.635000	25.722270	0.000696	20.724539
599.175431	2.999200	3.890300	11.669000	25.673199	0.000698	20.737840
600.178795	3.006200	3.891500	11.700000	25.633169	0.000700	20.727032
601.176999	2.996800	3.891800	11.664000	25.617922	0.000699	20.732582
602.174961	3.007200	3.893000	11.708000	25.621055	0.000700	20.705855
603.178492	2.989500	3.891000	11.633000	25.674028	0.000702	20.720179
604.173845	3.017500	3.893000	11.747000	25.702677	0.000703	20.730938
605.172629	3.000500	3.892100	11.679000	25.706632	0.000703	20.726375
606.175102	2.982200	3.892600	11.610000	25.702212	0.000703	20.731419
607.172841	2.995400	3.892900	11.662000	25.739530	0.000704	20.705838
608.174107	2.993800	3.893500	11.657000	25.752048	0.000704	20.711774
609.191975	2.999200	3.894800	11.682000	25.745439	0.000706	20.725051
610.181744	2.987700	3.893600	11.634000	25.767755	0.000707	20.714749
611.179796	2.989100	3.893200	11.638000	25.761122	0.000708	20.714724
612.179814	3.014500	3.895200	11.743000	25.814021	0.000710	20.722817
613.185832	2.999200	3.895400	11.684000	25.823136	0.000709	20.706368
614.176917	2.990800	3.895300	11.650000	25.812759	0.000711	20.731981
615.177681	3.014300	3.897100	11.747000	25.795098	0.000711	20.707127
616.179818	3.000800	3.896200	11.692000	25.819196	0.000713	20.710471
617.185853	2.990800	3.895400	11.651000	25.821856	0.000712	20.705556
618.183418	3.009700	3.896600	11.728000	25.842625	0.000713	20.705556
619.181611	2.993600	3.897500	11.668000	25.851195	0.000714	20.699466
620.184247	2.998200	3.897000	11.685000	25.858079	0.000716	20.699269
621.187729	2.996800	3.898000	11.682000	25.866998	0.000716	20.716291
622.183669	2.992600	3.897200	11.664000	25.813937	0.000717	20.705188
623.184935	3.000300	3.898500	11.697000	25.819926	0.000717	20.699824
624.181797	3.001100	3.899200	11.703000	25.807783	0.000718	20.707541
625.190755	2.993600	3.898200	11.671000	25.793321	0.000719	20.709136
626.183755	3.006200	3.898900	11.722000	25.783520	0.000720	20.725844
627.183567	3.003000	3.898600	11.708000	25.791416	0.000720	20.711963
628.192122	2.992200	3.898100	11.664000	25.781755	0.000720	20.697516
629.187797	2.996300	3.898600	11.682000	25.776587	0.000722	20.705128
630.183838	3.004000	3.900100	11.716000	25.777219	0.000723	20.681579
631.188941	2.993200	3.900000	11.674000	25.804377	0.000725	20.693213
632.190369	3.000800	3.900400	11.705000	25.828849	0.000725	20.701675
633.183570	3.003900	3.902000	11.722000	25.804384	0.000725	20.692272
634.184962	3.005900	3.900800	11.726000	25.796132	0.000726	20.715753
635.182580	2.992600	3.900600	11.673000	25.812831	0.000727	20.697913
636.185167	2.986900	3.900600	11.652000	25.830775	0.000729	20.699816
637.191825	3.006000	3.903300	11.734000	25.844268	0.000727	20.685868
638.190326	2.998500	3.902000	11.701000	25.861113	0.000729	20.721285
639.188207	2.991000	3.902800	11.674000	25.901680	0.000731	20.716518
640.188303	2.989200	3.902000	11.664000	25.928160	0.000732	20.680055
641.190890	2.998700	3.903600	11.706000	25.952765	0.000732	20.703828
642.195797	2.999300	3.902000	11.704000	25.960942	0.000733	20.692127
643.189876	3.004900	3.903300	11.730000	25.954733	0.000733	20.718134
644.188706	3.011200	3.903600	11.755000	25.988609	0.000736	20.705226
645.191579	3.005000	3.903700	11.731000	26.017901	0.000736	20.666847
646.184158	3.003500	3.906300	11.733000	26.025930	0.000736	20.691513
647.186893	3.009200	3.904500	11.750000	26.056207	0.000736	20.684473
648.188775	2.985700	3.905300	11.661000	26.075587	0.000738	20.709637
649.191158	3.008800	3.905100	11.750000	26.103307	0.000739	20.719946
650.191277	2.991500	3.905700	11.685000	26.099661	0.000740	20.681667
651.192054	2.991900	3.905800	11.686000	26.076992	0.000741	20.699669
652.192032	2.996700	3.906000	11.706000	26.063527	0.000742	20.693251
653.188578	3.003500	3.906400	11.734000	26.044608	0.000742	20.683725
654.192901	3.007300	3.906200	11.748000	26.010304	0.000745	20.697624
655.189179	3.015700	3.907900	11.786000	25.984127	0.000744	20.700722
656.195922	2.999900	3.907900	11.724000	25.921657	0.000744	20.678737
657.193274	3.027600	3.909400	11.836000	25.906885	0.000747	20.687606
658.192767	3.002800	3.908200	11.736000	25.890709	0.000745	20.688425
659.200150	3.022300	3.909300	11.815000	25.903005	0.000748	20.679914
660.188784	3.001600	3.908500	11.733000	25.886216	0.000750	20.698137
661.193176	3.004500	3.908700	11.744000	25.854323	0.000751	20.682218
662.193258	2.992500	3.908800	11.698000	25.845729	0.000750	20.702984
663.191204	2.998000	3.909700	11.722000	25.845313	0.000751	20.684073
664.190436	3.004700	3.910200	11.750000	25.873283	0.000753	20.680876
665.201551	2.994300	3.910300	11.710000	25.919985	0.000753	20.713097
666.190321	2.998000	3.910400	11.724000	25.915101	0.000754	20.680212
667.195123	2.992400	3.909000	11.697000	25.936267	0.000755	20.688674
668.190111	3.002800	3.911500	11.746000	25.961826	0.000757	20.670254
669.191738	2.987700	3.910900	11.685000	26.009119	0.000758	20.696908
670.195181	3.004000	3.911200	11.750000	25.978981	0.000758	20.670419
671.191296	2.997100	3.912000	11.725000	26.004798	0.000757	20.690669
672.192750	2.992000	3.912300	11.706000	26.002739	0.000758	20.675323
673.193075	2.992900	3.912300	11.710000	25.996034	0.000760	20.688976
674.193482	3.004800	3.912100	11.756000	26.027262	0.000763	20.702809
675.208526	3.003400	3.913500	11.755000	26.050767	0.000763	20.687069
676.197235	3.008700	3.913000	11.774000	26.050149	0.000764	20.686447
677.196980	2.985000	3.914200	11.685000	26.039050	0.000763	20.696634
678.195842	2.999500	3.914000	11.741000	26.061457	0.000764	20.673152
679.193518	2.992700	3.915300	11.718000	26.118833	0.000764	20.668688
680.201063	3.000200	3.914400	11.745000	26.133535	0.000768	20.688678
681.197818	2.986500	3.915200	11.693000	26.114146	0.000767	20.696697
682.200578	2.997000	3.915300	11.736000	26.085221	0.000769	20.673795
683.198055	3.010500	3.916000	11.790000	26.059314	0.000767	20.695183
684.198495	3.015700	3.916600	11.812000	26.023074	0.000769	20.685323
685.202674	3.001500	3.916200	11.755000	26.033684	0.000770	20.703571
686.203912	3.013800	3.915900	11.803000	26.030810	0.000770	20.673655
687.202966	2.997400	3.916300	11.740000	26.031933	0.000772	20.700863
688.199004	3.016000	3.917000	11.814000	26.063111	0.000771	20.687143
689.204163	3.002900	3.918000	11.766000	26.090335	0.000774	20.676089
690.197765	3.009800	3.916600	11.789000	26.109169	0.000773	20.681737
691.206591	2.992100	3.918000	11.724000	26.117963	0.000775	20.700059
692.204654	3.001700	3.918500	11.763000	26.128425	0.000779	20.688285
693.207092	3.011800	3.918400	11.802000	26.146210	0.000777	20.692879
694.202932	2.996000	3.917800	11.738000	26.142882	0.000777	20.682422
695.202653	3.001700	3.919200	11.765000	26.152530	0.000780	20.688323
696.206972	3.000900	3.919900	11.764000	26.175260	0.000782	20.693146
697.200065	2.987600	3.919600	11.711000	26.191579	0.000780	20.689630
698.200322	3.004100	3.919500	11.776000	26.235461	0.000782	20.692950
699.198865	2.993900	3.919400	11.735000	26.274801	0.000783	20.678429
700.203829	2.994000	3.921100	11.741000	26.280641	0.000782	20.688566
701.203534	2.997700	3.919700	11.751000	26.311610	0.000784	20.710681
702.206153	2.984100	3.921100	11.701000	26.285667	0.000784	20.690772
703.201164	3.006600	3.921600	11.791000	26.239729	0.000785	20.698187
704.202168	3.003100	3.921500	11.778000	26.215777	0.000786	20.705412
705.205454	2.984400	3.921300	11.704000	26.207584	0.000789	20.708560
706.201563	2.999400	3.922700	11.766000	26.169364	0.000790	20.714250
707.203184	2.994000	3.923200	11.747000	26.143687	0.000788	20.705992
708.206252	3.007700	3.924100	11.804000	26.131425	0.000792	20.698886
709.209580	3.000300	3.924100	11.774000	26.134208	0.000793	20.695518
710.206926	3.015800	3.923300	11.833000	26.084813	0.000790	20.697569
711.204580	2.992500	3.923300	11.742000	26.108138	0.000791	20.682125
712.206278	3.003800	3.926000	11.793000	26.114689	0.000792	20.684913
713.202360	3.013800	3.925600	11.832000	26.131562	0.000794	20.696178
714.211565	3.004500	3.923900	11.790000	26.104321	0.000796	20.707215
715.209050	2.997300	3.925100	11.765000	26.062476	0.000794	20.704524
716.205198	3.024400	3.926700	11.877000	26.041435	0.000795	20.679114
717.209778	3.006700	3.926200	11.806000	26.025960	0.000796	20.710492
718.209376	2.988900	3.926000	11.736000	25.968764	0.000800	20.682441
719.206611	3.000000	3.926400	11.780000	25.992564	0.000800	20.706829
720.217545	3.003000	3.928000	11.796000	26.012906	0.000799	20.704981
721.208691	2.999100	3.927000	11.778000	26.038968	0.000801	20.696551
722.205782	2.996200	3.927300	11.768000	26.072743	0.000802	20.684967
723.212327	3.005400	3.927600	11.804000	26.134414	0.000802	20.689561
724.208494	2.997000	3.926500	11.768000	26.186425	0.000807	20.717170
725.208939	3.001600	3.928000	11.791000	26.228469	0.000806	20.704890
726.207115	2.998800	3.928100	11.781000	26.260358	0.000806	20.696158
727.208308	2.991800	3.928500	11.754000	26.251466	0.000805	20.683428
728.212480	2.997500	3.929700	11.780000	26.232121	0.000807	20.716148
729.213375	2.988100	3.928400	11.739000	26.221814	0.000809	20.703418
730.210437	2.990200	3.929000	11.748000	26.240687	0.000808	20.706737
731.210783	2.999400	3.930300	11.789000	26.203419	0.000809	20.696787
732.211729	3.004700	3.930300	11.810000	26.169966	0.000810	20.709639
733.205921	3.003100	3.930300	11.803000	26.164401	0.000811	20.710686
734.215676	3.009300	3.932700	11.835000	26.200343	0.000811	20.715034
735.211040	3.002100	3.932000	11.805000	26.234138	0.000813	20.699207
736.208502	3.006400	3.931900	11.822000	26.261455	0.000813	20.710538
737.211788	3.000900	3.932400	11.801000	26.268134	0.000816	20.718673
738.209960	2.997400	3.932400	11.788000	26.263447	0.000814	20.716808
739.213974	2.983800	3.933400	11.737000	26.265489	0.000815	20.704634
740.210732	3.016600	3.933200	11.866000	26.293668	0.000817	20.693597
741.215714	3.002800	3.933400	11.812000	26.314589	0.000818	20.708459
742.214301	2.989700	3.932200	11.756000	26.343239	0.000817	20.708803
743.216102	2.994300	3.933300	11.778000	26.366014	0.000817	20.698975
744.211570	2.994100	3.933500	11.778000	26.329166	0.000820	20.729748
745.216687	2.995700	3.934700	11.789000	26.346982	0.000820	20.693123
746.214600	3.016000	3.936300	11.873000	26.333705	0.000823	20.718189
747.213375	2.987300	3.935300	11.757000	26.340985	0.000822	20.726454
748.217912	2.995500	3.934600	11.787000	26.359011	0.000822	20.709955
749.217876	3.000900	3.936700	11.815000	26.378784	0.000824	20.701852
750.216752	3.009700	3.936700	11.849000	26.412947	0.000824	20.722913
751.211276	2.991100	3.936100	11.774000	26.442244	0.000826	20.705891
752.217904	3.006500	3.937500	11.839000	26.467033	0.000826	20.722274
753.224103	2.989500	3.937200	11.771000	26.495809	0.000827	20.723222
754.212764	2.998800	3.938400	11.811000	26.512075	0.000827	20.709699
755.219019	2.992100	3.937000	11.781000	26.504503	0.000828	20.732910
756.217777	2.999600	3.937500	11.812000	26.476311	0.000832	20.711210
757.217439	3.001600	3.938000	11.821000	26.469658	0.000832	20.722541
758.217525	3.020200	3.940200	11.902000	26.494880	0.000832	20.726082
759.218513	2.998700	3.937500	11.808000	26.500167	0.000832	20.709584
760.213019	2.981400	3.938900	11.745000	26.511219	0.000834	20.710736
761.216930	2.989800	3.938800	11.777000	26.492934	0.000837	20.725074
762.218938	2.993900	3.939700	11.796000	26.482979	0.000836	20.687090
763.216850	3.001700	3.941100	11.831000	26.499496	0.000836	20.728826
764.221619	2.999200	3.942600	11.825000	26.521447	0.000838	20.732398
765.217299	2.989200	3.940000	11.779000	26.519039	0.000841	20.718597
766.222311	2.988900	3.942400	11.784000	26.533890	0.000839	20.728784
767.219022	2.997700	3.941700	11.817000	26.553034	0.000841	20.721948
768.214072	3.005000	3.943800	11.851000	26.561182	0.000843	20.713069
769.217290	3.002800	3.943000	11.840000	26.531416	0.000842	20.727720
770.222297	3.008000	3.943600	11.863000	26.453508	0.000843	20.734284
771.219279	3.003700	3.944200	11.849000	26.436190	0.000844	20.732525
772.217502	3.025100	3.945000	11.935000	26.401549	0.000847	20.705293
773.217759	3.009800	3.944400	11.873000	26.387973	0.000846	20.728159
774.217271	2.994600	3.944600	11.813000	26.371395	0.000845	20.717186
775.219543	3.003000	3.945100	11.848000	26.372583	0.000850	20.716010
776.220572	3.013600	3.945900	11.892000	26.383011	0.000848	20.737871
777.226442	2.997700	3.945800	11.829000	26.418596	0.000849	20.722901
778.223535	2.988900	3.944800	11.791000	26.454278	0.000848	20.716091
779.219499	3.001500	3.945500	11.843000	26.463590	0.000849	20.733987
780.222635	3.006600	3.945300	11.863000	26.476750	0.000850	20.741524
781.223255	2.997000	3.946900	11.830000	26.490332	0.000854	20.733839
782.223501	3.000100	3.945700	11.838000	26.517269	0.000854	20.731043
783.229235	2.999200	3.947400	11.840000	26.526906	0.000854	20.720815
784.220906	2.993700	3.948600	11.821000	26.464663	0.000854	20.717994
785.224324	2.997100	3.948300	11.835000	26.431844	0.000857	20.743330
786.228411	3.011100	3.948400	11.890000	26.410419	0.000856	20.708044
787.225496	2.980900	3.949100	11.772000	26.408092	0.000858	20.747907
788.225211	3.001300	3.949500	11.854000	26.348973	0.000858	20.736379
789.222046	3.000400	3.948700	11.849000	26.349714	0.000858	20.716260
790.225471	2.993300	3.949400	11.822000	26.341945	0.000858	20.731212
791.226219	2.999100	3.949300	11.845000	26.323553	0.000862	20.731220
792.225318	3.000900	3.950900	11.857000	26.305030	0.000862	20.737261
793.226384	3.007900	3.951400	11.886000	26.315857	0.000863	20.720166
794.223144	3.007200	3.950000	11.879000	26.298928	0.000862	20.724016
795.222219	3.017600	3.950800	11.922000	26.288825	0.000864	20.742312
796.224892	2.995800	3.950300	11.836000	26.313481	0.000866	20.736271
797.228947	3.016000	3.951300	11.918000	26.347433	0.000866	20.735779
798.222359	2.977400	3.951000	11.764000	26.383956	0.000867	20.738821
799.225623	2.995100	3.952500	11.839000	26.373315	0.000868	20.748041
800.223873	2.994000	3.952600	11.835000	26.389502	0.000869	20.737283
801.223750	2.977500	3.951200	11.766000	26.365424	0.000869	20.740111
802.230047	2.983700	3.952700	11.794000	26.396537	0.000873	20.751940
803.227344	2.993500	3.954200	11.838000	26.417693	0.000873	20.764195
804.228621	2.988000	3.952600	11.811000	26.467121	0.000875	20.736587
805.228554	3.001100	3.953800	11.867000	26.496774	0.000874	20.730831
806.226154	3.007400	3.954400	11.894000	26.557998	0.000872	20.747803
807.228782	2.998600	3.954300	11.858000	26.569766	0.000873	20.761055
808.231330	2.978400	3.955800	11.782000	26.586674	0.000874	20.742015
809.228561	2.990200	3.954300	11.825000	26.572181	0.000876	20.754473
810.227695	3.016300	3.955500	11.932000	26.556989	0.000878	20.750107
811.230569	3.015200	3.957700	11.934000	26.557517	0.000878	20.744948
812.231328	2.984700	3.956300	11.810000	26.543415	0.000878	20.753532
813.233790	2.984600	3.956600	11.809000	26.546123	0.000879	20.748668
814.231806	2.988900	3.956800	11.827000	26.517307	0.000880	20.779446
815.231276	3.011100	3.957100	11.916000	26.543771	0.000882	20.759581
816.234208	3.006400	3.958100	11.900000	26.551692	0.000880	20.757112
817.232346	2.997700	3.957700	11.865000	26.587695	0.000883	20.735928
818.232776	2.999500	3.958100	11.873000	26.590403	0.000883	20.750505
819.230379	2.999200	3.959000	11.875000	26.549911	0.000886	20.748208
820.230653	2.994200	3.957600	11.851000	26.497648	0.000887	20.771540
821.229233	2.999300	3.959700	11.877000	26.473297	0.000886	20.758443
822.229204	3.006100	3.959100	11.902000	26.410684	0.000887	20.763789
823.232955	3.005100	3.958900	11.898000	26.411799	0.000888	20.758271
824.230073	2.990800	3.959400	11.842000	26.422014	0.000888	20.762374
825.232335	3.006600	3.961800	11.912000	26.452296	0.000891	20.737334
826.231826	3.008300	3.961400	11.917000	26.481771	0.000890	20.758426
827.231558	2.991100	3.961300	11.849000	26.529845	0.000892	20.759806
828.232743	2.998300	3.960500	11.875000	26.524722	0.000894	20.748967
829.233202	3.004700	3.962200	11.906000	26.590816	0.000894	20.749498
830.233513	2.997100	3.962100	11.875000	26.604414	0.000895	20.757952
831.233479	2.994100	3.962700	11.866000	26.606259	0.000896	20.771186
832.236815	2.991200	3.962600	11.853000	26.636250	0.000897	20.755342
833.238377	3.023500	3.964400	11.987000	26.637015	0.000898	20.749947
834.240864	3.008200	3.964700	11.927000	26.666037	0.000900	20.762529
835.240195	3.004000	3.964200	11.909000	26.661118	0.000898	20.759006
836.242411	3.009000	3.963800	11.928000	26.680431	0.000901	20.769413
837.241900	2.996200	3.963900	11.878000	26.687831	0.000900	20.761204
838.238608	3.001700	3.964500	11.902000	26.713072	0.000903	20.776149
839.242597	3.006300	3.965000	11.921000	26.692897	0.000902	20.770091
840.241892	3.007400	3.966200	11.929000	26.690734	0.000903	20.778348
841.241659	3.001700	3.965600	11.904000	26.717292	0.000903	20.770435
842.242891	3.013800	3.966900	11.956000	26.718179	0.000904	20.764214
843.241762	2.992000	3.965400	11.865000	26.683359	0.000905	20.768563
844.247423	3.007900	3.968600	11.937000	26.700240	0.000905	20.772258
845.246855	3.024000	3.968400	12.001000	26.710616	0.000905	20.764197
846.245543	3.004000	3.967200	11.918000	26.721967	0.000907	20.777505
847.242393	2.993100	3.969500	11.882000	26.763916	0.000908	20.780326
848.244420	3.004100	3.967800	11.920000	26.778951	0.000910	20.763674
849.254184	3.011700	3.967700	11.950000	26.796180	0.000908	20.786212
850.248827	3.004900	3.968800	11.926000	26.784617	0.000910	20.784544
851.247055	2.988500	3.969300	11.863000	26.821142	0.000914	20.743031
852.246121	3.005300	3.969900	11.931000	26.822791	0.000915	20.786890
853.247110	2.991300	3.969900	11.876000	26.835866	0.000915	20.765897
854.243352	3.000700	3.971700	11.918000	26.855403	0.000915	20.771317
855.252684	2.994600	3.972500	11.896000	26.869330	0.000916	20.789114
856.246590	2.986300	3.970700	11.859000	26.872086	0.000918	20.773393
857.245996	3.012700	3.973700	11.973000	26.894567	0.000919	20.785092
858.244585	2.989100	3.971500	11.872000	26.890152	0.000919	20.775437
859.244765	2.992200	3.972200	11.886000	26.879201	0.000917	20.797616
860.247532	3.012300	3.974300	11.973000	26.881859	0.000920	20.763305
861.252149	3.001700	3.973600	11.928000	26.905315	0.000922	20.798270
862.249310	3.014900	3.974100	11.982000	26.871510	0.000923	20.774709
863.249483	2.997700	3.975500	11.918000	26.811327	0.000923	20.792907
864.244932	3.015200	3.973900	11.983000	26.754857	0.000923	20.789236
865.247519	3.000700	3.974600	11.927000	26.729097	0.000924	20.795106
866.252476	2.990000	3.975300	11.886000	26.711200	0.000924	20.779009
867.248359	2.999900	3.974100	11.923000	26.712632	0.000926	20.794673
868.251523	3.017900	3.976200	12.000000	26.743913	0.000927	20.822329
869.246442	3.008100	3.975200	11.958000	26.767224	0.000928	20.795506
870.249735	2.993300	3.975700	11.902000	26.821538	0.000928	20.799380
871.254553	2.985300	3.975400	11.868000	26.813465	0.000930	20.810229
872.252417	2.989100	3.976600	11.887000	26.835856	0.000929	20.803820
873.246547	2.993900	3.977300	11.909000	26.865460	0.000931	20.785222
874.248096	3.013500	3.978800	11.991000	26.859711	0.000933	20.817373
875.246688	3.004700	3.977700	11.952000	26.845710	0.000932	20.788598
876.246416	3.005900	3.977600	11.956000	26.832157	0.000933	20.790143
877.258064	2.989300	3.977300	11.890000	26.776412	0.000932	20.801424
878.246133	3.000800	3.978800	11.940000	26.742505	0.000936	20.803370
879.248950	3.003500	3.978900	11.952000	26.742212	0.000936	20.805446
880.249450	3.000800	3.978700	11.941000	26.730397	0.000936	20.801154
881.247959	3.002800	3.980200	11.953000	26.717517	0.000937	20.807171
882.256330	2.994500	3.980100	11.919000	26.729559	0.000938	20.803156
883.251863	2.993900	3.981100	11.920000	26.690682	0.000939	20.782090
884.249644	3.009700	3.980400	11.980000	26.649925	0.000942	20.772884
885.250308	2.998600	3.981300	11.940000	26.643923	0.000941	20.816636
886.251217	2.995100	3.980400	11.922000	26.611794	0.000944	20.800459
887.247006	2.982400	3.981000	11.874000	26.617412	0.000942	20.800891
888.254526	2.997700	3.982300	11.938000	26.599814	0.000945	20.802166
889.246883	2.988100	3.982300	11.900000	26.597480	0.000945	20.801242
890.245958	3.003100	3.982900	11.961000	26.619771	0.000945	20.811322
891.247639	2.993800	3.983800	11.927000	26.633180	0.000947	20.818164
892.251218	3.022900	3.983700	12.043000	26.671123	0.000947	20.822643
893.254744	2.993900	3.983400	11.927000	26.692657	0.000948	20.836231
894.248628	2.996100	3.984400	11.939000	26.731956	0.000949	20.798454
895.255048	3.004500	3.984800	11.973000	26.769074	0.000952	20.822021
896.252486	2.999900	3.984900	11.955000	26.801712	0.000951	20.821171
897.249929	2.986100	3.984800	11.900000	26.837527	0.000951	20.822095
898.252166	2.995900	3.984800	11.939000	26.846235	0.000954	20.811411
899.252467	2.989200	3.984600	11.911000	26.877544	0.000954	20.839098
900.251002	2.996700	3.985900	11.945000	26.909211	0.000955	20.805033
901.252772	2.987400	3.984600	11.905000	26.889269	0.000956	20.833344
902.252831	3.003700	3.987300	11.978000	26.873122	0.000957	20.842237
903.251891	2.999800	3.987400	11.962000	26.870048	0.000957	20.810698
904.253515	3.007000	3.988000	11.993000	26.855356	0.000957	20.810625
905.251102	3.021200	3.988600	12.052000	26.892145	0.000959	20.812054
906.255605	2.999400	3.988400	11.963000	26.884454	0.000959	20.857898
907.250617	3.006400	3.988600	11.992000	26.909397	0.000960	20.826556
908.255189	3.004600	3.989000	11.986000	26.881576	0.000962	20.829875
909.259688	3.014300	3.988900	12.024000	26.834541	0.000962	20.852757
910.251503	2.999800	3.988900	11.967000	26.787163	0.000961	20.838786
911.254821	2.997800	3.990400	11.963000	26.740897	0.000965	20.824986
912.256687	3.002000	3.989500	11.977000	26.725585	0.000963	20.809593
913.257741	2.990300	3.990000	11.932000	26.687285	0.000967	20.842210
914.257559	2.993000	3.990200	11.943000	26.683568	0.000967	20.847482
915.256928	2.990600	3.990300	11.934000	26.727633	0.000967	20.841522
916.255075	2.990300	3.992500	11.939000	26.750588	0.000968	20.823824
917.257512	2.992700	3.991900	11.947000	26.781079	0.000969	20.833617
918.255232	2.987300	3.992800	11.929000	26.793211	0.000970	20.839650
919.255726	2.991500	3.993100	11.946000	26.799967	0.000969	20.850710
920.260802	3.019500	3.994200	12.061000	26.845580	0.000972	20.870019
921.258587	3.016100	3.994800	12.050000	26.850474	0.000972	20.837009
922.259179	2.992300	3.992800	11.948000	26.857548	0.000972	20.838906
923.260560	3.000400	3.995100	11.987000	26.846555	0.000974	20.851560
924.260633	2.996700	3.994500	11.970000	26.803974	0.000974	20.844308
925.260064	3.005000	3.995500	12.007000	26.809406	0.000975	20.830330
926.261539	3.003400	3.995800	12.002000	26.802755	0.000974	20.835970
927.262309	3.002700	3.996100	12.000000	26.804267	0.000978	20.847448
928.261408	3.001300	3.996000	11.993000	26.790542	0.000977	20.834597
929.263604	3.004700	3.997500	12.012000	26.798909	0.000977	20.862922
930.260903	3.001900	3.996600	11.998000	26.840530	0.000979	20.846450
931.260460	2.998600	3.997700	11.988000	26.823707	0.000981	20.835226
932.259320	3.002200	3.997300	12.001000	26.833935	0.000980	20.849302
933.264377	3.002000	3.997300	12.001000	26.835448	0.000979	20.821427
934.263013	3.013200	3.998900	12.051000	26.841659	0.000984	20.835258
935.264947	3.014100	3.998700	12.053000	26.867578	0.000982	20.850413
936.261267	3.014100	4.000000	12.057000	26.915343	0.000985	20.846760
937.260041	2.993400	3.998300	11.969000	26.897921	0.000986	20.824974
938.267200	2.998900	3.998700	11.993000	26.912871	0.000983	20.830524
939.263648	2.994700	4.000400	11.980000	26.929871	0.000987	20.838609
940.261972	3.010600	4.000900	12.046000	26.930740	0.000988	20.825733
941.262021	2.999300	4.000600	12.000000	26.945082	0.000987	20.821188
942.263171	2.993300	4.000400	11.976000	26.971445	0.000990	20.834897
943.261500	3.011700	4.000700	12.049000	26.989988	0.000991	20.826043
944.263165	3.009000	4.002500	12.044000	26.987435	0.000991	20.832484
945.263937	3.001500	4.002800	12.015000	27.005816	0.000991	20.815408
946.262709	2.985800	4.001400	11.948000	26.968777	0.000993	20.833162
947.264995	3.000700	4.003800	12.015000	26.955827	0.000994	20.830570
948.266974	2.992000	4.002500	11.976000	27.005384	0.000995	20.817818
949.270229	2.997100	4.002800	11.998000	27.009750	0.000995	20.827898
950.266718	3.003200	4.004100	12.026000	27.022389	0.000997	20.818798
951.263411	3.007200	4.003800	12.041000	27.054199	0.000996	20.816174
952.267842	3.002400	4.003500	12.021000	27.011325	0.000998	20.811465
953.268600	3.008000	4.004900	12.048000	27.023161	0.000999	20.808195
954.265646	2.990500	4.005000	11.978000	27.022893	0.000998	20.810769
955.269033	2.984300	4.004800	11.953000	27.047459	0.000999	20.799913
956.265228	2.983300	4.004500	11.947000	27.023762	0.001000	20.822075
957.268378	2.986600	4.005500	11.964000	27.036915	0.001002	20.813966
958.270832	2.987800	4.005900	11.970000	27.055603	0.001003	20.842716
959.271050	3.012900	4.007400	12.075000	27.089483	0.001002	20.821314
960.271596	3.025300	4.008000	12.126000	27.083997	0.001004	20.818167
961.269035	2.993400	4.007900	11.998000	27.131987	0.001007	20.809060
962.273432	3.003500	4.007900	12.038000	27.099391	0.001006	20.833175
963.277061	3.002700	4.007400	12.033000	27.053180	0.001006	20.799503
964.270991	3.008100	4.007400	12.054000	27.086923	0.001008	20.813049
965.269890	3.009800	4.010300	12.071000	27.041027	0.001007	20.812885
966.266190	2.999500	4.009900	12.029000	27.010502	0.001009	20.815378
967.269089	2.990300	4.009200	11.990000	27.008843	0.001009	20.797115
968.270218	3.003800	4.010400	12.047000	27.008379	0.001011	20.798545
969.271760	3.002300	4.010500	12.041000	26.965147	0.001012	20.818132
970.269098	3.006700	4.011000	12.061000	26.948529	0.001012	20.813275
971.274381	2.987100	4.010200	11.980000	26.969325	0.001013	20.798152
972.274758	2.989200	4.011400	11.992000	26.960960	0.001014	20.821982
973.270494	3.008000	4.011800	12.069000	26.960464	0.001014	20.784974
974.275564	3.011300	4.012600	12.084000	26.983544	0.001015	20.792062
975.274575	3.020300	4.012500	12.120000	26.944146	0.001017	20.785161
976.272097	2.994000	4.012500	12.014000	26.943245	0.001019	20.801798
977.273683	3.011500	4.013400	12.087000	26.972276	0.001018	20.803016
978.279559	3.003300	4.013100	12.053000	26.988916	0.001018	20.791774
979.277229	2.998700	4.012700	12.033000	26.991794	0.001020	20.803677
980.275902	3.012000	4.014900	12.094000	26.994005	0.001021	20.796417
981.274049	2.998300	4.013700	12.035000	26.965616	0.001021	20.792052
982.271164	3.000200	4.014000	12.043000	26.955861	0.001023	20.803579
983.274536	2.997300	4.014500	12.033000	26.917496	0.001022	20.795346
984.274542	2.986700	4.014400	11.991000	26.864739	0.001024	20.787342
985.278749	2.993600	4.015600	12.022000	26.817411	0.001026	20.768678
986.277694	2.992200	4.015100	12.014000	26.836672	0.001026	20.799899
987.275506	2.983200	4.016600	11.983000	26.858308	0.001026	20.803161
988.275434	2.997800	4.016300	12.042000	26.864820	0.001027	20.770828
989.274360	2.995100	4.017400	12.033000	26.871023	0.001027	20.785600
990.276915	2.980500	4.016300	11.972000	26.851811	0.001031	20.786197
991.275314	2.992600	4.017500	12.023000	26.890731	0.001030	20.801623
992.281310	3.000200	4.017100	12.053000	26.911552	0.001029	20.792214
993.278474	3.020200	4.019200	12.139000	26.883252	0.001031	20.785568
994.281786	2.976200	4.017500	11.958000	26.858096	0.001032	20.778766
995.279674	2.990000	4.017500	12.013000	26.836704	0.001032	20.796612
996.290195	2.994900	4.019200	12.038000	26.833403	0.001034	20.763420
997.275976	3.010200	4.020700	12.104000	26.817663	0.001033	20.795958
998.277826	2.990600	4.019000	12.020000	26.828915	0.001036	20.772184
999.277887	2.995400	4.019500	12.041000	26.851135	0.001036	20.767973
1000.277441	3.006300	4.020100	12.086000	26.816011	0.001036	20.779599
1001.281240	2.993700	4.020600	12.037000	26.823036	0.001038	20.794248
1002.282055	2.994100	4.020200	12.038000	26.838898	0.001041	20.768946
1003.278618	2.992300	4.020700	12.032000	26.843387	0.001040	20.779623
1004.282785	2.982800	4.020800	11.994000	26.824751	0.001040	20.795499
1005.280107	3.008400	4.022300	12.102000	26.821181	0.001043	20.775788
1006.286468	2.996200	4.021800	12.051000	26.822027	0.001042	20.776164
1007.287631	3.011300	4.023100	12.116000	26.871517	0.001043	20.769975
1008.286002	3.020400	4.022500	12.150000	26.872939	0.001043	20.778992
1009.282878	3.010400	4.024000	12.114000	26.891711	0.001043	20.787436
1010.284716	2.983100	4.022100	11.999000	26.921865	0.001045	20.773661
1011.283408	3.003000	4.023800	12.083000	26.934548	0.001046	20.766025
1012.283673	2.996900	4.024100	12.061000	26.948222	0.001047	20.765077
1013.280606	2.997200	4.024500	12.063000	26.950042	0.001047	20.793460
1014.281318	2.995200	4.025100	12.056000	26.959106	0.001047	20.786928
1015.283923	2.998900	4.025200	12.072000	26.966203	0.001048	20.775098
1016.285758	3.001000	4.026000	12.082000	26.946676	0.001049	20.764944
1017.285591	3.024100	4.026400	12.177000	26.986388	0.001051	20.760783
1018.285542	3.003400	4.026100	12.092000	27.001337	0.001052	20.767755
1019.288615	2.999700	4.028600	12.085000	27.034390	0.001052	20.789616
1020.283245	2.993400	4.026400	12.054000	26.986721	0.001052	20.770126
1021.283623	3.007500	4.027100	12.112000	27.034520	0.001052	20.770780
1022.287558	3.005000	4.028000	12.105000	27.052322	0.001054	20.766397
1023.285395	2.987300	4.026000	12.028000	27.047973	0.001055	20.751592
1024.286462	2.991400	4.028400	12.051000	27.056565	0.001057	20.764500
1025.284338	3.009100	4.027600	12.121000	27.043112	0.001057	20.770411
1026.289135	2.992600	4.027800	12.054000	27.036177	0.001057	20.774816
1027.288488	2.985900	4.029600	12.033000	27.024365	0.001058	20.770524
1028.292629	2.977100	4.027800	11.992000	27.006407	0.001060	20.770957
1029.286047	2.993400	4.030100	12.065000	26.974792	0.001060	20.765242
1030.289495	3.013900	4.031200	12.151000	27.001001	0.001059	20.775003
1031.296088	3.013700	4.032000	12.152000	26.934297	0.001062	20.759609
1032.291069	3.023200	4.032900	12.193000	26.912467	0.001062	20.768004
1033.295217	2.996100	4.032000	12.081000	26.878370	0.001063	20.752683
1034.287810	3.015800	4.033500	12.164000	26.903093	0.001065	20.768061
1035.291143	3.004400	4.032300	12.115000	26.898182	0.001067	20.750320
1036.287102	2.997600	4.032200	12.087000	26.858327	0.001066	20.759084
1037.291328	3.012800	4.032600	12.150000	26.887645	0.001068	20.774338
1038.295483	2.996400	4.033100	12.086000	26.896677	0.001068	20.757816
1039.298079	2.999500	4.033500	12.100000	26.908847	0.001068	20.753932
1040.294642	3.003900	4.034700	12.120000	26.922400	0.001071	20.749067
1041.293277	2.994100	4.033400	12.077000	26.887286	0.001071	20.754536
1042.297335	2.998300	4.034300	12.097000	26.904269	0.001071	20.778252
1043.295387	2.982300	4.034100	12.032000	26.920699	0.001074	20.780075
1044.299077	2.993000	4.034100	12.075000	26.936048	0.001074	20.758524
1045.296163	3.012200	4.035800	12.158000	26.921706	0.001076	20.745051
1046.299151	2.996000	4.035600	12.091000	26.929552	0.001075	20.741560
1047.293945	2.987200	4.035400	12.056000	26.964354	0.001075	20.756643
1048.299181	3.013300	4.036100	12.162000	26.989865	0.001079	20.748631
1049.300889	2.999600	4.036300	12.108000	27.009277	0.001077	20.757721
1050.302129	2.984600	4.035000	12.044000	27.053384	0.001080	20.757508
1051.307383	2.998200	4.037100	12.105000	27.092216	0.001079	20.766215
1052.298105	3.003100	4.037100	12.125000	27.130240	0.001080	20.741868
1053.295315	3.015300	4.038300	12.178000	27.136344	0.001080	20.748956
1054.295983	3.008900	4.038000	12.151000	27.121981	0.001081	20.758692
1055.299350	2.979600	4.037400	12.030000	27.081810	0.001083	20.745317
1056.296222	3.004400	4.039000	12.136000	27.018712	0.001082	20.751089
1057.300574	3.014000	4.040300	12.179000	26.997666	0.001084	20.754580
1058.308002	3.012800	4.039700	12.171000	27.002315	0.001083	20.739340
1059.300558	2.998800	4.041100	12.119000	27.025589	0.001087	20.751841
1060.302994	2.989900	4.039900	12.080000	27.071973	0.001085	20.729260
1061.299418	3.005200	4.041000	12.145000	27.060340	0.001087	20.750278
1062.301332	2.997400	4.042100	12.117000	27.059153	0.001088	20.753826
1063.304015	3.000300	4.041800	12.128000	27.042830	0.001086	20.748790
1064.303799	3.013500	4.043500	12.186000	26.978113	0.001089	20.735390
1065.302883	3.007500	4.041700	12.156000	26.937196	0.001088	20.733599
1066.303743	2.990200	4.043300	12.091000	26.911562	0.001092	20.747178
1067.305015	2.981600	4.042600	12.054000	26.918830	0.001090	20.754962
1068.305177	3.011300	4.043900	12.178000	26.954828	0.001092	20.753227
1069.305560	3.007800	4.044600	12.166000	26.979428	0.001091	20.729126
1070.304274	3.008100	4.044300	12.166000	27.011141	0.001093	20.749638
1071.306423	3.014700	4.044700	12.194000	26.991694	0.001094	20.737669
1072.306173	2.996800	4.044000	12.120000	27.062313	0.001095	20.730924
1073.303433	2.996800	4.044800	12.123000	27.095193	0.001095	20.735069
1074.305761	3.008900	4.045600	12.174000	27.071579	0.001097	20.744511
1075.303399	3.001600	4.045300	12.143000	27.133550	0.001097	20.758474
1076.307972	3.000800	4.045100	12.139000	27.146205	0.001097	20.731846
1077.310662	2.999000	4.046200	12.135000	27.122137	0.001098	20.733244
1078.307539	2.989500	4.046200	12.097000	27.112887	0.001098	20.720621
1079.306118	2.990100	4.047300	12.103000	27.065741	0.001100	20.738166
1080.307947	2.996800	4.046700	12.129000	27.030209	0.001102	20.733726
1081.309881	2.993900	4.048200	12.121000	26.993660	0.001103	20.743912
1082.313140	3.009700	4.048000	12.183000	26.981449	0.001102	20.741591
1083.305729	3.015700	4.048900	12.211000	26.961231	0.001102	20.737380
1084.307708	2.989000	4.047200	12.098000	26.985659	0.001104	20.722590
1085.305085	3.010400	4.048000	12.187000	27.010495	0.001105	20.732392
1086.306385	3.015200	4.049600	12.211000	27.036427	0.001106	20.729547
1087.315463	2.983600	4.049500	12.083000	27.050684	0.001108	20.744360
1088.306006	3.010400	4.048900	12.190000	27.067657	0.001107	20.720177
1089.310046	2.969900	4.049100	12.026000	27.095075	0.001110	20.743012
1090.305244	3.001300	4.048500	12.151000	27.117534	0.001109	20.710595
1091.309796	2.972100	4.049200	12.036000	27.173765	0.001109	20.725425
1092.309630	2.989400	4.051400	12.112000	27.128881	0.001111	20.708731
1093.315877	2.989800	4.051800	12.115000	27.104585	0.001112	20.726971
1094.312184	2.985200	4.051200	12.094000	27.109625	0.001112	20.735833
1095.312809	3.019000	4.051900	12.233000	27.094717	0.001114	20.719890
1096.311882	3.004500	4.052800	12.178000	27.110575	0.001113	20.698380
1097.310698	3.010300	4.053800	12.204000	27.148860	0.001114	20.701323
1098.316230	2.980600	4.051600	12.077000	27.183298	0.001114	20.740705
1099.313827	3.006600	4.054000	12.190000	27.192978	0.001116	20.728155
1100.316955	2.997200	4.054900	12.154000	27.197619	0.001116	20.724762
1101.310655	3.020900	4.054100	12.248000	27.188394	0.001116	20.719751
1102.312927	2.997200	4.054700	12.154000	27.172146	0.001117	20.703881
1103.318075	2.983300	4.054100	12.096000	27.198448	0.001119	20.727492
1104.324163	2.997500	4.054000	12.152000	27.211054	0.001118	20.723576
1105.314857	3.018000	4.056200	12.242000	27.235486	0.001119	20.723021
1106.318582	2.991500	4.054900	12.131000	27.208900	0.001119	20.697700
1107.318094	3.006400	4.057400	12.198000	27.154882	0.001123	20.718287
1108.316424	3.002400	4.056300	12.180000	27.135309	0.001123	20.719464
1109.320289	2.997600	4.056500	12.161000	27.152524	0.001124	20.696948
1110.317549	3.009200	4.057000	12.209000	27.158189	0.001124	20.715449
1111.320526	2.986800	4.055700	12.114000	27.179672	0.001125	20.711926
1112.321882	2.995100	4.056500	12.150000	27.174445	0.001127	20.718997
1113.320436	2.992600	4.057700	12.144000	27.145688	0.001127	20.715678
1114.327148	2.990800	4.058900	12.140000	27.178883	0.001127	20.712555
1115.319506	3.018700	4.059200	12.254000	27.167154	0.001128	20.713560
1116.317761	3.006800	4.059000	12.205000	27.188896	0.001129	20.702710
1117.316947	2.991600	4.057900	12.140000	27.203746	0.001129	20.706268
1118.318079	2.980100	4.058900	12.097000	27.219342	0.001130	20.701091
1119.321974	2.987100	4.058800	12.124000	27.217708	0.001130	20.707509
1120.319701	2.995600	4.059300	12.161000	27.212921	0.001134	20.725455
1121.318226	2.990600	4.060500	12.144000	27.227835	0.001134	20.686399
1122.316459	3.001900	4.062200	12.195000	27.212555	0.001134	20.718922
1123.318845	2.999900	4.060100	12.180000	27.187480	0.001134	20.707925
1124.321045	3.009400	4.060700	12.221000	27.167575	0.001136	20.716354
1125.321922	3.007100	4.061900	12.215000	27.150936	0.001136	20.702938
1126.319369	3.009200	4.061300	12.222000	27.172646	0.001136	20.686839
1127.321736	3.006000	4.062000	12.211000	27.184359	0.001135	20.696250
1128.320186	2.997200	4.063000	12.178000	27.188154	0.001138	20.708129
1129.320453	2.996800	4.060900	12.170000	27.175409	0.001140	20.699577
1130.327481	3.015200	4.062800	12.251000	27.140394	0.001141	20.694230
1131.325800	2.983200	4.062900	12.121000	27.161860	0.001140	20.681680
1132.324158	2.988800	4.063700	12.147000	27.164534	0.001139	20.713296
1133.319541	3.013400	4.063500	12.246000	27.161713	0.001143	20.690068
1134.324461	3.006800	4.064800	12.223000	27.175612	0.001143	20.710687
1135.322523	3.013600	4.065100	12.252000	27.215187	0.001142	20.700231
1136.328920	3.004100	4.065000	12.213000	27.249997	0.001145	20.699209
1137.321009	3.010200	4.065100	12.238000	27.244966	0.001145	20.705054
1138.325081	2.994500	4.064400	12.172000	27.274558	0.001144	20.705422
1139.323945	3.000200	4.066500	12.201000	27.301556	0.001147	20.683265
1140.326951	2.988000	4.067400	12.155000	27.310235	0.001148	20.676823
1141.328172	2.994200	4.066500	12.177000	27.310219	0.001148	20.675384
1142.328510	3.002100	4.068000	12.213000	27.308699	0.001148	20.689504
1143.329625	2.991700	4.067600	12.170000	27.275613	0.001151	20.686568
1144.325258	2.998200	4.068200	12.198000	27.234131	0.001147	20.673290
1145.328841	3.006400	4.067700	12.230000	27.229344	0.001149	20.699772
1146.331563	2.979300	4.066900	12.117000	27.201978	0.001151	20.683150
1147.330696	3.001100	4.068600	12.211000	27.172660	0.001153	20.691121
1148.327177	3.004200	4.069400	12.226000	27.159477	0.001152	20.662212
1149.328293	2.994700	4.069700	12.189000	27.178911	0.001153	20.697409
1150.325438	2.993000	4.068500	12.178000	27.158144	0.001155	20.686477
1151.326107	2.976200	4.068500	12.110000	27.135791	0.001154	20.679642
1152.335210	2.996900	4.070000	12.198000	27.132149	0.001157	20.668392
1153.329518	3.001800	4.069700	12.217000	27.092775	0.001156	20.686166
1154.330736	3.017400	4.070900	12.284000	27.092327	0.001158	20.691881
1155.330510	3.005900	4.071800	12.241000	27.093717	0.001159	20.687589
1156.330713	2.990700	4.070800	12.174000	27.128710	0.001157	20.684375
1157.332926	3.000400	4.071300	12.216000	27.112559	0.001157	20.676665
1158.332645	3.024200	4.073500	12.320000	27.073721	0.001161	20.694979
1159.330286	3.017300	4.073300	12.291000	27.071664	0.001163	20.696230
1160.333089	3.009700	4.073600	12.261000	27.058170	0.001164	20.678864
1161.335880	2.994400	4.072500	12.196000	27.070257	0.001162	20.682012
1162.336036	3.021500	4.074500	12.312000	27.052984	0.001162	20.677916
1163.336169	3.004600	4.073200	12.239000	27.008339	0.001165	20.672373
1164.333099	3.001200	4.073900	12.227000	26.976675	0.001166	20.675619
1165.329883	2.981800	4.073500	12.147000	26.972846	0.001165	20.680778
1166.334536	2.999700	4.074800	12.225000	27.007127	0.001167	20.691545
1167.331222	2.979600	4.073900	12.140000	27.035011	0.001167	20.691611
1168.332658	3.004400	4.076000	12.246000	27.079899	0.001166	20.676060
1169.332265	3.013600	4.075900	12.283000	27.113526	0.001168	20.677638
1170.334308	2.988800	4.074300	12.178000	27.129922	0.001168	20.690810
1171.334817	3.014000	4.076900	12.289000	27.115038	0.001167	20.681530
1172.331510	3.006900	4.077800	12.263000	27.114494	0.001170	20.687621
1173.341249	3.002200	4.076700	12.240000	27.115380	0.001171	20.692780
1174.334142	3.003300	4.077000	12.246000	27.076606	0.001169	20.697407
1175.332011	2.996700	4.078400	12.222000	27.103919	0.001172	20.692159
1176.333707	3.009800	4.078000	12.275000	27.131270	0.001172	20.674621
1177.332751	2.998400	4.077800	12.227000	27.137919	0.001175	20.684154
1178.332694	3.017900	4.078400	12.309000	27.160020	0.001176	20.675088
1179.335949	2.985900	4.077600	12.176000	27.137936	0.001176	20.670893
1180.333458	3.007600	4.079100	12.269000	27.139082	0.001175	20.685324
1181.332041	2.998400	4.078700	12.230000	27.127596	0.001177	20.690368
1182.332242	2.980200	4.078500	12.155000	27.118915	0.001178	20.688749
1183.333045	2.973800	4.078700	12.131000	27.079020	0.001178	20.682764
1184.338521	3.017100	4.081200	12.314000	27.076655	0.001178	20.683705
1185.335643	3.014100	4.080400	12.299000	27.103536	0.001179	20.693670
1186.347904	2.998500	4.081100	12.238000	27.120459	0.001180	20.666118
1187.338259	2.983200	4.081900	12.178000	27.072004	0.001180	20.689459
1188.341805	3.002700	4.082600	12.260000	27.056543	0.001182	20.687187
1189.340886	2.999400	4.080800	12.241000	27.044122	0.001182	20.688919
1190.338847	3.002000	4.083100	12.258000	27.037098	0.001182	20.682330
1191.338983	3.022100	4.082700	12.339000	27.064842	0.001183	20.688421
1192.339385	2.983100	4.083000	12.180000	27.077548	0.001183	20.684602
1193.340909	2.992600	4.082000	12.217000	27.079043	0.001184	20.693694
1194.336957	3.007900	4.083600	12.284000	27.086090	0.001184	20.668536
1195.342199	2.992700	4.084200	12.224000	27.084603	0.001187	20.693595
1196.338102	2.976100	4.083300	12.153000	27.155743	0.001185	20.677898
1197.339412	3.001900	4.084600	12.262000	27.157140	0.001187	20.669820
1198.343027	2.982300	4.082800	12.177000	27.140169	0.001189	20.679304
1199.339556	2.985200	4.085400	12.196000	27.104363	0.001190	20.700193
1200.345090	2.982700	4.084600	12.185000	27.112378	0.001191	20.674112
1201.341552	3.013000	4.087100	12.315000	27.111565	0.001190	20.706014
1202.344807	2.989100	4.086200	12.215000	27.106679	0.001191	20.678338
1203.343657	3.023200	4.086600	12.355000	27.139558	0.001191	20.692916
1204.341444	2.989900	4.085600	12.216000	27.179735	0.001193	20.698238
1205.342932	3.002900	4.087300	12.275000	27.194967	0.001192	20.687479
1206.348943	3.003300	4.086900	12.275000	27.241059	0.001193	20.708711
1207.346386	3.012000	4.088500	12.315000	27.259175	0.001194	20.680938
1208.341443	2.980000	4.087700	12.182000	27.278810	0.001195	20.687887
1209.346186	3.004500	4.087500	12.281000	27.264011	0.001197	20.708564
1210.347259	2.996700	4.088500	12.253000	27.251405	0.001195	20.684977
1211.352259	3.000000	4.088600	12.266000	27.283679	0.001198	20.695156
1212.342259	2.995700	4.088500	12.249000	27.330003	0.001198	20.692442
1213.345257	3.005000	4.088700	12.287000	27.319283	0.001199	20.693039
1214.342257	2.993800	4.088900	12.242000	27.330230	0.001200	20.703103
1215.342143	3.019400	4.090700	12.352000	27.335041	0.001199	20.692768
1216.345174	3.003800	4.091200	12.290000	27.298023	0.001201	20.683031
1217.344789	2.995200	4.090400	12.252000	27.330523	0.001202	20.707191
1218.344805	3.012900	4.091600	12.328000	27.362005	0.001202	20.696660
1219.344768	2.997800	4.090800	12.264000	27.368792	0.001203	20.705384
1220.344576	2.987700	4.091700	12.225000	27.432526	0.001203	20.682729
1221.346362	2.985500	4.091900	12.217000	27.427414	0.001204	20.692761
1222.346845	2.988200	4.091500	12.227000	27.422450	0.001206	20.692033
1223.347263	2.996200	4.091600	12.260000	27.468183	0.001207	20.701534
1224.352345	2.997100	4.094000	12.271000	27.479648	0.001209	20.699792
1225.348185	2.995300	4.092000	12.258000	27.499507	0.001208	20.695590
1226.374728	3.011400	4.094900	12.332000	27.501092	0.001209	20.718523
1227.348975	3.010100	4.094200	12.325000	27.549307	0.001211	20.694487
1228.348297	3.009700	4.094600	12.324000	27.562600	0.001210	20.680359
1229.348376	3.016300	4.093900	12.349000	27.575219	0.001211	20.704437
1230.347731	3.008700	4.093800	12.318000	27.584587	0.001212	20.712916
1231.349809	2.997500	4.095400	12.277000	27.578859	0.001215	20.701936
1232.348356	2.991000	4.095700	12.251000	27.545937	0.001212	20.710537
1233.351330	2.999900	4.095100	12.286000	27.517068	0.001214	20.723692
1234.349911	2.975000	4.094700	12.182000	27.492862	0.001214	20.699336
1235.347184	2.999600	4.095300	12.286000	27.471793	0.001214	20.708960
