LabVIEW Measurement	
Writer_Version	2
Reader_Version	2
Separator	Tab
Decimal_Separator	.
Multi_Headings	No
X_Columns	One
Time_Pref	Absolute
Operator	User
Description	Clolumns are: time, Current, Voltage, Power, Battery Temp, and Chamber Temp
Date	2023/09/07
Time	16:32:22.8154511451721191406
***End_of_Header***	
	
Channels	5					
Samples	1	1	1	1	1	
Date	2023/09/07	2023/09/07	2023/09/07	2023/09/07	2023/09/07	
Time	16:32:22.8154511451721191406	16:32:22.8213777542114257812	16:32:22.8285503387451171875	16:32:23.0049600601196289063	16:32:23.0049600601196289063	
X_Dimension	Time	Time	Time	Time	Time	
X0	0.0000000000000000E+0	0.0000000000000000E+0	0.0000000000000000E+0	0.0000000000000000E+0	0.0000000000000000E+0	
Delta_X	1.000000	1.000000	1.000000	1.000000	1.000000	
***End_of_Header***						
X_Value	Untitled	Untitled 1	Untitled 2	Untitled 3	Untitled 4	Comment
0.000000	-2.597700	3.657600	-9.501100	49.317502	50.045242
0.216364	-2.591300	3.637500	-9.425600	49.332094	50.053324
1.209071	-2.606100	3.549500	-9.250100	49.317729	50.064615
2.209451	-2.607400	3.485500	-9.087700	49.331933	50.051718
3.208855	-2.582400	3.448600	-8.905200	49.333174	50.052236
4.208735	-2.601700	3.427600	-8.917100	49.333201	50.080078
5.208415	-2.598700	3.413300	-8.869600	49.339492	50.078418
6.208770	-2.599800	3.402900	-8.847000	49.319305	50.086419
7.209533	-2.580200	3.396500	-8.763100	49.325261	50.059860
8.214804	-2.586400	3.389700	-8.766900	49.328541	50.063138
9.210882	-2.586700	3.384100	-8.753200	49.316183	50.051509
10.211062	-2.580800	3.379000	-8.720100	49.323292	50.061144
11.209716	-2.570200	3.372400	-8.667300	49.330359	50.053396
12.208418	-2.609300	3.367400	-8.785800	49.320331	50.074079
13.208347	-2.599400	3.362500	-8.740200	49.318939	50.062212
14.212501	-2.626200	3.356500	-8.814500	49.328467	50.056562
15.211282	-2.593200	3.352200	-8.692400	49.329843	50.055770
16.212176	-2.617100	3.349100	-8.764400	49.336926	50.058876
17.209378	-2.608800	3.341300	-8.716400	49.326656	50.071369
18.211603	-2.600800	3.337700	-8.680300	49.324887	50.081522
19.208368	-2.615100	3.334500	-8.719400	49.322794	50.065342
20.207474	-2.584500	3.329500	-8.605000	49.315878	50.055539
21.209237	-2.602700	3.325700	-8.655200	49.336141	50.066760
22.209194	-2.605400	3.321200	-8.652400	49.329500	50.061207
23.208082	-2.600100	3.317900	-8.626400	49.332764	50.061941
24.210513	-2.609400	3.315400	-8.650500	49.337301	50.071894
25.210050	-2.605300	3.312200	-8.629100	49.330753	50.066433
26.208360	-2.618500	3.308100	-8.662300	49.337870	50.077519
27.210678	-2.585800	3.305900	-8.547900	49.333905	50.041768
28.210046	-2.613800	3.301800	-8.629900	49.335362	50.080793
29.211075	-2.573600	3.298800	-8.489400	49.341372	50.083910
30.210379	-2.610200	3.296000	-8.602900	49.337823	50.066274
31.210692	-2.591200	3.294400	-8.536100	49.342490	50.085028
32.208443	-2.611200	3.291200	-8.593300	49.339756	50.057731
33.209765	-2.587100	3.289800	-8.510800	49.334961	50.065943
34.209771	-2.579500	3.287400	-8.479700	49.333565	50.070327
35.209375	-2.582100	3.284900	-8.481400	49.335184	50.070861
36.210505	-2.598800	3.282500	-8.530300	49.360630	50.078593
37.211271	-2.575900	3.281200	-8.451500	49.337840	50.079296
38.212638	-2.624200	3.278000	-8.601900	49.346914	50.104621
39.211334	-2.618700	3.277200	-8.581900	49.345933	50.071129
40.212191	-2.609000	3.276200	-8.546900	49.356857	50.084937
41.209046	-2.611200	3.274200	-8.548800	49.345725	50.065141
42.210042	-2.602500	3.271600	-8.514200	49.346098	50.088272
43.209771	-2.596800	3.271700	-8.495900	49.349039	50.079291
44.209118	-2.595100	3.269700	-8.484600	49.363534	50.063073
45.210457	-2.618800	3.267400	-8.556000	49.354537	50.068169
46.208318	-2.607600	3.266200	-8.516400	49.356113	50.087445
47.208442	-2.578100	3.265400	-8.417700	49.362857	50.097075
48.209476	-2.594600	3.264800	-8.470500	49.355021	50.084547
49.207622	-2.627100	3.263000	-8.571800	49.356024	50.068933
50.209167	-2.584600	3.261400	-8.429300	49.366286	50.085692
51.209870	-2.618000	3.261000	-8.537000	49.365732	50.078997
52.212393	-2.596500	3.258900	-8.461100	49.364779	50.093216
53.209865	-2.568300	3.259200	-8.370000	49.364294	50.095621
54.208713	-2.590500	3.257900	-8.439000	49.350875	50.079319
55.209935	-2.575300	3.257900	-8.390000	49.366870	50.085914
56.211355	-2.588600	3.256800	-8.430000	49.365820	50.083058
57.212083	-2.588400	3.256100	-8.427900	49.367719	50.082428
58.213848	-2.605700	3.254800	-8.480000	49.372560	50.085821
59.211639	-2.602400	3.255100	-8.470700	49.368872	50.087193
60.212441	-2.595300	3.253800	-8.444200	49.353320	50.066952
61.209787	-2.584900	3.253200	-8.408800	49.354465	50.062317
62.208552	-2.605300	3.253200	-8.474900	49.354446	50.075664
63.208971	-2.613200	3.253300	-8.501100	49.360144	50.067271
64.207574	-2.607600	3.252400	-8.480400	49.361747	50.064177
65.211799	-2.566700	3.250900	-8.343800	49.362866	50.062044
66.208777	-2.601300	3.252200	-8.459400	49.373009	50.050508
67.209187	-2.587800	3.251500	-8.414100	49.362416	50.067375
68.207300	-2.572400	3.250800	-8.361800	49.378504	50.037576
69.208840	-2.618100	3.250000	-8.508100	49.366596	50.047710
70.210639	-2.592400	3.249900	-8.424600	49.365535	50.059293
71.213150	-2.611400	3.249900	-8.486600	49.366615	50.073739
72.210771	-2.620100	3.249300	-8.513000	49.357441	50.049036
73.211607	-2.593200	3.249300	-8.425900	49.382068	50.057756
74.211558	-2.614100	3.249200	-8.493700	49.368892	50.068067
75.211382	-2.599300	3.249200	-8.445400	49.366720	50.067702
76.209515	-2.632100	3.249400	-8.551900	49.379742	50.052180
77.209093	-2.612600	3.248600	-8.486900	49.367554	50.054809
78.211506	-2.586000	3.249200	-8.402000	49.369450	50.055620
79.207205	-2.574800	3.249500	-8.366500	49.365617	50.047454
80.210163	-2.570300	3.248900	-8.350500	49.361734	50.041766
81.209091	-2.608800	3.247900	-8.473100	49.360404	50.029599
82.206263	-2.605900	3.247700	-8.462900	49.384869	50.042493
83.211351	-2.632000	3.248200	-8.548800	49.370570	50.042651
84.210001	-2.591200	3.247900	-8.415700	49.374488	50.044761
85.210696	-2.585600	3.248400	-8.399100	49.370390	50.038497
86.207202	-2.607900	3.247600	-8.469100	49.377761	50.024912
87.208458	-2.604600	3.247700	-8.458700	49.400792	50.024452
88.212767	-2.580900	3.248800	-8.384200	49.360913	50.040946
89.212946	-2.585300	3.248700	-8.398600	49.379288	50.040889
90.209655	-2.601200	3.249000	-8.450900	49.379350	50.031920
91.211085	-2.573700	3.248600	-8.360400	49.378382	50.026255
92.212151	-2.592300	3.247600	-8.418400	49.389463	50.019269
93.209474	-2.585100	3.248100	-8.396500	49.388656	50.024965
94.206931	-2.610300	3.248300	-8.478900	49.381986	50.016491
95.209124	-2.595100	3.246800	-8.425800	49.383920	50.016258
96.210714	-2.591300	3.248000	-8.416500	49.376473	50.017845
97.205936	-2.601300	3.247900	-8.448100	49.396698	50.038060
98.209758	-2.584400	3.247800	-8.393300	49.378339	50.047165
99.210565	-2.579500	3.248300	-8.378800	49.383557	50.035041
100.210943	-2.599700	3.246800	-8.440500	49.379202	50.047666
101.209495	-2.581800	3.246500	-8.381500	49.395928	50.068358
102.212136	-2.583700	3.246900	-8.388400	49.384706	50.074119
103.208174	-2.618100	3.246600	-8.499500	49.393965	50.072175
104.209881	-2.590200	3.248300	-8.413800	49.399986	50.059048
105.209505	-2.572200	3.248100	-8.354300	49.385538	50.067004
106.210552	-2.585700	3.247800	-8.397300	49.383566	50.085263
107.210786	-2.581800	3.248500	-8.386500	49.390149	50.055718
108.210584	-2.589500	3.247000	-8.407800	49.384510	50.063086
109.212173	-2.600600	3.246400	-8.442500	49.383192	50.040456
110.211105	-2.607600	3.247100	-8.467000	49.406842	50.051451
111.211154	-2.590400	3.247100	-8.410600	49.384094	50.044970
112.209344	-2.597600	3.248200	-8.437400	49.394667	50.044340
113.211549	-2.602900	3.246100	-8.448500	49.389401	50.058583
114.208043	-2.590500	3.247200	-8.411500	49.387791	50.034215
115.209634	-2.606700	3.247900	-8.466000	49.376476	50.046748
116.210659	-2.587900	3.246500	-8.401200	49.402427	50.053901
117.208385	-2.593600	3.247900	-8.423600	49.402301	50.053776
118.209104	-2.597400	3.247700	-8.435400	49.407881	50.068023
119.208184	-2.579800	3.246900	-8.376500	49.401142	50.066345
120.210477	-2.605500	3.245800	-8.456100	49.395237	50.060081
121.209254	-2.570100	3.246800	-8.344700	49.401940	50.072560
122.211864	-2.579900	3.247400	-8.377500	49.381417	50.077334
123.209886	-2.564000	3.247200	-8.325400	49.408254	50.058642
124.208715	-2.591800	3.246400	-8.413600	49.402492	50.048187
125.208328	-2.585100	3.246600	-8.392400	49.400829	50.042912
126.209803	-2.584000	3.247900	-8.392400	49.380840	50.060141
127.209660	-2.595600	3.245800	-8.424500	49.397463	50.048579
128.211898	-2.609800	3.247600	-8.475200	49.409252	50.062530
129.211772	-2.603900	3.247000	-8.454600	49.410145	50.061978
130.211283	-2.601800	3.247600	-8.449100	49.401161	50.053359
131.212751	-2.615300	3.247300	-8.492700	49.408760	50.042531
132.214145	-2.627900	3.247600	-8.533900	49.408156	50.038676
133.212392	-2.601200	3.247600	-8.447500	49.419692	50.028893
134.210933	-2.603100	3.247200	-8.452700	49.419501	50.033760
135.210452	-2.577500	3.247400	-8.369900	49.418438	50.028723
136.208621	-2.599000	3.247100	-8.439000	49.418770	50.051452
137.209206	-2.615400	3.247400	-8.492400	49.418767	50.047115
138.208343	-2.588700	3.246500	-8.404200	49.402755	50.040863
139.209525	-2.611700	3.246900	-8.479400	49.415870	50.044581
140.208862	-2.614300	3.247100	-8.488600	49.423326	50.036860
141.209495	-2.598800	3.248400	-8.441700	49.422905	50.044387
142.210886	-2.619700	3.246800	-8.505400	49.421911	50.052786
143.206288	-2.614200	3.246800	-8.487500	49.416153	50.039805
144.210364	-2.584100	3.247100	-8.390600	49.421867	50.045517
145.210525	-2.611500	3.246400	-8.477800	49.415063	50.065448
146.210536	-2.589300	3.246400	-8.405400	49.408624	50.052509
147.208056	-2.589800	3.247300	-8.409400	49.431282	50.049148
148.212216	-2.619000	3.247800	-8.505700	49.416916	50.045987
149.211043	-2.614700	3.247200	-8.489800	49.413487	50.042921
150.208457	-2.620600	3.247600	-8.509900	49.423013	50.041244
151.209530	-2.601200	3.248500	-8.450200	49.416493	50.034727
152.208921	-2.592200	3.248100	-8.419400	49.437103	50.043045
153.209505	-2.593300	3.247900	-8.422600	49.434852	50.035376
154.214772	-2.587800	3.246300	-8.400000	49.443174	50.035747
155.212379	-2.588800	3.247700	-8.407400	49.431675	50.067241
156.212758	-2.625400	3.247100	-8.524600	49.427762	50.046352
157.210518	-2.597000	3.247500	-8.433800	49.436927	50.038896
158.208694	-2.583000	3.247900	-8.389200	49.431477	50.026584
159.210349	-2.597900	3.246400	-8.433600	49.438837	50.028883
160.210454	-2.616600	3.247400	-8.497100	49.435513	50.039289
161.208100	-2.596800	3.247200	-8.432000	49.426368	50.020755
162.208863	-2.588500	3.247600	-8.405700	49.434585	50.017409
163.209254	-2.580800	3.247000	-8.379000	49.448463	50.049343
164.210063	-2.621900	3.246900	-8.512900	49.456453	50.042518
165.208365	-2.591800	3.246200	-8.413600	49.429907	50.034769
166.208598	-2.607500	3.246800	-8.466100	49.442271	50.038096
167.209666	-2.597600	3.245700	-8.431000	49.441734	50.041533
168.213459	-2.602500	3.247100	-8.450000	49.441116	50.033690
169.210990	-2.578200	3.247700	-8.373000	49.453094	50.039160
170.208931	-2.594200	3.247400	-8.424400	49.453907	50.057313
171.209587	-2.597300	3.245600	-8.429900	49.432328	50.068978
172.210202	-2.619500	3.246800	-8.504200	49.449070	50.072708
173.213123	-2.594100	3.246600	-8.421700	49.446672	50.052972
174.210978	-2.620100	3.246000	-8.504500	49.448089	50.078952
175.211067	-2.587300	3.245700	-8.397200	49.448849	50.065623
176.212392	-2.600500	3.245900	-8.440500	49.463717	50.057005
177.207559	-2.605800	3.247900	-8.462800	49.453330	50.070825
178.209315	-2.603300	3.246500	-8.451000	49.459432	50.070422
179.208830	-2.577700	3.246100	-8.367400	49.443206	50.065041
180.209560	-2.597600	3.246700	-8.432800	49.453431	50.032272
181.210380	-2.576500	3.245900	-8.362900	49.452278	50.036539
182.207293	-2.616800	3.247200	-8.496500	49.463306	50.044311
183.208008	-2.619400	3.246300	-8.502900	49.451525	50.052042
184.208980	-2.611300	3.247500	-8.480000	49.457732	50.043797
185.212257	-2.588400	3.246100	-8.401400	49.450102	50.028945
186.209448	-2.612300	3.246700	-8.480900	49.463498	50.036556
187.211443	-2.589200	3.246200	-8.404900	49.463457	50.055660
188.209621	-2.619100	3.246800	-8.503100	49.473308	50.047445
189.208973	-2.612200	3.245700	-8.477900	49.462517	50.063752
190.209651	-2.608800	3.245200	-8.465900	49.462127	50.043133
191.208723	-2.623200	3.245300	-8.512300	49.473021	50.047158
192.209630	-2.619200	3.246900	-8.503700	49.452192	50.047290
193.212699	-2.594900	3.245600	-8.421700	49.474384	50.052133
194.211746	-2.626600	3.245500	-8.524300	49.482093	50.046111
195.213892	-2.588500	3.246400	-8.403000	49.471329	50.044384
196.213734	-2.628500	3.246000	-8.531700	49.471435	50.045573
197.214231	-2.630800	3.245700	-8.538900	49.479303	50.047658
198.212577	-2.621300	3.245800	-8.508200	49.465983	50.043013
199.213674	-2.588000	3.246500	-8.401500	49.480974	50.055830
200.211954	-2.599600	3.246700	-8.439700	49.479983	50.045808
201.208086	-2.568200	3.246900	-8.338000	49.482496	50.055907
202.208538	-2.589200	3.246100	-8.404600	49.485602	50.050342
203.209429	-2.591400	3.247200	-8.414500	49.474624	50.042258
204.205867	-2.584800	3.246900	-8.392400	49.487686	50.034363
205.209574	-2.600600	3.245500	-8.440000	49.486065	50.049721
206.209723	-2.611600	3.246400	-8.478100	49.477404	50.060571
207.206512	-2.602800	3.246000	-8.447900	49.488765	50.067230
208.209210	-2.597400	3.244700	-8.427600	49.479542	50.054760
209.210010	-2.607600	3.245000	-8.461100	49.502991	50.043521
210.210377	-2.589100	3.244400	-8.400000	49.500179	50.087309
211.212064	-2.609200	3.245800	-8.469000	49.478828	50.063078
212.208579	-2.578100	3.246600	-8.370000	49.489294	50.061257
213.207383	-2.556000	3.246700	-8.297900	49.504605	50.053803
214.207710	-2.603400	3.245800	-8.449800	49.502488	50.043018
215.209616	-2.590900	3.246100	-8.410100	49.482932	50.057427
216.212230	-2.610500	3.246500	-8.474500	49.510691	50.059526
217.212026	-2.599200	3.245500	-8.435200	49.497225	50.065211
218.207199	-2.618900	3.245100	-8.498500	49.505281	50.080850
219.211182	-2.606000	3.245300	-8.457100	49.492752	50.067243
220.212445	-2.578100	3.245300	-8.366500	49.496765	50.061862
221.210290	-2.567500	3.246600	-8.335600	49.517538	50.049753
222.209771	-2.590000	3.245300	-8.404900	49.496173	50.033454
223.207098	-2.599500	3.245200	-8.435800	49.502718	50.043970
224.208727	-2.622200	3.245100	-8.508600	49.497698	50.060988
225.209480	-2.603400	3.244000	-8.444600	49.499650	50.036207
226.209378	-2.564900	3.245000	-8.322500	49.508629	50.035790
227.210598	-2.592800	3.245600	-8.414900	49.516123	50.031722
228.206634	-2.598300	3.244900	-8.430700	49.511746	50.043963
229.207219	-2.610900	3.245400	-8.472700	49.512186	50.058492
230.207486	-2.612000	3.244600	-8.474400	49.503030	50.045727
231.206461	-2.613100	3.244700	-8.478500	49.508315	50.049203
232.205787	-2.601300	3.244200	-8.439000	49.504553	50.055558
233.212114	-2.601100	3.245100	-8.440700	49.510936	50.062300
234.207165	-2.605000	3.244600	-8.451300	49.490643	50.046711
235.208649	-2.586700	3.245900	-8.395700	49.500158	50.041772
236.207976	-2.590700	3.245700	-8.408300	49.524115	50.042600
237.206304	-2.607600	3.244700	-8.460300	49.516898	50.027078
238.209137	-2.638400	3.244300	-8.559200	49.515506	50.033995
239.206638	-2.602600	3.245300	-8.445800	49.525436	50.029832
240.211931	-2.610500	3.245200	-8.471600	49.526638	50.045123
241.206297	-2.575700	3.245100	-8.358000	49.531938	50.017546
242.208619	-2.609200	3.244800	-8.465800	49.525419	50.029454
243.210085	-2.621000	3.244400	-8.502900	49.523838	50.025344
244.211779	-2.598600	3.244600	-8.430700	49.513437	50.035177
245.210497	-2.598000	3.244000	-8.428000	49.530767	50.060449
246.208705	-2.590900	3.244000	-8.404400	49.534970	50.056702
247.211064	-2.606500	3.244500	-8.456100	49.531153	50.057221
248.266641	-2.594800	3.244300	-8.418200	49.539464	50.043494
249.209655	-2.584500	3.244500	-8.384700	49.551335	50.062946
250.211971	-2.603400	3.243900	-8.445000	49.532474	50.017360
251.213291	-2.604800	3.244300	-8.450300	49.544546	50.038459
252.212943	-2.602100	3.244700	-8.442400	49.537892	50.058540
253.211340	-2.582000	3.244000	-8.375500	49.549428	50.036476
254.208925	-2.613300	3.244900	-8.479500	49.537435	50.035685
255.207982	-2.609200	3.244800	-8.466100	49.538584	50.011185
256.209226	-2.600600	3.245200	-8.439400	49.541527	50.018463
257.207054	-2.606700	3.244300	-8.456500	49.540589	50.028362
258.205562	-2.604600	3.244400	-8.450400	49.547910	50.043989
259.207682	-2.593900	3.243500	-8.412800	49.553462	50.057487
260.208661	-2.602000	3.244500	-8.442100	49.553072	50.053124
261.209898	-2.614700	3.243900	-8.481700	49.554316	50.030886
262.209747	-2.606200	3.244900	-8.456300	49.547810	50.065925
263.210552	-2.604500	3.243800	-8.447900	49.561540	50.050028
264.211070	-2.585200	3.244300	-8.385800	49.551957	50.041893
265.210707	-2.599000	3.244300	-8.431500	49.537955	50.056435
266.211150	-2.615700	3.243700	-8.484200	49.543428	50.052875
267.209835	-2.611400	3.244400	-8.472000	49.558444	50.058132
268.210502	-2.611200	3.243800	-8.469700	49.555284	50.047387
269.209567	-2.627000	3.243000	-8.518700	49.548377	50.070466
270.210511	-2.633600	3.243900	-8.542600	49.569590	50.058436
271.212280	-2.596800	3.244700	-8.425700	49.558788	50.030660
272.212968	-2.605000	3.243500	-8.449000	49.552683	50.033950
273.209985	-2.611400	3.244000	-8.470300	49.557393	50.041187
274.209679	-2.600000	3.244200	-8.434500	49.554087	50.041856
275.208962	-2.603300	3.244300	-8.445400	49.562812	50.047687
276.207292	-2.609700	3.243400	-8.463800	49.562021	50.047620
277.207614	-2.621000	3.244200	-8.502500	49.562850	50.046281
278.206938	-2.591100	3.244300	-8.406400	49.551566	50.054147
279.210011	-2.610900	3.243100	-8.466900	49.574064	50.063270
280.208073	-2.605300	3.243200	-8.449000	49.551015	50.024696
281.208402	-2.584500	3.243300	-8.382200	49.561053	50.029672
282.210087	-2.603700	3.243500	-8.444800	49.560529	50.036013
283.211584	-2.609500	3.243500	-8.463700	49.574327	50.058115
284.211416	-2.582200	3.244600	-8.378000	49.572213	50.026379
285.212262	-2.597500	3.244600	-8.427200	49.557382	50.041175
286.210381	-2.604400	3.242400	-8.444200	49.562855	50.047369
287.208717	-2.607200	3.243400	-8.455800	49.573829	50.031246
288.210155	-2.622800	3.242200	-8.503500	49.575675	50.025144
289.211218	-2.587100	3.242900	-8.389500	49.579971	50.030522
290.214919	-2.581700	3.243400	-8.373200	49.560523	50.028060
291.211454	-2.615800	3.243100	-8.483500	49.578203	50.019723
292.211874	-2.618400	3.242500	-8.490000	49.573317	50.018451
293.210739	-2.585800	3.243500	-8.386600	49.557925	50.030881
294.210083	-2.584100	3.243700	-8.381800	49.573852	50.028740
295.208495	-2.594300	3.243900	-8.415100	49.599480	50.027989
296.209442	-2.599700	3.243700	-8.431600	49.597994	50.047456
297.209301	-2.627400	3.243600	-8.522200	49.585574	50.058159
298.212206	-2.601300	3.244100	-8.438500	49.594192	50.047990
299.210077	-2.613300	3.243400	-8.475600	49.575843	50.053850
300.210282	-2.600200	3.242900	-8.431800	49.589721	50.050745
301.209828	-2.598700	3.243300	-8.428100	49.597122	50.034302
302.209320	-2.606300	3.242600	-8.450700	49.608204	50.038155
303.211885	-2.591200	3.243400	-8.404100	49.590778	50.038436
304.211728	-2.616200	3.241100	-8.478900	49.592785	50.054169
305.216623	-2.599200	3.242300	-8.427200	49.584780	50.058811
306.212358	-2.608200	3.242500	-8.456500	49.595715	50.046983
307.210813	-2.591500	3.243300	-8.404400	49.601295	50.046782
308.211410	-2.588400	3.243100	-8.394100	49.590146	50.044306
309.210287	-2.603500	3.242300	-8.441000	49.610730	50.038513
310.209692	-2.590400	3.241500	-8.396400	49.599768	50.057538
311.208973	-2.580800	3.242200	-8.367500	49.594896	50.057725
312.211979	-2.631400	3.242800	-8.532400	49.605121	50.057470
313.210668	-2.612000	3.241700	-8.467100	49.602604	50.043033
314.208684	-2.589900	3.242200	-8.396900	49.604678	50.030657
315.209288	-2.589100	3.242200	-8.394300	49.594051	50.038457
316.210858	-2.612600	3.241400	-8.468300	49.613042	50.048049
317.212170	-2.602400	3.242400	-8.437900	49.612239	50.049775
318.211510	-2.601500	3.242100	-8.434300	49.621794	50.038375
319.210710	-2.614400	3.242100	-8.475700	49.613697	50.036782
320.209317	-2.585600	3.242300	-8.383100	49.619331	50.064451
321.210567	-2.575100	3.242700	-8.349900	49.625326	50.043351
322.210865	-2.592800	3.242500	-8.407000	49.612825	50.060837
323.212337	-2.604600	3.242700	-8.445600	49.611514	50.054469
324.212056	-2.620900	3.241700	-8.495800	49.628617	50.052782
325.212925	-2.572000	3.242900	-8.340400	49.615032	50.051484
326.208829	-2.571800	3.243200	-8.340500	49.610736	50.046828
327.209460	-2.609300	3.241200	-8.456700	49.605342	50.040713
328.213076	-2.597600	3.241300	-8.419800	49.626796	50.049516
329.215637	-2.595100	3.242700	-8.414700	49.626969	50.037046
330.211442	-2.604400	3.241600	-8.441500	49.626259	50.030556
331.214508	-2.582700	3.242600	-8.373900	49.626407	50.043708
332.211595	-2.603400	3.241500	-8.438600	49.635761	50.047641
333.208827	-2.591000	3.242000	-8.399600	49.634543	50.047869
334.211151	-2.583500	3.241400	-8.373700	49.638196	50.029846
335.210679	-2.579400	3.241200	-8.360000	49.650107	50.029832
336.210341	-2.577800	3.241100	-8.354300	49.633592	50.032468
337.213663	-2.594100	3.241100	-8.407700	49.614654	50.050383
338.209941	-2.617700	3.241600	-8.485200	49.631383	50.069996
339.210601	-2.602600	3.241000	-8.434700	49.637633	50.056737
340.212007	-2.593200	3.241100	-8.404200	49.647362	50.035035
341.209443	-2.568800	3.240700	-8.324300	49.634862	50.037711
342.208560	-2.600600	3.241200	-8.428800	49.631194	50.038380
343.212454	-2.569400	3.242000	-8.329300	49.654548	50.053057
344.211466	-2.590500	3.240400	-8.394300	49.623458	50.059907
345.212278	-2.598400	3.241600	-8.422600	49.641258	50.066141
346.214970	-2.594200	3.239800	-8.404100	49.656635	50.047557
347.212306	-2.593000	3.239400	-8.399700	49.640668	50.055437
348.212029	-2.589700	3.241400	-8.393700	49.629547	50.059491
349.212485	-2.571800	3.240900	-8.334400	49.647855	50.069124
350.208934	-2.575700	3.240700	-8.346300	49.655443	50.073097
351.212092	-2.611800	3.240200	-8.462700	49.649086	50.080108
352.210742	-2.583600	3.240600	-8.371800	49.657450	50.078716
353.209747	-2.567700	3.241400	-8.322700	49.647212	50.067759
354.210232	-2.587300	3.241300	-8.385300	49.653997	50.053228
355.209209	-2.596700	3.240200	-8.413900	49.662027	50.067758
356.214490	-2.599800	3.240400	-8.424100	49.662562	50.055650
357.214368	-2.616100	3.240300	-8.476700	49.657289	50.052546
358.215078	-2.616400	3.239600	-8.475200	49.658788	50.064159
359.210604	-2.610400	3.239600	-8.455800	49.663605	50.052719
360.210046	-2.602400	3.240400	-8.432500	49.647853	50.072012
361.209325	-2.600300	3.240300	-8.425300	49.658720	50.079986
362.213346	-2.622600	3.239500	-8.495100	49.672518	50.052960
363.214185	-2.593900	3.239800	-8.403300	49.664060	50.043059
364.211050	-2.612900	3.239900	-8.465600	49.668878	50.041373
365.215554	-2.596500	3.240700	-8.413800	49.656673	50.036757
366.212381	-2.622100	3.239600	-8.494000	49.662039	50.024421
367.215093	-2.586400	3.240400	-8.380700	49.652939	50.046391
368.212173	-2.618100	3.237700	-8.476600	49.658560	50.046591
369.213187	-2.610500	3.238900	-8.455000	49.681244	50.033145
370.210568	-2.611700	3.240100	-8.461800	49.668798	50.019618
371.211043	-2.593200	3.240100	-8.401100	49.663833	50.041387
372.210666	-2.582800	3.239000	-8.365500	49.671193	50.022013
373.210873	-2.602200	3.239200	-8.428300	49.657663	50.018963
374.210917	-2.592800	3.239600	-8.399300	49.676654	50.025666
375.209348	-2.592900	3.240000	-8.400100	49.652979	50.033787
376.211446	-2.614300	3.238400	-8.466300	49.675623	50.048117
377.213156	-2.608200	3.239300	-8.448700	49.684871	50.062419
378.209480	-2.631100	3.239000	-8.521300	49.681057	50.047047
379.211138	-2.592300	3.238900	-8.396300	49.676386	50.049963
380.211823	-2.607000	3.238900	-8.443700	49.682141	50.045240
381.211561	-2.577800	3.239700	-8.350900	49.686062	50.057831
382.212793	-2.590600	3.238300	-8.389200	49.676574	50.052680
383.211365	-2.593600	3.238800	-8.399900	49.671636	50.043769
384.213119	-2.572600	3.238600	-8.331700	49.667808	50.037775
385.213672	-2.609500	3.237500	-8.447800	49.681526	50.035956
386.212910	-2.596700	3.238500	-8.409100	49.692393	50.055851
387.209482	-2.606700	3.237700	-8.439500	49.677431	50.036197
388.209248	-2.598200	3.238000	-8.412400	49.689904	50.030243
389.210214	-2.585600	3.239400	-8.375400	49.697533	50.039314
390.213157	-2.599800	3.239100	-8.420600	49.669469	50.053885
391.208905	-2.583100	3.237600	-8.362900	49.665976	50.067010
392.208623	-2.600400	3.238100	-8.420100	49.681126	50.073125
393.211593	-2.590000	3.238300	-8.387000	49.683548	50.057485
394.208849	-2.587700	3.239200	-8.381800	49.696811	50.052320
395.213179	-2.642900	3.237100	-8.554800	49.683214	50.061847
396.213479	-2.597100	3.237900	-8.408800	49.681434	50.049591
397.210196	-2.605200	3.238100	-8.435500	49.682974	50.033791
398.208826	-2.614800	3.238500	-8.467400	49.694831	50.048535
399.211302	-2.591500	3.238100	-8.391300	49.692021	50.040668
400.214219	-2.616500	3.238700	-8.473400	49.696505	50.044789
401.211784	-2.576200	3.239000	-8.343800	49.694297	50.037886
402.215339	-2.580300	3.238200	-8.355300	49.690617	50.042154
403.214260	-2.584300	3.239300	-8.370900	49.704522	50.027517
404.209480	-2.605500	3.237700	-8.435500	49.699691	50.043640
405.209220	-2.616500	3.238800	-8.473800	49.691206	50.029377
406.209385	-2.610200	3.239100	-8.454200	49.712981	50.058732
407.209144	-2.601400	3.237700	-8.421800	49.685948	50.047962
408.209685	-2.612900	3.237500	-8.458500	49.708953	50.041340
409.208957	-2.572600	3.237400	-8.328100	49.702128	50.043186
410.210274	-2.638100	3.236000	-8.536700	49.699880	50.042745
411.209638	-2.599100	3.237300	-8.413700	49.712340	50.066762
412.210734	-2.612600	3.237000	-8.456800	49.685842	50.048579
413.211267	-2.598800	3.237900	-8.414500	49.720424	50.060033
414.213799	-2.602100	3.237000	-8.422400	49.695372	50.071472
415.210651	-2.605700	3.236600	-8.433000	49.710200	50.058120
416.211480	-2.582400	3.237700	-8.360400	49.706159	50.038547
417.213558	-2.604700	3.237300	-8.432100	49.704366	50.032780
418.209363	-2.607800	3.236300	-8.439000	49.714230	50.035055
419.208918	-2.600300	3.237600	-8.418200	49.713909	50.019201
420.209815	-2.578200	3.238700	-8.349700	49.702334	50.029665
421.210033	-2.598900	3.237700	-8.414100	49.707888	50.027270
422.210003	-2.600100	3.235900	-8.413200	49.718380	50.033786
423.209065	-2.607300	3.237200	-8.439900	49.721900	50.017798
424.209957	-2.583700	3.236500	-8.361800	49.715772	50.031178
425.211020	-2.591800	3.236200	-8.387500	49.727723	50.041320
426.211920	-2.598900	3.237000	-8.412900	49.710902	50.017278
427.211521	-2.590800	3.237600	-8.387700	49.717125	50.016636
428.211159	-2.595600	3.236900	-8.401300	49.722518	50.015165
429.210476	-2.620200	3.236200	-8.479500	49.721261	50.027635
430.214280	-2.579700	3.237700	-8.351900	49.711051	50.032600
431.213327	-2.628800	3.236000	-8.506700	49.726535	50.030018
432.212008	-2.584300	3.236400	-8.363700	49.731434	50.024800
433.214478	-2.625900	3.236500	-8.497800	49.736934	50.014766
434.211751	-2.606300	3.236200	-8.433700	49.711133	50.015703
435.213267	-2.570500	3.236400	-8.319000	49.734808	50.019865
436.209648	-2.625600	3.235600	-8.494900	49.728438	50.030837
437.210418	-2.624800	3.236400	-8.494600	49.743828	50.027439
438.209562	-2.602500	3.235900	-8.421200	49.732655	50.033969
439.210624	-2.604100	3.234800	-8.423900	49.714415	50.031989
440.214202	-2.600400	3.236200	-8.415100	49.736858	50.016857
441.209960	-2.618800	3.235200	-8.471700	49.737461	50.033716
442.209834	-2.648900	3.235000	-8.568600	49.739428	50.021233
443.209732	-2.564000	3.235200	-8.294400	49.743591	50.033704
444.209342	-2.610200	3.235300	-8.444800	49.736285	50.027844
445.212075	-2.582900	3.236300	-8.358700	49.729500	50.030815
446.211963	-2.585000	3.235900	-8.364100	49.726852	50.017691
447.212799	-2.587100	3.235600	-8.370400	49.730840	50.018066
448.215556	-2.617000	3.235300	-8.466600	49.724791	50.040918
449.211903	-2.592700	3.235400	-8.388500	49.745080	50.053977
450.209819	-2.595100	3.235300	-8.395600	49.739407	50.039997
451.210628	-2.588800	3.235400	-8.375900	49.733653	50.057364
452.211279	-2.596600	3.236000	-8.402300	49.740532	50.032452
453.210184	-2.608200	3.235400	-8.438000	49.755213	50.030874
454.208826	-2.613300	3.234000	-8.451000	49.744616	50.018111
455.211448	-2.613000	3.234300	-8.450900	49.748416	50.015770
456.212778	-2.618100	3.234900	-8.468500	49.753864	50.009656
457.220755	-2.624600	3.235000	-8.490600	49.758014	50.030422
458.209968	-2.597600	3.234000	-8.400400	49.754093	50.027586
459.210783	-2.570900	3.234900	-8.316300	49.740417	50.041729
460.210318	-2.616700	3.234400	-8.463000	49.763877	50.046761
461.211176	-2.584500	3.235200	-8.360800	49.749345	50.044514
462.211741	-2.624700	3.233800	-8.487000	49.736967	50.021301
463.212082	-2.599100	3.235300	-8.408600	49.751126	50.037625
464.213617	-2.608300	3.234700	-8.436400	49.758983	50.013690
465.212125	-2.617500	3.234700	-8.466700	49.753041	50.029425
466.210804	-2.616900	3.234500	-8.463700	49.740757	50.039179
467.212326	-2.590600	3.235200	-8.381100	49.746780	50.028945
468.210092	-2.583700	3.234900	-8.357600	49.748360	50.037388
469.210654	-2.585300	3.234200	-8.361100	49.750689	50.032131
470.211979	-2.590500	3.234400	-8.378500	49.765371	50.036333
471.211040	-2.564100	3.234200	-8.292000	49.763551	50.044268
472.211042	-2.582300	3.233700	-8.350300	49.750666	50.042583
473.212111	-2.595300	3.233400	-8.391700	49.773094	50.035024
474.213122	-2.583700	3.232500	-8.351400	49.747134	50.042303
475.209946	-2.615300	3.232700	-8.454100	49.766392	50.043134
476.212215	-2.607300	3.233900	-8.431200	49.757882	50.057023
477.212727	-2.603900	3.234900	-8.422600	49.764534	50.021408
478.212608	-2.595700	3.233700	-8.393700	49.763893	50.032327
479.212988	-2.590200	3.231900	-8.370700	49.746189	50.034134
480.212564	-2.597400	3.234600	-8.401600	49.765100	50.014026
481.212594	-2.614600	3.233700	-8.454900	49.756174	50.018107
482.212047	-2.599600	3.234600	-8.408700	49.774161	50.036090
483.211441	-2.581700	3.235300	-8.352300	49.769545	50.028585
484.210360	-2.595800	3.233700	-8.393700	49.762065	50.025803
485.209501	-2.600600	3.233600	-8.408600	49.771836	50.024012
486.208770	-2.592200	3.233400	-8.381500	49.768785	50.017350
487.211091	-2.577100	3.233800	-8.333900	49.759152	50.023613
488.213191	-2.639000	3.232800	-8.531100	49.764813	50.032886
489.213076	-2.610000	3.232400	-8.435800	49.785771	50.023856
490.211198	-2.581100	3.233400	-8.345300	49.765565	50.041585
491.211322	-2.590000	3.232900	-8.372900	49.771547	50.040341
492.209599	-2.595700	3.233800	-8.393600	49.781505	50.041988
493.209356	-2.593100	3.233100	-8.383400	49.767576	50.047207
494.209857	-2.609500	3.231000	-8.431100	49.774897	50.047303
495.216377	-2.592500	3.233600	-8.382300	49.780520	50.030165
496.211491	-2.611200	3.232200	-8.439400	49.781537	50.040214
497.212951	-2.606600	3.231500	-8.422800	49.773214	50.019610
498.214423	-2.581600	3.232700	-8.345000	49.771958	50.020160
499.212593	-2.601500	3.232700	-8.409300	49.782946	50.029340
500.211257	-2.624600	3.231400	-8.480900	49.787403	50.026210
501.210962	-2.623900	3.231200	-8.478300	49.788835	50.022585
502.209275	-2.591800	3.233400	-8.379700	49.778225	50.032929
503.211873	-2.596000	3.232800	-8.392500	49.787165	50.024527
504.210502	-2.607700	3.231900	-8.427000	49.769849	50.017329
505.212047	-2.614200	3.232200	-8.448900	49.771388	50.031873
506.211061	-2.609200	3.232400	-8.433400	49.785896	50.030844
507.209984	-2.599500	3.231900	-8.401100	49.772568	50.018241
508.210032	-2.573200	3.232000	-8.316100	49.800134	50.017626
509.211550	-2.609400	3.231500	-8.431700	49.781896	50.031903
510.214405	-2.600400	3.232700	-8.405800	49.783944	49.999993
511.212082	-2.585900	3.231400	-8.355500	49.791612	50.001157
512.213037	-2.592700	3.231900	-8.378800	49.793527	49.995846
513.209642	-2.574800	3.231800	-8.320800	49.776157	50.013883
514.214426	-2.592600	3.231300	-8.377100	49.795776	49.999902
515.211870	-2.589900	3.231600	-8.369100	49.782168	50.006525
516.212564	-2.584400	3.231400	-8.350800	49.784670	50.000357
517.212225	-2.613400	3.230200	-8.441200	49.794600	50.010286
518.210010	-2.593500	3.231600	-8.380400	49.800422	50.010688
519.206123	-2.618300	3.230500	-8.457500	49.792809	50.024029
520.208699	-2.599400	3.231300	-8.399300	49.805174	50.014355
521.211171	-2.623000	3.230500	-8.473000	49.804452	50.031697
522.208957	-2.625700	3.231500	-8.484300	49.787766	50.052222
523.209309	-2.578100	3.231800	-8.331500	49.796719	50.032996
524.210714	-2.560100	3.230800	-8.270100	49.801966	50.000310
525.209832	-2.601400	3.230900	-8.404500	49.794780	50.021304
526.211039	-2.592200	3.231200	-8.375800	49.803213	50.019259
527.211400	-2.599500	3.231000	-8.398700	49.801593	50.026671
528.210958	-2.598100	3.230700	-8.393700	49.794597	50.021120
529.210177	-2.601800	3.230900	-8.405900	49.794798	50.014818
530.210985	-2.607300	3.229800	-8.420300	49.794933	50.009896
531.211547	-2.589600	3.230800	-8.365900	49.816639	50.008479
532.210949	-2.588700	3.230600	-8.362800	49.796166	50.036778
533.211203	-2.616800	3.230000	-8.452000	49.806110	50.021794
534.214118	-2.616600	3.230100	-8.451600	49.818609	50.017674
535.208375	-2.609100	3.229000	-8.424400	49.810034	50.020660
536.210577	-2.605500	3.231100	-8.418600	49.801898	50.015777
537.211032	-2.608100	3.230600	-8.425300	49.813595	50.019163
538.211460	-2.602600	3.229600	-8.405000	49.806650	50.042203
539.210890	-2.603400	3.230000	-8.409100	49.811470	50.019928
540.213040	-2.607100	3.230100	-8.421100	49.814094	50.024719
541.210454	-2.607300	3.230000	-8.421300	49.819501	50.033738
542.209302	-2.622900	3.229800	-8.470900	49.828601	50.025496
543.214894	-2.598400	3.230700	-8.394300	49.817053	50.027678
544.212718	-2.608000	3.229900	-8.422900	49.812023	50.024817
545.210173	-2.613900	3.229600	-8.441600	49.834479	50.001390
546.210550	-2.600000	3.229900	-8.397100	49.823026	49.998609
547.209042	-2.621700	3.229700	-8.466600	49.809859	50.017234
548.208138	-2.615500	3.229400	-8.445700	49.821195	50.008338
549.213919	-2.574700	3.228800	-8.312700	49.815763	50.018802
550.213139	-2.591600	3.229000	-8.368100	49.841376	50.030322
551.211680	-2.572400	3.230300	-8.309000	49.832559	50.029454
552.214455	-2.629100	3.229400	-8.489800	49.817425	50.029856
553.214298	-2.568200	3.230800	-8.296400	49.818069	50.030139
554.213413	-2.573900	3.228800	-8.309900	49.826340	50.021430
555.213003	-2.613000	3.228400	-8.435400	49.830891	50.019117
556.211015	-2.609300	3.230600	-8.428900	49.817617	50.018127
557.210851	-2.579200	3.229200	-8.328400	49.810982	50.015828
558.212496	-2.597300	3.229000	-8.386200	49.839767	50.001620
559.210270	-2.594900	3.229100	-8.378900	49.824272	50.023697
560.209723	-2.576500	3.229300	-8.319700	49.826615	50.023872
561.208965	-2.620400	3.228200	-8.458700	49.837242	50.029079
562.212053	-2.575300	3.230000	-8.317700	49.837979	50.028009
563.213339	-2.596600	3.228900	-8.383800	49.835292	50.036521
564.211332	-2.577700	3.229500	-8.324200	49.831465	50.007407
565.210661	-2.580200	3.230600	-8.335000	49.832204	50.008869
566.209981	-2.591800	3.228000	-8.366200	49.841651	50.009645
567.211473	-2.613600	3.229100	-8.439500	49.814689	50.021340
568.209287	-2.592100	3.228100	-8.367300	49.818117	50.022600
569.209557	-2.597300	3.229100	-8.386100	49.831058	49.995440
570.214870	-2.604200	3.229400	-8.409800	49.822454	50.004901
571.212466	-2.626400	3.228000	-8.478000	49.826564	50.016596
572.210966	-2.588100	3.228500	-8.355100	49.833419	50.028868
573.217267	-2.600200	3.229400	-8.397100	49.817012	50.029804
574.216609	-2.614800	3.227800	-8.439500	49.831934	50.046892
575.207692	-2.586200	3.229100	-8.350800	49.827307	50.030344
576.210713	-2.600500	3.228100	-8.394600	49.829608	50.025420
577.226464	-2.586200	3.229100	-8.351000	49.829021	50.019053
578.209934	-2.594000	3.229400	-8.376400	49.835714	50.027551
579.210582	-2.614300	3.227600	-8.437900	49.834084	50.001717
580.209699	-2.570100	3.228600	-8.297200	49.834057	50.003135
581.211203	-2.598500	3.228700	-8.389500	49.848589	49.999241
582.209890	-2.598800	3.229100	-8.391400	49.837633	50.000208
583.211219	-2.598200	3.228200	-8.387200	49.846787	49.998884
584.209837	-2.594200	3.228600	-8.375500	49.836672	50.018033
585.211636	-2.587800	3.228700	-8.354900	49.836953	50.016147
586.212450	-2.590900	3.228400	-8.364000	49.847312	50.008441
587.211536	-2.598400	3.227100	-8.384800	49.836728	50.000748
588.210910	-2.603500	3.227900	-8.403500	49.840930	49.993390
589.213848	-2.583500	3.227600	-8.337700	49.837532	50.004443
590.210575	-2.576700	3.228800	-8.319000	49.853376	50.026787
591.208941	-2.591600	3.228300	-8.366100	49.844387	50.018522
592.208939	-2.582500	3.226800	-8.332600	49.846113	50.017358
593.210812	-2.597500	3.227700	-8.383600	49.843279	50.011633
594.213767	-2.603700	3.226700	-8.400700	49.834755	50.019729
595.213409	-2.577200	3.228200	-8.319300	49.843628	50.021736
596.211159	-2.587900	3.228000	-8.353400	49.862136	50.013148
597.211850	-2.586800	3.227500	-8.348900	49.837410	50.025273
598.217031	-2.597200	3.227000	-8.380700	49.846631	50.027629
599.212404	-2.579100	3.227700	-8.324500	49.845829	50.019602
600.210411	-2.566100	3.227300	-8.281200	49.865981	50.027108
601.209797	-2.597400	3.227300	-8.382100	49.857460	50.032677
602.211295	-2.550300	3.227800	-8.231200	49.875204	50.038498
603.213231	-2.578400	3.228000	-8.322400	49.865411	50.024009
604.210785	-2.616600	3.228300	-8.446800	49.866710	50.021335
605.211917	-2.627800	3.226000	-8.476700	49.866097	50.033365
606.211270	-2.609600	3.226400	-8.419300	49.852302	50.037273
607.211441	-2.611600	3.226600	-8.425600	49.874608	50.030315
608.210921	-2.650800	3.226300	-8.551300	49.858727	50.035750
609.213584	-2.604600	3.226100	-8.402600	49.867774	50.015896
610.212592	-2.591400	3.228700	-8.366800	49.859787	50.023443
611.213778	-2.613800	3.225800	-8.431000	49.852202	50.026336
612.213192	-2.608600	3.226000	-8.415100	49.880409	50.029614
613.213965	-2.585300	3.227100	-8.342900	49.860112	50.047972
614.212685	-2.594700	3.226900	-8.372600	49.867982	50.019355
615.210176	-2.598900	3.226400	-8.384700	49.852461	50.038516
616.210167	-2.601200	3.226300	-8.392000	49.858792	50.011250
617.210598	-2.595700	3.226100	-8.373700	49.867531	50.014569
618.209677	-2.590800	3.227100	-8.360300	49.878159	50.012552
619.209230	-2.603900	3.226400	-8.400800	49.870678	50.022774
620.212090	-2.612100	3.225200	-8.423800	49.885401	50.044359
621.209121	-2.596500	3.226200	-8.376500	49.872196	50.008757
622.209329	-2.607400	3.225200	-8.408700	49.888309	50.024507
623.211257	-2.585300	3.226300	-8.341100	49.872519	50.047011
624.212665	-2.612200	3.224900	-8.423600	49.860560	50.044807
625.211490	-2.596700	3.225600	-8.375600	49.873059	50.065975
626.209909	-2.608800	3.225500	-8.414500	49.872887	50.046296
627.214550	-2.573800	3.225800	-8.302600	49.887741	50.031526
628.212937	-2.626300	3.224900	-8.468800	49.879179	50.020797
629.211388	-2.588700	3.225800	-8.350400	49.873547	50.024919
630.211065	-2.587600	3.224400	-8.343400	49.880132	50.004410
631.214447	-2.629900	3.224400	-8.479200	49.866445	50.016373
632.212340	-2.611400	3.225300	-8.421800	49.875773	50.020281
633.213554	-2.603600	3.225600	-8.397700	49.892288	50.015481
634.212952	-2.594200	3.224800	-8.365200	49.875804	50.015255
635.210431	-2.572200	3.226300	-8.298400	49.876675	50.003120
636.209909	-2.597500	3.226000	-8.379500	49.883287	50.019486
637.220443	-2.618100	3.225200	-8.443500	49.889470	50.013386
638.209483	-2.584300	3.224700	-8.333100	49.883076	50.014218
639.210893	-2.567600	3.226800	-8.284800	49.891735	50.027933
640.211305	-2.592900	3.226200	-8.364700	49.874129	50.029114
641.211813	-2.597500	3.225800	-8.378800	49.886641	50.018866
642.211443	-2.587900	3.226700	-8.349900	49.879847	50.013879
643.212670	-2.593900	3.225500	-8.366400	49.886833	49.992325
644.211786	-2.602600	3.224700	-8.392200	49.892441	50.011660
645.211167	-2.604700	3.225000	-8.399500	49.881925	49.999700
646.212992	-2.597500	3.225500	-8.378400	49.905077	50.017070
647.212225	-2.608100	3.225500	-8.411900	49.897235	50.006700
648.214489	-2.600300	3.223800	-8.382400	49.872578	49.998663
649.210232	-2.594400	3.224700	-8.366200	49.897187	50.013155
650.209374	-2.593400	3.225100	-8.364000	49.872113	50.010480
651.209202	-2.581700	3.225900	-8.327700	49.867259	50.017548
652.209287	-2.618000	3.223700	-8.438900	49.884026	50.019141
653.212057	-2.573900	3.224200	-8.298500	49.879720	50.014474
654.211506	-2.618900	3.224400	-8.443500	49.891992	50.027106
655.209819	-2.624400	3.224000	-8.460700	49.894991	50.022519
656.212616	-2.578800	3.223700	-8.312500	49.908199	50.027055
657.211121	-2.626200	3.224100	-8.466700	49.906943	50.013156
658.212624	-2.597700	3.224700	-8.375800	49.902007	50.009303
659.209054	-2.605900	3.224900	-8.403200	49.892764	50.012705
660.211186	-2.608300	3.223000	-8.406000	49.896258	50.029566
661.208182	-2.600800	3.224200	-8.385300	49.900114	50.017887
662.212103	-2.617900	3.224600	-8.441100	49.896436	50.013848
663.209677	-2.581800	3.223700	-8.322900	49.893252	50.035952
664.211947	-2.604200	3.223800	-8.394900	49.900187	50.012903
665.212605	-2.583300	3.223100	-8.326000	49.894433	50.004260
666.214045	-2.609600	3.225300	-8.416800	49.887545	50.012545
667.210646	-2.595600	3.223000	-8.365400	49.878741	50.020720
668.212652	-2.611600	3.224000	-8.419400	49.894987	50.004090
669.211493	-2.611900	3.223000	-8.418000	49.900489	49.991168
670.207986	-2.587400	3.224000	-8.341400	49.881503	49.999278
671.210342	-2.601300	3.224500	-8.387800	49.890565	49.981606
672.211806	-2.585200	3.223900	-8.333900	49.895140	50.006050
673.209391	-2.597300	3.223500	-8.372000	49.899144	50.006802
674.209702	-2.610800	3.223500	-8.415700	49.887799	50.026165
675.210366	-2.597800	3.223900	-8.374200	49.897758	50.027453
676.214103	-2.601000	3.223800	-8.384800	49.901303	50.030275
677.209270	-2.631200	3.224400	-8.483300	49.902215	50.041302
678.210078	-2.619000	3.223700	-8.442500	49.895501	50.017610
679.215120	-2.582600	3.222900	-8.322700	49.905205	50.016837
680.213236	-2.596400	3.224100	-8.370700	49.915816	50.012635
681.210268	-2.588400	3.224600	-8.345900	49.914842	50.016719
682.212462	-2.626000	3.222900	-8.463200	49.918268	50.002443
683.211093	-2.607800	3.223400	-8.406000	49.908863	50.017604
684.214464	-2.588300	3.224300	-8.345000	49.899899	50.012253
685.212520	-2.600700	3.224300	-8.385200	49.895753	50.028338
686.211007	-2.553000	3.223800	-8.230000	49.902137	50.026413
687.211988	-2.594600	3.224100	-8.364400	49.909926	50.019751
688.209995	-2.613500	3.222800	-8.422500	49.900470	50.027997
689.209182	-2.588100	3.224300	-8.344500	49.888038	50.015928
690.209700	-2.606800	3.223000	-8.401100	49.915297	50.002363
691.210150	-2.607500	3.224100	-8.406600	49.916035	50.014661
692.210252	-2.588300	3.223100	-8.342300	49.916787	50.013968
693.208281	-2.589100	3.223700	-8.346200	49.907702	50.042453
694.213370	-2.585900	3.223600	-8.335600	49.918315	50.025611
695.209887	-2.595600	3.222100	-8.362800	49.916737	50.014640
696.214375	-2.592400	3.223500	-8.355500	49.906609	50.004874
697.217702	-2.587200	3.223700	-8.340200	49.903509	50.009360
698.211290	-2.569500	3.222800	-8.280900	49.911898	49.998964
699.210835	-2.589000	3.222800	-8.343500	49.906600	49.999447
700.210243	-2.597900	3.224000	-8.375100	49.904329	49.998620
701.212183	-2.603600	3.223700	-8.392500	49.908010	49.987128
702.212029	-2.600100	3.222500	-8.378800	49.904933	50.015120
703.211960	-2.601000	3.222600	-8.382000	49.918274	50.006423
704.213375	-2.595200	3.222300	-8.362200	49.907507	50.014442
705.212918	-2.547500	3.223500	-8.211500	49.912017	50.009920
706.210944	-2.567900	3.224000	-8.278600	49.910415	50.019879
707.209816	-2.605100	3.223100	-8.396300	49.904756	50.022529
708.210349	-2.597200	3.223000	-8.370700	49.917925	50.016912
709.209616	-2.608200	3.223700	-8.407700	49.916681	50.022893
710.211146	-2.574500	3.222300	-8.295500	49.919160	50.007670
711.209884	-2.606300	3.222300	-8.398000	49.922921	50.007819
712.211122	-2.628200	3.221800	-8.467400	49.906868	50.006939
713.210997	-2.590000	3.222500	-8.346100	49.905556	50.000570
714.210194	-2.595500	3.222100	-8.362700	49.926730	50.010543
715.209413	-2.603100	3.223200	-8.389900	49.914085	50.003679
716.210279	-2.616100	3.222400	-8.430000	49.922318	49.993849
717.212542	-2.599100	3.223200	-8.377400	49.918104	50.003002
718.215730	-2.597500	3.222000	-8.369000	49.907482	50.004302
719.211492	-2.594900	3.222300	-8.361700	49.917601	50.015504
720.211631	-2.644200	3.223000	-8.521600	49.923035	49.983367
721.209903	-2.607600	3.222500	-8.402100	49.920722	49.994060
722.211723	-2.603600	3.221800	-8.388000	49.926571	49.991599
723.207962	-2.585800	3.221600	-8.330000	49.935499	49.996192
724.209093	-2.607500	3.221900	-8.401100	49.923767	50.000717
725.209885	-2.619800	3.222500	-8.442100	49.927744	50.009752
726.210922	-2.593300	3.221500	-8.354000	49.926705	50.006184
727.212814	-2.590000	3.222200	-8.344800	49.921514	50.000632
728.214515	-2.618700	3.222300	-8.437800	49.931793	49.988873
729.212330	-2.595800	3.222800	-8.365400	49.913280	50.000345
730.212531	-2.593600	3.222300	-8.357200	49.931130	50.008441
731.210880	-2.591700	3.223100	-8.353100	49.936287	49.999147
732.211717	-2.587100	3.221000	-8.332600	49.912978	49.992819
733.213551	-2.602300	3.221400	-8.383000	49.926337	49.976193
734.212131	-2.580500	3.222100	-8.314400	49.939320	49.980866
735.213337	-2.567100	3.220900	-8.267400	49.926664	49.982299
736.212110	-2.605500	3.220700	-8.391000	49.923374	49.991654
737.213524	-2.621400	3.221800	-8.445700	49.920366	50.006708
738.210506	-2.615000	3.221300	-8.423200	49.941992	50.005575
739.212843	-2.602000	3.222200	-8.383600	49.925602	49.989546
740.211679	-2.601200	3.221900	-8.380500	49.953305	49.977510
741.211813	-2.604900	3.222100	-8.393000	49.930800	49.992576
742.210164	-2.599500	3.222200	-8.375600	49.917945	50.003566
743.212646	-2.570800	3.222200	-8.282700	49.934845	49.993732
744.210557	-2.584900	3.222200	-8.328900	49.920238	50.008026
745.210505	-2.583200	3.221100	-8.320000	49.928079	50.030317
746.213491	-2.582700	3.222400	-8.322200	49.934186	50.030643
747.209645	-2.581100	3.221400	-8.314700	49.916484	50.012942
748.209738	-2.611800	3.221300	-8.413200	49.936422	50.031795
749.210411	-2.585600	3.219800	-8.324700	49.940343	50.014763
750.212224	-2.575600	3.222200	-8.298800	49.924774	50.025566
751.213226	-2.627400	3.220400	-8.460700	49.929550	50.018060
752.213971	-2.587000	3.220800	-8.331900	49.938920	50.015147
753.211525	-2.600100	3.221100	-8.374900	49.939510	50.044636
754.211251	-2.612900	3.220400	-8.414500	49.934786	50.017154
755.212951	-2.609300	3.220200	-8.401800	49.933235	50.014158
756.211898	-2.603500	3.219800	-8.382900	49.940209	50.014268
757.209879	-2.599400	3.221100	-8.372700	49.941201	50.023930
758.212801	-2.586400	3.220700	-8.329600	49.935448	50.001920
759.210269	-2.645300	3.221000	-8.520200	49.940133	50.016359
760.212795	-2.607000	3.220800	-8.396400	49.935341	50.014097
761.212888	-2.593700	3.220000	-8.351300	49.929005	50.035216
762.210711	-2.585000	3.220300	-8.324300	49.931705	50.031775
763.213226	-2.619800	3.221700	-8.439400	49.930382	50.028645
764.212307	-2.640400	3.220000	-8.501900	49.925674	50.028272
765.212629	-2.594400	3.220200	-8.353900	49.937569	50.005126
766.211364	-2.602200	3.219100	-8.376300	49.945867	50.032931
767.213695	-2.603100	3.221600	-8.385700	49.937306	50.018591
768.212876	-2.594500	3.221600	-8.358500	49.934641	50.037239
769.213814	-2.629800	3.221100	-8.470300	49.937630	50.014217
770.212120	-2.589900	3.220400	-8.339500	49.949711	50.031717
771.213173	-2.592300	3.220900	-8.349100	49.946368	50.033071
772.216000	-2.593300	3.220600	-8.351600	49.939360	50.027146
773.212993	-2.596100	3.219900	-8.358700	49.928027	50.008228
774.213100	-2.606800	3.220600	-8.395000	49.928149	50.000763
775.213462	-2.615500	3.220000	-8.421600	49.934077	50.016445
776.211313	-2.608700	3.221300	-8.403200	49.949806	50.020613
777.212019	-2.584600	3.221400	-8.325700	49.954099	49.988781
778.211780	-2.599600	3.219900	-8.370300	49.939892	49.981799
779.210266	-2.590600	3.221700	-8.346400	49.938838	50.022651
780.211748	-2.618200	3.219900	-8.429700	49.948821	50.035162
781.211518	-2.589900	3.220300	-8.339700	49.955502	50.014388
782.212709	-2.578200	3.221200	-8.304600	49.928502	50.018095
783.215221	-2.585400	3.220500	-8.325900	49.939275	50.016224
784.210410	-2.595900	3.219800	-8.358500	49.933845	50.003930
785.217089	-2.593900	3.220600	-8.354100	49.954505	50.009056
786.211190	-2.605700	3.221100	-8.392900	49.959206	50.012672
787.210286	-2.598900	3.221000	-8.371100	49.952090	50.005919
788.211779	-2.588600	3.220700	-8.336500	49.941948	50.005892
789.213811	-2.594700	3.220300	-8.355400	49.941283	50.014258
790.213668	-2.600200	3.220500	-8.373600	49.946063	50.004226
791.213735	-2.600500	3.219500	-8.371700	49.951014	50.022183
792.212883	-2.612600	3.219400	-8.410300	49.952064	50.022148
793.214210	-2.607400	3.218700	-8.392400	49.951554	50.001408
794.215443	-2.604300	3.219400	-8.383700	49.959707	50.003420
795.212654	-2.605600	3.220200	-8.390000	49.948911	49.988650
796.210413	-2.581000	3.220600	-8.312100	49.944899	50.003424
797.211182	-2.575800	3.220800	-8.295900	49.948945	50.009999
798.211046	-2.600200	3.219500	-8.370700	49.963986	49.986384
799.210623	-2.610500	3.218700	-8.401700	49.949459	49.983056
800.212546	-2.590100	3.220700	-8.341500	49.949516	49.977333
801.211578	-2.625500	3.219500	-8.452100	49.959110	49.986205
802.211512	-2.614900	3.220800	-8.421800	49.961160	50.004873
803.211679	-2.612700	3.219100	-8.410400	49.951383	49.998709
804.213691	-2.608300	3.220500	-8.399700	49.954087	49.992742
805.212095	-2.622000	3.218400	-8.438600	49.946972	50.001162
806.211504	-2.618400	3.219600	-8.430000	49.949345	50.003173
807.213394	-2.600800	3.220400	-8.375700	49.945211	50.010239
808.212484	-2.638000	3.218000	-8.488500	49.944223	50.009973
809.210574	-2.605500	3.220200	-8.389600	49.954479	50.007223
810.214277	-2.579600	3.219600	-8.305000	49.955822	50.012178
811.213250	-2.598900	3.219900	-8.368000	49.946471	50.002466
812.212787	-2.617600	3.220300	-8.429300	49.951224	50.013361
813.217344	-2.583100	3.219200	-8.314900	49.955792	50.013232
814.215845	-2.597300	3.219600	-8.362200	49.952795	50.004817
815.214729	-2.624600	3.218200	-8.445900	49.967638	50.031219
816.209770	-2.596300	3.219400	-8.358000	49.957484	49.993249
817.211491	-2.594800	3.219300	-8.353100	49.932937	49.997243
818.210825	-2.565400	3.219300	-8.258000	49.947886	49.988348
819.211734	-2.579900	3.218600	-8.303200	49.964467	49.970247
820.212100	-2.605900	3.218300	-8.386200	49.962840	49.999327
821.210019	-2.556200	3.219900	-8.230200	49.964810	49.993349
822.215085	-2.606000	3.218900	-8.388300	49.945088	49.990608
823.215507	-2.601400	3.219400	-8.374400	49.961779	49.995015
824.212038	-2.589400	3.219100	-8.335100	49.958273	49.996928
825.211628	-2.587200	3.218600	-8.326800	49.944347	50.000704
826.211739	-2.569900	3.218800	-8.271900	49.945610	50.014611
827.214731	-2.608900	3.219000	-8.397700	49.953509	50.014201
828.212817	-2.577600	3.219300	-8.298000	49.951087	50.010334
829.211910	-2.573500	3.218700	-8.282600	49.947489	50.029857
830.211499	-2.591100	3.220300	-8.343700	49.949129	50.037276
831.213481	-2.568000	3.219000	-8.266000	49.954590	50.035873
832.212028	-2.585400	3.219600	-8.323700	49.959541	50.021317
833.209944	-2.585400	3.218700	-8.321600	49.958674	50.016115
834.208299	-2.582900	3.218700	-8.313200	49.936949	50.007034
835.209622	-2.603500	3.219200	-8.380900	49.953264	49.991919
836.212128	-2.613800	3.219700	-8.415000	49.944015	50.013377
837.210558	-2.568100	3.219800	-8.268600	49.963357	50.009959
838.213542	-2.607600	3.218500	-8.392400	49.949750	50.034285
839.213048	-2.602700	3.218300	-8.376100	49.958946	50.003743
840.211355	-2.595100	3.217600	-8.349300	49.964008	50.023254
841.211915	-2.602100	3.219900	-8.377300	49.974059	50.009101
842.213305	-2.621500	3.218200	-8.436200	49.949961	50.008124
843.214242	-2.580600	3.219000	-8.306200	49.954475	50.001078
844.212794	-2.612500	3.219500	-8.410300	49.949980	50.011756
845.211278	-2.609000	3.218600	-8.397600	49.954696	50.004551
846.214223	-2.594400	3.218900	-8.351000	49.946117	50.012589
847.215529	-2.614800	3.218200	-8.414100	49.968722	49.991120
848.209810	-2.592800	3.218100	-8.343700	49.963896	49.997132
849.212802	-2.591600	3.218400	-8.340600	49.960097	50.010313
850.211218	-2.591900	3.219000	-8.343100	49.951389	49.998354
851.211307	-2.607600	3.218800	-8.392900	49.953147	50.010226
852.209630	-2.599500	3.218400	-8.366100	49.954474	50.002522
853.209492	-2.599700	3.219100	-8.368400	49.958543	49.996837
854.209627	-2.597300	3.217400	-8.356200	49.963324	50.015707
855.210306	-2.609200	3.218700	-8.397900	49.943645	50.006866
856.211145	-2.600500	3.219300	-8.371200	49.956655	50.009399
857.211149	-2.600100	3.218400	-8.368000	49.947171	50.014005
858.212418	-2.637900	3.217500	-8.487100	49.953275	50.011438
859.209877	-2.620800	3.218400	-8.434200	49.957249	50.002768
860.209920	-2.583200	3.218500	-8.313600	49.955595	50.004366
861.209591	-2.597100	3.217300	-8.355400	49.963251	49.997932
862.212104	-2.582200	3.218700	-8.311200	49.949245	49.989707
863.213782	-2.591500	3.219000	-8.341800	49.944234	49.992644
864.213851	-2.625000	3.217100	-8.444100	49.963408	49.985084
865.214178	-2.599500	3.217200	-8.362800	49.955077	50.011795
866.214369	-2.586300	3.218000	-8.322800	49.947373	50.008787
867.212466	-2.573400	3.218200	-8.281000	49.949195	50.008080
868.212160	-2.587500	3.218600	-8.328300	49.960334	50.001879
869.210341	-2.612800	3.218500	-8.409200	49.965875	49.994054
870.208496	-2.592000	3.218200	-8.340800	49.951524	49.981148
871.209398	-2.614000	3.217600	-8.410400	49.937971	49.992522
872.211289	-2.575700	3.218900	-8.290900	49.948426	50.005505
873.211763	-2.595000	3.216900	-8.347800	49.943022	50.012024
874.216693	-2.622900	3.218300	-8.441100	49.953663	50.009659
875.215330	-2.593000	3.217900	-8.343800	49.957026	50.001100
876.213802	-2.608900	3.218300	-8.396400	49.948690	49.996738
877.211146	-2.603300	3.218200	-8.377500	49.947334	50.015251
878.210715	-2.596500	3.219000	-8.357500	49.952551	49.996625
879.216028	-2.604400	3.218200	-8.380900	49.959366	50.009943
880.214162	-2.609100	3.218000	-8.395500	49.955291	50.002616
881.211314	-2.604000	3.216900	-8.376500	49.952188	49.988314
882.212336	-2.583200	3.218200	-8.312800	49.957383	49.989536
883.212519	-2.603600	3.218400	-8.378800	49.950200	50.010892
884.212003	-2.591000	3.217400	-8.336300	49.950242	50.007683
885.211519	-2.621800	3.217600	-8.436100	49.954609	50.011688
886.211716	-2.595000	3.218000	-8.350300	49.975711	50.012198
887.211427	-2.582600	3.216100	-8.305500	49.948742	49.999680
888.209058	-2.593400	3.218100	-8.345200	49.946521	49.999627
889.209381	-2.612600	3.217600	-8.405900	49.967283	50.003047
890.210559	-2.628800	3.217100	-8.456900	49.962495	49.996093
891.213507	-2.604900	3.217100	-8.380000	49.964302	50.011266
892.212728	-2.597700	3.218100	-8.359000	49.956598	50.015483
893.210188	-2.586000	3.217800	-8.320700	49.958356	49.998095
894.213171	-2.601500	3.217300	-8.369300	49.953207	50.006313
895.210838	-2.599000	3.217900	-8.362600	49.960825	50.003093
896.213551	-2.588900	3.218800	-8.333000	49.949333	50.007858
897.212909	-2.615600	3.216200	-8.411800	49.959534	49.990602
898.215704	-2.604600	3.217500	-8.379700	49.959082	50.012909
899.213496	-2.592300	3.217600	-8.340900	49.961159	50.040996
900.213788	-2.621400	3.217900	-8.435000	49.960494	50.025882
901.213182	-2.606100	3.216200	-8.381100	49.945347	50.031688
902.210114	-2.587700	3.217400	-8.325500	49.977505	50.017604
903.211269	-2.605700	3.217900	-8.384300	49.958963	50.016765
904.210515	-2.607500	3.216800	-8.387600	49.952518	50.028383
905.214093	-2.610900	3.217500	-8.399700	49.970464	50.007313
906.209425	-2.614400	3.217500	-8.411600	49.965959	50.004975
907.212103	-2.624900	3.217200	-8.444800	49.964689	49.999370
908.213238	-2.615600	3.216900	-8.413600	49.970516	50.005920
909.211487	-2.582600	3.216800	-8.307500	49.957404	50.010510
910.210523	-2.615900	3.217100	-8.415100	49.970792	49.985242
911.213127	-2.603700	3.216900	-8.375100	49.967168	50.005823
912.211090	-2.608800	3.216300	-8.390600	49.944923	49.984662
913.215707	-2.626700	3.217300	-8.450500	49.966243	49.981055
914.213347	-2.611800	3.216400	-8.400300	49.955474	49.971731
915.213956	-2.619100	3.217400	-8.426200	49.968134	49.971024
916.211603	-2.613000	3.215900	-8.402900	49.956297	49.973276
917.213834	-2.590700	3.216800	-8.333100	49.969042	49.980963
918.213847	-2.598300	3.216800	-8.357600	49.948141	49.990770
919.210359	-2.605600	3.217000	-8.381800	49.960939	49.981170
920.210487	-2.610700	3.217800	-8.400300	49.955472	50.005687
921.210960	-2.592600	3.216300	-8.338200	49.958941	49.999041
922.213300	-2.581300	3.216700	-8.303100	49.961300	49.998871
923.209450	-2.583400	3.218500	-8.314600	49.963111	49.989844
924.212509	-2.593600	3.216900	-8.342800	49.963690	49.996204
925.214008	-2.599800	3.216000	-8.361100	49.951385	50.004491
926.209234	-2.596800	3.216200	-8.351200	49.975956	50.011360
927.210854	-2.617300	3.216200	-8.417100	49.955263	49.992473
928.210967	-2.592700	3.216300	-8.339000	49.956618	49.974681
929.212142	-2.602500	3.215300	-8.367400	49.963944	49.973698
930.212079	-2.593000	3.216800	-8.341000	49.961176	49.995496
931.212778	-2.599900	3.215800	-8.360300	49.941672	50.010673
932.213843	-2.568300	3.216200	-8.259800	49.949492	49.987064
933.214669	-2.626900	3.215900	-8.447500	49.946905	49.990979
934.215995	-2.595400	3.216000	-8.346500	49.946708	50.012097
935.211611	-2.610300	3.216700	-8.396000	49.948073	49.996122
936.212203	-2.614800	3.214900	-8.405900	49.956483	50.009228
937.229907	-2.570700	3.217600	-8.271200	49.947478	50.007448
938.212079	-2.608400	3.215400	-8.386400	49.955166	49.999240
939.212153	-2.583200	3.215900	-8.306900	49.954581	50.014912
940.210779	-2.604900	3.215500	-8.376200	49.956791	50.010258
941.211722	-2.605900	3.215800	-8.380300	49.951659	50.015602
942.211414	-2.596900	3.215400	-8.349400	49.958231	50.005556
943.215124	-2.605700	3.214700	-8.376000	49.941166	49.996801
944.211339	-2.600600	3.216200	-8.363400	49.954549	49.977309
945.214655	-2.619700	3.215400	-8.422800	49.958411	49.979726
946.214335	-2.563800	3.216800	-8.246500	49.951255	49.983046
947.214450	-2.593900	3.215100	-8.339100	49.958953	49.993996
948.211671	-2.604500	3.215100	-8.373500	49.939662	49.985182
949.210823	-2.578600	3.215900	-8.292500	49.948726	49.994968
950.213542	-2.621900	3.214400	-8.427200	49.953252	49.979264
951.211553	-2.601400	3.217000	-8.368500	49.958448	49.980847
952.218609	-2.592000	3.216100	-8.335600	49.956488	49.985750
953.214410	-2.613100	3.215900	-8.403400	49.961455	49.988911
954.211630	-2.601700	3.216200	-8.367700	49.942744	49.984289
955.213783	-2.611900	3.215400	-8.398100	49.963001	49.993709
956.214526	-2.588200	3.215600	-8.322400	49.962178	50.027927
957.211357	-2.585600	3.217000	-8.317100	49.958225	50.018195
958.211958	-2.632400	3.216400	-8.466400	49.962295	50.027683
959.211615	-2.581500	3.216900	-8.304200	49.958608	50.025080
960.211158	-2.567800	3.216200	-8.257800	49.959458	50.029543
961.210999	-2.600000	3.216100	-8.361000	49.950942	50.039812
962.215139	-2.594700	3.216200	-8.344600	49.960941	50.026690
963.212447	-2.607000	3.215600	-8.382800	49.951729	49.998332
964.213576	-2.605000	3.214000	-8.372200	49.963103	49.993811
965.209837	-2.589200	3.214500	-8.322700	49.950135	49.992403
966.210853	-2.617500	3.216300	-8.418000	49.950088	49.993801
967.214219	-2.574800	3.215100	-8.278100	49.944244	49.978203
968.212997	-2.614000	3.216900	-8.408800	49.960055	49.997988
969.212383	-2.589500	3.215000	-8.325200	49.973427	49.967647
970.212118	-2.624600	3.216500	-8.441900	49.947114	49.995523
971.211669	-2.608400	3.216600	-8.389600	49.969879	50.021539
972.210301	-2.600300	3.215800	-8.361700	49.943475	50.009586
973.212132	-2.591700	3.214700	-8.331100	49.952555	49.997713
974.211928	-2.591500	3.214300	-8.329900	49.956683	49.987752
975.212014	-2.590100	3.214300	-8.325200	49.942398	49.979608
976.216619	-2.586100	3.214000	-8.310700	49.953778	49.988459
977.213591	-2.579100	3.215300	-8.292500	49.942733	49.978860
978.214007	-2.607100	3.215400	-8.382000	49.956175	49.983631
979.216805	-2.564200	3.215500	-8.244500	49.960234	49.976853
980.211383	-2.616200	3.215800	-8.412700	49.945332	49.982543
981.211694	-2.580300	3.215400	-8.296600	49.944913	49.977789
982.212947	-2.603900	3.214400	-8.369500	49.952681	49.997478
983.215377	-2.599800	3.214700	-8.357000	49.949584	50.020392
984.214255	-2.611300	3.214100	-8.392600	49.939916	49.986158
985.211919	-2.602900	3.215400	-8.369200	49.947365	49.988910
986.211022	-2.586300	3.215400	-8.315300	49.946685	49.984257
987.210158	-2.596000	3.215400	-8.346600	49.950516	49.985559
988.213933	-2.622000	3.215600	-8.430700	49.938749	49.999441
989.214285	-2.581700	3.214800	-8.298700	49.957424	49.991744
990.211705	-2.597200	3.215800	-8.351400	49.950321	49.992228
991.210696	-2.591400	3.215300	-8.332100	49.953085	49.984515
992.210231	-2.555400	3.215300	-8.216100	49.952639	49.988404
993.211503	-2.619700	3.214200	-8.419500	49.958919	49.959281
994.212144	-2.619100	3.214500	-8.419200	49.944730	49.979773
995.213730	-2.593000	3.215100	-8.336300	49.947211	49.967081
996.213118	-2.623800	3.214600	-8.434200	49.936634	49.974929
997.219593	-2.585400	3.215200	-8.312300	49.941910	49.958168
998.212444	-2.596900	3.216600	-8.353000	49.944780	49.978017
999.215966	-2.593600	3.214500	-8.336900	49.952962	49.965968
1000.212995	-2.586300	3.215700	-8.316600	49.939963	49.983315
1001.211126	-2.575300	3.215100	-8.279600	49.933280	49.976994
1002.215239	-2.578400	3.215500	-8.290400	49.937552	49.985239
1003.215333	-2.590700	3.214700	-8.328200	49.939487	49.987897
1004.211272	-2.597500	3.215300	-8.351100	49.938701	49.971938
1005.212437	-2.591700	3.215500	-8.332900	49.935700	49.945094
1006.212835	-2.602400	3.216300	-8.370200	49.956830	49.973087
1007.211622	-2.592200	3.215500	-8.334700	49.948016	49.964635
1008.211456	-2.601300	3.215200	-8.363400	49.951529	49.970676
1009.211943	-2.598900	3.214900	-8.355100	49.946292	49.964716
1010.209834	-2.576200	3.215000	-8.282300	49.934270	49.969674
1011.212536	-2.596900	3.214300	-8.346600	49.941432	49.966721
1012.211137	-2.592000	3.214600	-8.331600	49.930759	49.960383
1013.213166	-2.583000	3.215500	-8.305200	49.939058	49.970488
1014.213140	-2.598500	3.214200	-8.352100	49.937135	49.968927
1015.212596	-2.564900	3.215200	-8.246000	49.937052	49.985823
1016.210525	-2.585400	3.214800	-8.311600	49.941904	49.983449
1017.211904	-2.601000	3.215200	-8.362200	49.957985	49.988693
1018.211719	-2.617500	3.215800	-8.417000	49.944959	49.980363
1019.216155	-2.593600	3.216000	-8.340500	49.952456	49.969436
1020.212911	-2.598000	3.215200	-8.352700	49.937703	49.992254
1021.216865	-2.593900	3.216200	-8.341600	49.935525	49.966595
1022.211877	-2.592000	3.215100	-8.333300	49.945700	49.972434
1023.212746	-2.595300	3.215300	-8.344100	49.936675	49.966660
1024.213165	-2.577700	3.214300	-8.285100	49.935783	49.955292
1025.211495	-2.597600	3.214000	-8.348700	49.942504	49.970322
1026.212141	-2.584000	3.214000	-8.304800	49.951059	49.962258
1027.211066	-2.586600	3.215700	-8.317400	49.944536	49.943813
1028.210911	-2.619500	3.215000	-8.421400	49.950677	49.957180
1029.211684	-2.599100	3.214200	-8.354000	49.957601	49.959046
1030.209778	-2.582000	3.214200	-8.299000	49.953139	49.976260
1031.215600	-2.581600	3.215200	-8.299700	49.935022	49.953086
1032.211475	-2.596700	3.215100	-8.348000	49.937329	49.972733
1033.212853	-2.594000	3.214700	-8.338600	49.946765	49.958687
1034.213677	-2.571500	3.214700	-8.266300	49.939132	49.959363
1035.215004	-2.595800	3.214700	-8.344400	49.956277	49.942187
1036.211599	-2.635500	3.215000	-8.473000	49.938469	49.948946
1037.210582	-2.577900	3.215300	-8.288500	49.943172	49.949674
1038.211963	-2.604900	3.214600	-8.373200	49.941153	49.956326
1039.209113	-2.586300	3.214500	-8.313400	49.943815	49.961155
1040.211278	-2.589800	3.215300	-8.326800	49.940394	49.956651
1041.213346	-2.580200	3.215700	-8.297000	49.950373	49.976746
1042.212121	-2.591500	3.213800	-8.328500	49.942435	49.948938
1043.215582	-2.565800	3.214900	-8.248500	49.949412	49.987345
1044.216463	-2.623100	3.213500	-8.429000	49.952037	50.006226
1045.216830	-2.597200	3.214000	-8.347200	49.951155	49.994507
1046.216902	-2.606800	3.214700	-8.380300	49.947188	49.991985
1047.214030	-2.570900	3.213100	-8.260000	49.951029	49.975234
1048.210338	-2.627000	3.213600	-8.441600	49.946763	49.989031
1049.210072	-2.608000	3.214500	-8.383300	49.949537	49.982051
1050.214812	-2.616700	3.214300	-8.410600	49.927075	49.977292
1051.211248	-2.614400	3.214500	-8.403600	49.955510	49.976102
1052.214053	-2.610000	3.213300	-8.386500	49.942106	49.983652
1053.216883	-2.585600	3.213800	-8.309500	49.953726	49.960591
1054.216073	-2.605800	3.213700	-8.374100	49.949991	49.984673
1055.216786	-2.613900	3.214500	-8.401900	49.943793	49.978475
1056.212350	-2.610500	3.213500	-8.388000	49.950515	49.974719
1057.232017	-2.590200	3.214900	-8.327200	49.958532	49.993936
1058.208403	-2.611700	3.214000	-8.393300	49.950435	49.990535
1059.209724	-2.571900	3.213800	-8.264800	49.944283	49.977159
1060.211460	-2.635100	3.212500	-8.464900	49.954415	49.984762
1061.210694	-2.589500	3.214900	-8.324700	49.951648	49.980910
1062.212107	-2.611600	3.212800	-8.390200	49.949391	49.964564
1063.211590	-2.606300	3.213500	-8.374900	49.967471	49.996010
1064.210418	-2.593500	3.214400	-8.336500	49.951873	49.985110
1065.212520	-2.588800	3.214400	-8.320900	49.959062	49.983989
1066.213184	-2.622000	3.214500	-8.428200	49.930389	49.988553
1067.211197	-2.595400	3.213500	-8.340500	49.960195	49.978259
1068.212538	-2.586900	3.213200	-8.312000	49.949550	49.984592
1069.215963	-2.600600	3.213500	-8.356400	49.949364	49.991993
1070.215194	-2.606300	3.214400	-8.377800	49.950093	49.965989
1071.211772	-2.590400	3.214600	-8.326000	49.938400	49.961521
1072.209406	-2.606700	3.213400	-8.376000	49.944028	50.000024
1073.211503	-2.606400	3.213400	-8.374800	49.952327	50.005433
1074.211061	-2.595200	3.213900	-8.340200	49.951840	50.020841
1075.211761	-2.616500	3.212900	-8.406200	49.931393	50.010149
1076.212826	-2.593200	3.213000	-8.331600	49.951518	49.994870
1077.213307	-2.564600	3.213300	-8.240300	49.952433	49.999036
1078.210679	-2.569500	3.213100	-8.256200	49.947170	49.992328
1079.213231	-2.586700	3.214800	-8.315400	49.926833	50.011730
1080.213277	-2.588600	3.213200	-8.317700	49.945228	50.002669
1081.210625	-2.585200	3.214300	-8.309200	49.934996	49.972568
1082.213542	-2.593200	3.214500	-8.335500	49.935991	49.972840
1083.212819	-2.583100	3.213100	-8.299400	49.947936	49.969251
1084.216434	-2.599100	3.212700	-8.349800	49.938251	49.956315
1085.211957	-2.616900	3.212700	-8.407100	49.955238	49.961379
1086.212194	-2.589800	3.214400	-8.324100	49.941235	49.973388
1087.210803	-2.620800	3.212700	-8.419300	49.948599	49.988339
1088.213363	-2.575400	3.213800	-8.276300	49.931205	49.976003
1089.210834	-2.599000	3.213200	-8.350500	49.954165	49.982705
1090.209981	-2.577600	3.213000	-8.281300	49.947572	49.976474
1091.207308	-2.609600	3.213100	-8.384600	49.953986	49.955070
1092.211937	-2.626600	3.213400	-8.439400	49.946751	49.955421
1093.212303	-2.605600	3.212400	-8.369800	49.949850	49.958882
1094.210590	-2.626100	3.211700	-8.433900	49.940218	49.961894
1095.211910	-2.588500	3.214600	-8.320600	49.944120	49.969408
1096.211808	-2.602300	3.213900	-8.363500	49.948356	49.963168
1097.213009	-2.603500	3.212800	-8.363800	49.935877	49.962972
1098.213449	-2.624400	3.212400	-8.429700	49.936828	49.952724
1099.215602	-2.617400	3.212400	-8.408000	49.942616	49.974407
1100.215253	-2.592100	3.213000	-8.328200	49.952473	49.977039
1101.210681	-2.608200	3.214100	-8.382800	49.939176	49.959768
1102.211199	-2.604300	3.213300	-8.368100	49.962066	49.972542
1103.213357	-2.594500	3.213400	-8.336900	49.943992	49.963862
1104.212792	-2.604400	3.213100	-8.367500	49.943568	49.965244
1105.216207	-2.585200	3.213200	-8.306600	49.939813	49.962573
1106.209637	-2.596400	3.212500	-8.340400	49.946535	49.961708
1107.211950	-2.624800	3.211900	-8.430300	49.946612	49.956005
1108.212526	-2.586800	3.213200	-8.311300	49.935800	49.978069
1109.212542	-2.595000	3.213100	-8.337300	49.935896	49.973107
1110.214187	-2.596400	3.213600	-8.343700	49.942960	49.996066
1111.210824	-2.613700	3.212900	-8.397600	49.945357	49.993044
1112.210039	-2.605600	3.212100	-8.368700	49.941910	49.988152
1113.210557	-2.574700	3.212800	-8.271800	49.947962	49.995649
1114.211194	-2.594800	3.212800	-8.336700	49.945009	50.007508
1115.210607	-2.582800	3.212700	-8.297600	49.942620	49.983804
1116.210778	-2.594100	3.214000	-8.337000	49.940900	49.990755
1117.217307	-2.629400	3.211900	-8.445100	49.939339	49.987749
1118.212922	-2.608200	3.213200	-8.380500	49.941153	49.989201
1119.212397	-2.585100	3.213800	-8.307500	49.936553	49.995078
1120.209595	-2.619200	3.212200	-8.413000	49.948243	49.980757
1121.211311	-2.584200	3.212700	-8.301900	49.951837	49.978209
1122.212332	-2.560100	3.214400	-8.228900	49.947721	49.974816
1123.212030	-2.615800	3.211500	-8.400300	49.943260	49.969633
1124.213673	-2.597200	3.212700	-8.343700	49.949206	49.968715
1125.212851	-2.592400	3.214200	-8.332300	49.937795	49.969948
1126.213417	-2.613100	3.212100	-8.393300	49.942966	49.965726
1127.215042	-2.604200	3.212700	-8.366300	49.936699	49.953679
1128.212817	-2.609800	3.211400	-8.381100	49.947809	49.966957
1129.212440	-2.594100	3.213700	-8.336600	49.951605	49.980506
1130.211695	-2.598100	3.212600	-8.346200	49.945683	49.981087
1131.211159	-2.580600	3.213600	-8.292600	49.933503	49.954457
1132.211662	-2.601800	3.213100	-8.359000	49.949433	49.987366
1133.211373	-2.586600	3.212300	-8.308800	49.937316	49.968024
1134.211095	-2.574500	3.213900	-8.274100	49.924900	49.959943
1135.211352	-2.605100	3.212300	-8.367900	49.941367	49.970991
1136.213159	-2.635800	3.212300	-8.466500	49.938070	49.942766
1137.213921	-2.610600	3.213200	-8.387500	49.935644	49.969243
1138.213650	-2.622900	3.211100	-8.422400	49.939652	49.955909
1139.214840	-2.611400	3.212900	-8.389900	49.942762	49.970579
1140.214372	-2.610100	3.212600	-8.384800	49.940893	49.970517
1141.215762	-2.608900	3.212400	-8.380500	49.938133	49.969563
1142.210021	-2.599900	3.212100	-8.350700	49.950195	49.963562
1143.209810	-2.606100	3.212000	-8.370400	49.938095	49.969886
1144.214152	-2.619900	3.212400	-8.415600	49.939802	49.987851
1145.210383	-2.583400	3.212700	-8.299400	49.935915	49.974210
1146.211669	-2.598900	3.211500	-8.346100	49.946091	49.982218
1147.214305	-2.600000	3.213000	-8.353000	49.949519	49.987813
1148.211825	-2.614400	3.212500	-8.398500	49.946318	50.005927
1149.211067	-2.579800	3.212800	-8.288300	49.939866	49.979606
1150.209927	-2.596400	3.212100	-8.339400	49.942783	49.991915
1151.210361	-2.632400	3.211400	-8.452700	49.929221	49.975825
1152.208289	-2.616600	3.212000	-8.404500	49.937810	49.978272
1153.209100	-2.626300	3.212000	-8.435300	49.933280	49.975187
1154.210213	-2.620100	3.212400	-8.416600	49.936416	49.973627
1155.210328	-2.619500	3.211600	-8.412700	49.929797	49.961589
1156.212773	-2.612100	3.211600	-8.388800	49.913478	49.956469
1157.215403	-2.595100	3.211800	-8.334500	49.932060	49.960600
1158.210522	-2.630700	3.211500	-8.447800	49.911193	49.962132
1159.210306	-2.587100	3.212700	-8.311500	49.924550	49.973322
1160.212986	-2.584200	3.213500	-8.304400	49.921191	49.976827
1161.214291	-2.599300	3.212500	-8.349700	49.932391	49.978994
1162.212742	-2.625700	3.212000	-8.433600	49.924556	49.950929
1163.213447	-2.598100	3.211700	-8.344500	49.938239	49.987372
1164.214186	-2.595300	3.211500	-8.334300	49.943464	50.007046
1165.213219	-2.605200	3.211100	-8.365100	49.924615	49.994340
1166.213199	-2.605600	3.211900	-8.368400	49.940492	49.979148
1167.213708	-2.606300	3.211100	-8.368500	49.939531	49.964459
1168.217168	-2.600500	3.213300	-8.355900	49.933696	49.958263
1169.214826	-2.622300	3.211600	-8.421700	49.916328	49.961849
1170.211575	-2.607700	3.212000	-8.375600	49.939598	49.947185
1171.211081	-2.597700	3.212100	-8.343600	49.928372	49.981117
1172.211837	-2.610000	3.212300	-8.383400	49.934996	49.955950
1173.212061	-2.609500	3.211800	-8.380800	49.943799	49.949941
1174.211409	-2.632200	3.210500	-8.450200	49.921232	49.959888
1175.212143	-2.605400	3.213200	-8.371100	49.927865	49.950264
1176.210399	-2.580600	3.212400	-8.289500	49.933398	49.959049
1177.215257	-2.618200	3.210800	-8.406200	49.945179	49.953126
1178.210760	-2.595000	3.212500	-8.336000	49.915289	49.970925
1179.208886	-2.588900	3.211700	-8.314200	49.941229	49.962183
1180.213580	-2.606200	3.212500	-8.371800	49.929060	49.959768
1181.213102	-2.603500	3.211900	-8.362100	49.929438	49.957979
1182.212925	-2.606700	3.210800	-8.368700	49.919542	49.967230
1183.212738	-2.594800	3.212400	-8.335300	49.942179	49.975777
1184.212574	-2.611600	3.212000	-8.387900	49.933146	49.967828
1185.212143	-2.589100	3.212200	-8.316500	49.937164	49.963536
1186.211719	-2.562300	3.211900	-8.229200	49.932395	49.973580
1187.213117	-2.595700	3.211500	-8.335400	49.932589	49.951736
1188.215728	-2.595800	3.212400	-8.338500	49.943374	49.958908
1189.215362	-2.603200	3.212800	-8.363200	49.940007	49.959155
1190.212940	-2.599600	3.211000	-8.347000	49.932614	49.962238
1191.210287	-2.570200	3.211000	-8.252700	49.933450	49.956933
1192.211974	-2.594600	3.212300	-8.334500	49.933899	49.978335
1193.212642	-2.615900	3.211900	-8.401300	49.933299	49.978819
1194.212712	-2.588700	3.211900	-8.314000	49.936576	49.974509
1195.209488	-2.613300	3.211500	-8.392300	49.928830	49.962067
1196.210504	-2.620400	3.211200	-8.413700	49.921472	49.953987
1197.215597	-2.595000	3.210800	-8.332000	49.926212	49.994492
1198.211322	-2.588100	3.211300	-8.310700	49.939130	49.951052
1199.212711	-2.600500	3.211100	-8.350100	49.928432	49.948663
1200.212420	-2.641700	3.211600	-8.483500	49.940776	49.954143
1201.212347	-2.593000	3.211200	-8.326200	49.923011	49.953719
1202.209961	-2.614100	3.210100	-8.391500	49.921160	49.942836
1203.210229	-2.599700	3.211500	-8.348700	49.922719	49.951621
1204.213178	-2.611100	3.211900	-8.386300	49.934632	49.952695
1205.212499	-2.591800	3.212100	-8.325000	49.924251	49.935090
1206.213030	-2.600800	3.210800	-8.350700	49.934683	49.943354
1207.216326	-2.592000	3.212700	-8.327300	49.936348	49.974643
1208.218535	-2.579700	3.211800	-8.284900	49.914451	49.967558
1209.212141	-2.640200	3.210700	-8.476300	49.925342	49.968333
1210.210125	-2.601200	3.211300	-8.352900	49.934064	49.958992
1211.212541	-2.595500	3.210400	-8.332500	49.924354	49.966984
1212.210111	-2.608900	3.210900	-8.376500	49.930407	49.960392
1213.211930	-2.573100	3.213000	-8.267400	49.947130	49.964832
1214.212218	-2.600400	3.210200	-8.347400	49.921761	49.962585
1215.209837	-2.616200	3.212000	-8.402600	49.926211	49.963783
1216.214942	-2.629500	3.210600	-8.441900	49.924800	49.973210
1217.215373	-2.588700	3.210900	-8.311500	49.912243	49.987748
1218.214325	-2.596000	3.211600	-8.337300	49.934166	49.984021
1219.215944	-2.576000	3.211200	-8.271900	49.916031	49.972389
1220.211323	-2.599200	3.212000	-8.348100	49.921159	49.963789
1221.212648	-2.568400	3.212100	-8.249300	49.924630	49.961841
1222.214562	-2.600700	3.210700	-8.349600	49.928930	49.950967
1223.212615	-2.593900	3.211800	-8.330400	49.913747	49.956377
1224.213394	-2.618400	3.211000	-8.407100	49.909437	49.962906
1225.212356	-2.571700	3.211300	-8.258000	49.927131	49.955671
1226.211158	-2.616300	3.212200	-8.403500	49.919226	49.970527
1227.213416	-2.575600	3.210400	-8.268500	49.919191	49.974826
1228.209354	-2.605700	3.210900	-8.365500	49.912185	49.975046
1229.211105	-2.626700	3.210000	-8.431200	49.916352	49.952119
1230.210045	-2.581900	3.210900	-8.289600	49.925428	49.964084
1231.210059	-2.600800	3.210400	-8.349300	49.926908	49.950752
1232.210897	-2.603800	3.211100	-8.360300	49.928238	49.948469
1233.211706	-2.605000	3.211800	-8.365800	49.928925	49.956021
1234.212812	-2.601900	3.211700	-8.356000	49.923136	49.948786
1235.212875	-2.581600	3.210900	-8.288600	49.919478	49.951632
1236.210992	-2.608900	3.210700	-8.376300	49.912402	49.960090
1237.227465	-2.618800	3.209900	-8.405800	49.907256	49.969395
1238.213227	-2.611100	3.210900	-8.383500	49.928051	49.970320
1239.211041	-2.619800	3.210600	-8.410400	49.916111	49.966328
1240.209164	-2.586100	3.211700	-8.305900	49.906154	49.962874
1241.210850	-2.626600	3.211400	-8.434600	49.921186	49.977906
1242.214043	-2.581900	3.210500	-8.289000	49.916666	49.992532
1243.211079	-2.583800	3.209500	-8.292400	49.921794	49.987545
1244.210153	-2.609900	3.210200	-8.378000	49.925406	49.954308
1245.209505	-2.630800	3.210400	-8.445000	49.910752	49.965305
1246.211103	-2.608800	3.210400	-8.375200	49.931909	49.965146
1247.211483	-2.603100	3.210400	-8.356600	49.924198	49.957797
1248.210377	-2.601200	3.211100	-8.352700	49.926903	49.980371
1249.212894	-2.570100	3.210200	-8.249900	49.920074	49.981490
1250.209227	-2.607500	3.211200	-8.373100	49.916910	49.971462
1251.211682	-2.611700	3.210100	-8.383600	49.921951	49.973974
1252.213415	-2.620200	3.211100	-8.413100	49.938763	49.998372
1253.213979	-2.588700	3.209900	-8.309800	49.932868	49.999340
1254.211347	-2.604300	3.210200	-8.359800	49.915535	50.000071
1255.212018	-2.601200	3.211100	-8.352100	49.914133	50.008063
1256.214211	-2.596600	3.209200	-8.333100	49.919878	49.989242
1257.215040	-2.595200	3.211200	-8.333200	49.912873	49.978985
1258.213920	-2.611400	3.210700	-8.384200	49.933324	49.995462
1259.212319	-2.583800	3.211500	-8.297400	49.936981	49.999480
1260.214423	-2.620100	3.209800	-8.409300	49.942796	49.968085
1261.214183	-2.579700	3.211700	-8.284900	49.928178	49.987787
1262.213121	-2.583800	3.210800	-8.295500	49.919040	49.951193
1263.213807	-2.616100	3.210400	-8.398300	49.927851	49.970842
1264.211158	-2.574600	3.210200	-8.264400	49.920564	49.944408
1265.210097	-2.596100	3.209800	-8.332700	49.922185	49.959035
1266.210421	-2.588200	3.209800	-8.307200	49.919030	49.954796
1267.212160	-2.596900	3.210400	-8.336800	49.909566	49.943526
1268.212439	-2.610800	3.210700	-8.382400	49.917144	49.958329
1269.211076	-2.604400	3.211800	-8.364400	49.913135	49.960823
1270.211597	-2.620400	3.210100	-8.411300	49.936450	49.955236
1271.214688	-2.592500	3.210600	-8.322800	49.928572	49.972286
1272.210424	-2.598600	3.210800	-8.343400	49.914914	49.954654
1273.215001	-2.585800	3.209600	-8.298500	49.926228	49.975000
1274.211425	-2.619900	3.211100	-8.412900	49.916306	49.970858
1275.212370	-2.583800	3.209600	-8.292800	49.912006	49.977396
1276.212167	-2.639500	3.209300	-8.470900	49.919205	49.944133
1277.212691	-2.610400	3.211200	-8.382000	49.915671	49.952521
1278.214589	-2.614900	3.210000	-8.393600	49.932360	49.955482
1279.211332	-2.613700	3.209100	-8.386900	49.917777	49.953904
1280.209711	-2.605500	3.210300	-8.364200	49.931258	49.980391
1281.212852	-2.599000	3.210400	-8.343600	49.913291	49.981572
1282.209042	-2.587600	3.210200	-8.306500	49.920860	49.951930
1283.211727	-2.582800	3.210300	-8.291100	49.912956	49.983043
1284.213317	-2.607500	3.209300	-8.367900	49.920041	49.994101
1285.211699	-2.611200	3.210300	-8.382200	49.929134	49.974293
1286.214158	-2.599600	3.209900	-8.344200	49.916331	49.974496
1287.208399	-2.585200	3.210300	-8.299100	49.912656	49.959983
1288.210305	-2.609800	3.210200	-8.377900	49.914348	49.969623
1289.211629	-2.607600	3.209900	-8.369200	49.913044	49.966151
1290.213413	-2.608800	3.208700	-8.370400	49.921230	49.965666
1291.212414	-2.599400	3.210000	-8.343500	49.912286	49.958168
1292.213069	-2.619600	3.210000	-8.408700	49.918560	49.972750
1293.214740	-2.603700	3.209200	-8.355000	49.902143	49.968256
1294.214959	-2.599900	3.208800	-8.342500	49.908620	49.951973
1295.214573	-2.607400	3.209000	-8.367100	49.911501	49.941126
1296.210679	-2.611700	3.209700	-8.382500	49.915863	49.936094
1297.217055	-2.582100	3.209100	-8.285800	49.904276	49.985923
1298.212011	-2.620500	3.209000	-8.409000	49.900213	49.999924
1299.212925	-2.590300	3.210600	-8.316100	49.912382	49.966935
1300.215867	-2.601200	3.209000	-8.346900	49.921441	49.995862
1301.208967	-2.601300	3.209600	-8.349000	49.907844	49.998162
1302.211534	-2.597700	3.209600	-8.337200	49.911422	49.988372
1303.215825	-2.586700	3.209900	-8.303000	49.902231	49.954255
1304.216140	-2.571700	3.210500	-8.256300	49.900689	49.969692
1305.214214	-2.610800	3.208700	-8.377600	49.906981	49.949250
1306.212643	-2.618500	3.208600	-8.401200	49.909624	49.938165
1307.214073	-2.605600	3.209600	-8.362400	49.897596	49.948897
1308.214512	-2.583100	3.210200	-8.291700	49.918365	49.952686
1309.214644	-2.596000	3.209200	-8.330800	49.900002	49.947329
1310.215971	-2.577600	3.208900	-8.271000	49.921256	49.937513
1311.213859	-2.645200	3.209400	-8.489400	49.896028	49.952748
1312.212415	-2.609700	3.209100	-8.374400	49.910999	49.978918
1313.211742	-2.598300	3.208500	-8.336400	49.903192	49.956660
1314.211509	-2.604000	3.210000	-8.358000	49.915158	49.967181
1315.212246	-2.610400	3.208500	-8.375100	49.900733	49.933610
1316.210470	-2.615800	3.209800	-8.396100	49.893058	49.957004
1317.213144	-2.581500	3.210600	-8.287700	49.904593	49.954449
1318.216004	-2.594500	3.209300	-8.326200	49.912753	49.954660
1319.213842	-2.615600	3.208600	-8.392400	49.898997	49.969807
1320.211590	-2.582900	3.208700	-8.287800	49.909801	49.969411
1321.212410	-2.597200	3.209700	-8.335300	49.918745	49.965349
1322.212744	-2.599400	3.208700	-8.340100	49.899738	49.966574
1323.212960	-2.577900	3.210400	-8.275800	49.911898	49.955612
1324.213456	-2.598200	3.209200	-8.337700	49.910285	49.955445
1325.214002	-2.612800	3.208000	-8.381500	49.911431	49.959480
1326.211730	-2.616600	3.209900	-8.398500	49.903439	49.969913
1327.210587	-2.599000	3.209300	-8.340300	49.919326	49.957983
1328.212381	-2.593000	3.209100	-8.321300	49.897896	49.971958
1329.210479	-2.592100	3.209800	-8.319600	49.897517	49.938342
1330.212352	-2.598300	3.210300	-8.340700	49.912365	49.935848
1331.211849	-2.587700	3.208500	-8.302200	49.919661	49.934835
1332.214490	-2.591900	3.209600	-8.318800	49.902752	49.941409
1333.213067	-2.598800	3.208900	-8.338900	49.892803	49.923151
1334.216091	-2.611500	3.209300	-8.381100	49.900241	49.924446
1335.211467	-2.588900	3.209200	-8.308500	49.900302	49.924869
1336.214854	-2.615000	3.209800	-8.393500	49.904876	49.917520
1337.213370	-2.584500	3.210000	-8.296300	49.896884	49.945656
1338.212290	-2.599500	3.208300	-8.338900	49.909564	49.957975
1339.212095	-2.603100	3.209400	-8.353800	49.910894	49.931848
1340.211158	-2.573600	3.209100	-8.258800	49.895906	49.922279
1341.212168	-2.584700	3.208300	-8.292100	49.900162	49.942431
1342.210113	-2.596100	3.209300	-8.331000	49.906780	49.939656
1343.211556	-2.624300	3.208400	-8.419000	49.902568	49.948450
1344.211364	-2.604400	3.208600	-8.355900	49.896003	49.935382
1345.215754	-2.591800	3.208900	-8.316400	49.894725	49.933021
1346.213595	-2.617800	3.208600	-8.398900	49.903546	49.929919
1347.215547	-2.602500	3.207900	-8.348000	49.900850	49.943119
1348.214064	-2.607800	3.208600	-8.367200	49.903881	49.964575
1349.215875	-2.592100	3.208700	-8.316700	49.904163	49.951852
1350.212472	-2.592100	3.208900	-8.317600	49.886778	49.946389
1351.213443	-2.584600	3.208800	-8.293000	49.893774	49.935683
1352.211138	-2.603600	3.209300	-8.355400	49.896392	49.946609
1353.209901	-2.583200	3.209700	-8.290600	49.906895	49.959642
1354.210255	-2.583300	3.209700	-8.291400	49.896242	49.959104
1355.211069	-2.585600	3.209000	-8.296400	49.908138	49.971361
1356.212649	-2.619600	3.208700	-8.405200	49.913584	49.970665
1357.217062	-2.594000	3.208700	-8.322900	49.904887	49.964859
1358.211354	-2.597700	3.209100	-8.336000	49.902984	49.964762
1359.211603	-2.581100	3.208400	-8.280000	49.894543	49.961740
1360.212369	-2.581800	3.209000	-8.284500	49.896464	49.940540
1361.213222	-2.591500	3.208400	-8.314100	49.894420	49.941025
1362.210668	-2.590600	3.208800	-8.312400	49.908316	49.931799
1363.211740	-2.602100	3.207400	-8.346100	49.903761	49.946391
1364.211069	-2.580400	3.207400	-8.276300	49.894561	49.945863
1365.213186	-2.598400	3.208300	-8.336300	49.891301	49.945132
1366.212094	-2.575800	3.208100	-8.263200	49.889618	49.922856
1367.212384	-2.579400	3.208600	-8.275900	49.901744	49.922698
1368.211498	-2.562500	3.208000	-8.220000	49.899004	49.935493
1369.213904	-2.583300	3.207800	-8.286400	49.903233	49.935387
1370.211769	-2.610700	3.209000	-8.377300	49.905727	49.950887
1371.215076	-2.612300	3.208300	-8.380300	49.892140	49.960421
1372.211517	-2.565900	3.207500	-8.229700	49.901023	49.941847
1373.215815	-2.579500	3.207900	-8.274300	49.898873	49.940420
1374.213253	-2.574600	3.207500	-8.257400	49.889418	49.936023
1375.210501	-2.617900	3.207800	-8.397600	49.895543	49.941786
1376.210630	-2.598100	3.207000	-8.331900	49.903509	49.940720
1377.214322	-2.607000	3.208300	-8.363600	49.890459	49.939954
1378.212835	-2.592000	3.208400	-8.315800	49.911334	49.946739
1379.212854	-2.612100	3.207100	-8.377000	49.894522	49.951604
1380.212893	-2.608300	3.208900	-8.369100	49.894795	49.977166
1381.212155	-2.611800	3.207500	-8.376900	49.892117	49.957869
1382.211391	-2.625400	3.207200	-8.419400	49.912984	49.964284
1383.217328	-2.615800	3.207400	-8.388800	49.894832	49.955888
1384.211102	-2.618000	3.207300	-8.396500	49.919435	49.952311
1385.212793	-2.588700	3.208400	-8.305500	49.896674	49.956285
1386.216434	-2.613500	3.206700	-8.380100	49.902385	49.945015
1387.214010	-2.603600	3.207800	-8.351100	49.905778	49.940460
1388.214710	-2.625500	3.207000	-8.419500	49.897707	49.959846
1389.214681	-2.631900	3.207100	-8.440600	49.901461	49.953485
1390.214927	-2.584500	3.207000	-8.288200	49.900395	49.956754
1391.214201	-2.643500	3.206600	-8.475800	49.901004	49.944357
1392.213787	-2.622800	3.208400	-8.414700	49.888835	49.945556
1393.214948	-2.614700	3.207900	-8.387200	49.887373	49.952042
1394.212058	-2.610500	3.207000	-8.371000	49.878076	49.944913
1395.210962	-2.594400	3.207300	-8.320800	49.899931	49.955929
1396.212166	-2.618300	3.208200	-8.399800	49.893287	49.961569
1397.213046	-2.596900	3.207000	-8.327900	49.907977	49.963975
1398.212524	-2.602600	3.207600	-8.348100	49.873391	49.946370
1399.210303	-2.601000	3.207800	-8.343100	49.895748	49.927902
1400.211532	-2.607000	3.206800	-8.359900	49.906446	49.931013
1401.215891	-2.581700	3.207500	-8.280500	49.887466	49.920342
1402.213572	-2.628300	3.207300	-8.429600	49.908712	49.931834
1403.213533	-2.599600	3.207100	-8.336600	49.880832	49.937553
1404.214523	-2.589300	3.206800	-8.302600	49.887054	49.932936
1405.217838	-2.594000	3.207800	-8.320500	49.899743	49.913833
1406.214932	-2.613800	3.206900	-8.381800	49.890879	49.915808
1407.212623	-2.609800	3.205100	-8.364400	49.898845	49.923774
1408.214696	-2.588600	3.206700	-8.300300	49.880139	49.918796
1409.214047	-2.573700	3.206600	-8.252200	49.882880	49.924428
1410.212393	-2.589200	3.208000	-8.306200	49.889736	49.918639
1411.213654	-2.615000	3.207100	-8.386100	49.891790	49.923944
1412.211836	-2.611500	3.207200	-8.375100	49.872978	49.927532
1413.213059	-2.618200	3.205500	-8.392300	49.884222	49.924325
1414.211094	-2.629600	3.205700	-8.429600	49.887370	49.928917
1415.215932	-2.618400	3.206100	-8.395000	49.874055	49.916687
1416.213248	-2.565300	3.207900	-8.228800	49.889565	49.945563
1417.222405	-2.628000	3.206200	-8.425400	49.893892	49.933272
1418.210792	-2.606000	3.205900	-8.354300	49.894361	49.931572
1419.211786	-2.582300	3.207700	-8.282800	49.886995	49.916620
1420.211843	-2.579300	3.208300	-8.274600	49.878880	49.935601
1421.211369	-2.614000	3.206000	-8.380100	49.899156	49.930949
1422.212480	-2.602900	3.206600	-8.346200	49.898857	49.933540
1423.212142	-2.601500	3.206800	-8.342100	49.881905	49.914782
1424.212760	-2.589900	3.206700	-8.304600	49.889299	49.945658
1425.214443	-2.616600	3.206700	-8.390300	49.879562	49.918581
1426.212121	-2.609100	3.206800	-8.366800	49.889996	49.929737
1427.214046	-2.623800	3.206300	-8.411500	49.881467	49.942885
1428.211727	-2.607200	3.206200	-8.358700	49.890130	49.943238
1429.216032	-2.610500	3.206000	-8.369100	49.876719	49.957284
1430.213536	-2.615300	3.206000	-8.384400	49.895966	49.943294
1431.213170	-2.599800	3.207500	-8.339000	49.887507	49.932306
1432.215208	-2.612200	3.206800	-8.376600	49.880829	49.934660
1433.211935	-2.605000	3.206200	-8.352000	49.892814	49.931832
1434.211663	-2.635000	3.206600	-8.448400	49.890461	49.921532
1435.212193	-2.602500	3.206100	-8.343600	49.900675	49.949447
1436.211801	-2.604400	3.207600	-8.353400	49.890278	49.964701
1437.210993	-2.630900	3.206300	-8.435300	49.887997	49.939298
1438.210441	-2.605600	3.206100	-8.353900	49.879415	49.961064
1439.213402	-2.607300	3.205200	-8.356900	49.888069	49.942984
1440.213119	-2.612200	3.205500	-8.373300	49.893348	49.951514
1441.211382	-2.605300	3.205700	-8.351600	49.887428	49.949929
1442.211922	-2.599700	3.205700	-8.333500	49.890381	49.932651
1443.214000	-2.615900	3.205400	-8.384700	49.879014	49.931761
1444.214701	-2.595900	3.204700	-8.318600	49.887413	49.935825
1445.209685	-2.592800	3.207000	-8.314800	49.880303	49.921128
1446.215612	-2.580300	3.205700	-8.271400	49.880427	49.916194
1447.213519	-2.595200	3.206700	-8.321800	49.890244	49.916257
1448.214414	-2.591300	3.205500	-8.306000	49.882288	49.932867
1449.212324	-2.611800	3.204800	-8.370100	49.896520	49.929758
1450.216356	-2.580900	3.205800	-8.273200	49.877232	49.931424
1451.212767	-2.633200	3.205000	-8.439100	49.889154	49.907580
1452.213074	-2.612600	3.205500	-8.374200	49.874140	49.923275
1453.213542	-2.599900	3.206600	-8.336300	49.881331	49.937330
1454.211985	-2.589500	3.206000	-8.301600	49.883420	49.931832
1455.212828	-2.591300	3.204200	-8.302500	49.885271	49.948134
1456.211814	-2.611900	3.205800	-8.373100	49.886400	49.945288
1457.213590	-2.608300	3.205100	-8.359600	49.893089	49.937165
1458.213012	-2.587300	3.205800	-8.294100	49.897293	49.939924
1459.213138	-2.609500	3.205800	-8.365500	49.881309	49.916715
1460.210680	-2.582900	3.205000	-8.277700	49.897216	49.935150
1461.213421	-2.613000	3.204400	-8.372900	49.885549	49.932516
1462.216033	-2.590200	3.204700	-8.300600	49.880008	49.924807
1463.215278	-2.603200	3.205100	-8.343200	49.889736	49.924419
1464.217236	-2.596000	3.204000	-8.317100	49.879868	49.913467
1465.212888	-2.573300	3.206100	-8.249600	49.894198	49.910094
1466.212615	-2.607400	3.205700	-8.358100	49.884532	49.887784
1467.211616	-2.598600	3.205900	-8.330700	49.897557	49.908756
1468.213333	-2.606600	3.206000	-8.356400	49.880798	49.908616
1469.211820	-2.605100	3.205900	-8.351000	49.883706	49.895990
1470.215036	-2.594400	3.205400	-8.315700	49.892105	49.910892
1471.211497	-2.594600	3.204800	-8.315300	49.890079	49.897666
1472.212034	-2.591300	3.205300	-8.305700	49.872334	49.909185
1473.212719	-2.591300	3.204500	-8.303700	49.886680	49.914499
1474.212774	-2.591200	3.205500	-8.305300	49.878618	49.915108
1475.213139	-2.591600	3.205400	-8.306900	49.880108	49.915875
1476.217073	-2.611200	3.205800	-8.370100	49.869649	49.905416
1477.229673	-2.585100	3.205800	-8.286800	49.886234	49.911523
1478.215745	-2.628600	3.203800	-8.421200	49.867773	49.911128
1479.211186	-2.595600	3.204200	-8.316000	49.885178	49.899268
1480.212486	-2.583900	3.203800	-8.277600	49.873688	49.915958
1481.212225	-2.597200	3.204500	-8.322300	49.892573	49.911721
1482.214252	-2.606500	3.205100	-8.353600	49.884740	49.900275
1483.213739	-2.598800	3.204500	-8.327100	49.899244	49.881903
1484.209619	-2.574100	3.205500	-8.251100	49.898682	49.906992
1485.216974	-2.577600	3.204400	-8.259200	49.883500	49.914571
1486.217505	-2.604900	3.203800	-8.345500	49.873305	49.898956
1487.212074	-2.596000	3.205500	-8.321400	49.878743	49.891749
1488.212070	-2.620300	3.204400	-8.396200	49.884030	49.880779
1489.211267	-2.595200	3.205700	-8.318800	49.896121	49.905515
1490.210478	-2.609500	3.203500	-8.358900	49.878260	49.916195
1491.211172	-2.615600	3.205100	-8.382900	49.881838	49.910019
1492.212702	-2.619000	3.203800	-8.390600	49.875934	49.905198
1493.212923	-2.586100	3.205400	-8.289400	49.880422	49.922692
1494.216000	-2.621900	3.202800	-8.397300	49.878721	49.896424
1495.211235	-2.591500	3.204700	-8.304900	49.887692	49.897086
1496.212651	-2.606100	3.204600	-8.350700	49.873436	49.906674
1497.213262	-2.625200	3.204200	-8.411000	49.879525	49.912402
1498.214299	-2.592000	3.204600	-8.306000	49.895677	49.902181
1499.214090	-2.615100	3.204400	-8.379400	49.889617	49.912378
1500.214776	-2.605700	3.205300	-8.351500	49.885978	49.899345
1501.215949	-2.600200	3.204600	-8.332300	49.887310	49.924160
1502.213794	-2.600800	3.205100	-8.335400	49.873942	49.908625
1503.210864	-2.596100	3.203500	-8.316100	49.888377	49.927035
1504.210550	-2.598300	3.204200	-8.324900	49.881787	49.912496
1505.211067	-2.615200	3.203300	-8.377500	49.881550	49.920568
1506.214035	-2.606800	3.203300	-8.350000	49.890532	49.912931
1507.214009	-2.596600	3.203500	-8.317900	49.890919	49.878997
1508.215981	-2.597900	3.204600	-8.324900	49.890366	49.894340
1509.213630	-2.579300	3.204500	-8.264900	49.870205	49.894772
1510.213147	-2.591900	3.203300	-8.302000	49.882992	49.896721
1511.213258	-2.588200	3.202500	-8.288200	49.885619	49.901515
1512.213033	-2.608200	3.203900	-8.356000	49.880183	49.926066
1513.210740	-2.588900	3.203100	-8.292000	49.891331	49.920233
1514.215153	-2.621200	3.203200	-8.395300	49.884036	49.897404
1515.211218	-2.584500	3.204000	-8.280400	49.883464	49.914896
1516.212851	-2.596900	3.203800	-8.319700	49.881571	49.913725
1517.214646	-2.588800	3.204100	-8.294000	49.883749	49.918432
1518.216855	-2.603700	3.203800	-8.341800	49.874859	49.923994
1519.218734	-2.610800	3.203500	-8.362900	49.883778	49.956756
1520.214477	-2.598200	3.204000	-8.324300	49.876431	49.934236
1521.213648	-2.603800	3.202000	-8.337300	49.878060	49.936949
1522.213343	-2.630300	3.202900	-8.424800	49.876468	49.931021
1523.213062	-2.609300	3.202100	-8.355000	49.872865	49.912607
1524.210904	-2.594300	3.203100	-8.309600	49.877950	49.909020
1525.213422	-2.593400	3.202600	-8.305300	49.880279	49.906652
1526.212597	-2.603600	3.203100	-8.339100	49.859139	49.903939
1527.216247	-2.596500	3.203100	-8.316400	49.869300	49.914461
1528.212409	-2.608300	3.203500	-8.355700	49.872235	49.893913
1529.212454	-2.591900	3.202800	-8.300600	49.866571	49.887164
1530.212062	-2.620500	3.202600	-8.391800	49.884416	49.901758
1531.213286	-2.631400	3.202800	-8.427000	49.883942	49.898032
1532.213526	-2.591000	3.203000	-8.298900	49.878850	49.891856
1533.214762	-2.598200	3.201700	-8.317900	49.879098	49.912697
1534.212722	-2.580300	3.202500	-8.262900	49.890846	49.895182
1535.213101	-2.639000	3.203300	-8.453500	49.888343	49.900627
1536.214030	-2.610700	3.203100	-8.362300	49.874704	49.905775
1537.210195	-2.608200	3.202800	-8.353300	49.866511	49.929735
1538.212970	-2.609100	3.203000	-8.356900	49.874884	49.911735
1539.212052	-2.598400	3.202600	-8.321100	49.880736	49.915419
1540.212918	-2.617700	3.201200	-8.379900	49.874093	49.920337
1541.214507	-2.603900	3.202200	-8.338000	49.891137	49.927626
1542.216433	-2.602400	3.202800	-8.334500	49.863194	49.935812
1543.213864	-2.620200	3.201600	-8.388600	49.887192	49.933075
1544.210742	-2.598000	3.202300	-8.319000	49.876372	49.910333
1545.208997	-2.594500	3.202600	-8.308900	49.878735	49.937263
1546.209729	-2.590600	3.202500	-8.296000	49.879265	49.933819
1547.213543	-2.608600	3.201800	-8.351700	49.882660	49.937936
1548.212583	-2.610900	3.202600	-8.361700	49.883559	49.926913
1549.215978	-2.615700	3.202100	-8.375000	49.886927	49.921971
1550.212329	-2.591000	3.202000	-8.295500	49.899018	49.896489
1551.214138	-2.598200	3.201800	-8.318800	49.885688	49.905559
1552.214447	-2.618800	3.201700	-8.384100	49.889417	49.928797
1553.217395	-2.607200	3.202600	-8.349300	49.880501	49.931803
1554.213115	-2.633400	3.202400	-8.433200	49.878626	49.916561
1555.214802	-2.619900	3.200500	-8.384900	49.897458	49.922748
1556.214085	-2.605200	3.202500	-8.342900	49.868717	49.910987
1557.211288	-2.594700	3.202600	-8.309500	49.881723	49.916045
1558.212049	-2.578600	3.203300	-8.259900	49.871671	49.924418
1559.210878	-2.612800	3.201200	-8.364000	49.874079	49.933690
1560.213219	-2.578800	3.201700	-8.255900	49.887236	49.929144
1561.210884	-2.610100	3.201300	-8.355200	49.875580	49.908096
1562.212848	-2.613200	3.201800	-8.366700	49.873107	49.918629
1563.212172	-2.590300	3.202700	-8.296100	49.888413	49.918760
1564.214566	-2.588800	3.202500	-8.290200	49.870826	49.918516
1565.214124	-2.587300	3.201800	-8.283700	49.889677	49.920747
1566.211000	-2.598400	3.201100	-8.317000	49.870336	49.932116
1567.212020	-2.588300	3.202400	-8.288200	49.868319	49.921428
1568.212126	-2.578600	3.201600	-8.255300	49.884306	49.931272
1569.214881	-2.608400	3.199900	-8.346200	49.874904	49.915368
1570.215508	-2.624900	3.201400	-8.402400	49.880926	49.904048
1571.215366	-2.599800	3.202100	-8.324400	49.872687	49.887861
1572.212600	-2.592300	3.201100	-8.297700	49.881915	49.906121
1573.214207	-2.588200	3.202100	-8.287400	49.874524	49.892227
1574.214771	-2.591300	3.200600	-8.293000	49.880763	49.903885
1575.214597	-2.629700	3.200300	-8.415500	49.855969	49.913775
1576.215896	-2.613100	3.201200	-8.364600	49.869179	49.915424
1577.214115	-2.606300	3.201300	-8.343300	49.874557	49.891899
1578.211558	-2.586400	3.201700	-8.280200	49.864027	49.881369
1579.212953	-2.560100	3.201600	-8.195900	49.864997	49.914855
1580.211299	-2.597900	3.200700	-8.315100	49.877917	49.898149
1581.212049	-2.615800	3.200700	-8.371900	49.857572	49.890088
1582.211341	-2.588500	3.201800	-8.287800	49.870721	49.898179
1583.213856	-2.607900	3.200000	-8.345200	49.864564	49.892745
1584.214813	-2.612900	3.200500	-8.362300	49.873649	49.920255
1585.215745	-2.594200	3.200400	-8.302000	49.868832	49.921218
1586.215415	-2.595700	3.199600	-8.305000	49.873547	49.915095
1587.212454	-2.593700	3.199000	-8.296500	49.864887	49.919803
1588.211472	-2.606400	3.199100	-8.337900	49.867665	49.933057
1589.213778	-2.582600	3.200400	-8.264800	49.878063	49.908050
1590.215327	-2.591400	3.199500	-8.290700	49.873633	49.921684
1591.214415	-2.610600	3.199100	-8.351300	49.880810	49.905016
1592.214024	-2.616400	3.199400	-8.370400	49.875135	49.905122
1593.212460	-2.597700	3.199300	-8.310600	49.859027	49.907440
1594.213313	-2.604200	3.199500	-8.331800	49.876294	49.889300
1595.211754	-2.579600	3.199700	-8.253900	49.870427	49.913781
1596.212181	-2.607500	3.200300	-8.344400	49.865361	49.893180
1597.232945	-2.576800	3.200400	-8.246400	49.862949	49.908110
1598.209332	-2.592300	3.198600	-8.291000	49.875402	49.934291
1599.208659	-2.616700	3.199000	-8.370400	49.860231	49.905392
1600.211082	-2.594400	3.199200	-8.299600	49.860028	49.899770
1601.212643	-2.615700	3.199000	-8.367600	49.868808	49.910356
1602.212427	-2.587100	3.199800	-8.277600	49.870088	49.901881
1603.212298	-2.614900	3.199200	-8.365200	49.867630	49.908456
1604.216244	-2.608200	3.198700	-8.342200	49.870400	49.931457
1605.217165	-2.564300	3.200600	-8.206700	49.867062	49.918365
1606.215092	-2.622200	3.198900	-8.387900	49.863434	49.904982
1607.215418	-2.605300	3.199700	-8.336100	49.856193	49.898826
1608.215506	-2.591100	3.198400	-8.287300	49.869482	49.911391
1609.215378	-2.618700	3.198900	-8.376100	49.862689	49.908934
1610.212086	-2.596700	3.199500	-8.307500	49.874853	49.915317
1611.215037	-2.572400	3.199800	-8.230500	49.871718	49.894840
1612.211174	-2.608100	3.198400	-8.341600	49.862001	49.907162
1613.212253	-2.589300	3.199200	-8.282800	49.861455	49.923235
1614.210978	-2.567000	3.199100	-8.212100	49.862694	49.909661
1615.210360	-2.618400	3.199200	-8.376400	49.868034	49.905969
1616.213242	-2.584100	3.198700	-8.264900	49.869603	49.898506
1617.213416	-2.609700	3.198200	-8.346300	49.875079	49.896034
1618.214242	-2.615200	3.199400	-8.366900	49.862302	49.892290
1619.212379	-2.586700	3.199200	-8.275000	49.872694	49.882448
1620.214596	-2.594200	3.198500	-8.297100	49.875162	49.892504
1621.214558	-2.616300	3.198700	-8.368100	49.856439	49.900155
1622.211880	-2.604800	3.197800	-8.329400	49.859349	49.873800
1623.213154	-2.595700	3.198800	-8.303200	49.849323	49.882923
1624.213202	-2.626600	3.197500	-8.398500	49.866932	49.885720
1625.216099	-2.624500	3.198500	-8.393700	49.885129	49.881516
1626.214173	-2.588800	3.199200	-8.281500	49.860290	49.881968
1627.213577	-2.597100	3.198700	-8.306900	49.867121	49.906501
1628.216426	-2.592300	3.198900	-8.292300	49.884369	49.904962
1629.218416	-2.594500	3.199000	-8.299500	49.866350	49.892363
1630.211933	-2.624800	3.197000	-8.390900	49.867663	49.878141
1631.213590	-2.598700	3.197700	-8.309600	49.873298	49.881607
1632.211615	-2.624200	3.197700	-8.391000	49.868744	49.909569
1633.212382	-2.606100	3.198500	-8.335200	49.890907	49.899939
1634.214209	-2.599900	3.197900	-8.313800	49.894964	49.912667
1635.212176	-2.607400	3.198400	-8.338800	49.876768	49.907478
1636.214313	-2.606500	3.196900	-8.332000	49.873016	49.896139
1637.211576	-2.560700	3.197400	-8.187400	49.870853	49.903730
1638.210798	-2.593200	3.196900	-8.289800	49.889753	49.880359
1639.215300	-2.603600	3.197400	-8.324300	49.880777	49.892339
1640.215466	-2.601700	3.197400	-8.318500	49.875193	49.900844
1641.214996	-2.594900	3.197600	-8.296900	49.879453	49.903660
1642.214992	-2.593000	3.197300	-8.290300	49.874290	49.891993
1643.215187	-2.586400	3.196700	-8.267400	49.873967	49.887335
1644.215257	-2.611300	3.197500	-8.349500	49.892077	49.900025
1645.215189	-2.589700	3.196500	-8.277400	49.881577	49.893861
1646.215856	-2.603700	3.197300	-8.324100	49.875277	49.891174
1647.212694	-2.573600	3.197200	-8.227800	49.891035	49.892119
1648.211633	-2.607600	3.197200	-8.336700	49.858643	49.892605
1649.212417	-2.613200	3.196500	-8.352800	49.893614	49.882053
1650.213214	-2.611500	3.197100	-8.348700	49.890566	49.888398
1651.213571	-2.599100	3.195200	-8.304600	49.882400	49.891070
1652.211823	-2.615800	3.196600	-8.361100	49.873176	49.899911
1653.213884	-2.616300	3.195900	-8.361300	49.870711	49.891666
1654.213549	-2.608200	3.195700	-8.334700	49.883368	49.890955
1655.214507	-2.593900	3.196000	-8.289900	49.868818	49.891580
1656.213094	-2.612700	3.195200	-8.347600	49.871051	49.883696
1657.220161	-2.600400	3.196400	-8.311100	49.857096	49.904786
1658.210713	-2.568300	3.196400	-8.209100	49.869971	49.907184
1659.214478	-2.625300	3.195300	-8.388000	49.871507	49.926784
1660.213251	-2.568200	3.196600	-8.209300	49.870146	49.890739
1661.216259	-2.597500	3.195800	-8.300800	49.887789	49.895376
1662.215662	-2.612900	3.194600	-8.346900	49.874369	49.900743
1663.215067	-2.581900	3.195700	-8.250400	49.881731	49.880647
1664.215252	-2.625600	3.194600	-8.387400	49.879608	49.889002
1665.211538	-2.599600	3.196200	-8.308500	49.879989	49.874569
1666.211715	-2.602800	3.194900	-8.315200	49.865090	49.876290
1667.215567	-2.607100	3.195100	-8.329400	49.887155	49.871980
1668.212046	-2.594300	3.195800	-8.290700	49.856318	49.890279
1669.211518	-2.595500	3.195000	-8.292300	49.883585	49.890449
1670.213186	-2.610700	3.195000	-8.341200	49.864843	49.878211
1671.213974	-2.613600	3.195000	-8.350400	49.859601	49.876220
1672.213961	-2.607400	3.194500	-8.329200	49.869597	49.895610
1673.214890	-2.608700	3.193900	-8.331700	49.882721	49.897895
1674.214791	-2.614800	3.194300	-8.352500	49.877637	49.892088
1675.212142	-2.609700	3.194800	-8.336900	49.872124	49.891633
1676.212936	-2.611500	3.194700	-8.342800	49.876196	49.898596
1677.214015	-2.611400	3.195300	-8.343800	49.877857	49.891586
1678.216135	-2.632700	3.193300	-8.406700	49.872050	49.894450
1679.211879	-2.600600	3.195100	-8.308500	49.881068	49.910332
1680.213714	-2.609900	3.194700	-8.337900	49.881395	49.923304
1681.213828	-2.604400	3.194500	-8.319600	49.885099	49.897022
1682.214875	-2.596700	3.195200	-8.296600	49.878529	49.889368
1683.211635	-2.574400	3.194600	-8.223800	49.896429	49.894261
1684.213395	-2.582100	3.195000	-8.249300	49.867198	49.910913
1685.211223	-2.575700	3.193400	-8.225100	49.887461	49.907332
1686.212961	-2.617200	3.193300	-8.357000	49.879656	49.903140
1687.212455	-2.591600	3.194800	-8.279100	49.879577	49.917151
1688.214619	-2.585500	3.193300	-8.255400	49.873376	49.901556
1689.214794	-2.598800	3.194100	-8.300300	49.879582	49.894395
1690.213274	-2.606600	3.194300	-8.326100	49.901147	49.889225
1691.214157	-2.608100	3.194100	-8.330100	49.902533	49.897113
1692.213697	-2.578400	3.194200	-8.235100	49.864157	49.895589
1693.213044	-2.599800	3.193500	-8.302100	49.865043	49.882746
1694.213087	-2.623800	3.192000	-8.375100	49.882246	49.878633
1695.214300	-2.607100	3.192600	-8.323400	49.877523	49.874994
1696.214619	-2.603900	3.193300	-8.314400	49.886259	49.909019
1697.214286	-2.596700	3.192000	-8.288100	49.886094	49.915719
1698.212862	-2.629600	3.192400	-8.394400	49.892149	49.905878
1699.211902	-2.606300	3.192000	-8.319300	49.882991	49.912616
1700.212698	-2.587100	3.192800	-8.259600	49.880928	49.874064
1701.211647	-2.612300	3.193200	-8.341200	49.874621	49.910027
1702.212705	-2.604300	3.192600	-8.314200	49.886951	49.869970
1703.214333	-2.580100	3.193700	-8.239700	49.874916	49.877084
1704.213468	-2.612000	3.193200	-8.340400	49.890057	49.890057
1705.212434	-2.585600	3.192900	-8.254600	49.874541	49.875624
1706.213384	-2.558000	3.193900	-8.169600	49.879230	49.866585
1707.215524	-2.600200	3.193500	-8.303600	49.883085	49.880556
1708.212453	-2.611500	3.191900	-8.335100	49.881265	49.883071
1709.213655	-2.610400	3.193000	-8.334900	49.888438	49.883380
1710.215131	-2.604000	3.192600	-8.313200	49.888608	49.891137
1711.215386	-2.593500	3.192800	-8.280200	49.865727	49.879456
1712.213758	-2.598400	3.192600	-8.295100	49.866371	49.873958
1713.211757	-2.599400	3.191800	-8.296200	49.876270	49.900837
1714.212095	-2.598800	3.192000	-8.295100	49.891193	49.907812
1715.211662	-2.589200	3.192900	-8.266700	49.872748	49.882142
1716.211832	-2.600000	3.192100	-8.299400	49.889169	49.888808
1717.229662	-2.610100	3.191700	-8.330300	49.886246	49.870349
1718.213674	-2.586800	3.191400	-8.255100	49.894443	49.881437
1719.212310	-2.635300	3.191800	-8.410900	49.875931	49.899415
1720.214517	-2.595800	3.191700	-8.284600	49.892773	49.886270
1721.212395	-2.600800	3.191900	-8.300700	49.881481	49.867752
1722.211847	-2.604400	3.191600	-8.312300	49.871108	49.874360
1723.214810	-2.595600	3.191600	-8.283300	49.892384	49.890578
1724.214011	-2.580100	3.191100	-8.232700	49.885592	49.900043
1725.212647	-2.601600	3.190100	-8.299000	49.896548	49.891129
1726.214933	-2.582100	3.191500	-8.240000	49.900541	49.918967
1727.215289	-2.620700	3.190500	-8.360900	49.897558	49.892139
1728.216166	-2.583800	3.190200	-8.242100	49.886674	49.886313
1729.217295	-2.591700	3.190500	-8.268400	49.896671	49.886916
1730.215266	-2.576200	3.192600	-8.224500	49.910393	49.887993
1731.216053	-2.626200	3.190700	-8.378800	49.893097	49.897794
1732.213418	-2.589600	3.191200	-8.263300	49.890200	49.906096
1733.213299	-2.597200	3.190500	-8.286200	49.913308	49.912224
1734.210638	-2.609400	3.190600	-8.325100	49.888839	49.907626
1735.208297	-2.585900	3.190800	-8.250900	49.886815	49.889344
1736.213881	-2.600500	3.190100	-8.295200	49.894185	49.883708
1737.218600	-2.580900	3.190500	-8.234000	49.890618	49.871831
1738.214063	-2.601100	3.189400	-8.295700	49.906572	49.887424
1739.215071	-2.611200	3.189600	-8.328200	49.893356	49.882517
1740.212479	-2.602900	3.189200	-8.300100	49.883285	49.863053
1741.212671	-2.610000	3.191200	-8.328500	49.895641	49.858067
1742.214151	-2.594000	3.189800	-8.273900	49.894314	49.872636
1743.212729	-2.594500	3.190600	-8.277400	49.896731	49.886976
1744.211858	-2.598400	3.189400	-8.286600	49.899542	49.867387
1745.213394	-2.610600	3.188600	-8.324200	49.904646	49.882607
1746.214619	-2.615400	3.188300	-8.338200	49.894569	49.895652
1747.214059	-2.624700	3.190200	-8.373000	49.886508	49.882173
1748.212387	-2.599600	3.189500	-8.291300	49.902654	49.862912
1749.213772	-2.595900	3.189600	-8.279800	49.897845	49.863162
1750.211249	-2.621000	3.189700	-8.359700	49.878112	49.866912
1751.210334	-2.599100	3.189800	-8.290100	49.916750	49.850273
1752.216229	-2.603700	3.188400	-8.301500	49.898462	49.884733
1753.213920	-2.595500	3.189700	-8.278300	49.910771	49.891623
1754.212456	-2.603900	3.189000	-8.303600	49.905233	49.885363
1755.210158	-2.602500	3.188300	-8.297500	49.909844	49.869019
1756.212114	-2.600900	3.187700	-8.290600	49.891957	49.866306
1757.214586	-2.594700	3.189800	-8.276300	49.888771	49.882268
1758.215019	-2.594700	3.188200	-8.271900	49.898151	49.864190
1759.215881	-2.580600	3.188300	-8.227400	49.910789	49.881886
1760.212972	-2.596300	3.188800	-8.278300	49.911091	49.855091
1761.217184	-2.604200	3.189400	-8.305600	49.898209	49.857384
1762.213805	-2.612600	3.187300	-8.326900	49.911438	49.856161
1763.214602	-2.606200	3.188200	-8.308800	49.908278	49.860588
1764.211811	-2.608600	3.187800	-8.315500	49.885484	49.871033
1765.211494	-2.589400	3.187500	-8.253600	49.896795	49.889208
1766.212866	-2.598700	3.188600	-8.285600	49.910629	49.887868
1767.213257	-2.609600	3.188400	-8.320500	49.907206	49.872162
1768.212826	-2.572800	3.188500	-8.203100	49.916698	49.897911
1769.216776	-2.599500	3.187800	-8.286500	49.909880	49.890009
1770.215866	-2.582600	3.188200	-8.233500	49.921532	49.859752
1771.216023	-2.591700	3.187800	-8.261500	49.897365	49.862682
1772.212227	-2.605500	3.187300	-8.303800	49.917557	49.878900
1773.213238	-2.623100	3.187700	-8.361000	49.897706	49.886145
1774.214348	-2.581700	3.186400	-8.225500	49.918056	49.878676
1775.213450	-2.577300	3.187800	-8.215700	49.912834	49.890795
1776.216927	-2.592000	3.187000	-8.260000	49.903821	49.897318
1777.223555	-2.619500	3.185700	-8.344700	49.911841	49.886552
1778.212617	-2.587300	3.186900	-8.245400	49.907873	49.896312
1779.213300	-2.603600	3.187100	-8.297700	49.915999	49.883845
1780.214128	-2.621200	3.186700	-8.353100	49.934877	49.885743
1781.211753	-2.574100	3.187100	-8.203600	49.913555	49.861891
1782.212389	-2.589900	3.186600	-8.252700	49.914087	49.867842
1783.215851	-2.599100	3.186700	-8.282200	49.904713	49.871475
1784.214916	-2.586000	3.186900	-8.241000	49.912339	49.871153
1785.212949	-2.587300	3.186400	-8.243900	49.903813	49.872019
1786.211821	-2.594200	3.186400	-8.265700	49.916937	49.876112
1787.213208	-2.611700	3.185400	-8.318800	49.920083	49.866613
1788.216902	-2.619400	3.187200	-8.348300	49.908745	49.871533
1789.215499	-2.618000	3.185500	-8.338800	49.916706	49.873352
1790.215877	-2.571200	3.188000	-8.196700	49.919590	49.874068
1791.217589	-2.615300	3.185800	-8.331200	49.927177	49.853836
1792.216622	-2.613000	3.186400	-8.325800	49.920063	49.865870
1793.217084	-2.592900	3.186000	-8.260400	49.909060	49.878712
1794.213470	-2.608400	3.186800	-8.312100	49.921258	49.889465
1795.215430	-2.572100	3.186300	-8.194700	49.920371	49.895081
1796.212763	-2.581500	3.186100	-8.224800	49.932024	49.892283
1797.213580	-2.581000	3.184900	-8.219800	49.915878	49.890227
1798.210938	-2.559800	3.185400	-8.153600	49.924666	49.895764
1799.211889	-2.596900	3.185500	-8.271800	49.931445	49.904349
1800.213951	-2.582300	3.186400	-8.227900	49.926900	49.882823
1801.211830	-2.606600	3.184900	-8.301300	49.928410	49.898785
1802.213883	-2.602900	3.185700	-8.292400	49.935912	49.897255
1803.215068	-2.591100	3.186000	-8.254600	49.912869	49.899501
1804.215365	-2.596400	3.185900	-8.271700	49.913604	49.886869
1805.218857	-2.615900	3.185200	-8.331800	49.922676	49.882573
1806.215024	-2.587200	3.185600	-8.241600	49.908757	49.889247
1807.212585	-2.591800	3.184900	-8.254100	49.927103	49.885917
1808.212862	-2.620700	3.183900	-8.343900	49.913230	49.877463
1809.210959	-2.581600	3.184900	-8.221900	49.922492	49.880583
1810.216599	-2.609700	3.184900	-8.311300	49.935386	49.872523
1811.214914	-2.586300	3.183500	-8.233200	49.915975	49.874066
1812.216130	-2.608800	3.184100	-8.306400	49.933442	49.884669
1813.215802	-2.594600	3.184700	-8.263100	49.924094	49.890495
1814.216184	-2.578200	3.184000	-8.208400	49.940082	49.885890
1815.211570	-2.605500	3.184000	-8.295600	49.922853	49.888531
1816.212252	-2.594500	3.184300	-8.261600	49.926715	49.866381
1817.214616	-2.606600	3.184000	-8.298600	49.925336	49.871504
1818.212410	-2.615000	3.184000	-8.325800	49.920790	49.902004
1819.212089	-2.618300	3.183900	-8.336100	49.929198	49.881509
1820.211769	-2.606700	3.183800	-8.299000	49.924180	49.860593
1821.214425	-2.590700	3.183700	-8.248300	49.924935	49.885555
1822.211806	-2.636000	3.182500	-8.388500	49.926650	49.865231
1823.213074	-2.589400	3.183500	-8.242700	49.946901	49.875367
1824.214111	-2.596600	3.183600	-8.266500	49.939741	49.886633
1825.215662	-2.621400	3.182700	-8.342200	49.929684	49.862847
1826.216215	-2.595000	3.183200	-8.260100	49.933488	49.853644
1827.216404	-2.634100	3.181800	-8.380600	49.936253	49.880977
1828.213426	-2.635400	3.182800	-8.386900	49.953765	49.875728
1829.212335	-2.609800	3.182000	-8.304200	49.947925	49.866276
1830.212548	-2.601400	3.183500	-8.281500	49.941574	49.860646
1831.213405	-2.573400	3.182700	-8.190400	49.941751	49.868772
1832.215430	-2.593300	3.181900	-8.250900	49.956603	49.870618
1833.216755	-2.644100	3.182900	-8.415400	49.937573	49.877601
1834.215574	-2.598200	3.182500	-8.268400	49.951013	49.868641
1835.212673	-2.585100	3.182500	-8.226600	49.941403	49.886850
1836.211141	-2.603100	3.182300	-8.283800	49.941968	49.879828
1837.214311	-2.606100	3.183700	-8.296500	49.936641	49.882810
1838.211640	-2.575700	3.182800	-8.197400	49.953982	49.870888
1839.212899	-2.573800	3.182300	-8.190000	49.949253	49.860016
1840.212162	-2.605600	3.182000	-8.290400	49.958436	49.852219
1841.211139	-2.596200	3.182800	-8.262900	49.937055	49.876360
1842.212451	-2.614700	3.183000	-8.321900	49.952209	49.871643
1843.213361	-2.596500	3.181500	-8.260400	49.949746	49.869541
1844.217276	-2.636800	3.182100	-8.390300	49.942665	49.877996
1845.215618	-2.571200	3.183200	-8.183900	49.951329	49.862454
1846.215385	-2.582500	3.183000	-8.219800	49.960591	49.862684
1847.211379	-2.586100	3.182400	-8.229700	49.944091	49.873641
1848.213259	-2.619100	3.181800	-8.332900	49.954561	49.873996
1849.213285	-2.587000	3.182400	-8.232500	49.954968	49.889577
1850.216317	-2.626800	3.181200	-8.355900	49.955251	49.900337
1851.214960	-2.616300	3.181100	-8.322500	49.958877	49.881202
1852.213701	-2.585500	3.181100	-8.224500	49.953996	49.861508
1853.212023	-2.621500	3.180800	-8.338100	49.957865	49.872603
1854.211662	-2.587700	3.180300	-8.229100	49.973538	49.865516
1855.213447	-2.610100	3.181900	-8.304400	49.970510	49.873326
1856.211491	-2.589100	3.181400	-8.236800	49.965709	49.858408
1857.212775	-2.612100	3.180400	-8.307500	49.963258	49.880526
1858.213322	-2.594300	3.180800	-8.251900	49.964579	49.872453
1859.210947	-2.590400	3.180900	-8.239700	49.962306	49.869458
1860.215182	-2.575000	3.180500	-8.189500	49.973526	49.875258
1861.212727	-2.597200	3.180800	-8.261000	49.959042	49.883174
1862.212283	-2.590000	3.179800	-8.235300	49.974025	49.891654
1863.212382	-2.601000	3.181200	-8.273900	49.959049	49.872703
1864.212171	-2.613600	3.179900	-8.310800	49.971746	49.891904
1865.216861	-2.582000	3.181600	-8.214000	49.976660	49.887425
1866.212945	-2.563200	3.181600	-8.154800	49.978381	49.850126
1867.213278	-2.610200	3.179500	-8.298500	49.973369	49.862095
1868.212159	-2.590400	3.180100	-8.237600	49.979866	49.866063
1869.212056	-2.610800	3.179700	-8.301000	49.965533	49.866543
1870.217249	-2.616800	3.181200	-8.324300	49.987485	49.864651
1871.216722	-2.591900	3.180600	-8.243300	49.974237	49.874525
1872.212018	-2.621900	3.179300	-8.335700	49.985226	49.893824
1873.215954	-2.612500	3.179600	-8.306400	49.980261	49.860317
1874.215559	-2.605800	3.180000	-8.286300	49.986008	49.858839
1875.216993	-2.606100	3.179900	-8.286200	49.983959	49.876299
1876.212779	-2.617500	3.179300	-8.321300	50.000801	49.881581
1877.211015	-2.617700	3.179400	-8.322200	49.984465	49.877167
1878.212184	-2.602600	3.179200	-8.273800	49.984118	49.902470
1879.211898	-2.612600	3.179200	-8.306000	49.993912	49.872885
1880.212103	-2.603200	3.179400	-8.276100	49.980204	49.902169
1881.213336	-2.620700	3.178500	-8.329400	49.975600	49.896842
1882.212779	-2.586200	3.178500	-8.220100	49.999311	49.873227
1883.212737	-2.603700	3.178000	-8.273900	49.992639	49.904489
1884.212499	-2.630700	3.178800	-8.362200	50.003129	49.881019
1885.215932	-2.608600	3.178200	-8.290100	49.996396	49.873924
1886.211564	-2.627400	3.178800	-8.351500	49.988534	49.890629
1887.210364	-2.591700	3.179100	-8.239100	49.990361	49.875475
1888.216294	-2.626800	3.177800	-8.347000	49.994834	49.881756
1889.215875	-2.603700	3.177100	-8.272000	50.010007	49.875975
1890.217597	-2.613800	3.177400	-8.304500	49.994184	49.874241
1891.214961	-2.626200	3.177200	-8.343800	49.994763	49.884575
1892.219171	-2.584800	3.177700	-8.213500	50.001851	49.880102
1893.215510	-2.590600	3.177900	-8.232700	49.995493	49.878801
1894.213588	-2.591200	3.178000	-8.234700	50.004005	49.888037
1895.210332	-2.604300	3.177500	-8.274800	49.996249	49.879196
1896.212729	-2.598800	3.177300	-8.257000	50.004683	49.878599
1897.221438	-2.610500	3.177800	-8.295400	49.992368	49.868450
1898.211886	-2.614000	3.178200	-8.307100	50.014155	49.864950
1899.213704	-2.625000	3.177400	-8.340300	50.001755	49.850742
1900.213022	-2.610100	3.177000	-8.291900	49.996520	49.844422
1901.215034	-2.604800	3.177500	-8.276800	49.999936	49.859400
1902.211873	-2.606600	3.177300	-8.281700	50.009060	49.867803
1903.212977	-2.619100	3.176500	-8.319000	50.013875	49.857444
1904.214075	-2.592100	3.177900	-8.236600	50.006703	49.870864
1905.213669	-2.601700	3.177400	-8.266700	50.008963	49.850724
1906.215126	-2.602600	3.176900	-8.267900	50.002553	49.859849
1907.214787	-2.595000	3.176300	-8.241900	49.991006	49.860586
1908.216255	-2.618600	3.178000	-8.321500	50.000643	49.890816
1909.215939	-2.625700	3.176400	-8.340000	50.012453	49.861079
1910.215980	-2.610900	3.176700	-8.293200	50.023028	49.868404
1911.214767	-2.606200	3.175900	-8.276700	50.012697	49.869272
1912.212898	-2.598900	3.176000	-8.253700	50.027246	49.886712
1913.210979	-2.587400	3.177400	-8.221000	50.020134	49.870928
1914.212290	-2.613000	3.175600	-8.297900	50.011839	49.866246
1915.210392	-2.601400	3.175600	-8.260600	50.015334	49.873354
1916.214816	-2.588200	3.175800	-8.219200	50.013213	49.857503
1917.214278	-2.606300	3.176000	-8.277000	50.027604	49.856000
1918.214679	-2.600100	3.176400	-8.259000	50.040104	49.859469
1919.212551	-2.587400	3.175800	-8.216800	50.021418	49.866071
1920.213067	-2.592300	3.176800	-8.234800	50.012946	49.867714
1921.214455	-2.616800	3.175500	-8.309600	50.024388	49.853506
1922.216398	-2.605900	3.176200	-8.276500	50.018031	49.867019
1923.215672	-2.598100	3.176200	-8.251400	50.034794	49.875113
1924.215704	-2.572000	3.176200	-8.169000	50.020981	49.872499
1925.213426	-2.611600	3.174700	-8.290600	50.025980	49.868827
1926.214575	-2.629800	3.174600	-8.347800	50.025686	49.867810
1927.217677	-2.619300	3.174400	-8.314200	50.037758	49.873742
1928.218148	-2.585900	3.174500	-8.208900	50.031395	49.877855
1929.217610	-2.606300	3.174100	-8.272100	50.038081	49.876233
1930.215138	-2.622100	3.174300	-8.323100	50.034797	49.867168
1931.212358	-2.614000	3.173500	-8.295100	50.034004	49.872155
1932.212616	-2.598200	3.175500	-8.250300	50.030563	49.875940
1933.210406	-2.624500	3.175300	-8.332700	50.023122	49.873556
1934.212171	-2.596200	3.174000	-8.240000	50.022440	49.881545
1935.214166	-2.622200	3.174400	-8.323200	50.032989	49.877282
1936.213320	-2.606700	3.175100	-8.276200	50.049350	49.854987
1937.214043	-2.602500	3.175200	-8.263400	50.039505	49.851283
1938.214760	-2.610200	3.174300	-8.285400	50.046278	49.862753
1939.216915	-2.615900	3.173600	-8.301400	50.035592	49.857485
1940.218477	-2.610900	3.173800	-8.286100	50.045773	49.870920
1941.211401	-2.597500	3.175000	-8.246500	50.038432	49.856351
1942.215843	-2.576100	3.174500	-8.177300	50.054070	49.855372
1943.213211	-2.568600	3.174500	-8.153800	50.045158	49.850794
1944.212862	-2.616600	3.173000	-8.301800	50.043241	49.856464
1945.214972	-2.612600	3.174600	-8.293700	50.046879	49.867690
1946.213833	-2.591700	3.174400	-8.226700	50.045114	49.869898
1947.212933	-2.582500	3.173500	-8.195100	50.057975	49.884207
1948.215781	-2.595900	3.173900	-8.238900	50.038357	49.881567
1949.215535	-2.588500	3.173400	-8.213700	50.046791	49.877718
1950.216859	-2.623200	3.173000	-8.322500	50.048775	49.895960
1951.213885	-2.575900	3.173600	-8.174800	50.043883	49.871919
1952.213227	-2.622300	3.172300	-8.318000	50.047469	49.859609
1953.212887	-2.563400	3.174000	-8.135800	50.065059	49.864917
1954.217546	-2.590000	3.174100	-8.220000	50.063031	49.857108
1955.215569	-2.594200	3.173800	-8.233500	50.056089	49.851971
1956.212318	-2.586000	3.173100	-8.204700	50.044135	49.861694
1957.219886	-2.603900	3.173000	-8.262000	50.066290	49.843387
1958.213310	-2.598900	3.173000	-8.246200	50.064656	49.848617
1959.212129	-2.594000	3.172700	-8.229700	50.069503	49.849852
1960.211634	-2.612200	3.172300	-8.286000	50.061937	49.852402
1961.213441	-2.622700	3.172700	-8.320900	50.071390	49.851379
1962.215594	-2.592900	3.172700	-8.226000	50.071594	49.861699
1963.213182	-2.623000	3.172500	-8.321100	50.075058	49.847821
1964.212975	-2.603800	3.173000	-8.261500	50.053462	49.871383
1965.212748	-2.630800	3.172600	-8.346200	50.075480	49.852217
1966.215677	-2.576200	3.172500	-8.172800	50.074757	49.849688
1967.214001	-2.584800	3.172600	-8.200400	50.070285	49.862919
1968.212745	-2.592400	3.172300	-8.223500	50.073210	49.854644
1969.212079	-2.610000	3.171300	-8.276900	50.075870	49.848994
1970.213160	-2.611000	3.172500	-8.283500	50.086538	49.853883
1971.211860	-2.586900	3.172600	-8.206500	50.080417	49.836922
1972.215969	-2.594100	3.171400	-8.226700	50.072405	49.830354
1973.212870	-2.603100	3.171200	-8.254600	50.088288	49.826730
1974.214064	-2.574000	3.173000	-8.166900	50.076026	49.815911
1975.214288	-2.602500	3.171000	-8.252300	50.066931	49.848364
1976.215509	-2.593100	3.171600	-8.224200	50.084882	49.832717
1977.213312	-2.605400	3.171600	-8.263200	50.068824	49.832192
1978.213377	-2.583700	3.172300	-8.195800	50.075822	49.838107
1979.212781	-2.611800	3.172300	-8.285000	50.090731	49.833509
1980.212246	-2.585700	3.171500	-8.200500	50.087113	49.860239
1981.214303	-2.613000	3.171900	-8.287700	50.086437	49.843305
1982.212086	-2.581600	3.173000	-8.191100	50.082892	49.841204
1983.216648	-2.591900	3.172100	-8.221300	50.084063	49.835872
1984.214011	-2.607200	3.171800	-8.269200	50.085214	49.861591
1985.210944	-2.614500	3.170200	-8.288500	50.087270	49.862925
1986.214005	-2.599700	3.171300	-8.243600	50.100892	49.849453
1987.215311	-2.595500	3.170800	-8.229600	50.098215	49.869175
1988.215564	-2.636200	3.171200	-8.359300	50.082000	49.873913
1989.216317	-2.596500	3.171000	-8.233000	50.080529	49.857267
1990.216949	-2.608900	3.170900	-8.271900	50.124608	49.855831
1991.214096	-2.585000	3.170400	-8.195200	50.097306	49.872602
1992.213551	-2.618500	3.170300	-8.300700	50.097262	49.869306
1993.212831	-2.582900	3.169900	-8.186800	50.095864	49.864295
1994.213212	-2.610700	3.169500	-8.274200	50.109014	49.852518
1995.213789	-2.602700	3.169800	-8.249700	50.114651	49.853098
1996.213515	-2.615900	3.169900	-8.291800	50.105102	49.867753
1997.212739	-2.564700	3.170900	-8.131600	50.099954	49.865857
1998.216148	-2.593400	3.170900	-8.222800	50.110031	49.858232
1999.214282	-2.619300	3.170400	-8.304100	50.128087	49.835826
2000.214181	-2.610500	3.169500	-8.273400	50.109422	49.843533
2001.213859	-2.594500	3.169800	-8.223800	50.108359	49.829462
2002.211840	-2.599200	3.170700	-8.241100	50.106311	49.844034
2003.212513	-2.593200	3.170700	-8.221900	50.104395	49.861988
2004.215626	-2.593800	3.169000	-8.220000	50.113178	49.835727
2005.214360	-2.620400	3.169300	-8.304700	50.110696	49.824212
2006.214993	-2.594600	3.169400	-8.223400	50.131872	49.831301
2007.215824	-2.616000	3.169400	-8.290700	50.128819	49.827525
2008.217297	-2.591600	3.169700	-8.214200	50.121023	49.865974
2009.215432	-2.602900	3.168700	-8.247100	50.123278	49.854501
2010.212277	-2.595200	3.169300	-8.224600	50.128848	49.840200
2011.212430	-2.602500	3.169300	-8.247400	50.112917	49.830046
2012.212960	-2.617300	3.168900	-8.293300	50.136149	49.834857
2013.213032	-2.620700	3.168700	-8.303800	50.129699	49.851529
2014.213382	-2.569000	3.169700	-8.142900	50.133117	49.853502
2015.211441	-2.629100	3.167600	-8.327300	50.135817	49.864152
2016.213407	-2.615500	3.169100	-8.288200	50.135319	49.847757
2017.220318	-2.602700	3.169600	-8.249400	50.128220	49.849689
2018.214381	-2.563500	3.169900	-8.125600	50.136439	49.843818
2019.211390	-2.610100	3.168800	-8.270600	50.135830	49.862719
2020.217518	-2.604500	3.168600	-8.252400	50.115339	49.845838
2021.216152	-2.604300	3.168600	-8.251400	50.129390	49.830626
2022.214810	-2.597100	3.168700	-8.229400	50.132556	49.835238
2023.213001	-2.599200	3.168300	-8.234900	50.138147	49.827462
2024.215582	-2.608900	3.168400	-8.265400	50.132219	49.833817
2025.212799	-2.613700	3.168100	-8.280100	50.135575	49.840425
2026.215601	-2.597900	3.167500	-8.228700	50.131899	49.843613
2027.213622	-2.612700	3.168200	-8.276900	50.151703	49.839575
2028.217911	-2.604900	3.168400	-8.253300	50.136494	49.843512
2029.214202	-2.597000	3.168100	-8.227300	50.144200	49.830625
2030.216785	-2.587500	3.168500	-8.198000	50.151654	49.828688
2031.215503	-2.602700	3.168800	-8.247200	50.136518	49.836672
2032.218651	-2.613500	3.167700	-8.278100	50.133702	49.844694
2033.219277	-2.604300	3.167700	-8.249400	50.142925	49.842357
2034.216455	-2.628600	3.167400	-8.325600	50.138763	49.834581
2035.213319	-2.581500	3.167000	-8.174700	50.147572	49.814489
2036.212403	-2.587000	3.167500	-8.193700	50.155540	49.826794
2037.214475	-2.634700	3.166900	-8.343400	50.164072	49.840748
2038.212278	-2.583300	3.166900	-8.180900	50.140687	49.859267
2039.215035	-2.577600	3.168100	-8.165700	50.151722	49.842846
2040.211724	-2.589200	3.167000	-8.200000	50.154664	49.854099
2041.213487	-2.594800	3.167300	-8.218100	50.162647	49.860277
2042.218818	-2.607000	3.167300	-8.256800	50.159212	49.844558
2043.212735	-2.607100	3.167400	-8.257200	50.166190	49.848646
2044.217890	-2.606300	3.167600	-8.255500	50.148616	49.852385
2045.211562	-2.598300	3.167200	-8.228900	50.168194	49.874858
2046.213193	-2.618700	3.167300	-8.293700	50.159677	49.893435
2047.215590	-2.598100	3.167100	-8.228100	50.172203	49.865500
2048.215977	-2.608400	3.165600	-8.257000	50.161210	49.877627
2049.214395	-2.577500	3.167500	-8.164100	50.153823	49.860122
2050.214306	-2.594300	3.165300	-8.211400	50.191692	49.856451
2051.214619	-2.622300	3.165400	-8.300300	50.178453	49.869222
2052.217066	-2.600900	3.167300	-8.237800	50.154141	49.868028
2053.213045	-2.605400	3.165900	-8.248400	50.169904	49.867897
2054.211967	-2.585700	3.166300	-8.186700	50.161894	49.864220
2055.213109	-2.604200	3.165800	-8.243900	50.149900	49.876431
2056.214068	-2.602500	3.166400	-8.240000	50.178446	49.881138
2057.214019	-2.587300	3.166000	-8.191400	50.167819	49.866173
2058.213787	-2.616500	3.166900	-8.286000	50.180325	49.861701
2059.216318	-2.598000	3.166500	-8.225900	50.160966	49.871963
2060.216461	-2.606200	3.165800	-8.250800	50.178974	49.873356
2061.213631	-2.604400	3.165900	-8.245200	50.173472	49.868575
2062.212918	-2.606700	3.165400	-8.250900	50.173027	49.850788
2063.218517	-2.587600	3.165700	-8.191100	50.199395	49.846452
2064.215199	-2.568800	3.166500	-8.134200	50.184920	49.861601
2065.215631	-2.599700	3.165800	-8.229500	50.194662	49.869899
2066.214282	-2.610500	3.166200	-8.264900	50.194164	49.868679
2067.215812	-2.628300	3.164800	-8.317600	50.189929	49.864443
2068.214698	-2.614000	3.164800	-8.272400	50.197844	49.831533
2069.213641	-2.606300	3.165600	-8.250000	50.200152	49.841790
2070.211482	-2.575600	3.165000	-8.151700	50.202293	49.851519
2071.213151	-2.586700	3.165500	-8.188000	50.214647	49.866405
2072.212165	-2.598000	3.163900	-8.219800	50.215516	49.863661
2073.211297	-2.624300	3.164100	-8.303400	50.220075	49.853047
2074.212695	-2.589300	3.165200	-8.194600	50.194518	49.864697
2075.214174	-2.579000	3.165000	-8.162300	50.199910	49.860335
2076.216483	-2.604000	3.164900	-8.240600	50.209960	49.858827
2077.224779	-2.602100	3.165000	-8.235200	50.213101	49.852575
2078.215477	-2.608600	3.165500	-8.257200	50.223722	49.861031
2079.216428	-2.587100	3.164000	-8.185300	50.216310	49.868068
2080.214887	-2.580300	3.164400	-8.164600	50.206421	49.883467
2081.213073	-2.598700	3.165900	-8.226800	50.216288	49.880692
2082.211562	-2.612800	3.165000	-8.269200	50.220198	49.870874
2083.213721	-2.593300	3.164700	-8.206600	50.227647	49.866763
2084.215768	-2.606200	3.165000	-8.248100	50.220129	49.868999
2085.216564	-2.592900	3.163800	-8.202700	50.221045	49.859437
2086.216255	-2.575500	3.164700	-8.150800	50.203210	49.863636
2087.214028	-2.568200	3.164800	-8.127000	50.214119	49.853955
2088.217598	-2.604100	3.164800	-8.241000	50.215501	49.845582
2089.214392	-2.609000	3.163700	-8.254000	50.214229	49.855871
2090.213395	-2.573800	3.164600	-8.144900	50.222882	49.846822
2091.212356	-2.596600	3.164700	-8.217200	50.219337	49.853755
2092.211952	-2.621000	3.163100	-8.290200	50.218170	49.833799
2093.211222	-2.576400	3.165100	-8.154000	50.223577	49.876060
2094.213290	-2.605700	3.164100	-8.244500	50.221483	49.851927
2095.213351	-2.614300	3.163000	-8.268800	50.236224	49.844994
2096.219104	-2.620200	3.163300	-8.288300	50.225770	49.853325
2097.215790	-2.612600	3.163500	-8.264500	50.240024	49.859273
2098.213675	-2.612500	3.162500	-8.261500	50.209343	49.861100
2099.212236	-2.614100	3.164500	-8.271700	50.235826	49.845318
2100.212266	-2.599900	3.164000	-8.225600	50.234507	49.857005
2101.217687	-2.590900	3.163400	-8.195600	50.220027	49.837464
2102.214119	-2.605400	3.162700	-8.239800	50.225330	49.836626
2103.215637	-2.609700	3.162000	-8.251500	50.230198	49.852334
2104.217093	-2.606100	3.162800	-8.241900	50.229984	49.835139
2105.214942	-2.566900	3.162700	-8.118000	50.235370	49.839443
2106.211695	-2.615800	3.163200	-8.273800	50.235820	49.857958
2107.213102	-2.605800	3.162300	-8.240100	50.246263	49.862262
2108.212286	-2.603300	3.163400	-8.234900	50.230491	49.871776
2109.211838	-2.618700	3.161600	-8.278700	50.245295	49.877190
2110.213395	-2.616400	3.162500	-8.274400	50.234114	49.848302
2111.217057	-2.577300	3.161600	-8.148100	50.239987	49.865739
2112.216616	-2.634600	3.161800	-8.329800	50.252890	49.871781
2113.212795	-2.620700	3.161800	-8.285600	50.243929	49.870765
2114.213133	-2.636500	3.161700	-8.335800	50.237165	49.858581
2115.216551	-2.625600	3.161500	-8.300300	50.254675	49.847553
2116.214665	-2.610300	3.162500	-8.254700	50.245143	49.838380
2117.218699	-2.603100	3.162500	-8.232000	50.249451	49.867980
2118.216928	-2.613800	3.160600	-8.260800	50.255173	49.881290
2119.213568	-2.601200	3.162500	-8.225500	50.254906	49.870184
2120.215325	-2.592200	3.160500	-8.192400	50.262250	49.871027
2121.213005	-2.615000	3.162000	-8.268800	50.261339	49.864697
2122.212505	-2.607200	3.162000	-8.243700	50.253283	49.845800
2123.214363	-2.621100	3.161300	-8.285600	50.272086	49.870750
2124.214266	-2.612700	3.161400	-8.259500	50.266093	49.855361
2125.214372	-2.596200	3.161000	-8.206400	50.269056	49.874583
2126.212893	-2.615200	3.161000	-8.266100	50.266831	49.851041
2127.213702	-2.592300	3.161000	-8.194100	50.268710	49.862676
2128.212526	-2.614300	3.161900	-8.265600	50.270945	49.848293
2129.212578	-2.603000	3.160900	-8.227000	50.291523	49.848644
2130.213947	-2.589900	3.161000	-8.186300	50.282289	49.826400
2131.215585	-2.613200	3.161300	-8.261100	50.273971	49.836867
2132.219536	-2.602200	3.161100	-8.225800	50.275301	49.836391
2133.215894	-2.594000	3.161000	-8.198900	50.278625	49.840439
2134.215199	-2.589000	3.161600	-8.184900	50.288498	49.826469
2135.214583	-2.590900	3.160400	-8.188300	50.284703	49.813278
2136.213632	-2.602500	3.160900	-8.226000	50.288000	49.830668
2137.223445	-2.594400	3.162000	-8.203200	50.283112	49.838785
2138.211823	-2.596200	3.161300	-8.206600	50.276249	49.855404
2139.212995	-2.585700	3.160300	-8.171400	50.296397	49.862552
2140.212713	-2.588100	3.161000	-8.180600	50.280133	49.863264
2141.214847	-2.595800	3.160500	-8.203800	50.283479	49.854687
2142.213860	-2.592000	3.160000	-8.190700	50.293257	49.883978
2143.215797	-2.579400	3.160700	-8.152300	50.302951	49.854295
2144.215516	-2.615600	3.160900	-8.266700	50.293781	49.871857
2145.211704	-2.579900	3.159700	-8.151300	50.293702	49.874308
2146.215258	-2.599500	3.160400	-8.215100	50.300476	49.888671
2147.211269	-2.626900	3.159800	-8.299900	50.315614	49.869852
2148.215774	-2.603200	3.160000	-8.225700	50.302397	49.878670
2149.218337	-2.611000	3.159600	-8.249100	50.317279	49.866098
2150.214170	-2.611900	3.159600	-8.251900	50.305407	49.866507
2151.217433	-2.573600	3.159900	-8.132100	50.303439	49.860564
2152.215858	-2.586800	3.160200	-8.174300	50.310265	49.843547
2153.212318	-2.633000	3.159000	-8.317600	50.318149	49.857214
2154.214415	-2.596900	3.160000	-8.206100	50.315312	49.863408
2155.211679	-2.602200	3.158500	-8.219000	50.320128	49.842212
2156.213759	-2.617700	3.159200	-8.269200	50.318935	49.855832
2157.214904	-2.604200	3.159300	-8.226700	50.324269	49.849606
2158.212229	-2.594200	3.159200	-8.195200	50.314512	49.844543
2159.212936	-2.593900	3.159200	-8.194400	50.332142	49.839417
2160.217157	-2.627000	3.159200	-8.298400	50.321255	49.836113
2161.216936	-2.595600	3.159300	-8.199900	50.318460	49.845963
2162.215291	-2.598400	3.158800	-8.207900	50.329651	49.876307
2163.213754	-2.598400	3.157600	-8.204400	50.328793	49.883758
2164.211894	-2.581600	3.158200	-8.152700	50.330751	49.880658
2165.216866	-2.609300	3.158100	-8.240300	50.325245	49.855641
2166.213376	-2.600200	3.158100	-8.211000	50.326067	49.853934
2167.216993	-2.612200	3.157900	-8.248800	50.329825	49.858778
2168.215513	-2.591100	3.158900	-8.184600	50.347418	49.852531
2169.216783	-2.604200	3.157000	-8.221400	50.339075	49.838043
2170.219103	-2.602700	3.156600	-8.215300	50.340049	49.859250
2171.216170	-2.574500	3.157600	-8.129000	50.340792	49.849155
2172.213314	-2.610900	3.158200	-8.245400	50.347749	49.860811
2173.214467	-2.581400	3.158800	-8.154000	50.348985	49.843621
2174.212584	-2.599500	3.158100	-8.208600	50.345237	49.847459
2175.215023	-2.585000	3.158200	-8.163700	50.345489	49.833981
2176.212565	-2.596400	3.158700	-8.200700	50.347520	49.851911
2177.213526	-2.604000	3.157500	-8.221600	50.350038	49.845397
2178.213211	-2.623700	3.157500	-8.284100	50.347379	49.833705
2179.213483	-2.600800	3.157700	-8.212200	50.355085	49.833826
2180.212526	-2.615700	3.156700	-8.257000	50.354415	49.856279
2181.210302	-2.605900	3.155900	-8.223700	50.362502	49.827878
2182.212502	-2.609800	3.156700	-8.238000	50.362236	49.835921
2183.211701	-2.604200	3.158200	-8.223700	50.348046	49.826062
2184.218007	-2.590200	3.155900	-8.173800	50.363828	49.836069
2185.213247	-2.598100	3.156900	-8.201900	50.351391	49.831576
2186.211793	-2.582500	3.156600	-8.151900	50.351350	49.834064
2187.213032	-2.586100	3.157100	-8.164100	50.360887	49.837463
2188.212787	-2.590100	3.156600	-8.175700	50.357297	49.834955
2189.211689	-2.597700	3.156500	-8.198900	50.369598	49.836783
2190.213806	-2.594200	3.157200	-8.190200	50.356330	49.843742
2191.214653	-2.603000	3.155900	-8.214700	50.362339	49.843973
2192.214714	-2.639700	3.157200	-8.333700	50.369479	49.824741
2193.217347	-2.605700	3.157500	-8.227400	50.394284	49.828962
2194.214135	-2.589400	3.156700	-8.173500	50.366009	49.828135
2195.215383	-2.586700	3.155600	-8.162100	50.379132	49.832591
2196.215567	-2.601100	3.156100	-8.208900	50.376908	49.844818
2197.211552	-2.608600	3.156000	-8.232500	50.384231	49.833356
2198.216400	-2.593400	3.155300	-8.182600	50.378965	49.860967
2199.215225	-2.607400	3.154800	-8.225500	50.370575	49.855103
2200.213755	-2.593200	3.155200	-8.181800	50.384834	49.828901
2201.213663	-2.599900	3.155500	-8.203900	50.382039	49.843810
2202.211748	-2.620000	3.154900	-8.265500	50.394492	49.828447
2203.213286	-2.588100	3.155700	-8.166700	50.398769	49.831280
2204.209984	-2.562100	3.155700	-8.084900	50.388625	49.827636
2205.211111	-2.601200	3.155000	-8.206600	50.381423	49.813567
2206.212170	-2.566100	3.156300	-8.099000	50.379556	49.848551
2207.218031	-2.591300	3.155400	-8.175800	50.388962	49.827612
2208.216124	-2.600100	3.155800	-8.204900	50.395149	49.838860
2209.213445	-2.582900	3.156400	-8.152600	50.390214	49.838981
2210.213122	-2.623400	3.154200	-8.275000	50.396710	49.848370
2211.213278	-2.610600	3.155000	-8.236300	50.390639	49.855665
2212.214413	-2.618800	3.154900	-8.261900	50.403118	49.844664
2213.215090	-2.617400	3.153600	-8.254000	50.397979	49.850362
2214.217322	-2.589300	3.155000	-8.168900	50.407129	49.842534
2215.214667	-2.609900	3.155500	-8.235000	50.397551	49.872695
2216.215971	-2.632200	3.152300	-8.296800	50.394704	49.839499
2217.213762	-2.623400	3.153700	-8.272800	50.404607	49.867832
2218.213501	-2.590400	3.154200	-8.170200	50.406791	49.856648
2219.212518	-2.613700	3.153800	-8.242900	50.406394	49.847580
2220.212179	-2.606300	3.154300	-8.220700	50.416475	49.847910
2221.214681	-2.616600	3.154500	-8.253400	50.405788	49.828186
2222.214844	-2.603500	3.153700	-8.210300	50.401240	49.860128
2223.215036	-2.601000	3.153500	-8.202000	50.412945	49.859914
2224.213295	-2.591800	3.154600	-8.175600	50.404424	49.847777
2225.215291	-2.597700	3.153600	-8.191600	50.412208	49.859538
2226.215234	-2.625300	3.153000	-8.276600	50.396439	49.838704
2227.214710	-2.616700	3.152500	-8.248600	50.422736	49.813347
2228.212563	-2.576100	3.153500	-8.123300	50.415283	49.824678
2229.215141	-2.632400	3.152500	-8.298400	50.412123	49.820794
2230.215741	-2.648400	3.152900	-8.349400	50.415142	49.838267
2231.217062	-2.603900	3.152800	-8.209300	50.428417	49.820837
2232.217210	-2.637500	3.152900	-8.315800	50.416573	49.836447
2233.214827	-2.631400	3.152800	-8.295900	50.404672	49.832850
2234.213911	-2.593300	3.153000	-8.175900	50.404824	49.838783
2235.212289	-2.593700	3.152700	-8.176700	50.416062	49.838826
2236.213488	-2.590500	3.152900	-8.167200	50.436721	49.839622
2237.212999	-2.612700	3.151700	-8.234400	50.415870	49.842247
2238.211954	-2.599000	3.152200	-8.192100	50.436729	49.858778
2239.214159	-2.595800	3.151500	-8.180400	50.426873	49.847835
2240.216390	-2.623900	3.152200	-8.270900	50.430737	49.853868
2241.216371	-2.601100	3.151100	-8.196200	50.426733	49.835772
2242.214725	-2.594500	3.151900	-8.177400	50.434146	49.834156
2243.213221	-2.608600	3.150400	-8.218100	50.443762	49.827517
2244.214658	-2.615100	3.150200	-8.238000	50.428311	49.838073
2245.212009	-2.626800	3.150800	-8.275800	50.449274	49.856878
2246.213804	-2.606200	3.150500	-8.210000	50.445323	49.834137
2247.214190	-2.594600	3.150600	-8.174600	50.438139	49.837427
2248.216305	-2.597400	3.151400	-8.185100	50.445257	49.837323
2249.216498	-2.605500	3.150900	-8.209100	50.445583	49.821029
2250.214869	-2.598400	3.150800	-8.186800	50.442893	49.830623
2251.215247	-2.601700	3.150700	-8.196700	50.438681	49.848086
2252.217818	-2.579000	3.152200	-8.129100	50.444429	49.837939
2253.217669	-2.609000	3.152400	-8.224300	50.440656	49.837055
2254.214860	-2.562700	3.151600	-8.076200	50.442205	49.849805
2255.212435	-2.591300	3.150900	-8.164500	50.441447	49.829176
2256.214170	-2.600700	3.150600	-8.193600	50.446055	49.843179
2257.215922	-2.601600	3.151200	-8.197800	50.469624	49.842552
2258.212563	-2.581500	3.150600	-8.132600	50.462627	49.835190
2259.213962	-2.587900	3.150700	-8.153200	50.442764	49.853617
2260.211578	-2.600600	3.150400	-8.192200	50.468187	49.859179
2261.215707	-2.612600	3.149400	-8.227500	50.457396	49.837906
2262.216593	-2.603200	3.151000	-8.202400	50.469670	49.818391
2263.215891	-2.584700	3.148800	-8.138400	50.458805	49.837870
2264.212089	-2.591100	3.150300	-8.162500	50.436405	49.841113
2265.213383	-2.596500	3.150200	-8.179300	50.475378	49.849392
2266.217861	-2.585800	3.150900	-8.147400	50.459870	49.835684
2267.216249	-2.623300	3.148400	-8.258300	50.464399	49.834796
2268.216400	-2.581000	3.149800	-8.129300	50.479624	49.828349
2269.218990	-2.589000	3.149900	-8.154700	50.461945	49.838483
2270.216101	-2.612000	3.149600	-8.226400	50.457315	49.855890
2271.213621	-2.574300	3.149700	-8.108100	50.478905	49.858701
2272.214163	-2.606000	3.148700	-8.205200	50.465168	49.841707
2273.213243	-2.584300	3.150000	-8.140500	50.468027	49.825779
2274.213335	-2.606700	3.149500	-8.210000	50.466813	49.840823
2275.213151	-2.596000	3.148600	-8.173500	50.470389	49.824891
2276.208974	-2.604500	3.148800	-8.200700	50.479669	49.823336
2277.213404	-2.573300	3.148500	-8.101500	50.490990	49.831772
2278.214469	-2.588800	3.149800	-8.154100	50.470580	49.797622
2279.215905	-2.597300	3.149200	-8.179200	50.476149	49.807530
2280.214477	-2.606300	3.147900	-8.204000	50.479338	49.798436
2281.213832	-2.597500	3.148300	-8.177800	50.474456	49.798971
2282.213546	-2.593300	3.148300	-8.164300	50.467851	49.811151
2283.214474	-2.565500	3.148100	-8.076300	50.482648	49.826317
2284.212197	-2.611300	3.148100	-8.220100	50.492703	49.832764
2285.214648	-2.596300	3.148200	-8.173400	50.482117	49.824702
2286.217981	-2.613600	3.147900	-8.227100	50.493569	49.801112
2287.212723	-2.616500	3.147500	-8.234900	50.492659	49.835610
2288.213074	-2.603500	3.147900	-8.195500	50.497994	49.812765
2289.211295	-2.558400	3.148300	-8.054300	50.496414	49.834308
2290.214477	-2.594100	3.147600	-8.165100	50.501953	49.816003
2291.213760	-2.592000	3.147300	-8.157900	50.496657	49.825880
2292.214118	-2.573100	3.147000	-8.097500	50.489404	49.828379
2293.212914	-2.608100	3.146800	-8.206900	50.492676	49.818645
2294.217165	-2.590400	3.145900	-8.148700	50.517254	49.839261
2295.215191	-2.620300	3.147100	-8.246300	50.503597	49.832462
2296.213465	-2.592000	3.146600	-8.155300	50.496731	49.829205
2297.215072	-2.583700	3.147000	-8.130300	50.496726	49.816194
2298.213562	-2.574700	3.146800	-8.101500	50.505080	49.823107
2299.215817	-2.596600	3.145900	-8.168200	50.513769	49.836858
2300.216359	-2.588300	3.146300	-8.143400	50.509096	49.842660
2301.214509	-2.586900	3.146500	-8.139300	50.513829	49.840532
2302.214564	-2.611800	3.145600	-8.215100	50.505985	49.825096
2303.213210	-2.610800	3.146200	-8.213600	50.517053	49.832557
2304.212322	-2.599600	3.147100	-8.180800	50.491091	49.843796
2305.213938	-2.577700	3.146000	-8.109100	50.516166	49.835643
2306.212470	-2.574700	3.145300	-8.097800	50.522688	49.840723
2307.213190	-2.591000	3.145800	-8.150600	50.522292	49.840327
2308.215023	-2.610200	3.145000	-8.208800	50.530932	49.856920
2309.218966	-2.599600	3.145400	-8.176400	50.531546	49.833327
2310.214524	-2.608100	3.146000	-8.205400	50.513946	49.839926
2311.211371	-2.621500	3.144000	-8.241600	50.530815	49.821395
2312.213526	-2.608200	3.145300	-8.203300	50.527743	49.813625
2313.213871	-2.616000	3.144400	-8.225600	50.538368	49.812694
2314.213097	-2.581900	3.144800	-8.119200	50.535914	49.822523
2315.215149	-2.598500	3.145000	-8.172200	50.531293	49.824403
2316.214306	-2.621500	3.144900	-8.244200	50.541605	49.813042
2317.212790	-2.637200	3.143800	-8.290400	50.532572	49.809786
2318.216302	-2.581600	3.144400	-8.117200	50.528230	49.799660
2319.213799	-2.621100	3.144200	-8.241100	50.536458	49.811866
2320.215702	-2.581400	3.145300	-8.118600	50.541357	49.819658
2321.217268	-2.614900	3.143500	-8.219600	50.533847	49.842856
2322.217073	-2.602000	3.144500	-8.181600	50.540060	49.833536
2323.216055	-2.578000	3.144900	-8.107300	50.543998	49.851927
2324.213040	-2.594800	3.144500	-8.159200	50.535609	49.852928
2325.213042	-2.580500	3.144200	-8.113400	50.548401	49.822370
2326.216470	-2.603800	3.143200	-8.183900	50.560487	49.828321
2327.211024	-2.613400	3.143700	-8.215000	50.551433	49.828656
2328.211630	-2.610100	3.144000	-8.205700	50.559682	49.840161
2329.215436	-2.592300	3.144100	-8.149900	50.564107	49.839169
2330.213892	-2.580900	3.142500	-8.110200	50.561349	49.836770
2331.213881	-2.600200	3.143400	-8.173400	50.551333	49.852402
2332.216529	-2.608700	3.142500	-8.197600	50.568915	49.834585
2333.215013	-2.579900	3.143500	-8.109300	50.566461	49.827433
2334.213354	-2.569100	3.143700	-8.076200	50.566148	49.841211
2335.213638	-2.591200	3.143200	-8.144600	50.567945	49.824221
2336.212672	-2.585100	3.142900	-8.124400	50.572200	49.848350
2337.211129	-2.567900	3.144000	-8.073300	50.583769	49.848002
2338.213584	-2.585700	3.142900	-8.126400	50.566122	49.833598
2339.212286	-2.618600	3.142300	-8.228100	50.574602	49.822933
2340.216716	-2.634500	3.142100	-8.277300	50.563634	49.823882
2341.215049	-2.604200	3.143800	-8.186700	50.568707	49.835461
2342.216213	-2.612600	3.142200	-8.209200	50.584048	49.847558
2343.214265	-2.612000	3.142100	-8.206500	50.582238	49.829128
2344.213866	-2.606200	3.143400	-8.192300	50.576530	49.850514
2345.214286	-2.599000	3.141500	-8.164600	50.580137	49.866046
2346.215379	-2.609900	3.141900	-8.199700	50.583565	49.851050
2347.218789	-2.593600	3.141900	-8.148400	50.589930	49.846218
2348.217814	-2.593200	3.141500	-8.145700	50.591053	49.828554
2349.216458	-2.575600	3.141700	-8.090900	50.585658	49.830382
2350.213889	-2.591700	3.140800	-8.140000	50.592354	49.825882
2351.212315	-2.597900	3.141500	-8.160900	50.588326	49.835219
2352.213231	-2.597600	3.141200	-8.159600	50.576205	49.828511
2353.213655	-2.559300	3.141700	-8.040000	50.573412	49.828246
2354.214355	-2.630700	3.141300	-8.263500	50.578589	49.816083
2355.212737	-2.612300	3.141500	-8.205900	50.591015	49.834297
2356.211599	-2.582000	3.141500	-8.110800	50.577598	49.827737
2357.215523	-2.588100	3.141400	-8.129800	50.583524	49.824995
2358.213336	-2.605300	3.141200	-8.183100	50.575118	49.834288
2359.214756	-2.602400	3.140700	-8.173000	50.589219	49.829609
2360.219030	-2.590800	3.140600	-8.136300	50.583620	49.816781
2361.213258	-2.581500	3.142100	-8.111000	50.601566	49.820647
2362.215083	-2.607100	3.140800	-8.187900	50.592478	49.803605
2363.212380	-2.600000	3.140200	-8.164400	50.597947	49.804380
2364.213754	-2.588300	3.140300	-8.127600	50.602428	49.790075
2365.213348	-2.592600	3.140200	-8.140800	50.602912	49.784417
2366.213119	-2.570200	3.139500	-8.068800	50.623524	49.797815
2367.211055	-2.598400	3.139900	-8.158400	50.611008	49.808777
2368.214168	-2.592700	3.141100	-8.143600	50.605018	49.805312
2369.214867	-2.600300	3.139800	-8.163900	50.614202	49.828592
2370.216385	-2.621100	3.138900	-8.226700	50.606823	49.811816
2371.219060	-2.580400	3.139600	-8.101400	50.613858	49.811990
2372.215467	-2.594800	3.139300	-8.145600	50.607946	49.804268
2373.217394	-2.612200	3.139400	-8.200600	50.620219	49.801373
2374.212288	-2.625500	3.139200	-8.241900	50.612223	49.813244
2375.213905	-2.617200	3.138600	-8.214400	50.612558	49.811412
2376.214180	-2.594800	3.139300	-8.145600	50.614803	49.848704
2377.224419	-2.581800	3.139700	-8.105600	50.620651	49.835767
2378.209259	-2.634700	3.138700	-8.269000	50.592737	49.843969
2379.209696	-2.593700	3.137900	-8.138500	50.623483	49.841492
2380.210051	-2.584700	3.139800	-8.114700	50.619350	49.839524
2381.211903	-2.585100	3.137900	-8.111200	50.625385	49.841949
2382.217327	-2.618300	3.138700	-8.217700	50.635621	49.852914
2383.217782	-2.598100	3.138400	-8.153600	50.634669	49.824141
2384.218399	-2.618000	3.137000	-8.212600	50.640725	49.827672
2385.218064	-2.602000	3.137900	-8.164400	50.645780	49.819362
2386.217894	-2.591300	3.138200	-8.131500	50.627256	49.818892
2387.216159	-2.587500	3.137900	-8.119000	50.629814	49.814948
2388.214964	-2.574700	3.137000	-8.076700	50.634143	49.832647
2389.214345	-2.590600	3.137400	-8.127300	50.647264	49.817956
2390.212676	-2.580300	3.138800	-8.098700	50.642622	49.813311
2391.216410	-2.585000	3.138200	-8.111900	50.639607	49.808127
2392.219947	-2.621900	3.137500	-8.225700	50.656105	49.811989
2393.216597	-2.603300	3.136800	-8.166000	50.648757	49.825592
2394.215624	-2.602200	3.136500	-8.161600	50.648000	49.832783
2395.212690	-2.621000	3.136300	-8.219800	50.648127	49.836523
2396.211892	-2.576000	3.138000	-8.083000	50.656975	49.833815
2397.211079	-2.565200	3.137800	-8.048700	50.653539	49.818092
2398.210896	-2.577900	3.136800	-8.085800	50.657767	49.812568
2399.216218	-2.596400	3.136600	-8.143500	50.667025	49.836284
2400.213067	-2.605300	3.136000	-8.169700	50.650255	49.807580
2401.213454	-2.615000	3.136900	-8.202400	50.655876	49.806701
2402.214985	-2.603800	3.136800	-8.167100	50.662885	49.812630
2403.215825	-2.624000	3.135700	-8.228200	50.661902	49.810563
2404.212420	-2.626200	3.134400	-8.231600	50.677171	49.821868
2405.212424	-2.591600	3.135800	-8.126400	50.668654	49.827074
2406.210840	-2.622300	3.134900	-8.220100	50.683632	49.833030
2407.214650	-2.599700	3.136800	-8.154900	50.670455	49.850916
2408.216547	-2.586900	3.135900	-8.112100	50.676686	49.827524
2409.213193	-2.586300	3.135900	-8.110200	50.676068	49.843525
2410.212350	-2.611700	3.135600	-8.188900	50.680393	49.834123
2411.216207	-2.608300	3.135400	-8.177500	50.679131	49.855623
2412.215122	-2.584400	3.135600	-8.103400	50.677965	49.837837
2413.215509	-2.652600	3.134400	-8.313900	50.699722	49.833232
2414.212684	-2.614600	3.134300	-8.195100	50.681229	49.819786
2415.214498	-2.593700	3.135000	-8.130700	50.685044	49.828662
2416.214269	-2.591300	3.135400	-8.124300	50.678902	49.831187
2417.213947	-2.587500	3.134700	-8.110500	50.680447	49.821532
2418.213382	-2.609200	3.134400	-8.178200	50.672908	49.819769
2419.213757	-2.589200	3.134000	-8.114200	50.687482	49.833991
2420.217396	-2.597900	3.135000	-8.144400	50.671486	49.825934
2421.215374	-2.606000	3.133100	-8.164500	50.687008	49.842188
2422.213895	-2.598300	3.135100	-8.145300	50.693012	49.833382
2423.211907	-2.609100	3.132800	-8.173400	50.695718	49.848374
2424.212176	-2.625900	3.132800	-8.226100	50.692282	49.826148
2425.215523	-2.610200	3.133300	-8.178200	50.668633	49.821273
2426.215171	-2.624000	3.133200	-8.221000	50.691782	49.813364
2427.216600	-2.599000	3.133600	-8.144200	50.687501	49.809803
2428.214082	-2.617800	3.132900	-8.200900	50.700496	49.821000
2429.214139	-2.598400	3.133000	-8.140600	50.688294	49.826855
2430.212238	-2.598700	3.134100	-8.143900	50.702141	49.824091
2431.211044	-2.613400	3.132400	-8.185900	50.691513	49.834412
2432.213965	-2.623400	3.132600	-8.217600	50.697570	49.843001
2433.213533	-2.614500	3.132600	-8.190000	50.708219	49.841734
2434.220790	-2.584900	3.132500	-8.097100	50.707080	49.843123
2435.214813	-2.637100	3.131800	-8.258600	50.709786	49.833547
2436.212506	-2.628700	3.132800	-8.234700	50.716977	49.854472
2437.223293	-2.613300	3.132600	-8.186300	50.702996	49.868663
2438.214726	-2.611200	3.132300	-8.179100	50.712305	49.852327
2439.216200	-2.590300	3.132600	-8.114100	50.711706	49.846307
2440.215549	-2.607900	3.131500	-8.166000	50.729272	49.863884
2441.216323	-2.562700	3.133100	-8.029000	50.728568	49.883773
2442.214086	-2.588000	3.131000	-8.102500	50.730909	49.852877
2443.215235	-2.626500	3.130900	-8.222900	50.720620	49.880517
2444.212823	-2.547400	3.131800	-7.977700	50.725407	49.873023
2445.213850	-2.603400	3.131800	-8.153000	50.724793	49.856512
2446.212716	-2.585300	3.131100	-8.094400	50.732058	49.860169
2447.213485	-2.578000	3.130600	-8.070100	50.722309	49.850775
2448.214097	-2.610900	3.130700	-8.173700	50.719882	49.849069
2449.215351	-2.606900	3.131200	-8.162300	50.717351	49.857736
2450.212281	-2.582500	3.130300	-8.083900	50.714968	49.851016
2451.217234	-2.619500	3.130700	-8.200700	50.738646	49.840025
2452.216445	-2.609000	3.131900	-8.170600	50.741091	49.846807
2453.216139	-2.591500	3.131400	-8.114700	50.746142	49.844636
2454.216254	-2.580000	3.131200	-8.077500	50.739230	49.817124
2455.217093	-2.602600	3.130200	-8.146200	50.720681	49.853120
2456.214975	-2.627900	3.130000	-8.225300	50.727616	49.850665
2457.213382	-2.600400	3.129800	-8.138500	50.742620	49.858092
2458.216234	-2.625200	3.129600	-8.215000	50.748445	49.844050
2459.210787	-2.596600	3.129600	-8.125600	50.751334	49.853805
2460.213703	-2.592100	3.130000	-8.112900	50.746379	49.829337
2461.215318	-2.618200	3.130100	-8.195300	50.743922	49.833382
2462.219107	-2.613600	3.129800	-8.179500	50.756660	49.848657
2463.216289	-2.593100	3.128700	-8.112400	50.756503	49.840190
2464.218886	-2.595300	3.128100	-8.118600	50.751519	49.825447
2465.211401	-2.600400	3.129000	-8.136600	50.764234	49.827332
2466.214004	-2.599700	3.128100	-8.131200	50.746077	49.811692
2467.214935	-2.595900	3.128900	-8.122300	50.771835	49.837467
2468.216322	-2.605300	3.128800	-8.151200	50.762157	49.834286
2469.213223	-2.606000	3.129000	-8.154200	50.756279	49.836353
2470.213370	-2.598700	3.128500	-8.129200	50.753513	49.857792
2471.213361	-2.613100	3.128400	-8.174600	50.758151	49.834252
2472.216071	-2.611400	3.128400	-8.169500	50.764698	49.838997
2473.216177	-2.592600	3.128100	-8.109600	50.759896	49.842863
2474.216493	-2.590600	3.127800	-8.102500	50.767114	49.845388
2475.215512	-2.579500	3.128100	-8.068700	50.776218	49.834266
2476.215254	-2.602900	3.127100	-8.139400	50.763317	49.837614
2477.214635	-2.596900	3.126400	-8.118500	50.756218	49.844963
2478.212756	-2.583600	3.128400	-8.082700	50.763700	49.830049
2479.211936	-2.602200	3.127800	-8.138900	50.773058	49.859284
2480.213809	-2.589900	3.127400	-8.099700	50.770240	49.843097
2481.219088	-2.598800	3.125600	-8.122900	50.784269	49.844490
2482.213759	-2.594800	3.126300	-8.112100	50.775056	49.838884
2483.215875	-2.608200	3.127400	-8.156700	50.768966	49.842906
2484.212767	-2.588200	3.127500	-8.094500	50.768475	49.819291
2485.213091	-2.574200	3.126600	-8.048200	50.784436	49.832373
2486.215477	-2.583700	3.126800	-8.078400	50.776980	49.836835
2487.212228	-2.589100	3.126700	-8.094800	50.789200	49.850508
2488.212957	-2.583000	3.127300	-8.077600	50.773775	49.854222
2489.217328	-2.598500	3.126700	-8.124200	50.784472	49.840358
2490.216412	-2.577200	3.125300	-8.054200	50.791790	49.830338
2491.216989	-2.593000	3.125400	-8.103900	50.795423	49.818437
2492.216411	-2.598800	3.125300	-8.121500	50.789590	49.833556
2493.218436	-2.599100	3.125000	-8.121000	50.783944	49.813815
2494.216451	-2.648300	3.123800	-8.272400	50.776536	49.827358
2495.216964	-2.604700	3.125000	-8.139300	50.786824	49.846686
2496.213434	-2.636700	3.125300	-8.239800	50.794734	49.838342
2497.220750	-2.594700	3.124300	-8.106500	50.794603	49.850496
2498.214203	-2.579500	3.124900	-8.059900	50.788157	49.824534
2499.212325	-2.606400	3.125800	-8.146500	50.789828	49.842827
2500.215662	-2.580700	3.125500	-8.065800	50.790728	49.830360
2501.213555	-2.621200	3.124500	-8.189700	50.783113	49.812622
2502.217327	-2.604400	3.124500	-8.137400	50.796006	49.840338
2503.217326	-2.599800	3.124500	-8.122900	50.801552	49.845165
2504.215316	-2.606800	3.124900	-8.145500	50.783935	49.833317
2505.214750	-2.578300	3.125400	-8.057900	50.794863	49.834136
2506.213272	-2.598000	3.124300	-8.116900	50.804947	49.835917
2507.214011	-2.586800	3.124500	-8.081600	50.812890	49.844227
2508.213763	-2.593700	3.124100	-8.102500	50.803674	49.846927
2509.214330	-2.608800	3.123800	-8.148600	50.816746	49.836524
2510.214663	-2.598600	3.124000	-8.117500	50.807254	49.846536
2511.217525	-2.636200	3.123100	-8.232700	50.804950	49.842785
2512.215855	-2.610900	3.124100	-8.156400	50.820471	49.835916
2513.217654	-2.601900	3.123600	-8.126800	50.813716	49.820846
2514.213108	-2.587400	3.123700	-8.081600	50.820468	49.835551
2515.216535	-2.641500	3.122800	-8.248600	50.815279	49.831804
2516.214672	-2.606700	3.122800	-8.140200	50.814371	49.821863
2517.212513	-2.587900	3.122600	-8.080500	50.819042	49.829789
2518.215770	-2.618100	3.123400	-8.177200	50.820840	49.825085
2519.214017	-2.593200	3.123200	-8.098900	50.825269	49.824097
2520.213313	-2.598400	3.123900	-8.116600	50.832694	49.831890
2521.215204	-2.623900	3.122700	-8.193200	50.827428	49.829871
2522.218750	-2.596300	3.122700	-8.106800	50.832601	49.800724
2523.213717	-2.598700	3.122400	-8.113500	50.828682	49.826790
2524.213047	-2.636500	3.122800	-8.233100	50.810343	49.831923
2525.210540	-2.629000	3.121800	-8.207100	50.823799	49.826962
2526.213171	-2.594500	3.123300	-8.102800	50.824361	49.824634
2527.213318	-2.598300	3.122500	-8.112900	50.830495	49.819933
2528.213971	-2.592300	3.122300	-8.093400	50.827603	49.826433
2529.213579	-2.575600	3.122100	-8.040900	50.819265	49.834348
2530.214917	-2.596000	3.122200	-8.105000	50.818673	49.841343
2531.213185	-2.598300	3.121100	-8.109100	50.836238	49.844829
2532.213514	-2.579100	3.122400	-8.052900	50.820881	49.843552
2533.215600	-2.639000	3.122400	-8.239500	50.838516	49.839160
2534.218373	-2.601000	3.122100	-8.120400	50.829538	49.840654
2535.214059	-2.605700	3.122300	-8.135500	50.834667	49.856987
2536.214583	-2.601300	3.122400	-8.121800	50.837317	49.822064
2537.214663	-2.602500	3.122000	-8.124800	50.821558	49.847482
2538.214883	-2.603500	3.122400	-8.128900	50.836510	49.840405
2539.214830	-2.614400	3.121400	-8.160100	50.858351	49.825770
2540.217987	-2.587700	3.121600	-8.077300	50.849939	49.835417
2541.215081	-2.595200	3.122200	-8.102300	50.842175	49.812473
2542.216406	-2.602700	3.123100	-8.127800	50.840519	49.818764
2543.217340	-2.590800	3.121000	-8.085300	50.841654	49.817010
2544.217989	-2.580100	3.122100	-8.054800	50.858742	49.804845
2545.218634	-2.638000	3.121500	-8.234100	50.849556	49.824918
2546.219285	-2.588200	3.122000	-8.079900	50.846404	49.809478
2547.215074	-2.579600	3.120600	-8.049800	50.853211	49.817014
2548.212221	-2.621000	3.120400	-8.178200	50.858496	49.804599
2549.214895	-2.570900	3.121500	-8.024800	50.867515	49.819044
2550.214306	-2.580900	3.122400	-8.057600	50.859308	49.818057
2551.213297	-2.594600	3.120900	-8.097100	50.862584	49.825309
2552.214798	-2.632300	3.120500	-8.213600	50.856900	49.835880
2553.213225	-2.584600	3.119700	-8.062700	50.862673	49.826483
2554.214868	-2.613400	3.120900	-8.155800	50.863265	49.815152
2555.213219	-2.618100	3.119700	-8.167500	50.853767	49.822989
2556.212459	-2.559600	3.120500	-7.986900	50.855903	49.825489
2557.220152	-2.598300	3.120300	-8.107300	50.866139	49.828145
2558.217579	-2.591000	3.121100	-8.086500	50.851645	49.835680
2559.217991	-2.621000	3.119300	-8.175500	50.871261	49.825321
2560.213346	-2.605800	3.121200	-8.133100	50.878068	49.825269
2561.214021	-2.604700	3.120000	-8.126600	50.873758	49.814091
2562.211588	-2.615400	3.119900	-8.159600	50.851214	49.815015
2563.214029	-2.611500	3.120400	-8.148700	50.867428	49.819318
2564.215125	-2.617700	3.119300	-8.165100	50.849867	49.809331
2565.213704	-2.594600	3.121300	-8.098600	50.850835	49.798016
2566.216818	-2.594400	3.119400	-8.092900	50.856791	49.825293
2567.214467	-2.621700	3.119000	-8.176700	50.859240	49.809317
2568.215102	-2.600500	3.120300	-8.113700	50.855294	49.824879
2569.213055	-2.605400	3.119000	-8.125800	50.861890	49.836538
2570.212480	-2.605600	3.119500	-8.127900	50.878416	49.822727
2571.210967	-2.596900	3.120000	-8.102200	50.888004	49.818593
2572.213983	-2.596000	3.120000	-8.099300	50.880210	49.814406
2573.214214	-2.615100	3.118300	-8.154400	50.857462	49.811512
2574.213128	-2.599300	3.118100	-8.104700	50.863231	49.825596
2575.215199	-2.617200	3.119300	-8.163400	50.877002	49.822396
2576.216191	-2.596200	3.118300	-8.095100	50.887305	49.809584
2577.213402	-2.577400	3.118600	-8.037700	50.876497	49.819000
2578.214418	-2.613800	3.119600	-8.153600	50.884384	49.818583
2579.214095	-2.593100	3.119500	-8.088900	50.879356	49.834868
2580.214756	-2.583700	3.119100	-8.058400	50.860370	49.829959
2581.213173	-2.587300	3.118800	-8.069300	50.884348	49.805540
2582.216208	-2.602700	3.118800	-8.117200	50.882848	49.844505
2583.218169	-2.595600	3.119300	-8.095900	50.870956	49.806590
2584.212680	-2.597500	3.119400	-8.102400	50.879770	49.813966
2585.214658	-2.577400	3.119100	-8.039000	50.888770	49.821889
2586.212082	-2.615500	3.118700	-8.156900	50.899132	49.809135
2587.212186	-2.598500	3.119100	-8.104000	50.861016	49.801339
2588.213000	-2.615900	3.117800	-8.155800	50.868519	49.819326
2589.214394	-2.600500	3.118300	-8.108900	50.882801	49.815553
2590.212325	-2.600100	3.118100	-8.106900	50.907016	49.804018
2591.214824	-2.587900	3.118700	-8.070500	50.897153	49.823775
2592.214550	-2.606000	3.118500	-8.126800	50.885262	49.826326
2593.210979	-2.574100	3.119600	-8.030300	50.901069	49.826610
2594.211809	-2.612200	3.117900	-8.144400	50.898226	49.816538
2595.212596	-2.590300	3.117600	-8.075400	50.892837	49.819455
2596.213670	-2.588700	3.119100	-8.074100	50.908171	49.811678
2597.215772	-2.608800	3.118100	-8.134100	50.906701	49.823936
2598.215326	-2.596500	3.118000	-8.095500	50.884623	49.818461
2599.214746	-2.620400	3.118700	-8.171800	50.905891	49.819512
2600.217570	-2.589400	3.117100	-8.070900	50.907744	49.810528
2601.217406	-2.590300	3.117400	-8.074700	50.910968	49.808334
2602.215118	-2.624100	3.117300	-8.179000	50.912483	49.802263
2603.216769	-2.604300	3.118000	-8.120000	50.910678	49.801179
2604.214166	-2.585300	3.116900	-8.057500	50.914359	49.816787
2605.212439	-2.615100	3.117700	-8.153000	50.912086	49.819570
2606.214339	-2.593300	3.116600	-8.082300	50.909708	49.802015
2607.214765	-2.598900	3.117100	-8.100800	50.913653	49.806325
2608.213173	-2.573700	3.117000	-8.022100	50.906995	49.800384
2609.214400	-2.580200	3.117500	-8.043500	50.914182	49.794570
2610.211457	-2.576300	3.116500	-8.028600	50.909434	49.802463
2611.212551	-2.609200	3.116200	-8.130800	50.909791	49.831364
2612.212719	-2.567100	3.116600	-8.000100	50.906718	49.812391
2613.215145	-2.581700	3.116200	-8.044500	50.904987	49.795845
2614.215441	-2.593700	3.116700	-8.083300	50.919034	49.806291
2615.212839	-2.605500	3.116300	-8.118900	50.906730	49.821075
2616.217103	-2.570100	3.117900	-8.013000	50.907136	49.820759
2617.231663	-2.582900	3.117500	-8.051700	50.915849	49.808884
2618.214040	-2.613600	3.115400	-8.141800	50.915173	49.791587
2619.213820	-2.585800	3.115800	-8.056700	50.911839	49.820045
2620.215058	-2.610700	3.116000	-8.134400	50.911504	49.826936
2621.215993	-2.597500	3.116900	-8.095400	50.913019	49.819420
2622.215079	-2.571200	3.116800	-8.013300	50.909945	49.818873
2623.217837	-2.598300	3.116500	-8.097300	50.924412	49.817093
2624.214788	-2.587400	3.117500	-8.065500	50.912674	49.811126
2625.219351	-2.589300	3.115600	-8.067300	50.904494	49.817753
2626.215192	-2.642300	3.116500	-8.234200	50.912456	49.822831
2627.215194	-2.600900	3.115300	-8.102300	50.885041	49.836583
2628.219542	-2.591900	3.116900	-8.078700	50.915360	49.819595
2629.216727	-2.621000	3.115500	-8.165300	50.921442	49.822791
2630.214835	-2.603300	3.114700	-8.107900	50.919686	49.814891
2631.214927	-2.599900	3.115800	-8.100800	50.918163	49.821317
2632.213238	-2.588200	3.115400	-8.062500	50.921770	49.814448
2633.214298	-2.592500	3.115400	-8.076300	50.901293	49.829363
2634.213713	-2.591800	3.115800	-8.075300	50.920111	49.846028
2635.212746	-2.571900	3.116600	-8.015300	50.929007	49.849511
2636.210981	-2.590900	3.114100	-8.067700	50.933957	49.839652
2637.212000	-2.610100	3.114400	-8.128600	50.924307	49.848782
2638.215322	-2.594400	3.114900	-8.080700	50.924021	49.830069
2639.218668	-2.605000	3.115000	-8.114500	50.930366	49.823412
2640.212842	-2.610500	3.114100	-8.129100	50.923116	49.822299
2641.217741	-2.585700	3.115600	-8.055400	50.935287	49.817137
2642.210751	-2.582600	3.115500	-8.045600	50.923705	49.796874
2643.211258	-2.609300	3.113500	-8.124000	50.916452	49.814907
2644.218198	-2.605100	3.114700	-8.113700	50.932747	49.812788
2645.218931	-2.603700	3.114600	-8.109100	50.939736	49.798827
2646.215319	-2.598600	3.115200	-8.094800	50.930528	49.800090
2647.214467	-2.612200	3.113400	-8.132600	50.938750	49.811932
2648.221432	-2.608100	3.114500	-8.122100	50.939420	49.806821
2649.218823	-2.616600	3.112800	-8.144400	50.940474	49.800650
2650.221202	-2.603300	3.114000	-8.106500	50.935238	49.805887
2651.221140	-2.600300	3.114100	-8.097400	50.964379	49.810122
2652.218276	-2.619000	3.113800	-8.154900	50.939030	49.808960
2653.215623	-2.590400	3.113300	-8.064200	50.945655	49.810171
2654.214042	-2.587500	3.113000	-8.054900	50.943460	49.816284
2655.214727	-2.565200	3.113400	-7.986300	50.950469	49.814988
2656.212812	-2.590800	3.112700	-8.064400	50.945310	49.805129
2657.214194	-2.608800	3.113400	-8.122000	50.944257	49.821055
2658.213275	-2.600900	3.113900	-8.098100	50.952065	49.794185
2659.214546	-2.608300	3.112700	-8.119000	50.950260	49.812251
2660.212350	-2.580100	3.112100	-8.029100	50.943089	49.798208
2661.215258	-2.610800	3.111800	-8.123800	50.956521	49.794309
2662.215705	-2.605000	3.111600	-8.105600	50.939267	49.813172
2663.214859	-2.600700	3.112800	-8.095500	50.949555	49.824190
2664.212115	-2.597800	3.112100	-8.084200	50.954088	49.807772
2665.216131	-2.570400	3.112500	-8.000400	50.948901	49.807999
2666.213931	-2.614000	3.112900	-8.136300	50.949594	49.797131
2667.216366	-2.600700	3.112800	-8.094900	50.947528	49.807710
2668.214842	-2.617000	3.111400	-8.142000	50.962014	49.799084
2669.218041	-2.626100	3.111700	-8.170900	50.943473	49.807986
2670.215919	-2.630900	3.111700	-8.186200	50.954970	49.828526
2671.216477	-2.620200	3.112000	-8.153700	50.951662	49.814737
2672.214162	-2.604700	3.112500	-8.106400	50.945213	49.821290
2673.213119	-2.613100	3.110600	-8.127900	50.958310	49.812358
2674.214832	-2.599700	3.111600	-8.089300	50.963462	49.813178
2675.212605	-2.617800	3.109800	-8.140100	50.945050	49.800533
2676.215370	-2.573300	3.111100	-8.005400	50.975443	49.801324
2677.214400	-2.585100	3.111300	-8.043000	50.963992	49.805760
2678.213562	-2.596100	3.110500	-8.075000	50.962024	49.824024
2679.215047	-2.559600	3.110800	-7.961300	50.970946	49.814526
2680.216859	-2.588500	3.110400	-8.050900	50.962841	49.805692
2681.219327	-2.592400	3.111500	-8.065800	50.962246	49.805819
2682.217693	-2.618900	3.110800	-8.146200	50.972868	49.804527
2683.214688	-2.579800	3.109700	-8.021900	50.962906	49.797448
2684.214286	-2.576400	3.109500	-8.011000	50.958542	49.789466
2685.216979	-2.578700	3.110400	-8.021000	50.979812	49.791605
2686.215427	-2.560000	3.108600	-7.957300	50.967922	49.827397
2687.214541	-2.584700	3.109600	-8.037200	50.976241	49.824162
2688.218498	-2.617700	3.109900	-8.140100	50.973308	49.815445
2689.217186	-2.604100	3.108800	-8.095500	50.976313	49.794245
2690.217251	-2.599900	3.107700	-8.079200	50.969571	49.792195
2691.213067	-2.586800	3.110000	-8.044700	50.964212	49.786469
2692.213975	-2.596100	3.108200	-8.069200	50.976268	49.786613
2693.213368	-2.603100	3.107500	-8.088500	50.979517	49.797452
2694.215172	-2.601000	3.107900	-8.083200	50.985645	49.794552
2695.212430	-2.591400	3.107300	-8.052000	50.963465	49.783554
2696.213512	-2.611600	3.107900	-8.115800	50.982439	49.799292
2697.213608	-2.578700	3.108100	-8.014200	50.974799	49.815493
2698.218556	-2.593800	3.106400	-8.057200	50.969511	49.803335
2699.216235	-2.604300	3.107000	-8.091300	50.974146	49.806529
2700.215472	-2.581000	3.106700	-8.017600	50.987399	49.789804
2701.212610	-2.620300	3.106300	-8.138900	50.969418	49.780479
2702.214694	-2.570900	3.107300	-7.988300	50.982151	49.799004
2703.214323	-2.638800	3.105100	-8.192800	50.966364	49.798741
2704.218938	-2.562100	3.107300	-7.960600	50.987143	49.790633
2705.220127	-2.609100	3.105900	-8.103300	50.978652	49.768404
2706.215483	-2.586800	3.105000	-8.032000	50.984012	49.773769
2707.215644	-2.592000	3.105000	-8.047300	50.990016	49.788449
2708.216908	-2.617100	3.105700	-8.128000	50.995558	49.791106
2709.217623	-2.621300	3.105400	-8.140200	50.986062	49.779433
2710.214229	-2.604000	3.103900	-8.081800	50.984843	49.794834
2711.214904	-2.577900	3.105800	-8.005500	50.990639	49.785459
2712.217930	-2.601500	3.106000	-8.080000	50.994867	49.778490
2713.214583	-2.581200	3.104800	-8.014100	50.998292	49.796732
2714.215230	-2.603300	3.104700	-8.081900	50.995144	49.802976
2715.214832	-2.606800	3.103800	-8.090400	50.999210	49.800541
2716.214346	-2.604500	3.102700	-8.080500	50.988400	49.808510
2717.215592	-2.606400	3.103600	-8.088700	50.996931	49.801512
2718.214989	-2.636800	3.102900	-8.181100	50.986826	49.796457
2719.213241	-2.599800	3.102900	-8.066400	51.001872	49.800315
2720.218744	-2.589000	3.102400	-8.031900	50.996275	49.801578
2721.215930	-2.603700	3.102800	-8.078500	50.982649	49.795528
2722.218369	-2.608800	3.101700	-8.091400	50.999772	49.818808
2723.214594	-2.604000	3.101500	-8.076200	50.994536	49.825852
2724.213199	-2.592300	3.101600	-8.039900	50.992029	49.839240
2725.213898	-2.607200	3.101200	-8.085200	50.999009	49.840084
2726.215554	-2.587700	3.101200	-8.024600	50.986836	49.817062
2727.217667	-2.576800	3.101300	-7.991300	50.999006	49.794556
2728.214751	-2.591700	3.100100	-8.034300	51.011606	49.776817
2729.218729	-2.599600	3.100700	-8.060200	51.006396	49.797256
2730.218460	-2.600300	3.099900	-8.060600	51.020163	49.791885
2731.215597	-2.606600	3.097800	-8.074500	51.008755	49.790946
2732.213689	-2.600800	3.098400	-8.057900	50.999291	49.793758
2733.213064	-2.585100	3.099800	-8.013100	50.986654	49.804956
2734.214010	-2.581400	3.099500	-8.001000	51.018106	49.811867
2735.214829	-2.583400	3.099200	-8.005600	51.012331	49.792356
2736.214745	-2.594600	3.098700	-8.039200	51.019516	49.790876
2737.221730	-2.594700	3.096700	-8.034200	50.998194	49.805667
2738.216365	-2.592000	3.097900	-8.029800	51.009093	49.799955
2739.213418	-2.586800	3.097000	-8.011300	51.021107	49.789217
2740.213534	-2.578900	3.097300	-7.987300	51.003776	49.790298
2741.215369	-2.614700	3.095900	-8.094700	51.021485	49.810913
2742.213393	-2.575400	3.095700	-7.972100	50.999794	49.808352
2743.220448	-2.580100	3.095900	-7.987600	51.021656	49.802051
2744.217176	-2.637600	3.095800	-8.164600	51.015542	49.810745
2745.218949	-2.620200	3.093800	-8.106500	51.015747	49.808783
2746.218741	-2.593600	3.094500	-8.025300	51.024558	49.817963
2747.218894	-2.596100	3.094900	-8.034500	51.011897	49.786503
2748.218494	-2.598400	3.094300	-8.039700	51.039376	49.798470
2749.217779	-2.605200	3.092300	-8.055900	51.038914	49.798730
2750.213547	-2.596900	3.092600	-8.030800	51.016342	49.800707
2751.212774	-2.595600	3.092700	-8.027100	51.028180	49.801354
2752.214328	-2.594500	3.092300	-8.022700	51.016339	49.793478
2753.214292	-2.587500	3.091200	-7.998300	51.028581	49.792723
2754.213658	-2.602800	3.091300	-8.046100	51.040234	49.806193
2755.214478	-2.590500	3.091200	-8.007600	51.025067	49.816665
2756.214313	-2.619400	3.091100	-8.096500	51.022017	49.814697
2757.216058	-2.618500	3.091200	-8.093700	51.023458	49.816501
2758.214635	-2.574000	3.090500	-7.954900	51.045291	49.813784
2759.215403	-2.591200	3.089800	-8.005500	51.039232	49.805913
2760.216146	-2.616800	3.088400	-8.081200	51.035695	49.811044
2761.217953	-2.598000	3.088600	-8.023300	51.032778	49.823661
2762.212470	-2.581000	3.088000	-7.969400	51.040893	49.817692
2763.213784	-2.596100	3.087900	-8.016400	51.025368	49.841174
2764.213119	-2.602000	3.086600	-8.031100	51.036839	49.823028
2765.214226	-2.607900	3.087000	-8.050400	51.035343	49.830202
2766.216083	-2.621100	3.085500	-8.086900	51.025617	49.813603
2767.212687	-2.602900	3.085700	-8.031800	51.043274	49.815378
2768.218607	-2.579500	3.085300	-7.958200	51.044975	49.806241
2769.214751	-2.601300	3.083500	-8.020800	51.046335	49.803628
2770.214586	-2.600900	3.084000	-8.020900	51.033929	49.810722
2771.217903	-2.610500	3.084200	-8.051100	51.035477	49.812271
2772.220118	-2.603700	3.082200	-8.024700	51.043462	49.812676
2773.216784	-2.637900	3.081800	-8.129100	51.041989	49.822764
2774.219325	-2.613300	3.081000	-8.051600	51.051730	49.821674
2775.214061	-2.591700	3.081500	-7.985700	51.060290	49.819764
2776.212648	-2.595800	3.080900	-7.996400	51.047344	49.827039
2777.216798	-2.603200	3.081000	-8.020200	51.047546	49.819654
2778.213359	-2.595900	3.080600	-7.996600	51.058425	49.816813
2779.215180	-2.598300	3.078900	-7.999600	51.070872	49.811567
2780.212829	-2.593500	3.079300	-7.985700	51.063626	49.803592
2781.211943	-2.620500	3.077000	-8.062600	51.053773	49.821912
2782.212588	-2.584400	3.077100	-7.952000	51.060858	49.797931
2783.215984	-2.582700	3.077200	-7.947100	51.055105	49.799399
2784.216406	-2.610000	3.076000	-8.027900	51.058271	49.794980
2785.213574	-2.605500	3.076300	-8.014800	51.065080	49.809744
2786.215328	-2.593600	3.075400	-7.976100	51.067835	49.780345
2787.216920	-2.592400	3.073900	-7.968300	51.068191	49.776727
2788.216607	-2.637300	3.073700	-8.105800	51.068988	49.765601
2789.215176	-2.594300	3.074900	-7.977000	51.080147	49.764847
2790.216055	-2.576800	3.073200	-7.918900	51.066427	49.795195
2791.217766	-2.595100	3.073000	-7.974300	51.071787	49.804173
2792.213041	-2.624700	3.072000	-8.062500	51.074104	49.809382
2793.212910	-2.563600	3.072000	-7.875100	51.065905	49.791782
2794.214444	-2.615700	3.071100	-8.032600	51.080385	49.818560
2795.214974	-2.589400	3.071700	-7.953000	51.072392	49.826818
2796.214787	-2.592100	3.068800	-7.954300	51.074485	49.824216
2797.212988	-2.590300	3.068200	-7.947100	51.086436	49.795712
2798.216016	-2.608200	3.067400	-8.000200	51.082200	49.810260
2799.213834	-2.608500	3.067900	-8.002300	51.080811	49.817541
2800.217026	-2.607000	3.067800	-7.997900	51.076188	49.789429
2801.217079	-2.624700	3.065400	-8.045500	51.096325	49.819339
2802.216335	-2.585300	3.065200	-7.923900	51.086218	49.784654
2803.219048	-2.584400	3.065400	-7.922000	51.093250	49.780492
2804.213490	-2.593800	3.065200	-7.950300	51.092907	49.794240
2805.213126	-2.604000	3.064200	-7.978800	51.102529	49.798812
2806.210274	-2.606400	3.063200	-7.983500	51.109094	49.798157
2807.214756	-2.629400	3.062000	-8.050500	51.097771	49.807780
2808.211810	-2.588900	3.061300	-7.925400	51.104162	49.815983
2809.211909	-2.618800	3.062000	-8.018300	51.096652	49.818583
2810.211631	-2.596900	3.059700	-7.945300	51.108613	49.817548
2811.212149	-2.591100	3.060300	-7.928900	51.100046	49.801024
2812.214344	-2.570500	3.059000	-7.863000	51.113945	49.796148
2813.213480	-2.618800	3.058300	-8.008800	51.136010	49.805589
2814.214303	-2.622700	3.056700	-8.016700	51.112239	49.789743
2815.212952	-2.618800	3.057700	-8.007100	51.133447	49.801578
2816.215306	-2.652000	3.056800	-8.106100	51.117256	49.822586
2817.214951	-2.615200	3.056200	-7.992000	51.112662	49.817988
2818.217297	-2.604700	3.054900	-7.957000	51.116864	49.803044
2819.220426	-2.580300	3.054400	-7.881300	51.135704	49.811424
2820.211439	-2.594200	3.054000	-7.922200	51.133069	49.821432
2821.211685	-2.612800	3.053500	-7.978200	51.147969	49.821172
2822.210917	-2.631600	3.051600	-8.030100	51.116072	49.815981
2823.212416	-2.628600	3.050900	-8.019000	51.115319	49.822815
2824.214634	-2.582000	3.050700	-7.876600	51.118565	49.817754
2825.211007	-2.599400	3.050000	-7.927400	51.141122	49.820099
2826.212022	-2.594200	3.049700	-7.910700	51.129698	49.817336
2827.212768	-2.609300	3.049300	-7.956400	51.138284	49.806057
2828.211990	-2.567400	3.049100	-7.828000	51.130002	49.800659
2829.214953	-2.605100	3.047300	-7.938300	51.134687	49.802819
2830.216367	-2.588300	3.047800	-7.888400	51.146210	49.807488
2831.215743	-2.616200	3.046400	-7.969400	51.149998	49.802970
2832.214550	-2.622500	3.044700	-7.984400	51.150767	49.792900
2833.214903	-2.612800	3.045500	-7.957000	51.132148	49.783296
2834.217247	-2.583700	3.044400	-7.865100	51.156465	49.787403
2835.214890	-2.609900	3.042900	-7.941200	51.150137	49.790463
2836.216189	-2.607900	3.042300	-7.933600	51.144463	49.807546
2837.214278	-2.593700	3.041400	-7.888400	51.137114	49.788989
2838.215600	-2.574500	3.040600	-7.827500	51.150752	49.806976
2839.215498	-2.601600	3.038500	-7.904600	51.143292	49.789754
2840.215003	-2.592200	3.039100	-7.877300	51.137670	49.792075
2841.213509	-2.621900	3.037300	-7.963300	51.162369	49.791506
2842.213686	-2.605400	3.038300	-7.916000	51.149449	49.784355
2843.213055	-2.595700	3.038600	-7.886900	51.155991	49.785483
2844.213738	-2.597300	3.036000	-7.884500	51.169965	49.796941
2845.214533	-2.598000	3.034600	-7.883600	51.164338	49.788780
2846.215219	-2.594100	3.034900	-7.872600	51.171019	49.786796
2847.215810	-2.573600	3.033700	-7.807700	51.154177	49.816908
2848.218507	-2.618200	3.032300	-7.938700	51.168896	49.825860
2849.214357	-2.608400	3.031300	-7.905900	51.176886	49.801340
2850.215546	-2.607500	3.032600	-7.907300	51.191246	49.815354
2851.212943	-2.627000	3.029800	-7.958900	51.193695	49.790707
2852.213107	-2.595900	3.030700	-7.867400	51.183506	49.789901
2853.218504	-2.589900	3.028500	-7.843800	51.182111	49.797900
2854.215243	-2.588700	3.028100	-7.838300	51.172465	49.797637
2855.217093	-2.610400	3.026100	-7.899200	51.187648	49.817172
2856.216522	-2.599500	3.026400	-7.866800	51.195072	49.804370
2857.219231	-2.594200	3.026000	-7.849800	51.192928	49.783796
2858.219055	-2.579000	3.025600	-7.802900	51.198755	49.786377
2859.219126	-2.585700	3.024600	-7.820200	51.205870	49.826740
2860.217070	-2.602000	3.023000	-7.865500	51.202072	49.813905
2861.215520	-2.601400	3.022100	-7.861200	51.214726	49.813204
2862.216001	-2.628400	3.021000	-7.940200	51.202893	49.809669
2863.214224	-2.573300	3.021300	-7.774600	51.216656	49.809716
2864.212925	-2.572400	3.020100	-7.768500	51.208375	49.807208
2865.215006	-2.611100	3.018000	-7.879600	51.224950	49.821632
2866.213458	-2.586200	3.017700	-7.803800	51.204527	49.814918
2867.214232	-2.598100	3.016200	-7.836100	51.217698	49.806424
2868.213911	-2.597100	3.016600	-7.834200	51.220015	49.817053
2869.218629	-2.626800	3.016400	-7.923200	51.229501	49.795837
2870.219666	-2.605900	3.014300	-7.854700	51.231711	49.789017
2871.220631	-2.599400	3.014000	-7.834200	51.231582	49.802256
2872.218070	-2.612800	3.013100	-7.872100	51.235885	49.803673
2873.213586	-2.614600	3.012500	-7.875600	51.235467	49.795668
2874.213514	-2.591700	3.011300	-7.804100	51.248815	49.798912
2875.216255	-2.611800	3.010500	-7.862200	51.233365	49.804764
2876.217160	-2.622900	3.007800	-7.889200	51.234422	49.810158
2877.216758	-2.603900	3.007700	-7.831300	51.254061	49.806694
2878.216958	-2.580700	3.006400	-7.758200	51.231759	49.808937
2879.217556	-2.597800	3.005100	-7.806400	51.245345	49.816395
2880.214965	-2.576400	3.004900	-7.741400	51.226904	49.818168
2881.217581	-2.601700	3.005400	-7.819000	51.242781	49.821777
2882.215516	-2.596500	3.003500	-7.798100	51.246310	49.816277
2883.216328	-2.598600	3.003400	-7.804300	51.246457	49.791494
2884.221110	-2.602500	3.002500	-7.813600	51.235343	49.791930
2885.214063	-2.575800	3.000900	-7.729400	51.260165	49.761136
2886.213435	-2.593700	3.000500	-7.782300	51.251425	49.778040
2887.214161	-2.600600	2.998400	-7.797200	51.249925	49.768228
2888.216533	-2.607500	2.997000	-7.814100	51.245769	49.788637
2889.214375	-2.582600	2.997300	-7.740300	51.266311	49.801614
2890.213747	-2.606400	2.994900	-7.805700	51.241971	49.775802
2891.213991	-2.638500	2.994000	-7.899200	51.250115	49.809246
2892.213375	-2.593700	2.993200	-7.763100	51.268673	49.797113
2893.216182	-2.637300	2.991700	-7.890200	51.256527	49.782425
2894.217321	-2.606200	2.992400	-7.798200	51.262941	49.792098
2895.214404	-2.650100	2.990900	-7.925800	51.271986	49.793926
2896.215227	-2.595100	2.989600	-7.758100	51.267625	49.805096
2897.213142	-2.586900	2.990000	-7.734600	51.283605	49.793634
2898.214519	-2.579600	2.987300	-7.705600	51.281513	49.793707
2899.216618	-2.592800	2.987400	-7.745100	51.287571	49.780983
2900.214830	-2.628200	2.986000	-7.847900	51.282436	49.796438
2901.217202	-2.611800	2.984600	-7.794600	51.274104	49.805440
2902.215745	-2.598100	2.984500	-7.753900	51.294752	49.786005
2903.215758	-2.601700	2.983000	-7.760900	51.292087	49.785505
2904.214933	-2.590200	2.980800	-7.720400	51.285513	49.782898
2905.214573	-2.599300	2.981200	-7.748600	51.292833	49.785890
2906.213852	-2.589000	2.980300	-7.715600	51.307445	49.803047
2907.215192	-2.596500	2.978800	-7.734100	51.298390	49.793621
2908.214248	-2.620700	2.977400	-7.803100	51.309090	49.788435
2909.215299	-2.588600	2.976500	-7.704800	51.306715	49.814239
2910.217388	-2.613300	2.976600	-7.778500	51.304238	49.819347
2911.218001	-2.585800	2.975600	-7.694200	51.318100	49.824914
2912.213496	-2.622400	2.974000	-7.798600	51.308122	49.825403
2913.213664	-2.592300	2.972100	-7.704000	51.306393	49.820059
2914.215678	-2.582900	2.972100	-7.675700	51.318738	49.828082
2915.216098	-2.604300	2.970000	-7.734900	51.317445	49.814142
2916.216941	-2.624800	2.968500	-7.791100	51.323935	49.805103
2917.228439	-2.586800	2.967500	-7.676000	51.328604	49.806525
2918.217155	-2.606200	2.966800	-7.731500	51.323521	49.779757
2919.213625	-2.597300	2.965200	-7.701300	51.314727	49.790104
2920.215633	-2.594800	2.964100	-7.690600	51.322797	49.810828
2921.213008	-2.600000	2.962700	-7.702700	51.322017	49.791982
2922.213525	-2.613700	2.961800	-7.741000	51.340499	49.777605
2923.214397	-2.618200	2.961200	-7.752400	51.344255	49.799431
2924.215389	-2.610800	2.960500	-7.728900	51.340981	49.799044
2925.218879	-2.593200	2.958100	-7.670400	51.357039	49.786214
2926.213227	-2.618100	2.956500	-7.739800	51.347753	49.787035
2927.213355	-2.616700	2.957000	-7.737300	51.365052	49.788456
2928.213534	-2.643500	2.954400	-7.809300	51.340116	49.781196
2929.217752	-2.615600	2.954800	-7.727900	51.350733	49.778818
2930.215544	-2.580800	2.953600	-7.622300	51.362896	49.781962
2931.215592	-2.591900	2.952500	-7.651800	51.363746	49.781728
2932.216415	-2.610400	2.950700	-7.702300	51.364049	49.805878
2933.215689	-2.589700	2.948500	-7.635400	51.352651	49.794468
2934.213355	-2.607400	2.947200	-7.684100	51.364354	49.783060
2935.213850	-2.609700	2.947000	-7.690600	51.359993	49.789533
2936.211634	-2.615900	2.947200	-7.709300	51.378706	49.788034
2937.213071	-2.611400	2.944800	-7.689700	51.371382	49.798768
2938.213461	-2.589300	2.942600	-7.618700	51.358952	49.808002
2939.215357	-2.594400	2.940900	-7.629700	51.373257	49.793057
2940.213070	-2.599900	2.940100	-7.643500	51.380806	49.786885
2941.215281	-2.593100	2.938400	-7.618900	51.374978	49.788999
2942.215175	-2.607100	2.938300	-7.659400	51.380208	49.785924
2943.215230	-2.601100	2.936800	-7.638500	51.376776	49.790438
2944.217466	-2.612100	2.934000	-7.663500	51.389998	49.797894
2945.217267	-2.596900	2.934600	-7.620200	51.381358	49.800445
2946.216661	-2.608200	2.932300	-7.647400	51.388830	49.780104
2947.220201	-2.622200	2.930500	-7.684200	51.396149	49.757443
2948.218556	-2.577500	2.930600	-7.553400	51.394909	49.769570
2949.216762	-2.598200	2.929100	-7.610100	51.399753	49.788510
2950.216692	-2.590000	2.927500	-7.581700	51.398435	49.762982
2951.214212	-2.607900	2.926400	-7.631700	51.396499	49.768993
2952.215134	-2.621200	2.924300	-7.665200	51.397195	49.791730
2953.213882	-2.583400	2.923200	-7.551300	51.392011	49.797741
2954.214016	-2.578700	2.921800	-7.533400	51.417808	49.797553
2955.217635	-2.588900	2.921200	-7.562100	51.403988	49.799254
2956.214440	-2.617800	2.919900	-7.643000	51.411539	49.787664
2957.214554	-2.597700	2.918400	-7.580900	51.418087	49.801446
2958.216994	-2.570200	2.916600	-7.495500	51.421124	49.797260
2959.215278	-2.589100	2.914600	-7.545900	51.434397	49.797181
2960.216423	-2.595300	2.912600	-7.558500	51.410706	49.781411
2961.215351	-2.602500	2.911400	-7.576300	51.429315	49.802932
2962.215628	-2.589800	2.910600	-7.538000	51.437795	49.801666
2963.214325	-2.591900	2.908300	-7.537600	51.425286	49.803956
2964.214383	-2.578300	2.906600	-7.493700	51.436962	49.788548
2965.214443	-2.584800	2.905600	-7.510100	51.426959	49.803464
2966.214569	-2.611500	2.903800	-7.582800	51.431651	49.801657
2967.214282	-2.580300	2.901800	-7.487300	51.443012	49.818451
2968.215081	-2.588500	2.900900	-7.508800	51.445562	49.821727
2969.214553	-2.597800	2.899700	-7.532600	51.434656	49.809002
2970.218358	-2.600400	2.897300	-7.533500	51.447517	49.807425
2971.216663	-2.594400	2.896100	-7.513000	51.441765	49.790827
2972.216974	-2.614900	2.893000	-7.564400	51.447848	49.784994
2973.213797	-2.584500	2.891200	-7.471800	51.456530	49.794047
2974.214705	-2.608000	2.891300	-7.539700	51.442892	49.790510
2975.218238	-2.583600	2.890500	-7.468000	51.455595	49.815874
2976.217010	-2.615000	2.886800	-7.548700	51.472012	49.798709
2977.221320	-2.575600	2.886100	-7.433300	51.461699	49.784770
2978.217432	-2.603900	2.885000	-7.512000	51.474146	49.769050
2979.215798	-2.607400	2.883600	-7.518300	51.466590	49.776660
2980.214221	-2.612000	2.881500	-7.526300	51.467286	49.791087
2981.216262	-2.559400	2.879900	-7.370600	51.461993	49.798434
2982.213470	-2.568000	2.877400	-7.389200	51.460602	49.802099
2983.214851	-2.601200	2.875700	-7.480100	51.472170	49.793087
2984.213750	-2.592100	2.875000	-7.452400	51.472041	49.797654
2985.215189	-2.585400	2.872300	-7.426000	51.483919	49.825805
2986.214419	-2.587600	2.870400	-7.427000	51.486774	49.808070
2987.215413	-2.610700	2.868000	-7.487300	51.475458	49.807940
2988.217309	-2.588800	2.867000	-7.421100	51.488860	49.810881
2989.213830	-2.596800	2.865500	-7.440700	51.475554	49.812734
2990.214677	-2.616600	2.863300	-7.491700	51.501791	49.816962
2991.213955	-2.588700	2.861000	-7.406400	51.509677	49.812573
2992.214991	-2.586900	2.859600	-7.397300	51.493510	49.802168
2993.216046	-2.612400	2.857600	-7.464500	51.495725	49.808721
2994.213701	-2.612400	2.856300	-7.461700	51.506520	49.813749
2995.216835	-2.559700	2.855200	-7.307700	51.487189	49.794394
2996.215808	-2.628400	2.851300	-7.493700	51.508216	49.808220
2997.216123	-2.611100	2.850100	-7.441500	51.515767	49.799160
2998.215415	-2.593900	2.849600	-7.391300	51.517412	49.784910
2999.213813	-2.567200	2.846400	-7.306700	51.498390	49.798743
3000.213657	-2.597900	2.844600	-7.389700	51.522432	49.808001
3001.215217	-2.613800	2.841900	-7.427600	51.517611	49.814014
3002.212611	-2.632200	2.840900	-7.477200	51.520624	49.797520
3003.213924	-2.590000	2.838600	-7.351700	51.531267	49.781800
3004.214519	-2.598200	2.836500	-7.369500	51.517265	49.808247
3005.212263	-2.595300	2.835200	-7.358200	51.533969	49.786312
3006.214967	-2.611300	2.832700	-7.396400	51.528550	49.778718
3007.218369	-2.595600	2.828800	-7.342000	51.526848	49.799054
3008.217492	-2.622700	2.828400	-7.417500	51.541331	49.785373
3009.218298	-2.545000	2.826300	-7.192100	51.534858	49.793344
3010.216272	-2.591400	2.824500	-7.319300	51.545271	49.787873
3011.215193	-2.616300	2.821300	-7.381300	51.546091	49.799895
3012.214893	-2.585500	2.820400	-7.292300	51.546192	49.788072
3013.214372	-2.600300	2.818200	-7.327900	51.557068	49.779089
3014.216217	-2.630400	2.814800	-7.403400	51.552218	49.783989
3015.218617	-2.599900	2.813600	-7.314400	51.546002	49.809200
3016.219022	-2.576600	2.812100	-7.245300	51.569507	49.785402
3017.217641	-2.570600	2.810100	-7.223200	51.562005	49.815106
3018.214820	-2.594500	2.807400	-7.283300	51.564037	49.807747
3019.212735	-2.572500	2.804500	-7.214200	51.566563	49.782816
3020.215242	-2.593600	2.802700	-7.269000	51.582462	49.777056
3021.214278	-2.596800	2.799900	-7.270800	51.562639	49.781778
3022.213299	-2.598400	2.796700	-7.266700	51.574365	49.789182
3023.215189	-2.575200	2.795300	-7.198500	51.579182	49.801593
3024.215450	-2.628300	2.793200	-7.340700	51.576140	49.809025
3025.215364	-2.583300	2.791400	-7.210400	51.578945	49.799910
3026.216047	-2.618600	2.787500	-7.298800	51.585026	49.813948
3027.216035	-2.595600	2.786300	-7.231500	51.593864	49.807984
3028.215937	-2.595900	2.783600	-7.225600	51.591155	49.798407
3029.216288	-2.579200	2.781900	-7.174600	51.588859	49.779849
3030.218290	-2.611100	2.777800	-7.253100	51.600403	49.813087
3031.214285	-2.583200	2.777100	-7.173400	51.583751	49.805085
3032.216051	-2.588400	2.773400	-7.178000	51.592462	49.802967
3033.216109	-2.583900	2.770900	-7.159500	51.608981	49.796745
3034.216404	-2.577700	2.767800	-7.134400	51.610396	49.793826
3035.216338	-2.573700	2.766700	-7.120200	51.594464	49.788352
3036.215800	-2.601600	2.763600	-7.189300	51.609617	49.783290
3037.221178	-2.571700	2.760800	-7.099900	51.609821	49.797586
3038.216436	-2.582900	2.757000	-7.120500	51.630748	49.773015
3039.217543	-2.605200	2.754600	-7.176200	51.629997	49.774431
3040.216504	-2.584500	2.752500	-7.113400	51.614041	49.782301
3041.218342	-2.590800	2.749500	-7.123300	51.618703	49.792028
3042.214198	-2.585300	2.746500	-7.100300	51.611741	49.776746
3043.216041	-2.659900	2.742300	-7.294100	51.623391	49.776127
3044.214323	-2.600100	2.739600	-7.123100	51.631118	49.772663
3045.212759	-2.621900	2.736100	-7.173000	51.630677	49.790649
3046.215478	-2.626700	2.733100	-7.178900	51.641425	49.807552
3047.213778	-2.607800	2.731300	-7.122100	51.642427	49.813975
3048.216326	-2.597400	2.728600	-7.087000	51.641006	49.803159
3049.218512	-2.585600	2.725900	-7.048000	51.640461	49.797917
3050.214411	-2.619700	2.720800	-7.126800	51.646311	49.794380
3051.214138	-2.598800	2.718700	-7.065000	51.647284	49.793909
3052.215187	-2.605100	2.714700	-7.072000	51.652695	49.770422
3053.214208	-2.614800	2.711200	-7.088500	51.650991	49.769799
3054.214960	-2.614200	2.707400	-7.077000	51.648952	49.771010
3055.216373	-2.584700	2.705100	-6.991700	51.666502	49.786054
3056.217253	-2.594600	2.700600	-7.006600	51.649538	49.769428
3057.214568	-2.601500	2.697300	-7.016500	51.652808	49.790408
3058.214512	-2.595800	2.693200	-6.990800	51.667162	49.787438
3059.211330	-2.601700	2.689800	-6.997800	51.671181	49.805914
3060.213597	-2.554300	2.685600	-6.859000	51.666644	49.786919
3061.215234	-2.611700	2.682200	-7.004900	51.679191	49.785030
3062.212886	-2.586300	2.677700	-6.925000	51.671562	49.784979
3063.212743	-2.567500	2.673200	-6.863200	51.669314	49.770443
3064.212591	-2.598300	2.668900	-6.934600	51.668770	49.754722
3065.213638	-2.603800	2.665600	-6.940100	51.684101	49.769714
3066.213981	-2.619500	2.661100	-6.970200	51.678584	49.771416
3067.215019	-2.608600	2.658800	-6.935700	51.686235	49.760650
3068.217648	-2.613300	2.652300	-6.930700	51.682058	49.752131
3069.217188	-2.611000	2.647200	-6.911800	51.714814	49.752775
3070.217632	-2.626600	2.643000	-6.941600	51.699500	49.766707
3071.217224	-2.564900	2.639400	-6.769400	51.701072	49.787430
3072.215752	-2.611500	2.632500	-6.874700	51.696094	49.786420
3073.215233	-2.601000	2.628700	-6.836800	51.709621	49.771784
3074.210142	-2.570300	2.623600	-6.743200	51.704310	49.783085
3075.213911	-2.636700	2.617000	-6.900000	51.716421	49.797020
3076.213693	-2.623700	2.612800	-6.854900	51.704745	49.775210
3077.214727	-2.597600	2.606200	-6.769700	51.719509	49.779517
3078.214796	-2.614100	2.600700	-6.797900	51.711233	49.772675
3079.215869	-2.580800	2.595700	-6.698500	51.716772	49.784726
3080.220559	-2.605500	2.589100	-6.745500	51.715224	49.794015
3081.217541	-2.596800	2.582300	-6.705500	51.739241	49.809393
3082.218316	-2.579000	2.577000	-6.645900	51.735889	49.810734
3083.215351	-2.571800	2.569100	-6.607100	51.718955	49.805699
3084.216771	-2.604000	2.562300	-6.672000	51.729827	49.802134
3085.214635	-2.584900	2.556400	-6.608000	51.728098	49.791731
3086.216913	-2.565100	2.547700	-6.534500	51.744745	49.802259
3087.217228	-2.567200	2.540800	-6.522300	51.737578	49.815315
3088.213343	-2.593500	2.532500	-6.567500	51.747138	49.795622
3089.213531	-2.578800	2.523800	-6.508300	51.758553	49.792601
3090.215101	-2.607600	2.515000	-6.557400	51.762597	49.774250
3091.216157	-2.590100	2.507200	-6.493400	51.752079	49.776001
3092.215227	-2.601000	2.497900	-6.496300	51.773571	49.779819
