LabVIEW Measurement	
Writer_Version	2
Reader_Version	2
Separator	Tab
Decimal_Separator	.
Multi_Headings	No
X_Columns	One
Time_Pref	Absolute
Operator	admin
Description	Clolumns are: time, Current, Voltage, Power, Battery Temp, and Chamber Temp
Date	2024/08/16
Time	13:07:17.8513970375061035156
***End_of_Header***	
	
Channels	6						
Samples	1	1	1	1	1	1	
Date	2024/09/09	2024/09/09	2024/09/09	2024/09/09	2024/09/09	2024/09/09	
Time	09:04:05.7616214752197265625	09:04:05.7686200141906738281	09:04:05.7780575752258300781	09:04:05.7411890029907226563	09:04:05.7411890029907226563	09:04:05.7411890029907226563	
X_Dimension	Time	Time	Time	Time	Time	Time	
X0	0.0000000000000000E+0	0.0000000000000000E+0	0.0000000000000000E+0	0.0000000000000000E+0	0.0000000000000000E+0	0.0000000000000000E+0	
Delta_X	1.000000	1.000000	1.000000	1.000000	1.000000	1.000000	
***End_of_Header***							
X_Value	Untitled	Untitled 1	Untitled 2	Untitled 3	Untitled 4	Untitled 5	Comment
0.000000	0.016823	4.087200	0.068772	20.731403	0.000452	20.724764
0.998124	-2.991600	3.921000	-11.729000	20.724241	0.000452	20.723293
1.997234	-2.982400	3.915600	-11.678000	20.721763	0.000451	20.739307
2.996100	-3.010000	3.909300	-11.766000	20.744230	0.000452	20.733798
4.001172	-3.013800	3.906100	-11.770000	20.739464	0.000451	20.723816
4.997505	-3.020900	3.904700	-11.794000	20.734101	0.000449	20.717505
5.998622	-3.015800	3.901200	-11.764000	20.763099	0.000449	20.729433
6.997504	-3.007100	3.898500	-11.722000	20.766966	0.000449	20.730929
7.996713	-3.018500	3.897100	-11.762000	20.769601	0.000447	20.716493
8.997364	-3.016900	3.894000	-11.747000	20.770309	0.000447	20.736643
9.997766	-3.005800	3.894500	-11.704000	20.771683	0.000448	20.729482
10.999966	-3.012800	3.892700	-11.727000	20.786357	0.000446	20.739889
12.000589	-3.023600	3.891200	-11.764000	20.787135	0.000445	20.706051
12.998597	-3.004300	3.888800	-11.683000	20.795660	0.000445	20.715525
13.998746	-2.987800	3.888200	-11.617000	20.793274	0.000446	20.708397
14.998980	-2.981800	3.888000	-11.593000	20.805847	0.000443	20.729980
15.998207	-3.004900	3.884500	-11.671000	20.807719	0.000442	20.721895
16.997826	-2.993500	3.885800	-11.631000	20.823537	0.000446	20.711159
17.999373	-2.990200	3.884900	-11.615000	20.829554	0.000441	20.719074
18.999826	-3.018500	3.882800	-11.719000	20.843084	0.000443	20.723122
20.001839	-2.971400	3.884300	-11.541000	20.844203	0.000442	20.700058
21.003666	-2.991300	3.881800	-11.611000	20.846549	0.000441	20.729433
22.002174	-2.985900	3.882900	-11.593000	20.857743	0.000441	20.707909
23.025047	-3.022200	3.879300	-11.723000	20.867714	0.000441	20.714088
24.004568	-2.993000	3.880100	-11.613000	20.872905	0.000439	20.707425
25.003516	-3.007000	3.881200	-11.670000	20.876185	0.000440	20.720663
26.004259	-2.984400	3.879300	-11.577000	20.898214	0.000439	20.737005
27.005963	-2.998300	3.877800	-11.626000	20.888732	0.000438	20.703812
28.003880	-3.000200	3.878300	-11.634000	20.915449	0.000439	20.721049
29.006734	-3.011400	3.877800	-11.677000	20.917335	0.000440	20.705391
30.005938	-3.004100	3.876900	-11.646000	20.930463	0.000439	20.703822
31.005404	-3.017700	3.874900	-11.692000	20.924896	0.000437	20.707263
32.005323	-3.012700	3.876100	-11.676000	20.946265	0.000440	20.701133
33.006358	-2.985400	3.875000	-11.568000	20.938254	0.000437	20.700234
34.005484	-2.999600	3.875000	-11.623000	20.972838	0.000438	20.709693
35.005785	-2.995300	3.875100	-11.606000	20.982902	0.000436	20.728768
36.005867	-2.999400	3.874100	-11.618000	20.971318	0.000437	20.721924
37.005414	-2.993700	3.873200	-11.594000	20.992408	0.000439	20.704135
38.007020	-3.000700	3.873100	-11.621000	20.983449	0.000438	20.695648
39.007735	-3.006600	3.872400	-11.642000	20.993551	0.000436	20.689156
40.010816	-3.023300	3.873300	-11.709000	20.998131	0.000438	20.694211
41.007231	-3.014300	3.871900	-11.670000	20.989343	0.000435	20.707709
42.009103	-3.009000	3.873200	-11.653000	21.021521	0.000436	20.688208
43.013302	-2.974700	3.872000	-11.517000	21.044613	0.000436	20.698978
44.008547	-3.004800	3.871200	-11.631000	21.052477	0.000437	20.688824
45.008843	-2.987400	3.871400	-11.564000	21.057110	0.000435	20.690613
46.009459	-2.989400	3.871600	-11.573000	21.055854	0.000436	20.704057
47.013227	-2.995600	3.870600	-11.594000	21.061181	0.000434	20.707489
48.010634	-2.985200	3.870500	-11.553000	21.082376	0.000436	20.704033
49.012375	-2.991400	3.870900	-11.578000	21.101665	0.000435	20.693928
50.013618	-3.006900	3.868900	-11.633000	21.091431	0.000436	20.687959
51.012660	-2.997100	3.870600	-11.600000	21.112010	0.000434	20.681990
52.012760	-3.021800	3.868400	-11.689000	21.101772	0.000432	20.683129
53.016509	-2.965400	3.870500	-11.477000	21.100179	0.000435	20.684381
54.015485	-3.000000	3.868900	-11.605000	21.120357	0.000434	20.681330
55.018814	-3.017700	3.866500	-11.667000	21.137651	0.000434	20.691992
56.017239	-2.986500	3.868800	-11.553000	21.126773	0.000433	20.708139
57.012177	-2.982800	3.868500	-11.538000	21.153924	0.000436	20.697365
58.015206	-2.984300	3.867500	-11.541000	21.150142	0.000435	20.683623
59.016246	-2.998000	3.866900	-11.592000	21.162187	0.000437	20.695673
60.013563	-3.011800	3.867300	-11.647000	21.184612	0.000434	20.675904
61.016815	-3.015200	3.866400	-11.657000	21.166102	0.000434	20.674931
62.016346	-3.022600	3.866400	-11.685000	21.195729	0.000433	20.686551
63.012896	-3.015000	3.866800	-11.658000	21.192035	0.000434	20.680010
64.016574	-2.992300	3.866300	-11.568000	21.217049	0.000434	20.683696
65.016618	-2.982200	3.865600	-11.527000	21.217181	0.000434	20.689045
66.018066	-3.002800	3.866900	-11.611000	21.220801	0.000435	20.681286
67.015737	-2.986600	3.866100	-11.546000	21.226758	0.000434	20.673494
68.014424	-2.990000	3.865200	-11.556000	21.237562	0.000434	20.678612
69.016030	-2.994300	3.865000	-11.572000	21.252436	0.000435	20.672154
70.015116	-2.988900	3.865500	-11.553000	21.261710	0.000437	20.690917
71.017876	-2.967000	3.865700	-11.468000	21.267734	0.000432	20.691729
72.014337	-2.999800	3.863300	-11.588000	21.258196	0.000435	20.691670
73.016698	-2.997600	3.864900	-11.584000	21.289380	0.000434	20.673078
74.014699	-3.000800	3.864500	-11.596000	21.290973	0.000435	20.693166
75.015871	-3.018300	3.862800	-11.657000	21.310610	0.000434	20.689103
76.018193	-2.986400	3.866100	-11.545000	21.294120	0.000436	20.691098
77.016393	-2.962600	3.864800	-11.449000	21.332729	0.000435	20.669505
78.016603	-2.997300	3.864600	-11.582000	21.342100	0.000432	20.685994
79.018377	-3.003200	3.863700	-11.602000	21.361091	0.000435	20.684132
80.017411	-2.972000	3.863700	-11.482000	21.345378	0.000434	20.675523
81.017445	-2.992500	3.863400	-11.560000	21.359621	0.000434	20.697360
82.017719	-3.002800	3.861400	-11.594000	21.344636	0.000437	20.684264
83.016738	-3.001500	3.862900	-11.594000	21.394969	0.000437	20.669187
84.016523	-2.993800	3.863800	-11.566000	21.402952	0.000435	20.683814
85.019201	-3.014700	3.862200	-11.642000	21.394143	0.000435	20.682113
86.023194	-3.020800	3.860900	-11.662000	21.403343	0.000437	20.660969
87.021943	-2.987900	3.862500	-11.540000	21.401227	0.000435	20.678769
88.020158	-2.992400	3.862600	-11.557000	21.436320	0.000438	20.674525
89.024567	-2.982600	3.862800	-11.520000	21.425152	0.000438	20.693699
90.022350	-2.993600	3.861700	-11.560000	21.436721	0.000435	20.682039
91.025126	-2.987400	3.861000	-11.533000	21.449965	0.000436	20.665892
92.025410	-3.017500	3.860000	-11.647000	21.456927	0.000437	20.673807
93.023874	-2.989200	3.861400	-11.542000	21.456527	0.000438	20.687632
94.027044	-2.981100	3.861300	-11.510000	21.459321	0.000437	20.677151
95.029003	-2.982400	3.861000	-11.514000	21.484544	0.000437	20.686268
96.025123	-3.002300	3.861600	-11.593000	21.477412	0.000437	20.656843
97.027706	-3.001700	3.860300	-11.586000	21.508140	0.000437	20.671470
98.024729	-3.012700	3.859700	-11.628000	21.520314	0.000437	20.668004
99.024930	-2.981600	3.861300	-11.512000	21.523484	0.000439	20.678290
100.024559	-3.014500	3.860300	-11.636000	21.513279	0.000440	20.695107
101.027108	-3.004100	3.860700	-11.596000	21.531334	0.000438	20.670497
102.024302	-2.987900	3.860300	-11.533000	21.531369	0.000439	20.654409
103.024830	-2.996900	3.859600	-11.566000	21.538486	0.000439	20.677180
104.025772	-3.000000	3.859400	-11.577000	21.532693	0.000437	20.665218
105.025637	-3.004900	3.859800	-11.597000	21.573819	0.000438	20.656110
106.025368	-2.996300	3.860000	-11.565000	21.565559	0.000439	20.687676
107.026575	-3.001800	3.858200	-11.582000	21.571900	0.000440	20.691651
108.027532	-3.000600	3.859100	-11.579000	21.575593	0.000440	20.670214
109.025407	-3.000100	3.859700	-11.578000	21.584024	0.000441	20.653993
110.027148	-2.982700	3.859100	-11.510000	21.604325	0.000440	20.672414
111.028012	-2.992200	3.857800	-11.542000	21.602210	0.000440	20.672668
112.025912	-3.003700	3.857500	-11.585000	21.610290	0.000439	20.676012
113.030009	-3.004900	3.856600	-11.588000	21.604750	0.000441	20.682323
114.034610	-3.010200	3.857000	-11.609000	21.627396	0.000440	20.667051
115.031545	-3.012900	3.857700	-11.622000	21.654803	0.000440	20.673617
116.034716	-3.000200	3.857100	-11.571000	21.646798	0.000440	20.700695
117.032972	-2.999900	3.857200	-11.571000	21.659556	0.000443	20.680744
118.032205	-3.001800	3.857200	-11.578000	21.650793	0.000442	20.682407
119.033315	-3.015700	3.857000	-11.631000	21.666746	0.000443	20.677982
120.036039	-3.000200	3.856800	-11.570000	21.652884	0.000442	20.663634
121.031318	-2.982100	3.857200	-11.502000	21.689073	0.000442	20.688948
122.031120	-3.009300	3.855000	-11.599000	21.693923	0.000441	20.677205
123.035754	-2.982900	3.857700	-11.505000	21.704405	0.000445	20.675367
124.032544	-2.989700	3.857000	-11.531000	21.689620	0.000443	20.668156
125.033102	-2.994700	3.855800	-11.545000	21.715556	0.000443	20.685579
126.033707	-3.002400	3.855900	-11.576000	21.739547	0.000444	20.665966
127.037062	-2.971200	3.856200	-11.456000	21.739259	0.000443	20.697923
128.033438	-3.000500	3.855200	-11.566000	21.753872	0.000446	20.677459
129.035148	-2.983700	3.854900	-11.501000	21.761887	0.000443	20.681214
130.036473	-2.969700	3.855200	-11.448000	21.791284	0.000445	20.696413
131.036026	-3.008800	3.853500	-11.593000	21.758498	0.000445	20.687305
132.034316	-3.001200	3.854700	-11.568000	21.753736	0.000444	20.691074
133.032388	-3.008700	3.853700	-11.593000	21.782659	0.000443	20.687305
134.045106	-3.000100	3.854400	-11.562000	21.774703	0.000445	20.681713
135.037138	-2.996800	3.853300	-11.546000	21.786557	0.000445	20.671764
136.034203	-3.006600	3.854300	-11.587000	21.802093	0.000447	20.684944
137.034618	-2.980900	3.854600	-11.489000	21.810693	0.000447	20.693079
138.034966	-2.997700	3.852800	-11.549000	21.798083	0.000446	20.704166
139.036535	-2.998900	3.853900	-11.556000	21.815807	0.000448	20.685868
140.035161	-2.981800	3.851700	-11.484000	21.840367	0.000444	20.675362
141.036972	-2.995900	3.853600	-11.544000	21.838009	0.000448	20.680589
142.036386	-2.980700	3.853000	-11.484000	21.839406	0.000449	20.669657
143.036088	-3.011000	3.852500	-11.599000	21.842492	0.000446	20.687921
144.035212	-2.989400	3.852100	-11.514000	21.851527	0.000449	20.696017
145.036075	-2.996600	3.852400	-11.543000	21.851283	0.000449	20.678227
146.046407	-2.996100	3.851900	-11.540000	21.882270	0.000448	20.678423
147.037819	-2.979600	3.853200	-11.481000	21.896227	0.000448	20.696188
148.039569	-2.996100	3.851700	-11.539000	21.891680	0.000448	20.674566
149.038958	-3.020800	3.849700	-11.627000	21.894425	0.000449	20.688220
150.037621	-2.995200	3.851600	-11.535000	21.907762	0.000447	20.676913
151.037407	-3.018000	3.850900	-11.621000	21.936252	0.000451	20.694527
152.037279	-3.031500	3.850800	-11.673000	21.932829	0.000451	20.680667
153.039871	-3.008100	3.851300	-11.584000	21.929318	0.000450	20.696120
154.037544	-2.997600	3.850600	-11.542000	21.956523	0.000450	20.696800
155.042951	-3.009400	3.851500	-11.590000	21.944984	0.000452	20.692835
156.039444	-2.999900	3.849900	-11.549000	21.988405	0.000451	20.670391
157.040235	-3.002700	3.849900	-11.559000	21.984054	0.000451	20.688323
158.043890	-2.999800	3.849400	-11.547000	21.993674	0.000453	20.684202
159.039054	-2.998600	3.851000	-11.547000	22.004505	0.000451	20.693623
160.039690	-3.022600	3.850300	-11.637000	22.016918	0.000454	20.691824
161.043378	-3.009600	3.849100	-11.583000	22.022733	0.000454	20.693853
162.040212	-3.019400	3.848900	-11.620000	22.036542	0.000453	20.692029
163.043383	-3.016900	3.849600	-11.613000	22.041884	0.000451	20.690264
164.044129	-3.010800	3.848700	-11.586000	22.017533	0.000452	20.677266
165.040864	-2.994700	3.849500	-11.527000	22.065601	0.000453	20.702154
166.043030	-3.014400	3.848500	-11.600000	22.028222	0.000452	20.676112
167.045254	-2.989300	3.849200	-11.506000	22.042929	0.000451	20.704588
168.042758	-3.002400	3.849100	-11.555000	22.059648	0.000454	20.706627
169.043430	-2.995600	3.848100	-11.527000	22.077344	0.000456	20.704427
170.043157	-3.001900	3.849100	-11.554000	22.093896	0.000455	20.707248
171.044622	-2.994100	3.848400	-11.522000	22.085893	0.000456	20.684061
172.044386	-2.985600	3.847900	-11.488000	22.140808	0.000458	20.704427
173.045146	-2.981900	3.848300	-11.475000	22.093422	0.000458	20.702032
174.045460	-2.989900	3.847300	-11.501000	22.136824	0.000458	20.701861
175.044240	-2.997200	3.847800	-11.532000	22.112475	0.000458	20.687439
176.047793	-2.987600	3.847500	-11.494000	22.127512	0.000460	20.695857
177.044842	-2.993900	3.847400	-11.518000	22.161441	0.000461	20.708963
178.045046	-2.991800	3.846200	-11.506000	22.155674	0.000459	20.698448
179.044096	-3.008800	3.845400	-11.569000	22.169335	0.000457	20.691736
180.047010	-2.997100	3.845800	-11.526000	22.165586	0.000457	20.710742
181.048983	-2.984800	3.846600	-11.480000	22.158506	0.000460	20.695119
182.048050	-2.992200	3.845000	-11.504000	22.191755	0.000460	20.685732
183.046664	-2.995800	3.845000	-11.518000	22.208100	0.000458	20.697832
184.046425	-2.983400	3.845800	-11.473000	22.209218	0.000461	20.706538
185.046313	-2.979100	3.846200	-11.457000	22.185881	0.000460	20.700241
186.053465	-2.998300	3.845900	-11.530000	22.202456	0.000461	20.713519
187.050553	-3.001500	3.844000	-11.536000	22.199580	0.000462	20.714433
188.047765	-2.989500	3.845700	-11.496000	22.218147	0.000462	20.717376
189.052015	-2.984000	3.845900	-11.475000	22.251223	0.000462	20.714457
190.052237	-2.990000	3.844700	-11.495000	22.246273	0.000461	20.702861
191.052422	-3.006500	3.842700	-11.551000	22.264546	0.000463	20.712150
192.052982	-2.985800	3.843800	-11.475000	22.248328	0.000461	20.717722
193.051442	-2.989700	3.843400	-11.490000	22.266298	0.000465	20.722914
194.052039	-2.995300	3.844300	-11.515000	22.289868	0.000463	20.705735
195.051356	-3.002400	3.843700	-11.539000	22.286577	0.000465	20.725201
196.051643	-2.984000	3.844300	-11.471000	22.282755	0.000464	20.713787
197.052855	-2.977500	3.844300	-11.446000	22.334819	0.000463	20.705227
198.052115	-2.992400	3.842900	-11.499000	22.322605	0.000463	20.699634
199.055071	-3.008800	3.843000	-11.562000	22.322824	0.000466	20.714554
200.053306	-2.997700	3.843200	-11.520000	22.345626	0.000465	20.712256
201.052598	-3.009000	3.841900	-11.559000	22.350835	0.000467	20.716524
202.052662	-3.002700	3.840700	-11.531000	22.344474	0.000465	20.724854
203.052516	-3.005700	3.842200	-11.547000	22.334228	0.000465	20.715067
204.055163	-3.001400	3.839500	-11.523000	22.352124	0.000466	20.702640
205.055748	-2.982600	3.841400	-11.457000	22.346344	0.000464	20.723881
206.053309	-2.992000	3.842800	-11.497000	22.360744	0.000465	20.708903
207.059125	-2.999000	3.841500	-11.521000	22.373651	0.000468	20.714241
208.055822	-3.008500	3.841300	-11.554000	22.384175	0.000470	20.721461
209.054569	-2.978700	3.842000	-11.443000	22.365807	0.000467	20.700695
210.055804	-2.994200	3.841500	-11.500000	22.378156	0.000469	20.713537
211.055824	-2.990100	3.839600	-11.480000	22.398781	0.000469	20.718543
212.059739	-3.001800	3.840100	-11.526000	22.388803	0.000470	20.736053
213.062182	-3.007400	3.840200	-11.548000	22.405956	0.000468	20.726203
214.058006	-3.001300	3.840700	-11.527000	22.425759	0.000473	20.709524
215.057510	-2.976100	3.838800	-11.423000	22.429679	0.000469	20.731942
216.061494	-3.006700	3.839200	-11.542000	22.461065	0.000471	20.732079
217.059933	-2.997500	3.839200	-11.508000	22.466537	0.000470	20.725705
218.060244	-2.996800	3.839700	-11.506000	22.478871	0.000473	20.721461
219.061039	-2.978400	3.838800	-11.433000	22.465468	0.000473	20.731273
220.058622	-3.013500	3.837200	-11.563000	22.458829	0.000472	20.726995
221.057890	-2.981300	3.838800	-11.445000	22.441296	0.000472	20.724135
222.063864	-3.015300	3.837600	-11.571000	22.467327	0.000470	20.740722
223.058969	-3.013000	3.837500	-11.562000	22.463281	0.000475	20.727660
224.059769	-3.003300	3.837300	-11.524000	22.464765	0.000471	20.725353
225.058662	-2.983700	3.836600	-11.446000	22.479198	0.000474	20.726531
226.059275	-2.987600	3.838400	-11.467000	22.479198	0.000474	20.716099
227.058172	-2.986300	3.838300	-11.462000	22.497746	0.000476	20.717605
228.063671	-2.999000	3.837800	-11.508000	22.495418	0.000476	20.728550
229.060034	-2.975100	3.837200	-11.415000	22.523810	0.000476	20.735648
230.059238	-2.995200	3.838000	-11.494000	22.535123	0.000474	20.725167
231.060604	-3.004200	3.836600	-11.525000	22.537080	0.000477	20.742301
232.063289	-2.992700	3.835800	-11.477000	22.543938	0.000476	20.735892
233.062539	-2.998300	3.836400	-11.501000	22.587869	0.000474	20.716353
234.062132	-3.012700	3.834100	-11.550000	22.562011	0.000475	20.719379
235.062971	-3.002800	3.834500	-11.513000	22.555408	0.000478	20.731732
236.064711	-2.994300	3.835300	-11.482000	22.552216	0.000475	20.743709
237.064385	-3.004200	3.835800	-11.523000	22.579772	0.000478	20.730055
238.064627	-3.009700	3.834200	-11.539000	22.586653	0.000477	20.736000
239.070915	-2.990700	3.833500	-11.464000	22.600212	0.000478	20.733458
240.063715	-3.002100	3.833500	-11.507000	22.614365	0.000478	20.710174
241.064775	-2.981300	3.835200	-11.433000	22.587078	0.000478	20.743538
242.065289	-2.986300	3.833800	-11.447000	22.614389	0.000478	20.746711
243.064184	-3.010400	3.832800	-11.537000	22.624546	0.000479	20.745503
244.065037	-3.006900	3.833400	-11.526000	22.628626	0.000481	20.749116
245.068085	-3.012000	3.833200	-11.544000	22.643471	0.000480	20.753080
246.063882	-3.027700	3.832800	-11.604000	22.636698	0.000479	20.733492
247.063108	-3.013400	3.833100	-11.550000	22.622920	0.000481	20.717321
248.063274	-2.995000	3.832300	-11.477000	22.631539	0.000481	20.737809
249.067427	-2.998700	3.831600	-11.489000	22.622969	0.000481	20.730647
250.064974	-2.998500	3.832000	-11.488000	22.679785	0.000482	20.739667
251.065847	-2.976600	3.832500	-11.407000	22.663217	0.000484	20.741089
252.069261	-3.003600	3.831300	-11.506000	22.641720	0.000483	20.753222
253.070116	-3.025700	3.832200	-11.594000	22.687433	0.000483	20.756336
254.063547	-2.995100	3.832300	-11.476000	22.681982	0.000484	20.740444
255.065799	-2.983300	3.830500	-11.426000	22.694884	0.000482	20.742937
256.066767	-2.988700	3.830800	-11.448000	22.696095	0.000482	20.729450
257.065578	-3.016500	3.831000	-11.555000	22.715771	0.000482	20.751531
258.066740	-3.018000	3.830700	-11.559000	22.716703	0.000483	20.737291
259.066762	-2.985100	3.831000	-11.434000	22.723125	0.000483	20.739931
260.065598	-3.012200	3.828700	-11.532000	22.716835	0.000485	20.751174
261.070086	-3.008400	3.829300	-11.519000	22.766819	0.000485	20.761415
262.068087	-3.001600	3.829200	-11.493000	22.784099	0.000485	20.744585
263.065071	-3.005000	3.829600	-11.507000	22.780263	0.000487	20.740268
264.065788	-2.994900	3.828200	-11.465000	22.799270	0.000488	20.766421
265.073421	-2.975000	3.828300	-11.388000	22.784865	0.000485	20.761948
266.065610	-2.993100	3.828300	-11.458000	22.814660	0.000487	20.748647
267.063190	-2.995700	3.827600	-11.466000	22.809112	0.000488	20.755892
268.066157	-2.979700	3.828800	-11.408000	22.848314	0.000486	20.753912
269.065327	-2.997200	3.828300	-11.473000	22.858848	0.000486	20.760198
270.066090	-3.011400	3.827200	-11.524000	22.858580	0.000488	20.758033
271.064970	-3.021900	3.826400	-11.562000	22.873896	0.000488	20.736392
272.069042	-2.986000	3.828600	-11.431000	22.867465	0.000488	20.777840
273.065675	-3.002200	3.827100	-11.489000	22.865938	0.000493	20.768249
274.066566	-3.001200	3.826700	-11.484000	22.867636	0.000488	20.757148
275.069482	-2.997600	3.827700	-11.473000	22.876569	0.000490	20.765150
276.067396	-3.002900	3.826200	-11.488000	22.892344	0.000492	20.769100
277.067087	-3.001600	3.824600	-11.479000	22.889046	0.000489	20.774804
278.066567	-3.007700	3.825100	-11.504000	22.912334	0.000488	20.745029
279.067356	-3.019600	3.825500	-11.551000	22.882444	0.000490	20.756336
280.067474	-3.018300	3.823700	-11.539000	22.882141	0.000491	20.752714
281.069662	-3.023100	3.826500	-11.567000	22.897335	0.000492	20.775997
282.073496	-2.997300	3.824300	-11.461000	22.911451	0.000491	20.772120
283.073506	-2.993300	3.823900	-11.445000	22.907650	0.000492	20.773528
284.070508	-2.989000	3.825100	-11.432000	22.936983	0.000494	20.788691
285.071185	-2.974300	3.825300	-11.376000	22.920443	0.000494	20.762637
286.069789	-2.983900	3.825500	-11.414000	22.908308	0.000492	20.776084
287.070834	-2.996600	3.823900	-11.457000	22.911865	0.000492	20.796243
288.072091	-2.979200	3.823400	-11.390000	22.907518	0.000494	20.756800
289.069165	-3.001300	3.823300	-11.473000	22.924971	0.000495	20.768596
290.071911	-2.999400	3.822000	-11.462000	22.914788	0.000494	20.772145
291.071366	-2.997000	3.822100	-11.454000	22.919316	0.000494	20.784742
292.070711	-3.005600	3.822700	-11.488000	22.926220	0.000496	20.763209
293.069942	-3.028400	3.822300	-11.574000	22.949278	0.000494	20.782517
294.071763	-3.007400	3.822700	-11.495000	22.955830	0.000495	20.779125
295.072604	-3.021200	3.821300	-11.544000	22.959055	0.000494	20.771451
296.071499	-3.014800	3.822600	-11.524000	22.990870	0.000493	20.780093
297.072315	-3.000900	3.819800	-11.461000	23.005180	0.000495	20.791585
298.074512	-3.013000	3.820900	-11.512000	23.019752	0.000494	20.776314
299.072216	-2.995900	3.821900	-11.449000	23.002984	0.000497	20.778954
300.071608	-2.993600	3.821600	-11.440000	23.006926	0.000499	20.799499
301.071714	-2.993700	3.821800	-11.439000	23.053873	0.000500	20.770673
302.071465	-3.011000	3.820600	-11.502000	23.049990	0.000497	20.793335
303.076661	-2.990400	3.820200	-11.423000	23.082763	0.000499	20.797725
304.074403	-2.997100	3.819800	-11.446000	23.075084	0.000500	20.788608
305.072538	-2.999200	3.819700	-11.455000	23.103462	0.000496	20.785274
306.075718	-2.990400	3.818500	-11.417000	23.100769	0.000500	20.785895
307.074147	-3.003800	3.818800	-11.470000	23.103486	0.000497	20.781031
308.072759	-2.980000	3.818600	-11.378000	23.096642	0.000499	20.765638
309.075043	-2.999400	3.819100	-11.454000	23.113921	0.000501	20.778685
310.079790	-2.997800	3.819600	-11.449000	23.105779	0.000501	20.771949
311.075996	-3.008200	3.818600	-11.486000	23.105926	0.000501	20.783001
312.080927	-3.009900	3.818400	-11.492000	23.130278	0.000498	20.806455
313.081403	-3.002200	3.818400	-11.462000	23.119541	0.000501	20.798067
314.079954	-2.995900	3.817900	-11.437000	23.116775	0.000502	20.804304
315.078463	-3.020600	3.817900	-11.531000	23.127365	0.000500	20.803537
316.080483	-3.021800	3.816200	-11.530000	23.120355	0.000503	20.799357
317.080586	-3.032800	3.816600	-11.575000	23.126712	0.000503	20.811890
318.080008	-2.990900	3.817200	-11.417000	23.146390	0.000502	20.796048
319.081589	-3.021000	3.816500	-11.529000	23.146200	0.000500	20.803918
320.081665	-2.998900	3.817000	-11.446000	23.150458	0.000502	20.802495
321.083588	-3.002800	3.815200	-11.456000	23.164931	0.000502	20.806567
322.083139	-3.003200	3.814800	-11.455000	23.207286	0.000503	20.805863
323.086509	-3.012600	3.815700	-11.494000	23.209423	0.000503	20.791409
324.083170	-2.981000	3.814800	-11.371000	23.211013	0.000504	20.792054
325.089646	-3.008600	3.813800	-11.474000	23.176097	0.000504	20.819652
326.084903	-3.004700	3.815700	-11.463000	23.194745	0.000506	20.813684
327.083141	-3.017600	3.813900	-11.508000	23.183414	0.000506	20.804225
328.084437	-2.996700	3.814900	-11.430000	23.175663	0.000504	20.793613
329.088575	-2.997300	3.814200	-11.431000	23.195560	0.000505	20.797905
330.086220	-3.025800	3.812800	-11.536000	23.197282	0.000506	20.801527
331.085282	-2.991200	3.813100	-11.404000	23.186960	0.000505	20.802089
332.087155	-3.021800	3.813400	-11.523000	23.197442	0.000506	20.795998
333.092142	-2.994100	3.814000	-11.419000	23.195101	0.000506	20.811196
334.088868	-3.016200	3.813100	-11.500000	23.216417	0.000506	20.813117
335.090937	-3.000500	3.812900	-11.439000	23.266716	0.000507	20.817530
336.094708	-3.014800	3.812800	-11.494000	23.264389	0.000505	20.807138
337.091272	-3.005600	3.811800	-11.455000	23.314573	0.000507	20.818078
338.092794	-3.002100	3.812000	-11.443000	23.321865	0.000506	20.829653
339.093398	-3.012500	3.811200	-11.480000	23.315900	0.000506	20.821304
340.090312	-2.999000	3.812500	-11.433000	23.322279	0.000510	20.806835
341.094545	-2.988400	3.811500	-11.389000	23.320109	0.000507	20.801341
342.092173	-2.990900	3.811600	-11.399000	23.278973	0.000508	20.833607
343.091695	-3.016400	3.810900	-11.494000	23.299755	0.000508	20.833099
344.098127	-2.985000	3.811500	-11.376000	23.301043	0.000508	20.814001
345.092126	-3.008100	3.811500	-11.465000	23.307169	0.000507	20.803545
346.092511	-3.014700	3.809100	-11.483000	23.316485	0.000508	20.812881
347.092097	-2.996400	3.811000	-11.417000	23.326834	0.000510	20.806185
348.093670	-3.017900	3.809500	-11.496000	23.310968	0.000508	20.796447
349.091126	-3.007500	3.809900	-11.457000	23.302706	0.000509	20.807133
350.092080	-3.007600	3.809700	-11.457000	23.342461	0.000509	20.793397
351.092696	-3.011100	3.808900	-11.468000	23.381630	0.000509	20.812739
352.096048	-3.008900	3.810200	-11.463000	23.371222	0.000511	20.797567
353.094656	-3.002700	3.808000	-11.434000	23.385380	0.000511	20.814602
354.095279	-2.997900	3.809000	-11.418000	23.376489	0.000512	20.789569
355.097113	-2.981200	3.809000	-11.353000	23.365789	0.000511	20.799233
356.094991	-2.998500	3.807700	-11.417000	23.360599	0.000512	20.792610
357.095199	-3.011900	3.806700	-11.464000	23.354147	0.000511	20.808902
358.096397	-3.019200	3.808600	-11.499000	23.365901	0.000514	20.802191
359.095714	-2.986400	3.806700	-11.367000	23.379961	0.000511	20.784989
360.097444	-2.981700	3.806700	-11.350000	23.423703	0.000511	20.800856
361.097648	-3.003000	3.806800	-11.431000	23.458006	0.000514	20.797781
362.097962	-2.990600	3.806800	-11.383000	23.473617	0.000513	20.791143
363.100310	-2.994800	3.806400	-11.398000	23.457533	0.000512	20.807264
364.095689	-2.988100	3.806400	-11.373000	23.467965	0.000513	20.793064
365.098536	-2.984200	3.806000	-11.357000	23.464268	0.000513	20.787462
366.098386	-3.005100	3.805400	-11.434000	23.470793	0.000513	20.785468
367.100506	-3.010200	3.804600	-11.452000	23.434173	0.000512	20.785747
368.100142	-3.027000	3.803200	-11.511000	23.434685	0.000514	20.789579
369.098032	-3.000700	3.804900	-11.417000	23.428365	0.000515	20.779450
370.099728	-3.020300	3.803300	-11.486000	23.450272	0.000514	20.776752
371.111583	-2.967200	3.803400	-11.283000	23.468164	0.000515	20.779040
372.101110	-3.008000	3.803600	-11.440000	23.512254	0.000515	20.789569
373.106102	-2.999700	3.802800	-11.406000	23.498414	0.000514	20.761471
374.104294	-2.992000	3.802500	-11.376000	23.479239	0.000515	20.761217
375.100455	-3.009600	3.802700	-11.444000	23.453100	0.000514	20.791915
376.103299	-2.991000	3.803900	-11.377000	23.439299	0.000514	20.768598
377.104900	-3.027000	3.801700	-11.507000	23.459810	0.000516	20.787262
378.102358	-3.016300	3.801900	-11.467000	23.476074	0.000515	20.783649
379.107460	-3.021600	3.802100	-11.488000	23.499194	0.000516	20.791651
380.107578	-2.995200	3.802100	-11.387000	23.500891	0.000515	20.795723
381.105004	-2.987000	3.802200	-11.356000	23.501452	0.000517	20.782060
382.104985	-2.961500	3.802200	-11.259000	23.510790	0.000516	20.769610
383.106182	-2.986100	3.801500	-11.351000	23.521514	0.000519	20.745271
384.106277	-2.999700	3.801200	-11.401000	23.534407	0.000518	20.775740
385.105722	-2.984400	3.800600	-11.342000	23.577460	0.000515	20.768637
386.107389	-3.014400	3.800900	-11.457000	23.576977	0.000517	20.769576
387.104439	-3.015500	3.799300	-11.456000	23.586632	0.000517	20.771194
388.105400	-3.002000	3.799900	-11.405000	23.548953	0.000517	20.762346
389.107487	-3.021100	3.798000	-11.474000	23.562729	0.000517	20.772836
390.104596	-3.011800	3.800200	-11.444000	23.564743	0.000518	20.778648
391.108084	-2.992100	3.800100	-11.368000	23.522294	0.000518	20.771184
392.106094	-3.001300	3.800000	-11.403000	23.517890	0.000517	20.780995
393.109404	-2.979500	3.799800	-11.321000	23.530213	0.000517	20.777700
394.108626	-2.993100	3.798600	-11.369000	23.542219	0.000517	20.770294
395.107078	-3.014400	3.797600	-11.447000	23.550226	0.000519	20.751293
396.111555	-3.002500	3.798000	-11.403000	23.551923	0.000522	20.770539
397.108150	-2.988300	3.798800	-11.351000	23.577962	0.000521	20.769141
398.115318	-2.999800	3.798400	-11.393000	23.576411	0.000518	20.771379
399.109835	-3.008600	3.797900	-11.425000	23.596350	0.000519	20.763866
400.112823	-3.021800	3.796300	-11.470000	23.643126	0.000518	20.748170
401.110153	-2.995100	3.795300	-11.366000	23.642921	0.000520	20.765508
402.110686	-2.977200	3.797800	-11.306000	23.661015	0.000521	20.773691
403.114548	-2.986000	3.795300	-11.332000	23.671796	0.000517	20.766007
404.114239	-3.004300	3.796100	-11.404000	23.663682	0.000520	20.751709
405.108831	-2.999400	3.794900	-11.381000	23.617176	0.000521	20.769571
406.111963	-2.988800	3.796200	-11.345000	23.632954	0.000520	20.763103
407.111173	-2.964500	3.795500	-11.250000	23.623544	0.000519	20.759359
408.110341	-3.004500	3.794800	-11.401000	23.665769	0.000520	20.754749
409.113469	-2.994600	3.795400	-11.365000	23.691382	0.000521	20.772841
410.114928	-3.013400	3.794800	-11.434000	23.707500	0.000519	20.752017
411.112826	-3.015200	3.794200	-11.439000	23.704760	0.000520	20.770133
412.114202	-3.013200	3.793900	-11.431000	23.722781	0.000523	20.740309
413.117182	-3.020300	3.793700	-11.458000	23.687369	0.000519	20.763602
414.112356	-3.001300	3.793100	-11.383000	23.646271	0.000521	20.748003
415.113564	-3.034900	3.792600	-11.509000	23.633330	0.000520	20.744039
416.113134	-2.998300	3.793500	-11.373000	23.660230	0.000521	20.771008
417.116918	-3.000300	3.792500	-11.377000	23.665033	0.000523	20.747373
418.113318	-3.013400	3.792900	-11.429000	23.651400	0.000524	20.760258
419.113794	-3.006800	3.792400	-11.402000	23.679221	0.000522	20.752114
420.116574	-3.012300	3.792000	-11.422000	23.665091	0.000522	20.752647
421.113438	-3.018600	3.790600	-11.442000	23.693468	0.000523	20.746483
422.114348	-3.009000	3.791300	-11.407000	23.692015	0.000523	20.748820
423.116234	-2.999400	3.790800	-11.369000	23.705755	0.000523	20.752163
424.115266	-2.958000	3.792100	-11.216000	23.713356	0.000522	20.740343
425.113785	-3.006800	3.790700	-11.396000	23.779589	0.000524	20.752696
426.119303	-3.008400	3.791300	-11.405000	23.785698	0.000524	20.750760
427.114687	-3.001800	3.790600	-11.378000	23.806145	0.000524	20.729535
428.118559	-2.995700	3.790900	-11.355000	23.807914	0.000522	20.735103
429.117090	-2.998400	3.789300	-11.360000	23.760224	0.000522	20.758411
430.116009	-2.997000	3.789700	-11.357000	23.757640	0.000526	20.748233
431.116859	-2.986900	3.789300	-11.317000	23.765027	0.000524	20.741888
432.118923	-2.995700	3.788800	-11.349000	23.753774	0.000524	20.744356
433.114130	-2.983600	3.788700	-11.303000	23.781471	0.000526	20.735616
434.118759	-2.996600	3.789500	-11.355000	23.777580	0.000525	20.744518
435.118556	-3.023100	3.786200	-11.445000	23.738109	0.000526	20.741453
436.117536	-3.017000	3.788500	-11.429000	23.727388	0.000525	20.736393
437.117766	-3.031400	3.786800	-11.478000	23.734994	0.000523	20.738329
438.118385	-3.026500	3.787600	-11.462000	23.741737	0.000525	20.733709
439.118322	-2.988600	3.787000	-11.317000	23.729889	0.000526	20.748859
440.117919	-3.003500	3.786500	-11.373000	23.746441	0.000526	20.749807
441.118172	-2.986700	3.787400	-11.310000	23.737105	0.000525	20.747084
442.118050	-3.000600	3.786000	-11.360000	23.774865	0.000527	20.726621
443.118692	-2.993200	3.786200	-11.332000	23.798159	0.000523	20.740494
444.118410	-3.008100	3.785500	-11.386000	23.800923	0.000526	20.725247
445.122254	-3.008200	3.784700	-11.383000	23.812019	0.000527	20.736374
446.118906	-2.989700	3.785400	-11.314000	23.845438	0.000528	20.727682
447.119627	-2.994200	3.785200	-11.332000	23.825879	0.000526	20.729407
448.121894	-3.006300	3.784200	-11.375000	23.820799	0.000526	20.745652
449.120319	-3.002700	3.783100	-11.359000	23.855719	0.000527	20.741311
450.117765	-3.003300	3.784200	-11.363000	23.869121	0.000527	20.732937
451.125024	-2.997600	3.784000	-11.342000	23.914778	0.000527	20.725140
452.120507	-2.985600	3.783900	-11.296000	23.901490	0.000526	20.755438
453.119985	-3.013400	3.782900	-11.398000	23.891111	0.000527	20.739341
454.120649	-2.996700	3.783500	-11.336000	23.896581	0.000526	20.726807
455.120481	-2.976200	3.782900	-11.257000	23.870768	0.000527	20.732692
456.120990	-3.010500	3.781300	-11.383000	23.904039	0.000526	20.729070
457.124674	-2.992100	3.783400	-11.320000	23.954487	0.000527	20.735088
458.121484	-2.985000	3.782300	-11.289000	23.916757	0.000528	20.716218
459.121403	-2.989500	3.781000	-11.303000	23.942266	0.000527	20.728048
460.122926	-3.012000	3.781200	-11.387000	23.971158	0.000527	20.722881
461.122634	-3.012100	3.779900	-11.385000	23.965313	0.000526	20.749264
462.122344	-3.011200	3.780100	-11.382000	23.938133	0.000527	20.751405
463.123019	-2.989700	3.780800	-11.303000	23.926711	0.000530	20.711501
464.122726	-3.001700	3.779800	-11.345000	23.938825	0.000530	20.735503
465.123193	-3.003800	3.780000	-11.353000	23.916504	0.000528	20.735406
466.123319	-2.980200	3.781600	-11.269000	23.891369	0.000528	20.729168
467.123155	-3.025800	3.777600	-11.430000	23.926229	0.000529	20.721923
468.124088	-2.990700	3.780100	-11.305000	23.930143	0.000528	20.732013
469.128691	-3.005000	3.778100	-11.352000	23.973512	0.000528	20.738045
470.125619	-2.996100	3.778600	-11.320000	23.999614	0.000527	20.718227
471.125404	-2.971400	3.779500	-11.229000	23.997952	0.000530	20.736950
472.126370	-2.981100	3.778400	-11.263000	23.991006	0.000528	20.719552
473.127087	-2.999400	3.777900	-11.330000	23.979308	0.000528	20.735322
474.127760	-2.989700	3.778700	-11.296000	23.997216	0.000530	20.713451
475.130706	-2.991900	3.777000	-11.299000	23.978230	0.000528	20.748467
476.129550	-3.022900	3.775200	-11.411000	23.994925	0.000530	20.713999
477.126520	-2.985800	3.776800	-11.275000	23.959488	0.000528	20.735836
478.128818	-3.002600	3.776100	-11.337000	23.962905	0.000532	20.705121
479.129138	-3.011600	3.776400	-11.372000	23.959235	0.000531	20.722304
480.129301	-2.985100	3.777200	-11.274000	23.968169	0.000531	20.709452
481.131632	-3.008100	3.776400	-11.358000	23.957187	0.000528	20.713613
482.130766	-2.994700	3.775400	-11.305000	23.963466	0.000529	20.705209
483.129015	-2.996900	3.776000	-11.315000	23.960726	0.000529	20.703410
484.130619	-2.988400	3.775400	-11.281000	23.984236	0.000530	20.710865
485.132006	-2.972000	3.775000	-11.218000	23.983958	0.000533	20.713906
486.132342	-2.990600	3.774800	-11.288000	24.009938	0.000531	20.709140
487.130697	-2.996200	3.774200	-11.307000	24.043653	0.000528	20.714502
488.131914	-2.999000	3.773400	-11.315000	24.070529	0.000530	20.718697
489.131766	-3.014500	3.772900	-11.373000	24.037083	0.000530	20.713603
490.131284	-3.002500	3.773100	-11.328000	24.037336	0.000530	20.718599
491.132303	-2.995900	3.773300	-11.302000	24.021373	0.000531	20.696899
492.131216	-3.000600	3.773100	-11.321000	24.034841	0.000530	20.711354
493.132518	-2.998900	3.772400	-11.312000	24.086764	0.000530	20.720755
494.132713	-3.000700	3.771800	-11.318000	24.073502	0.000531	20.699866
495.131006	-3.009500	3.771500	-11.350000	24.074716	0.000532	20.710567
496.133670	-3.003700	3.772400	-11.330000	24.044759	0.000531	20.697593
497.133395	-3.009800	3.771000	-11.349000	24.035547	0.000532	20.712537
498.137498	-3.005200	3.772200	-11.335000	24.030649	0.000532	20.712366
499.133012	-3.000300	3.771300	-11.314000	24.022441	0.000531	20.715040
500.140411	-2.998300	3.770400	-11.303000	24.049658	0.000528	20.734750
501.138573	-2.976100	3.771500	-11.224000	24.011459	0.000532	20.711139
502.135931	-3.016300	3.769900	-11.370000	23.991757	0.000529	20.703234
503.137598	-3.019700	3.769200	-11.381000	24.030624	0.000531	20.699064
504.136484	-3.006000	3.770300	-11.333000	24.022236	0.000531	20.693022
505.134737	-3.005900	3.768000	-11.325000	24.015485	0.000531	20.696683
506.147997	-2.998600	3.768800	-11.300000	24.038784	0.000530	20.683538
507.139713	-2.981700	3.769100	-11.237000	24.073102	0.000531	20.699465
508.136662	-3.000300	3.768800	-11.307000	24.097423	0.000531	20.700624
509.136768	-2.999200	3.768900	-11.303000	24.108648	0.000529	20.709511
510.138221	-3.009500	3.769000	-11.341000	24.105494	0.000529	20.688803
511.141059	-3.023300	3.767100	-11.388000	24.075359	0.000532	20.703625
512.137856	-3.012200	3.766600	-11.344000	24.113190	0.000531	20.691306
513.139939	-3.018600	3.767000	-11.370000	24.112464	0.000530	20.710968
514.140209	-3.008700	3.766500	-11.332000	24.120525	0.000531	20.700560
515.138265	-2.992400	3.767100	-11.272000	24.123908	0.000531	20.693520
516.141245	-3.013700	3.766400	-11.349000	24.145411	0.000532	20.679050
517.142362	-3.010200	3.765800	-11.335000	24.154880	0.000532	20.697558
518.139290	-2.986900	3.765700	-11.246000	24.168565	0.000530	20.714131
519.142121	-3.011900	3.765500	-11.340000	24.151610	0.000533	20.696649
520.143771	-3.004300	3.764600	-11.309000	24.149680	0.000531	20.702300
521.141770	-3.005000	3.766000	-11.316000	24.151210	0.000533	20.703361
522.142494	-3.008900	3.766300	-11.332000	24.168419	0.000532	20.694068
523.144531	-2.990500	3.764300	-11.256000	24.169063	0.000532	20.721268
524.142242	-3.011500	3.763300	-11.332000	24.190082	0.000530	20.703469
525.140750	-2.999400	3.763600	-11.287000	24.170593	0.000530	20.709051
526.139612	-2.993800	3.763600	-11.266000	24.157780	0.000529	20.682448
527.140565	-3.000200	3.763900	-11.292000	24.141439	0.000531	20.709208
528.140858	-2.990700	3.763600	-11.255000	24.196798	0.000531	20.695979
529.141212	-2.990900	3.764600	-11.258000	24.253621	0.000532	20.699397
530.143308	-2.989400	3.763800	-11.250000	24.233197	0.000530	20.698350
531.143247	-2.998800	3.762100	-11.280000	24.267948	0.000532	20.686740
532.145603	-2.985900	3.763500	-11.237000	24.280394	0.000533	20.688319
533.142634	-3.007600	3.761400	-11.312000	24.285886	0.000529	20.700941
534.141953	-3.008700	3.761200	-11.316000	24.234713	0.000527	20.708880
535.149323	-3.001000	3.761900	-11.289000	24.194775	0.000532	20.679250
536.153025	-3.010500	3.760700	-11.321000	24.210434	0.000532	20.699225
537.145180	-3.013400	3.760200	-11.331000	24.182289	0.000531	20.692807
538.145231	-3.021400	3.760100	-11.360000	24.151137	0.000532	20.693804
539.144711	-3.002300	3.760000	-11.287000	24.171938	0.000530	20.693330
540.146074	-3.031200	3.759800	-11.395000	24.195151	0.000533	20.685792
541.145488	-3.001600	3.759600	-11.284000	24.191890	0.000530	20.684418
542.145091	-3.002400	3.760300	-11.290000	24.194312	0.000533	20.690167
543.146271	-2.983200	3.760500	-11.217000	24.156143	0.000532	20.700721
544.144729	-2.989200	3.759300	-11.236000	24.166241	0.000532	20.691409
545.144600	-3.008000	3.757500	-11.301000	24.173902	0.000531	20.699568
546.149574	-3.002100	3.758400	-11.282000	24.124288	0.000530	20.699118
547.150642	-2.987100	3.759100	-11.228000	24.165417	0.000532	20.676356
548.148429	-2.997800	3.759200	-11.269000	24.193455	0.000531	20.690729
549.148620	-2.972500	3.760400	-11.176000	24.251876	0.000532	20.707130
550.147584	-3.007000	3.756800	-11.295000	24.237466	0.000532	20.705478
551.150687	-3.013700	3.756500	-11.320000	24.235600	0.000533	20.688906
552.151052	-3.024700	3.756500	-11.361000	24.207115	0.000533	20.678351
553.147023	-3.024400	3.757100	-11.362000	24.227164	0.000532	20.714585
554.147853	-3.016400	3.755700	-11.328000	24.233382	0.000533	20.711339
555.153377	-3.006700	3.756100	-11.292000	24.263455	0.000533	20.685552
556.149249	-2.986100	3.757100	-11.218000	24.234220	0.000531	20.697954
557.148961	-3.010500	3.755000	-11.304000	24.251564	0.000531	20.713930
558.151173	-2.994700	3.756800	-11.250000	24.285866	0.000532	20.696654
559.150667	-2.999100	3.756000	-11.264000	24.275550	0.000530	20.704324
560.152452	-2.989200	3.755800	-11.226000	24.255229	0.000531	20.701484
561.153685	-2.999300	3.755000	-11.261000	24.247071	0.000530	20.706578
562.153116	-3.007000	3.754300	-11.288000	24.222758	0.000530	20.698311
563.152494	-2.989100	3.754700	-11.221000	24.240746	0.000531	20.720148
564.159805	-3.001100	3.754200	-11.266000	24.299857	0.000531	20.698360
565.154859	-3.018500	3.753900	-11.331000	24.316922	0.000532	20.687028
566.153405	-3.009000	3.753500	-11.293000	24.303824	0.000532	20.712772
567.154496	-3.013700	3.753900	-11.313000	24.322292	0.000530	20.687199
568.154698	-3.009000	3.752700	-11.291000	24.322185	0.000532	20.686144
569.155138	-3.005300	3.752800	-11.278000	24.363765	0.000531	20.699406
570.158412	-2.984700	3.752300	-11.198000	24.385097	0.000528	20.698047
571.155184	-3.011900	3.752300	-11.300000	24.371269	0.000529	20.712151
572.154620	-3.010100	3.751500	-11.292000	24.383085	0.000529	20.707883
573.157415	-3.021000	3.750700	-11.330000	24.380151	0.000530	20.699724
574.156238	-2.983400	3.751700	-11.192000	24.363779	0.000531	20.708431
575.156270	-2.986900	3.751800	-11.204000	24.346764	0.000530	20.707482
576.155698	-2.975100	3.752600	-11.163000	24.350340	0.000529	20.717235
577.160724	-3.013600	3.750000	-11.300000	24.365236	0.000531	20.710841
578.158851	-3.001800	3.750500	-11.257000	24.359540	0.000531	20.713661
579.158690	-3.002800	3.750200	-11.260000	24.337832	0.000532	20.721757
580.160963	-2.999100	3.750000	-11.245000	24.345638	0.000532	20.719630
581.158048	-3.016700	3.750200	-11.312000	24.336657	0.000529	20.711095
582.159221	-3.004900	3.749900	-11.268000	24.375172	0.000531	20.696151
583.161539	-2.986900	3.749600	-11.199000	24.378251	0.000531	20.703982
584.159312	-2.991500	3.749300	-11.216000	24.358921	0.000531	20.724421
585.157039	-3.004900	3.748900	-11.264000	24.372823	0.000530	20.724617
586.162378	-2.996600	3.747900	-11.230000	24.351953	0.000529	20.719327
587.159102	-2.993100	3.749200	-11.220000	24.370314	0.000530	20.704080
588.161756	-2.998200	3.747400	-11.235000	24.379888	0.000531	20.724592
589.158609	-2.977500	3.748600	-11.160000	24.352996	0.000530	20.711364
590.161920	-2.994900	3.748100	-11.224000	24.395983	0.000530	20.709917
591.158826	-2.996600	3.747800	-11.230000	24.411930	0.000529	20.719752
592.160562	-3.009000	3.745900	-11.270000	24.422669	0.000529	20.704446
593.162093	-3.012900	3.746600	-11.287000	24.473444	0.000530	20.703703
594.158526	-2.996900	3.746500	-11.228000	24.465010	0.000528	20.725589
595.160721	-3.010400	3.745200	-11.272000	24.426558	0.000530	20.713564
596.163063	-3.006400	3.745000	-11.258000	24.367151	0.000528	20.717978
597.160023	-2.991900	3.745400	-11.204000	24.387646	0.000529	20.708665
598.158731	-3.005200	3.745800	-11.256000	24.426548	0.000531	20.699802
599.161703	-2.994800	3.744400	-11.213000	24.458223	0.000529	20.715935
600.171484	-2.986100	3.745800	-11.184000	24.455417	0.000529	20.704109
601.165385	-2.990100	3.743400	-11.192000	24.509557	0.000529	20.702951
602.162931	-3.027500	3.742400	-11.329000	24.522813	0.000528	20.724313
603.165535	-3.013500	3.743500	-11.280000	24.484027	0.000530	20.724753
604.165492	-3.006800	3.744100	-11.256000	24.492982	0.000528	20.716194
605.163903	-3.002500	3.743900	-11.240000	24.477313	0.000529	20.700472
606.163907	-3.015100	3.742000	-11.281000	24.500334	0.000529	20.722622
607.167132	-2.990300	3.744500	-11.196000	24.491564	0.000529	20.722832
608.164946	-3.016200	3.742100	-11.286000	24.506809	0.000528	20.711574
609.165877	-3.004200	3.744000	-11.247000	24.485542	0.000527	20.728170
610.168855	-3.009400	3.741500	-11.259000	24.450700	0.000529	20.701274
611.165923	-3.001800	3.742100	-11.231000	24.462238	0.000529	20.717118
612.169838	-2.983600	3.741700	-11.162000	24.457439	0.000528	20.736012
613.171044	-3.006300	3.742300	-11.249000	24.465751	0.000527	20.725858
614.168000	-3.004400	3.741600	-11.239000	24.499320	0.000526	20.725399
615.169878	-2.981100	3.740700	-11.150000	24.524441	0.000527	20.721679
616.172447	-2.983600	3.740800	-11.160000	24.577525	0.000527	20.727525
617.168474	-2.991900	3.739700	-11.186000	24.585558	0.000528	20.719464
618.173552	-3.002800	3.739800	-11.228000	24.612991	0.000529	20.713324
619.169859	-3.012400	3.739700	-11.265000	24.603150	0.000528	20.715304
620.175159	-2.983700	3.740100	-11.159000	24.608299	0.000529	20.730903
621.169337	-3.011500	3.739600	-11.261000	24.609259	0.000528	20.718589
622.176110	-2.987200	3.739300	-11.170000	24.547738	0.000526	20.735572
623.176587	-3.022800	3.738500	-11.299000	24.489805	0.000526	20.733396
624.170311	-3.024400	3.738900	-11.307000	24.478618	0.000526	20.724069
625.169284	-3.000700	3.738200	-11.217000	24.476947	0.000526	20.713383
626.180658	-2.981800	3.738600	-11.147000	24.514292	0.000527	20.714341
627.171271	-2.965300	3.739200	-11.087000	24.566836	0.000526	20.740509
628.170317	-3.001900	3.739100	-11.224000	24.568483	0.000526	20.742161
629.172078	-3.017700	3.736100	-11.274000	24.618306	0.000528	20.720554
630.175536	-2.998200	3.737100	-11.204000	24.602083	0.000526	20.735572
631.173118	-3.020000	3.737000	-11.284000	24.639195	0.000526	20.701210
632.176388	-2.984200	3.736300	-11.148000	24.643238	0.000526	20.723287
633.174945	-2.993900	3.736300	-11.186000	24.634650	0.000527	20.719410
634.173103	-2.988500	3.735900	-11.164000	24.565550	0.000525	20.730683
635.174294	-2.985200	3.735500	-11.150000	24.550028	0.000524	20.719850
636.175379	-2.992200	3.735100	-11.176000	24.556279	0.000527	20.755995
637.174376	-2.971300	3.736000	-11.100000	24.553818	0.000525	20.720808
638.174611	-2.992400	3.736500	-11.179000	24.524095	0.000527	20.729393
639.177765	-2.998700	3.734600	-11.198000	24.564288	0.000524	20.723253
640.173433	-2.999000	3.733700	-11.196000	24.504149	0.000525	20.742098
641.173604	-2.995400	3.734700	-11.186000	24.536187	0.000527	20.747690
642.176483	-3.002100	3.733700	-11.207000	24.525040	0.000524	20.749782
643.175004	-2.991200	3.734300	-11.169000	24.550900	0.000525	20.735899
644.175986	-2.983300	3.735300	-11.143000	24.549687	0.000525	20.734208
645.174100	-2.978700	3.735900	-11.127000	24.524280	0.000526	20.742381
646.175729	-2.995700	3.732800	-11.182000	24.544455	0.000526	20.714258
647.175304	-2.996300	3.732900	-11.184000	24.550744	0.000527	20.724836
648.177851	-3.009200	3.733200	-11.233000	24.575255	0.000526	20.756543
649.179013	-3.013100	3.733500	-11.249000	24.566013	0.000524	20.741105
650.175750	-2.997200	3.733300	-11.189000	24.600110	0.000526	20.746395
651.177044	-3.024100	3.731100	-11.282000	24.599745	0.000523	20.750295
652.179745	-3.015200	3.730300	-11.246000	24.633295	0.000524	20.732751
653.179956	-3.002100	3.732100	-11.203000	24.659723	0.000522	20.747890
654.181889	-3.007400	3.732000	-11.222000	24.601869	0.000525	20.753849
655.184720	-3.000600	3.729900	-11.191000	24.605698	0.000523	20.750105
656.178536	-3.022900	3.731700	-11.279000	24.590396	0.000526	20.734750
657.177799	-2.974400	3.731000	-11.097000	24.577832	0.000525	20.755335
658.183370	-2.998600	3.730100	-11.184000	24.585427	0.000522	20.746834
659.179502	-3.020000	3.728100	-11.258000	24.599267	0.000524	20.752187
660.184883	-3.007100	3.728700	-11.211000	24.600383	0.000523	20.735288
661.182951	-3.010600	3.728900	-11.225000	24.597889	0.000524	20.777831
662.180141	-3.009300	3.729300	-11.221000	24.641762	0.000524	20.748360
663.181087	-2.966800	3.729900	-11.065000	24.668005	0.000521	20.728224
664.183039	-2.980100	3.729000	-11.111000	24.694685	0.000524	20.759740
665.184164	-3.002400	3.728400	-11.193000	24.741584	0.000524	20.758440
666.183047	-2.993900	3.729300	-11.164000	24.730439	0.000524	20.752945
667.183002	-3.008100	3.727100	-11.210000	24.698299	0.000523	20.767635
668.184278	-2.976600	3.729000	-11.098000	24.665793	0.000521	20.736437
669.182038	-3.005300	3.727100	-11.200000	24.605162	0.000523	20.750041
670.183118	-2.989500	3.728100	-11.144000	24.597251	0.000522	20.756802
671.183417	-3.007900	3.726200	-11.208000	24.617862	0.000523	20.770846
672.187449	-2.993700	3.727400	-11.158000	24.608329	0.000522	20.754167
673.183207	-3.010400	3.725700	-11.215000	24.642761	0.000522	20.788243
674.185015	-3.006100	3.726400	-11.200000	24.615841	0.000520	20.765498
675.183143	-3.013600	3.726100	-11.228000	24.619207	0.000521	20.759393
676.185283	-2.989300	3.727000	-11.140000	24.619704	0.000521	20.771746
677.185904	-3.008700	3.726000	-11.210000	24.617234	0.000521	20.748404
678.186102	-3.013300	3.726700	-11.229000	24.634041	0.000519	20.761950
679.186665	-3.000700	3.725700	-11.179000	24.641504	0.000521	20.780344
680.184485	-3.020900	3.725000	-11.252000	24.625462	0.000521	20.761876
681.185559	-3.006300	3.724200	-11.195000	24.671843	0.000521	20.761950
682.185967	-2.969800	3.724300	-11.060000	24.642634	0.000521	20.762038
683.187308	-2.991700	3.722900	-11.137000	24.645031	0.000520	20.764917
684.185040	-2.993900	3.724900	-11.150000	24.677553	0.000520	20.753928
685.185420	-2.985400	3.724800	-11.120000	24.701626	0.000522	20.766706
686.186492	-2.992100	3.723700	-11.140000	24.730059	0.000520	20.760151
687.194911	-3.019500	3.723600	-11.243000	24.714418	0.000518	20.773853
688.187135	-2.988200	3.722700	-11.123000	24.716795	0.000519	20.772919
689.186817	-2.992600	3.723200	-11.140000	24.735106	0.000521	20.761896
690.193646	-3.007000	3.723600	-11.195000	24.734935	0.000518	20.759354
691.187254	-3.009600	3.721000	-11.197000	24.709625	0.000521	20.750076
692.192943	-2.993700	3.722200	-11.142000	24.718242	0.000518	20.766784
693.188032	-3.003700	3.721400	-11.177000	24.742257	0.000519	20.791358
694.188989	-2.988500	3.723600	-11.126000	24.783616	0.000519	20.775964
695.189443	-2.994600	3.722500	-11.147000	24.782101	0.000517	20.775393
696.189642	-3.017900	3.721800	-11.231000	24.753850	0.000520	20.791138
697.192222	-2.990000	3.722100	-11.128000	24.743591	0.000517	20.771834
698.191967	-2.973900	3.721400	-11.066000	24.743411	0.000518	20.787775
699.194396	-2.990100	3.720800	-11.125000	24.708422	0.000519	20.770206
700.194408	-2.989400	3.720400	-11.121000	24.694841	0.000520	20.794511
701.192764	-3.002500	3.721200	-11.172000	24.715100	0.000518	20.793504
702.193421	-2.999900	3.719100	-11.157000	24.757191	0.000518	20.781215
703.195776	-3.006100	3.719100	-11.179000	24.749159	0.000517	20.784060
704.196025	-3.005900	3.719600	-11.180000	24.716737	0.000517	20.785189
705.196667	-3.020600	3.719200	-11.233000	24.657493	0.000516	20.771732
706.197299	-3.002900	3.718200	-11.164000	24.690788	0.000515	20.788073
707.195868	-3.012900	3.717900	-11.201000	24.746242	0.000518	20.771649
708.195929	-3.005300	3.718400	-11.174000	24.777002	0.000517	20.773594
709.202067	-2.983800	3.719500	-11.096000	24.780830	0.000517	20.778859
710.196563	-2.983800	3.718000	-11.094000	24.751902	0.000518	20.781596
711.199256	-3.006000	3.717500	-11.173000	24.760212	0.000519	20.779504
712.200978	-3.016300	3.716400	-11.209000	24.774581	0.000515	20.795821
713.197448	-3.026100	3.715800	-11.243000	24.750898	0.000517	20.786279
714.199347	-3.007400	3.717300	-11.179000	24.738336	0.000516	20.789320
715.201816	-3.014000	3.715700	-11.198000	24.708593	0.000516	20.789818
716.200024	-3.023300	3.716500	-11.235000	24.740577	0.000516	20.786827
717.201707	-2.988400	3.715300	-11.102000	24.782024	0.000515	20.817515
718.208555	-2.993300	3.715400	-11.120000	24.810406	0.000516	20.787203
719.200321	-2.991200	3.716600	-11.116000	24.793631	0.000513	20.784119
720.201821	-2.981300	3.714500	-11.073000	24.776451	0.000515	20.797698
721.202109	-3.001800	3.715100	-11.151000	24.768687	0.000514	20.779475
722.203979	-2.987900	3.715000	-11.099000	24.778234	0.000516	20.801858
723.203980	-3.011800	3.714500	-11.186000	24.773086	0.000516	20.809968
724.206211	-3.008900	3.714500	-11.176000	24.800796	0.000516	20.815491
725.209362	-2.992500	3.714000	-11.112000	24.791054	0.000515	20.827052
726.206522	-3.004900	3.714100	-11.160000	24.770534	0.000516	20.794130
727.207420	-2.986900	3.713500	-11.092000	24.768595	0.000513	20.792659
728.205943	-2.962200	3.714800	-11.003000	24.787396	0.000511	20.804415
729.207692	-2.994900	3.712400	-11.117000	24.756335	0.000514	20.796951
730.205774	-3.007100	3.713600	-11.167000	24.767918	0.000513	20.796247
731.207338	-2.984200	3.713800	-11.082000	24.789613	0.000512	20.782931
732.208189	-3.003400	3.712700	-11.150000	24.781025	0.000513	20.786641
733.209961	-3.015700	3.711900	-11.192000	24.777499	0.000514	20.793060
734.210307	-3.020800	3.712100	-11.212000	24.772365	0.000511	20.806874
735.208495	-3.009700	3.711200	-11.169000	24.753466	0.000513	20.808296
736.213037	-2.983500	3.713200	-11.077000	24.755502	0.000513	20.827883
737.213607	-2.985800	3.711500	-11.080000	24.791328	0.000510	20.824007
738.209574	-3.001500	3.711400	-11.138000	24.841033	0.000513	20.811777
739.209962	-3.007900	3.709900	-11.157000	24.846108	0.000513	20.828249
740.208790	-3.008700	3.711000	-11.164000	24.836041	0.000512	20.813404
741.212732	-2.982700	3.710400	-11.066000	24.822004	0.000513	20.809748
742.216123	-2.997700	3.710600	-11.123000	24.840307	0.000510	20.796350
743.211418	-2.997800	3.709200	-11.119000	24.810543	0.000511	20.819109
744.213619	-3.000500	3.709300	-11.128000	24.847565	0.000510	20.814064
745.212839	-3.003400	3.710400	-11.143000	24.869842	0.000510	20.810819
746.215294	-3.010300	3.707600	-11.160000	24.834180	0.000509	20.817227
747.214409	-2.996900	3.709200	-11.115000	24.807348	0.000510	20.816377
748.212766	-3.016200	3.706800	-11.180000	24.784913	0.000508	20.830845
749.213194	-2.989100	3.709300	-11.086000	24.806476	0.000509	20.815502
750.211402	-3.008100	3.707000	-11.150000	24.818833	0.000509	20.826006
751.213109	-3.003000	3.707400	-11.132000	24.851904	0.000510	20.815575
752.220212	-3.016100	3.708400	-11.184000	24.914923	0.000509	20.828563
753.213773	-3.002000	3.707800	-11.130000	24.896654	0.000507	20.821607
754.212360	-3.003900	3.707000	-11.135000	24.898013	0.000509	20.847626
755.213290	-3.020400	3.705500	-11.191000	24.910769	0.000508	20.827712
756.213899	-2.996100	3.706600	-11.105000	24.928491	0.000508	20.818000
757.213699	-2.969000	3.708100	-11.009000	24.948820	0.000509	20.841247
758.214283	-2.986000	3.706400	-11.066000	24.906882	0.000509	20.822863
759.214492	-2.995200	3.707400	-11.103000	24.884026	0.000508	20.825053
760.217479	-2.995000	3.706000	-11.099000	24.883373	0.000508	20.831511
761.214341	-2.986700	3.705400	-11.066000	24.879243	0.000508	20.835900
762.216471	-3.005900	3.705600	-11.137000	24.826899	0.000506	20.822248
763.218671	-2.998000	3.705800	-11.109000	24.863351	0.000507	20.827063
764.217979	-3.010200	3.703600	-11.148000	24.870885	0.000508	20.832728
765.217434	-3.019500	3.704000	-11.183000	24.905144	0.000507	20.817800
766.218515	-2.986500	3.704800	-11.064000	24.896582	0.000506	20.813474
767.217452	-2.991900	3.704600	-11.083000	24.864296	0.000509	20.819950
768.216115	-3.016300	3.703400	-11.170000	24.830353	0.000506	20.824291
769.217052	-3.016400	3.704200	-11.172000	24.883135	0.000508	20.821314
770.217236	-3.024400	3.704000	-11.200000	24.893397	0.000507	20.809329
771.217947	-2.997600	3.703500	-11.101000	24.925229	0.000504	20.812829
772.218251	-3.012000	3.703300	-11.154000	24.880144	0.000505	20.818787
773.221225	-3.018100	3.702700	-11.174000	24.880592	0.000503	20.814021
774.217144	-2.992300	3.703800	-11.082000	24.896158	0.000504	20.793608
775.217650	-3.028200	3.701400	-11.207000	24.945981	0.000505	20.794777
776.222103	-2.987800	3.703400	-11.064000	24.928258	0.000504	20.824404
777.222240	-3.004900	3.702500	-11.125000	24.945304	0.000505	20.818753
778.219703	-3.023100	3.700300	-11.185000	24.905451	0.000503	20.836125
779.221500	-3.001200	3.702400	-11.110000	24.879555	0.000504	20.822463
780.228553	-3.005400	3.701800	-11.125000	24.891074	0.000503	20.802256
781.218900	-2.989100	3.701400	-11.062000	24.863078	0.000504	20.820625
782.223645	-3.002000	3.702100	-11.113000	24.865709	0.000503	20.823265
783.224431	-2.985400	3.700600	-11.047000	24.914792	0.000503	20.799983
784.220508	-3.016700	3.700400	-11.162000	24.928906	0.000504	20.806088
785.225214	-3.019200	3.699900	-11.170000	24.945660	0.000502	20.791610
786.226991	-2.993800	3.699900	-11.075000	24.975348	0.000503	20.804338
787.220803	-2.997100	3.699900	-11.089000	24.979127	0.000503	20.782527
788.221749	-2.997700	3.700400	-11.091000	24.993176	0.000504	20.797104
789.221760	-3.003800	3.699500	-11.112000	24.989169	0.000502	20.798297
790.223930	-3.018900	3.697800	-11.163000	24.996254	0.000500	20.811099
791.222375	-2.997000	3.698700	-11.083000	24.942743	0.000502	20.792475
792.221621	-2.983400	3.698300	-11.032000	24.934517	0.000500	20.824996
793.223178	-2.997100	3.698700	-11.084000	24.935608	0.000500	20.804280
794.224125	-2.970700	3.698600	-10.986000	24.961517	0.000501	20.804681
795.222018	-2.990600	3.698000	-11.059000	24.986968	0.000498	20.818847
796.222195	-3.015500	3.697600	-11.148000	24.979590	0.000501	20.821398
797.222366	-2.991600	3.697600	-11.061000	24.952045	0.000498	20.797070
798.226192	-2.995500	3.697500	-11.075000	24.923218	0.000498	20.807017
799.222978	-3.003900	3.697200	-11.105000	24.916132	0.000498	20.819345
800.228011	-3.003000	3.695600	-11.097000	24.935744	0.000498	20.787822
801.225543	-2.984400	3.697100	-11.033000	24.899378	0.000499	20.800159
802.224763	-3.000800	3.696400	-11.091000	24.903581	0.000497	20.789679
803.225548	-2.990300	3.697300	-11.055000	24.894362	0.000498	20.771416
804.223518	-2.992300	3.695300	-11.055000	24.881670	0.000496	20.784283
805.227759	-3.007600	3.695000	-11.112000	24.907010	0.000497	20.817776
806.228647	-2.995400	3.694400	-11.065000	24.961157	0.000497	20.798629
807.223729	-3.012400	3.694500	-11.128000	24.998996	0.000495	20.774970
808.227014	-2.999000	3.694500	-11.078000	24.988083	0.000496	20.807164
809.227546	-3.005600	3.695000	-11.104000	24.917296	0.000498	20.798703
810.225154	-3.005300	3.694400	-11.102000	24.878363	0.000497	20.787602
811.224520	-3.000200	3.695000	-11.084000	24.851726	0.000498	20.793111
812.223831	-2.975400	3.694800	-10.993000	24.885269	0.000496	20.809232
813.231114	-2.992200	3.693000	-11.049000	24.937985	0.000494	20.776320
814.225083	-2.991000	3.692800	-11.044000	24.934955	0.000495	20.777547
815.223793	-3.035300	3.691500	-11.204000	24.950399	0.000493	20.783090
816.228674	-2.982500	3.693800	-11.016000	24.916434	0.000494	20.776500
817.227116	-2.980900	3.692500	-11.006000	24.917973	0.000493	20.786106
818.224879	-3.007300	3.691700	-11.101000	24.921436	0.000494	20.793374
819.232278	-3.001300	3.693300	-11.083000	24.910814	0.000492	20.786032
820.226158	-3.005600	3.691900	-11.095000	24.938988	0.000493	20.770214
821.226995	-3.003300	3.692800	-11.089000	24.979979	0.000494	20.783383
822.231214	-3.006300	3.692000	-11.098000	25.035125	0.000493	20.772829
823.226351	-3.000500	3.691200	-11.075000	25.058076	0.000493	20.785436
824.226096	-3.010700	3.691300	-11.113000	25.061855	0.000493	20.771211
825.229416	-3.038700	3.690300	-11.212000	25.006433	0.000492	20.791918
826.228326	-3.003400	3.690100	-11.082000	24.990893	0.000493	20.750240
827.227669	-3.010200	3.690500	-11.108000	24.914276	0.000492	20.772912
828.230260	-2.989700	3.689400	-11.029000	24.945918	0.000491	20.777644
829.229805	-2.991500	3.690400	-11.039000	24.926803	0.000493	20.778847
830.228641	-3.003800	3.688000	-11.077000	24.920067	0.000491	20.787259
831.233847	-2.970100	3.690600	-10.960000	24.920238	0.000491	20.774154
832.234736	-3.019800	3.686300	-11.131000	24.941472	0.000490	20.782664
833.232488	-3.027800	3.688900	-11.169000	24.974043	0.000489	20.779795
834.232601	-3.002400	3.688100	-11.072000	25.016752	0.000490	20.765766
835.234015	-3.005900	3.688500	-11.086000	24.994419	0.000491	20.768953
836.234130	-3.018300	3.687400	-11.128000	24.973366	0.000489	20.759675
837.235679	-3.016600	3.687600	-11.122000	25.006326	0.000491	20.782802
838.234305	-3.002500	3.687000	-11.069000	25.037999	0.000492	20.809853
839.234988	-3.008800	3.688500	-11.097000	25.019805	0.000488	20.799651
840.234262	-2.992000	3.686700	-11.029000	25.002824	0.000489	20.775494
841.235793	-2.988700	3.687200	-11.019000	24.981723	0.000488	20.771857
842.238251	-3.002100	3.685700	-11.063000	24.973926	0.000489	20.793903
843.236681	-3.006400	3.685900	-11.080000	25.018583	0.000489	20.758121
844.236555	-3.020900	3.686200	-11.135000	25.020969	0.000489	20.753878
845.238976	-3.008900	3.686900	-11.092000	25.017541	0.000488	20.754704
846.234959	-2.999500	3.685800	-11.055000	25.036728	0.000487	20.765903
847.237699	-2.994000	3.686000	-11.035000	25.026277	0.000488	20.780543
848.237548	-3.009400	3.685500	-11.090000	25.041208	0.000486	20.752382
849.235443	-3.003200	3.684200	-11.064000	25.091691	0.000488	20.770342
850.235065	-2.984900	3.684900	-10.998000	25.068390	0.000488	20.770185
851.236022	-3.010000	3.684200	-11.089000	25.017083	0.000484	20.765624
852.237961	-3.012400	3.684800	-11.099000	24.968370	0.000486	20.752763
853.236350	-3.020100	3.683400	-11.123000	24.967181	0.000485	20.768640
854.235647	-2.978900	3.684600	-10.975000	24.999922	0.000486	20.756933
855.240623	-2.982500	3.685300	-10.991000	25.027792	0.000484	20.773055
856.236494	-3.007500	3.683900	-11.079000	25.068765	0.000486	20.777200
857.240296	-2.992500	3.684400	-11.024000	25.073854	0.000483	20.782308
858.241934	-3.002400	3.682200	-11.055000	25.055408	0.000484	20.741505
859.246450	-3.006800	3.682100	-11.070000	25.065727	0.000483	20.757554
860.241813	-3.000200	3.681600	-11.044000	25.034137	0.000483	20.761880
861.244411	-3.005800	3.682300	-11.067000	25.067119	0.000483	20.755159
862.243194	-3.013700	3.681100	-11.092000	25.040488	0.000483	20.758771
863.240530	-3.002500	3.682500	-11.056000	25.020950	0.000482	20.769032
864.248410	-2.991700	3.682600	-11.016000	24.994400	0.000484	20.771305
865.240324	-3.019100	3.679800	-11.108000	25.034576	0.000482	20.774648
866.247671	-2.983000	3.681200	-10.980000	25.019606	0.000479	20.749664
867.244855	-2.993300	3.680900	-11.017000	25.014678	0.000481	20.753252
868.241541	-3.008400	3.680000	-11.070000	24.983160	0.000480	20.766661
869.244663	-2.999200	3.681900	-11.042000	24.989642	0.000481	20.758942
870.243357	-2.978400	3.680900	-10.961000	24.963393	0.000482	20.768631
871.244682	-2.979300	3.680000	-10.963000	24.995963	0.000481	20.739208
872.246974	-2.998100	3.680100	-11.032000	24.989725	0.000478	20.774199
873.243518	-2.983400	3.680700	-10.980000	25.019703	0.000480	20.763513
874.244931	-2.982700	3.678700	-10.971000	25.036563	0.000482	20.755305
875.243776	-2.992200	3.678500	-11.005000	25.059090	0.000477	20.751839
876.242796	-2.996400	3.678800	-11.022000	25.062289	0.000478	20.745094
877.247725	-3.015000	3.677700	-11.087000	25.049462	0.000479	20.767780
878.249608	-3.015100	3.676300	-11.082000	25.037166	0.000478	20.739789
879.246235	-3.010200	3.678300	-11.071000	25.043453	0.000477	20.751790
880.254632	-2.997200	3.678200	-11.023000	25.021276	0.000479	20.747073
881.245977	-2.993000	3.677600	-11.006000	25.016601	0.000478	20.739061
882.248859	-3.016200	3.677500	-11.091000	25.064164	0.000478	20.758356
883.245028	-3.012700	3.677600	-11.079000	25.055588	0.000478	20.762550
884.245121	-3.018200	3.677400	-11.098000	25.055067	0.000476	20.750172
885.247783	-2.997400	3.677600	-11.023000	25.051727	0.000477	20.761044
886.248986	-3.000900	3.676500	-11.032000	25.037907	0.000478	20.748594
887.249896	-3.020400	3.674300	-11.097000	25.071127	0.000476	20.764872
888.251641	-2.992900	3.675200	-10.998000	25.038062	0.000476	20.742586
889.250262	-2.983500	3.674900	-10.963000	25.026979	0.000475	20.738098
890.260096	-2.996800	3.675700	-11.015000	25.043984	0.000476	20.734304
891.246932	-2.998100	3.675100	-11.018000	25.034040	0.000473	20.739970
892.249542	-2.996600	3.674000	-11.009000	25.063048	0.000476	20.740166
893.248662	-2.997200	3.673900	-11.010000	25.105145	0.000473	20.759665
894.246759	-2.996300	3.673600	-11.006000	25.147026	0.000472	20.745284
895.251066	-2.996800	3.673700	-11.008000	25.166814	0.000473	20.738597
896.251908	-3.016200	3.672300	-11.075000	25.190454	0.000472	20.753320
897.249509	-3.016200	3.673100	-11.078000	25.136742	0.000472	20.757246
898.247542	-3.011400	3.672200	-11.057000	25.173875	0.000471	20.723398
899.249786	-2.989900	3.672700	-10.979000	25.166912	0.000473	20.735849
900.252259	-2.998400	3.672500	-11.011000	25.161098	0.000473	20.742815
901.248423	-2.983300	3.672400	-10.955000	25.140048	0.000472	20.728795
902.252814	-3.023700	3.672200	-11.103000	25.117645	0.000473	20.732383
903.256327	-3.001000	3.672500	-11.021000	25.086968	0.000473	20.730511
904.250347	-3.015700	3.670300	-11.068000	25.126342	0.000471	20.725940
905.252138	-3.009900	3.672000	-11.051000	25.104459	0.000473	20.725310
906.253985	-3.005500	3.670400	-11.031000	25.119101	0.000474	20.740009
907.251431	-3.000100	3.672000	-11.015000	25.133222	0.000472	20.727632
908.250694	-2.994800	3.672600	-10.997000	25.147733	0.000473	20.728448
909.255191	-2.982300	3.670300	-10.945000	25.126756	0.000474	20.749591
910.251236	-2.975700	3.670700	-10.922000	25.063112	0.000470	20.716995
911.252005	-3.009400	3.669000	-11.040000	25.063550	0.000471	20.752524
912.252725	-3.014100	3.669800	-11.060000	25.027072	0.000472	20.737717
913.252511	-3.011300	3.670000	-11.050000	25.053198	0.000471	20.743080
914.252942	-2.985100	3.670100	-10.955000	25.097102	0.000471	20.718872
915.252786	-3.021200	3.668600	-11.083000	25.069282	0.000471	20.722240
916.252770	-3.007300	3.669600	-11.035000	25.117899	0.000470	20.726948
917.253671	-2.992600	3.667800	-10.974000	25.120952	0.000469	20.717211
918.252906	-2.991900	3.667800	-10.974000	25.157101	0.000472	20.720310
919.254268	-2.990400	3.667700	-10.967000	25.136554	0.000468	20.721493
920.254098	-3.006600	3.668200	-11.028000	25.109110	0.000469	20.730928
921.254694	-3.017400	3.667600	-11.065000	25.122530	0.000470	20.724011
922.256047	-2.967600	3.668200	-10.885000	25.117870	0.000468	20.716013
923.254743	-2.991800	3.668200	-10.974000	25.133214	0.000467	20.726201
924.261378	-3.004500	3.665500	-11.012000	25.199083	0.000466	20.721679
925.256395	-3.024300	3.665000	-11.084000	25.141560	0.000466	20.716087
926.257108	-3.006000	3.665600	-11.017000	25.107528	0.000468	20.737875
927.258753	-3.023300	3.665100	-11.080000	25.104611	0.000466	20.703650
928.259785	-2.999900	3.666100	-10.997000	25.108186	0.000467	20.717197
929.256294	-2.990100	3.665100	-10.958000	25.067019	0.000467	20.714752
930.258072	-3.022000	3.663600	-11.071000	25.100326	0.000466	20.727800
931.260844	-3.013300	3.664100	-11.040000	25.113722	0.000463	20.730816
932.259046	-3.015800	3.664400	-11.050000	25.089210	0.000464	20.720907
933.257586	-2.996800	3.664700	-10.980000	25.144414	0.000462	20.716581
934.264519	-2.989800	3.663500	-10.952000	25.104349	0.000465	20.735157
935.257983	-2.967300	3.665300	-10.875000	25.113810	0.000465	20.710515
936.257481	-2.983100	3.663900	-10.929000	25.173078	0.000463	20.709322
937.257131	-2.983300	3.663000	-10.927000	25.196922	0.000464	20.700067
938.257543	-2.993900	3.664100	-10.969000	25.200413	0.000462	20.704521
939.256843	-2.993100	3.662300	-10.960000	25.214957	0.000463	20.725288
940.259346	-2.999700	3.661800	-10.984000	25.237300	0.000462	20.698880
941.263955	-3.019100	3.662400	-11.055000	25.244204	0.000461	20.702019
942.258734	-2.982400	3.661900	-10.919000	25.200404	0.000464	20.716366
943.261373	-3.008600	3.661600	-11.015000	25.128964	0.000461	20.717193
944.260847	-3.006100	3.661200	-11.005000	25.119264	0.000461	20.696548
945.258094	-2.997700	3.660800	-10.973000	25.117351	0.000462	20.709327
946.258893	-3.013100	3.660700	-11.028000	25.082836	0.000457	20.716406
947.262904	-2.966800	3.660700	-10.860000	25.053478	0.000460	20.688355
948.258485	-3.014300	3.659400	-11.030000	25.066280	0.000459	20.703104
949.259900	-3.006900	3.660500	-11.006000	25.107072	0.000457	20.712285
950.261797	-2.999200	3.660200	-10.977000	25.120852	0.000457	20.709997
951.259564	-3.003000	3.658100	-10.985000	25.116226	0.000459	20.708198
952.259828	-2.984800	3.659000	-10.921000	25.087419	0.000457	20.704884
953.263927	-2.997300	3.659900	-10.968000	25.127056	0.000457	20.720493
954.276270	-3.008300	3.658300	-11.004000	25.176225	0.000459	20.715326
955.261959	-2.997500	3.658800	-10.966000	25.203462	0.000457	20.710902
956.262000	-2.995200	3.657800	-10.955000	25.234584	0.000459	20.725078
957.262753	-3.011200	3.657500	-11.013000	25.239852	0.000458	20.701917
958.263876	-2.999900	3.657600	-10.971000	25.243387	0.000456	20.689817
959.262218	-2.999100	3.656600	-10.966000	25.253441	0.000456	20.700861
960.262919	-2.999900	3.657100	-10.970000	25.195424	0.000455	20.716108
961.260246	-2.996400	3.657000	-10.956000	25.168405	0.000457	20.713165
962.260359	-2.989700	3.655900	-10.929000	25.181279	0.000455	20.695268
963.261983	-2.989700	3.656200	-10.930000	25.206676	0.000454	20.697532
964.264763	-3.005700	3.655300	-10.986000	25.196554	0.000453	20.707285
965.262089	-3.003500	3.655900	-10.979000	25.170577	0.000455	20.700646
966.261627	-3.012400	3.654500	-11.008000	25.205031	0.000456	20.707260
967.263526	-3.004600	3.654100	-10.978000	25.201340	0.000455	20.712091
968.261042	-2.993700	3.654800	-10.940000	25.226771	0.000453	20.714862
969.260566	-3.027100	3.653400	-11.058000	25.200576	0.000454	20.709900
970.265176	-3.008200	3.654400	-10.992000	25.180608	0.000455	20.692698
971.259991	-3.010500	3.653600	-10.998000	25.227380	0.000454	20.701722
972.260855	-2.987100	3.654100	-10.915000	25.175632	0.000452	20.703350
973.261151	-2.996700	3.654400	-10.950000	25.188701	0.000451	20.706513
974.261063	-2.980400	3.653600	-10.888000	25.175729	0.000453	20.690645
975.263340	-2.998800	3.653400	-10.955000	25.172365	0.000452	20.679205
976.267861	-3.000000	3.653000	-10.958000	25.225213	0.000450	20.695279
977.265566	-2.993600	3.652500	-10.934000	25.224936	0.000452	20.702114
978.261954	-3.002100	3.653300	-10.967000	25.223967	0.000451	20.695450
979.270768	-3.019800	3.651800	-11.026000	25.245064	0.000450	20.715210
980.266446	-3.033000	3.650900	-11.072000	25.250527	0.000448	20.693666
981.262279	-2.998300	3.651600	-10.948000	25.215130	0.000449	20.697484
982.265018	-2.992500	3.649900	-10.921000	25.222239	0.000452	20.693715
983.264680	-2.994100	3.651400	-10.931000	25.241568	0.000448	20.709804
984.266154	-2.986900	3.651800	-10.906000	25.271842	0.000449	20.685195
985.264434	-3.011800	3.651500	-10.995000	25.281253	0.000449	20.699861
986.265123	-3.002200	3.649700	-10.955000	25.302773	0.000447	20.700604
987.268466	-2.990800	3.649900	-10.914000	25.274584	0.000447	20.684154
988.266063	-3.013300	3.649500	-10.995000	25.239733	0.000446	20.690417
989.263364	-2.990000	3.650200	-10.914000	25.223798	0.000450	20.709981
990.265983	-3.011300	3.647300	-10.983000	25.270314	0.000447	20.694567
991.263480	-2.994700	3.648200	-10.925000	25.318109	0.000449	20.713159
992.267339	-3.001000	3.647300	-10.945000	25.305130	0.000446	20.686849
993.270526	-2.969800	3.649300	-10.837000	25.305870	0.000447	20.696127
994.265903	-2.996600	3.647300	-10.929000	25.316430	0.000447	20.714792
995.269704	-3.015100	3.648100	-10.998000	25.303207	0.000446	20.693453
996.266633	-2.986200	3.647200	-10.890000	25.254098	0.000444	20.688717
997.266249	-3.022300	3.646900	-11.021000	25.260408	0.000447	20.699321
998.266736	-3.030500	3.646900	-11.051000	25.275462	0.000445	20.698314
999.269013	-3.025100	3.646300	-11.029000	25.301860	0.000444	20.725294
1000.267684	-2.982800	3.646200	-10.875000	25.330545	0.000445	20.691504
1001.268487	-2.997700	3.646400	-10.929000	25.314056	0.000442	20.698182
1002.268391	-3.007000	3.645500	-10.960000	25.300385	0.000444	20.702948
1003.273347	-3.015700	3.644700	-10.990000	25.291427	0.000444	20.730466
1004.269563	-3.013400	3.644800	-10.982000	25.257318	0.000443	20.695743
1005.269920	-2.988000	3.646300	-10.894000	25.271885	0.000445	20.697092
1006.270454	-2.961800	3.645500	-10.796000	25.258384	0.000443	20.707246
1007.278300	-3.006200	3.645400	-10.958000	25.232253	0.000443	20.716574
1008.273283	-3.005300	3.644400	-10.952000	25.253822	0.000442	20.712150
1009.275936	-3.009700	3.643800	-10.966000	25.251753	0.000441	20.712443
1010.274711	-3.015800	3.642500	-10.985000	25.220306	0.000440	20.682291
1011.273145	-3.017600	3.642300	-10.990000	25.225345	0.000444	20.697309
1012.281354	-2.992600	3.643200	-10.901000	25.218758	0.000443	20.709188
1013.276660	-2.994000	3.642600	-10.905000	25.236296	0.000442	20.723478
1014.275300	-3.015100	3.641900	-10.980000	25.255635	0.000441	20.703063
1015.277818	-3.020500	3.641700	-10.999000	25.254934	0.000440	20.719430
1016.277309	-2.994900	3.642100	-10.907000	25.238297	0.000444	20.715055
1017.275830	-2.976900	3.642700	-10.843000	25.210253	0.000440	20.711081
1018.280036	-3.003500	3.640800	-10.934000	25.200033	0.000440	20.702717
1019.278436	-3.007600	3.641600	-10.951000	25.218467	0.000440	20.720277
1020.278649	-2.994700	3.640200	-10.900000	25.209226	0.000440	20.710050
1021.279734	-2.972300	3.641500	-10.823000	25.201733	0.000440	20.704424
1022.281980	-2.986300	3.640100	-10.869000	25.247023	0.000438	20.712436
1023.279038	-2.996000	3.639700	-10.904000	25.274371	0.000437	20.718083
1024.282412	-3.005300	3.639700	-10.938000	25.308724	0.000437	20.702787
1025.279603	-3.003600	3.638700	-10.929000	25.336625	0.000438	20.714681
1026.282147	-3.023700	3.638500	-11.001000	25.328573	0.000436	20.716079
1027.280509	-3.008000	3.638100	-10.943000	25.347429	0.000436	20.689016
1028.282383	-3.007000	3.637900	-10.938000	25.368800	0.000435	20.720435
1029.279557	-2.995100	3.639700	-10.899000	25.384024	0.000435	20.709642
1030.280712	-3.022000	3.637900	-10.992000	25.405526	0.000436	20.698515
1031.281004	-2.999600	3.636500	-10.906000	25.388045	0.000434	20.700403
1032.280063	-2.975600	3.637500	-10.822000	25.388630	0.000436	20.713319
1033.280535	-2.960100	3.637900	-10.767000	25.396127	0.000434	20.723218
1034.281282	-3.012100	3.637600	-10.956000	25.386040	0.000434	20.720676
1035.281595	-3.007600	3.636600	-10.936000	25.447368	0.000434	20.700702
1036.280592	-3.016500	3.636100	-10.966000	25.440894	0.000434	20.723600
1037.282027	-3.001400	3.635000	-10.910000	25.473849	0.000434	20.737254
1038.281626	-3.007400	3.634900	-10.930000	25.467034	0.000435	20.718556
1039.280535	-2.996400	3.634900	-10.891000	25.405300	0.000430	20.709194
1040.282129	-3.006800	3.633600	-10.924000	25.366414	0.000431	20.721832
1041.281107	-2.988900	3.634800	-10.864000	25.298777	0.000432	20.730734
1042.280735	-2.969500	3.633600	-10.788000	25.267487	0.000430	20.714015
1043.280667	-2.988000	3.633600	-10.857000	25.269498	0.000430	20.716034
1044.280833	-2.986100	3.634000	-10.850000	25.302473	0.000430	20.719271
1045.281694	-3.000000	3.633500	-10.900000	25.338933	0.000432	20.709411
1046.281796	-3.016700	3.633000	-10.958000	25.321753	0.000430	20.695953
1047.287175	-2.996300	3.632400	-10.883000	25.331611	0.000430	20.711069
1048.281386	-3.005600	3.632500	-10.917000	25.334533	0.000429	20.719693
1049.283106	-3.011600	3.632800	-10.940000	25.322002	0.000430	20.725603
1050.287371	-3.008900	3.631800	-10.927000	25.353730	0.000429	20.724743
1051.283726	-2.989200	3.633100	-10.858000	25.367546	0.000430	20.721546
1052.283886	-2.999100	3.632100	-10.891000	25.345327	0.000430	20.719625
1053.286647	-2.982200	3.632000	-10.831000	25.374270	0.000428	20.707434
1054.283378	-2.969900	3.631300	-10.784000	25.340114	0.000428	20.731461
1055.284616	-2.984600	3.631700	-10.838000	25.312130	0.000426	20.727545
1056.285963	-3.012300	3.629100	-10.931000	25.270913	0.000426	20.725991
1057.285161	-3.004100	3.629400	-10.901000	25.269536	0.000425	20.717495
1058.285157	-2.997300	3.629200	-10.876000	25.242973	0.000425	20.723543
1059.285737	-2.999600	3.630200	-10.888000	25.318616	0.000425	20.741645
1060.286066	-3.023400	3.628700	-10.970000	25.334581	0.000425	20.717844
1061.286963	-2.982600	3.629100	-10.824000	25.330355	0.000424	20.727352
1062.288253	-2.993700	3.628000	-10.860000	25.352166	0.000425	20.716060
1063.286463	-3.027500	3.628000	-10.983000	25.346426	0.000424	20.727841
1064.289972	-3.016100	3.626000	-10.936000	25.317196	0.000424	20.736425
1065.290534	-2.974900	3.628400	-10.792000	25.285498	0.000423	20.738738
1066.288059	-2.977600	3.629300	-10.806000	25.301993	0.000427	20.742498
1067.287477	-2.994400	3.627800	-10.863000	25.331768	0.000423	20.735410
1068.286482	-3.000700	3.625700	-10.879000	25.386391	0.000425	20.741418
1069.285623	-2.972300	3.628100	-10.783000	25.358905	0.000423	20.725672
1070.289178	-2.995400	3.625600	-10.859000	25.315191	0.000422	20.737732
1071.287299	-2.995900	3.626000	-10.862000	25.347513	0.000421	20.717553
1072.289563	-2.973300	3.625200	-10.778000	25.352260	0.000423	20.734648
1073.287851	-2.997800	3.625100	-10.866000	25.372712	0.000420	20.731475
1074.300878	-2.983600	3.625400	-10.816000	25.346560	0.000422	20.742675
1075.292713	-2.971300	3.625700	-10.772000	25.332807	0.000423	20.742617
1076.290376	-3.010300	3.623900	-10.908000	25.343775	0.000417	20.732766
1077.289050	-2.999600	3.622200	-10.864000	25.385550	0.000419	20.746263
1078.291102	-3.017900	3.623100	-10.933000	25.422878	0.000418	20.742494
1079.290816	-3.002200	3.623900	-10.879000	25.427055	0.000418	20.745740
1080.290707	-3.001800	3.622600	-10.874000	25.375911	0.000418	20.759819
1081.292305	-3.023600	3.622400	-10.951000	25.339287	0.000418	20.726363
1082.291697	-3.006100	3.623500	-10.891000	25.356190	0.000418	20.752345
1083.294443	-3.008300	3.621500	-10.893000	25.351468	0.000416	20.745707
1084.298186	-3.001100	3.621600	-10.867000	25.338221	0.000418	20.740466
1085.293052	-3.003800	3.620300	-10.873000	25.328158	0.000416	20.742690
1086.292597	-3.005500	3.621400	-10.883000	25.333986	0.000417	20.744749
1087.293130	-3.011300	3.620100	-10.900000	25.316854	0.000414	20.752204
1088.294908	-2.973800	3.621200	-10.768000	25.305579	0.000416	20.741831
1089.294025	-2.997600	3.620800	-10.853000	25.315861	0.000413	20.743146
1090.294331	-3.015400	3.620600	-10.917000	25.319411	0.000415	20.740071
1091.294897	-3.007000	3.619000	-10.882000	25.351848	0.000414	20.733760
1092.295645	-3.003000	3.620400	-10.870000	25.400380	0.000414	20.731756
1093.295193	-3.006000	3.618700	-10.876000	25.406445	0.000414	20.777678
1094.295545	-3.006200	3.619900	-10.882000	25.447298	0.000413	20.755162
1095.295029	-3.000500	3.618900	-10.857000	25.389632	0.000414	20.749414
1096.295022	-3.009000	3.618100	-10.886000	25.369954	0.000412	20.753364
1097.299500	-3.004300	3.618600	-10.870000	25.390820	0.000413	20.757720
1098.294939	-2.983000	3.619300	-10.795000	25.382238	0.000413	20.749102
1099.295841	-3.018200	3.616000	-10.913000	25.365793	0.000414	20.759616
1100.296595	-3.009900	3.616000	-10.883000	25.356811	0.000410	20.741114
1101.294736	-2.987600	3.618000	-10.808000	25.358456	0.000410	20.757466
1102.296200	-3.004900	3.615300	-10.863000	25.366182	0.000410	20.738670
1103.300419	-3.012600	3.615100	-10.889000	25.396550	0.000412	20.766319
1104.296916	-3.001700	3.615700	-10.853000	25.443867	0.000411	20.761201
1105.295126	-3.015500	3.614800	-10.900000	25.462706	0.000408	20.751194
1106.301138	-2.989200	3.615500	-10.807000	25.399399	0.000408	20.763489
1107.297783	-3.004700	3.614400	-10.858000	25.399676	0.000407	20.747646
1108.297080	-2.976800	3.615400	-10.761000	25.418482	0.000407	20.764159
1109.303195	-3.018700	3.613600	-10.908000	25.445406	0.000405	20.740934
1110.301282	-2.996400	3.612600	-10.824000	25.515725	0.000407	20.760341
1111.298934	-2.975000	3.613700	-10.750000	25.457771	0.000408	20.761412
1112.304337	-2.996200	3.614100	-10.828000	25.409510	0.000406	20.764159
1113.301443	-2.998200	3.614000	-10.835000	25.392934	0.000404	20.749885
1114.302178	-3.022100	3.612500	-10.916000	25.403761	0.000408	20.760757
1115.304743	-2.988900	3.612600	-10.796000	25.452723	0.000406	20.759188
1116.300103	-3.015200	3.611500	-10.888000	25.476195	0.000404	20.767585
1117.300080	-3.005900	3.612600	-10.858000	25.485565	0.000406	20.756132
1118.303623	-3.007800	3.610800	-10.859000	25.487283	0.000403	20.751693
1119.300590	-2.997700	3.612300	-10.827000	25.460107	0.000404	20.760913
1120.300458	-3.010100	3.610000	-10.865000	25.465734	0.000404	20.760399
1121.303794	-3.000200	3.610200	-10.830000	25.406652	0.000402	20.759393
1122.302431	-3.020500	3.609800	-10.901000	25.379615	0.000406	20.765435
1123.302998	-3.014700	3.609400	-10.880000	25.393504	0.000402	20.760889
1124.313177	-3.010100	3.609500	-10.864000	25.445202	0.000406	20.778188
1125.305489	-2.999800	3.608500	-10.824000	25.440553	0.000402	20.765459
1126.302516	-3.004100	3.610100	-10.844000	25.468606	0.000402	20.756172
1127.306215	-3.002200	3.609400	-10.835000	25.499258	0.000402	20.781737
1128.303702	-3.005400	3.609200	-10.846000	25.478887	0.000401	20.749900
1129.304892	-2.996100	3.608800	-10.811000	25.481395	0.000399	20.758582
1130.309583	-3.023200	3.606600	-10.902000	25.506876	0.000402	20.772318
1131.303040	-3.001500	3.608100	-10.828000	25.531998	0.000400	20.779054
1132.306989	-2.985600	3.609200	-10.775000	25.521065	0.000400	20.760962
1133.309431	-3.032800	3.606000	-10.935000	25.533984	0.000401	20.772988
1134.304861	-3.001600	3.606700	-10.824000	25.481428	0.000398	20.771893
1135.311591	-3.008800	3.605400	-10.847000	25.530630	0.000401	20.770568
1136.309988	-3.000900	3.606400	-10.821000	25.529603	0.000399	20.785658
1137.306614	-3.002400	3.605400	-10.824000	25.513550	0.000397	20.769537
1138.307864	-3.015300	3.605200	-10.870000	25.565184	0.000399	20.764492
1139.309169	-2.997300	3.604400	-10.803000	25.501859	0.000397	20.786720
1140.305558	-3.017800	3.604900	-10.878000	25.475866	0.000398	20.781480
1141.306573	-3.012800	3.603100	-10.855000	25.434640	0.000396	20.775643
1142.312827	-2.994300	3.603700	-10.790000	25.412690	0.000394	20.759766
1143.311041	-3.013800	3.602800	-10.857000	25.391627	0.000396	20.764694
1144.310037	-3.012900	3.603300	-10.855000	25.465664	0.000395	20.755113
1145.309090	-3.017200	3.601900	-10.866000	25.446703	0.000395	20.783490
1146.306504	-3.007900	3.602900	-10.837000	25.470239	0.000394	20.787684
1147.309686	-3.010300	3.602500	-10.843000	25.483655	0.000394	20.771284
1148.314773	-3.007400	3.601600	-10.831000	25.519588	0.000394	20.769910
1149.306793	-2.996400	3.602800	-10.795000	25.510991	0.000392	20.773606
1150.307063	-3.001500	3.602500	-10.812000	25.531251	0.000393	20.784468
1151.306448	-3.012300	3.601600	-10.847000	25.521312	0.000391	20.789185
1152.308978	-2.983600	3.602600	-10.747000	25.453874	0.000392	20.784052
1153.306898	-2.996800	3.601900	-10.793000	25.483792	0.000393	20.779956
1154.309030	-2.966700	3.601000	-10.682000	25.440970	0.000392	20.786267
1155.309579	-2.987700	3.600500	-10.756000	25.477727	0.000393	20.785720
1156.308848	-3.001300	3.599500	-10.802000	25.526009	0.000392	20.766875
1157.309506	-2.989600	3.599000	-10.758000	25.500464	0.000391	20.790535
1158.307655	-3.002900	3.599000	-10.807000	25.528890	0.000390	20.786839
1159.309181	-3.000200	3.599500	-10.797000	25.539521	0.000389	20.788032
1160.309806	-3.000000	3.598700	-10.795000	25.522753	0.000389	20.810547
1161.310287	-2.997200	3.598100	-10.784000	25.560661	0.000389	20.814003
1162.313786	-2.990500	3.598900	-10.761000	25.560621	0.000390	20.784566
1163.310779	-2.997600	3.598000	-10.784000	25.560067	0.000389	20.792544
1164.309873	-3.017800	3.597200	-10.855000	25.542476	0.000387	20.791474
1165.311498	-3.009100	3.597200	-10.823000	25.491426	0.000389	20.794735
1166.313163	-3.010300	3.597100	-10.828000	25.471229	0.000388	20.802428
1167.309633	-2.991900	3.596900	-10.760000	25.490408	0.000386	20.793239
1168.310250	-3.012400	3.597600	-10.837000	25.453423	0.000388	20.796402
1169.309995	-3.006100	3.596000	-10.809000	25.473099	0.000388	20.782969
1170.309547	-3.002100	3.595700	-10.794000	25.477943	0.000386	20.797791
1171.311097	-3.025700	3.595200	-10.877000	25.490667	0.000388	20.808672
1172.310771	-3.009500	3.594300	-10.816000	25.514299	0.000385	20.793997
1173.311785	-2.994700	3.596100	-10.768000	25.530051	0.000384	20.788479
1174.311265	-3.000000	3.593800	-10.780000	25.547773	0.000385	20.786836
1175.310596	-2.999100	3.593200	-10.775000	25.593040	0.000384	20.784407
1176.313152	-2.992100	3.595300	-10.755000	25.600268	0.000385	20.801624
1177.313229	-2.978900	3.594100	-10.705000	25.597532	0.000384	20.795558
1178.312551	-2.954400	3.595400	-10.622000	25.588888	0.000385	20.800152
1179.310524	-2.980500	3.593400	-10.710000	25.593430	0.000381	20.808981
1180.312081	-2.998100	3.593400	-10.773000	25.561968	0.000384	20.811997
1181.312207	-3.012500	3.592500	-10.821000	25.573006	0.000382	20.798427
1182.315679	-2.996300	3.592600	-10.764000	25.553095	0.000380	20.803086
1183.312390	-3.023700	3.590600	-10.856000	25.535683	0.000382	20.818317
1184.312901	-3.014400	3.592200	-10.828000	25.545093	0.000384	20.805955
1185.312594	-3.001000	3.591000	-10.775000	25.489778	0.000383	20.803511
1186.315483	-2.973400	3.591600	-10.679000	25.479064	0.000381	20.795123
1187.315327	-2.995600	3.591000	-10.756000	25.511293	0.000380	20.802832
1188.314419	-2.990900	3.591300	-10.740000	25.520809	0.000380	20.799112
1189.313833	-3.008200	3.589700	-10.797000	25.535552	0.000380	20.808702
1190.314242	-3.010100	3.589700	-10.804000	25.502721	0.000378	20.820776
1191.314740	-3.041300	3.586800	-10.908000	25.500059	0.000380	20.810042
1192.314694	-3.001200	3.589700	-10.773000	25.485796	0.000380	20.828910
1193.318557	-2.992900	3.589900	-10.743000	25.481001	0.000379	20.842112
1194.312615	-2.995900	3.589500	-10.753000	25.505277	0.000378	20.822868
1195.316721	-3.017600	3.587700	-10.825000	25.545677	0.000378	20.825983
1196.318861	-2.993400	3.587000	-10.737000	25.466452	0.000378	20.815649
1197.319291	-2.992600	3.587900	-10.736000	25.453052	0.000377	20.838228
1198.319304	-3.013800	3.586900	-10.810000	25.497314	0.000377	20.820562
1199.319728	-3.005000	3.587600	-10.780000	25.513212	0.000376	20.810923
1200.318307	-3.001700	3.587500	-10.768000	25.537511	0.000377	20.816359
1201.319088	-3.021900	3.584800	-10.831000	25.589446	0.000376	20.840066
1202.319170	-2.991000	3.586100	-10.725000	25.627117	0.000375	20.818158
1203.319256	-3.015600	3.585600	-10.812000	25.570332	0.000375	20.817078
1204.320580	-2.985600	3.586900	-10.708000	25.574825	0.000375	20.814952
1205.324175	-3.016200	3.584600	-10.811000	25.609713	0.000374	20.820119
1206.326629	-3.009600	3.584900	-10.789000	25.578651	0.000374	20.809785
1207.322123	-2.993700	3.585000	-10.731000	25.561100	0.000373	20.834358
1208.328399	-3.007900	3.583900	-10.779000	25.596013	0.000373	20.814894
1209.325094	-2.987000	3.584800	-10.707000	25.564837	0.000372	20.818672
1210.323330	-3.002700	3.584800	-10.763000	25.531541	0.000371	20.838812
1211.327705	-3.013800	3.582800	-10.796000	25.504433	0.000371	20.842409
1212.326231	-2.998300	3.583200	-10.743000	25.496358	0.000372	20.827188
1213.323904	-3.010700	3.581800	-10.783000	25.521236	0.000371	20.825619
1214.326238	-3.019700	3.580500	-10.811000	25.485473	0.000371	20.829060
1215.326818	-3.005000	3.582800	-10.765000	25.518345	0.000369	20.826509
1216.325477	-3.020100	3.581700	-10.816000	25.538330	0.000368	20.818604
1217.327024	-3.005400	3.581100	-10.761000	25.582181	0.000368	20.830400
1218.334922	-2.994500	3.580000	-10.719000	25.597615	0.000370	20.836891
1219.326026	-3.034400	3.580100	-10.861000	25.614407	0.000370	20.845695
1220.329931	-2.981300	3.580400	-10.673000	25.573610	0.000367	20.813257
1221.328256	-3.007500	3.578800	-10.763000	25.543865	0.000367	20.834594
1222.325631	-2.999800	3.580100	-10.738000	25.496105	0.000367	20.837839
1223.329223	-2.971500	3.580200	-10.638000	25.493150	0.000366	20.830605
1224.328073	-3.002100	3.579200	-10.743000	25.463598	0.000367	20.848344
1225.326981	-2.979200	3.579600	-10.663000	25.532208	0.000367	20.832370
1226.330190	-2.993500	3.579300	-10.713000	25.564655	0.000365	20.846937
1227.329583	-3.010100	3.578700	-10.772000	25.623401	0.000368	20.826754
1228.328647	-3.004100	3.577500	-10.746000	25.623669	0.000365	20.835557
1229.326222	-2.985200	3.577400	-10.678000	25.576107	0.000364	20.845162
1230.334629	-2.979700	3.577800	-10.660000	25.507102	0.000363	20.846986
1231.326296	-3.025500	3.576100	-10.819000	25.520590	0.000363	20.849151
1232.326917	-2.996600	3.576400	-10.716000	25.525906	0.000365	20.830308
1233.328230	-3.015700	3.575200	-10.781000	25.521738	0.000364	20.858839
1234.326996	-2.997600	3.576000	-10.719000	25.545541	0.000362	20.871836
1235.326904	-2.982100	3.577800	-10.668000	25.529814	0.000362	20.833285
1236.327319	-2.995700	3.574600	-10.707000	25.530335	0.000362	20.858463
1237.325161	-3.010700	3.575600	-10.764000	25.527526	0.000361	20.840470
1238.326500	-2.994300	3.575100	-10.703000	25.499319	0.000362	20.834429
1239.332001	-2.997100	3.574400	-10.711000	25.520371	0.000361	20.875008
1240.328747	-3.007000	3.573800	-10.745000	25.581374	0.000361	20.871787
1241.327937	-3.017200	3.573900	-10.782000	25.575587	0.000360	20.836579
1242.328981	-3.018800	3.573000	-10.785000	25.544051	0.000361	20.837625
1243.330532	-3.002900	3.572600	-10.727000	25.533892	0.000361	20.853027
1244.331968	-2.968400	3.573200	-10.606000	25.510790	0.000359	20.827457
1245.331849	-2.981400	3.573900	-10.654000	25.523057	0.000359	20.827922
1246.335918	-2.987800	3.573400	-10.675000	25.549677	0.000358	20.849439
1247.331903	-2.995200	3.572100	-10.699000	25.581587	0.000358	20.834071
1248.331572	-3.005400	3.571800	-10.734000	25.597761	0.000359	20.831822
1249.330482	-2.999200	3.571300	-10.710000	25.567789	0.000361	20.826851
1250.331802	-2.974500	3.571900	-10.624000	25.573853	0.000357	20.842425
1251.330776	-2.987500	3.571400	-10.669000	25.558191	0.000357	20.830963
1252.332759	-2.984800	3.570600	-10.656000	25.600350	0.000357	20.844853
1253.332355	-2.992100	3.572400	-10.689000	25.624769	0.000358	20.839506
1254.346313	-2.999400	3.571000	-10.710000	25.667608	0.000355	20.828479
1255.337119	-3.013900	3.569000	-10.755000	25.703958	0.000356	20.846970
1256.332675	-3.028100	3.567800	-10.803000	25.708776	0.000356	20.822887
1257.333718	-3.002100	3.568600	-10.712000	25.702746	0.000353	20.811615
1258.338439	-3.018500	3.568900	-10.772000	25.685629	0.000355	20.837570
1259.335091	-2.994700	3.568200	-10.685000	25.653128	0.000355	20.830057
1260.333254	-3.011500	3.568700	-10.746000	25.606658	0.000354	20.827956
1261.336295	-2.994100	3.566900	-10.678000	25.634366	0.000354	20.823067
1262.332735	-3.000200	3.567400	-10.702000	25.590762	0.000356	20.834276
1263.334753	-2.999500	3.567900	-10.701000	25.613000	0.000351	20.828161
1264.338533	-2.996000	3.567900	-10.689000	25.571901	0.000351	20.822921
1265.336400	-2.999500	3.566900	-10.699000	25.502292	0.000351	20.816552
1266.343372	-2.990100	3.565700	-10.661000	25.554082	0.000352	20.823517
1267.339878	-2.995900	3.566000	-10.683000	25.584274	0.000352	20.815432
1268.336582	-2.988100	3.566400	-10.656000	25.627309	0.000351	20.808868
1269.337990	-2.999900	3.565100	-10.694000	25.643385	0.000348	20.833073
1270.338956	-2.994300	3.565300	-10.675000	25.654341	0.000353	20.802826
1271.337578	-3.005700	3.563700	-10.711000	25.649391	0.000350	20.819666
1272.338987	-2.997700	3.564600	-10.685000	25.656034	0.000349	20.813061
1273.340810	-2.968800	3.564600	-10.581000	25.656278	0.000349	20.816625
1274.338144	-2.994400	3.563600	-10.670000	25.688852	0.000350	20.807616
1275.338058	-2.993300	3.563100	-10.663000	25.694818	0.000347	20.822144
1276.341784	-2.969800	3.563200	-10.581000	25.720212	0.000348	20.813985
1277.338687	-2.995700	3.562400	-10.671000	25.665802	0.000347	20.806277
1278.339827	-2.991800	3.562500	-10.658000	25.627187	0.000345	20.794995
1279.345216	-3.014800	3.562200	-10.738000	25.564517	0.000348	20.811238
1280.337614	-2.999600	3.563400	-10.687000	25.565422	0.000348	20.787491
1281.338216	-3.005600	3.561800	-10.705000	25.582239	0.000348	20.790155
1282.341678	-3.022200	3.560900	-10.761000	25.621717	0.000346	20.801829
1283.336827	-3.008500	3.560600	-10.710000	25.600408	0.000345	20.794178
1284.339159	-2.999500	3.561800	-10.683000	25.626724	0.000349	20.796426
1285.345754	-3.007600	3.560400	-10.708000	25.621059	0.000343	20.821082
1286.340106	-3.004000	3.559200	-10.691000	25.634010	0.000345	20.797580
1287.337820	-2.990000	3.559800	-10.643000	25.609957	0.000344	20.794759
1288.340408	-3.004800	3.560200	-10.697000	25.601785	0.000344	20.828277
1289.344059	-3.025000	3.558900	-10.765000	25.576835	0.000346	20.792789
1290.342217	-3.011000	3.557500	-10.710000	25.581736	0.000342	20.785383
1291.341894	-3.005100	3.559000	-10.694000	25.579108	0.000343	20.788433
1292.339859	-2.986300	3.558900	-10.627000	25.572921	0.000342	20.784591
1293.342257	-3.030700	3.555900	-10.774000	25.598090	0.000343	20.788531
1294.341808	-2.999600	3.558200	-10.671000	25.587387	0.000344	20.797696
1295.340250	-3.007800	3.556700	-10.697000	25.596649	0.000341	20.780446
1296.341125	-3.023900	3.556600	-10.754000	25.586043	0.000342	20.806304
1297.341235	-2.998800	3.556600	-10.664000	25.606695	0.000341	20.782000
1298.342843	-3.018500	3.555500	-10.731000	25.600362	0.000339	20.785597
1299.345368	-3.016900	3.555300	-10.725000	25.625058	0.000340	20.771045
1300.344707	-3.011600	3.555400	-10.707000	25.586232	0.000340	20.779467
1301.341555	-3.014500	3.554500	-10.714000	25.586622	0.000339	20.786497
1302.342829	-3.004900	3.555000	-10.682000	25.591148	0.000339	20.763541
1303.344015	-3.028600	3.553900	-10.763000	25.585035	0.000339	20.774945
1304.342967	-3.009000	3.553900	-10.693000	25.628348	0.000339	20.777668
1305.344542	-2.984600	3.554300	-10.607000	25.615674	0.000337	20.778690
1306.344964	-2.996600	3.553000	-10.646000	25.601608	0.000338	20.767408
1307.342975	-3.037400	3.552800	-10.790000	25.621217	0.000337	20.771455
1308.343852	-3.001300	3.553400	-10.664000	25.664626	0.000337	20.786604
1309.347816	-3.000600	3.552100	-10.658000	25.665643	0.000338	20.775297
1310.341804	-3.012800	3.552500	-10.702000	25.655184	0.000337	20.789449
1311.343350	-3.013700	3.551800	-10.703000	25.672782	0.000334	20.784839
1312.348190	-3.020200	3.552000	-10.726000	25.625646	0.000336	20.786809
1313.343284	-3.005300	3.553200	-10.678000	25.615634	0.000337	20.776279
1314.342395	-3.004100	3.551100	-10.667000	25.637887	0.000335	20.772076
1315.347669	-2.985700	3.550900	-10.601000	25.589814	0.000333	20.760779
1316.346391	-2.971000	3.551600	-10.550000	25.602878	0.000333	20.768209
1317.347947	-2.979700	3.549900	-10.576000	25.608202	0.000332	20.772608
1318.347452	-2.995500	3.551300	-10.637000	25.589756	0.000334	20.756453
1319.346785	-2.999500	3.549800	-10.647000	25.577505	0.000331	20.779712
1320.346294	-2.979100	3.550100	-10.576000	25.586549	0.000332	20.791639
1321.344013	-2.991000	3.549400	-10.615000	25.612500	0.000333	20.767441
1322.344979	-2.979700	3.549200	-10.575000	25.619874	0.000334	20.766313
1323.345189	-3.002000	3.548000	-10.650000	25.663420	0.000331	20.762158
1324.349013	-3.023000	3.548000	-10.724000	25.640458	0.000332	20.777503
1325.345675	-3.001600	3.547700	-10.648000	25.591864	0.000331	20.753828
1326.346586	-2.985500	3.547000	-10.588000	25.596829	0.000333	20.759289
1327.346024	-3.018900	3.546500	-10.706000	25.606685	0.000331	20.767292
1328.346506	-3.006000	3.546400	-10.660000	25.655906	0.000332	20.767414
1329.346230	-3.032300	3.543700	-10.745000	25.670044	0.000329	20.750794
1330.345982	-3.006400	3.545500	-10.659000	25.651730	0.000329	20.767487
1331.344957	-3.013200	3.545800	-10.683000	25.632073	0.000329	20.754382
1332.346319	-3.001200	3.544900	-10.638000	25.581557	0.000330	20.766236
1333.345799	-3.010800	3.544500	-10.671000	25.587621	0.000329	20.756679
1334.345333	-3.007300	3.544100	-10.657000	25.616761	0.000329	20.764609
1335.345551	-2.995900	3.544700	-10.618000	25.603143	0.000328	20.775114
1336.346804	-2.993500	3.544600	-10.610000	25.582671	0.000327	20.755502
1337.347574	-2.995800	3.543700	-10.615000	25.609241	0.000326	20.752788
1338.348964	-2.990400	3.544200	-10.598000	25.635947	0.000328	20.767282
1339.348390	-3.004300	3.543500	-10.644000	25.648270	0.000328	20.770651
1340.348052	-3.016600	3.541800	-10.683000	25.676620	0.000326	20.754553
1341.349942	-3.001100	3.541800	-10.628000	25.668196	0.000328	20.784025
1342.353238	-2.990500	3.542200	-10.592000	25.627644	0.000326	20.762737
1343.350328	-3.022800	3.542000	-10.706000	25.623045	0.000325	20.748160
1344.354147	-3.011400	3.541700	-10.665000	25.594027	0.000324	20.764535
1345.353180	-3.005200	3.540900	-10.640000	25.556232	0.000323	20.750286
1346.361847	-3.013900	3.540100	-10.668000	25.560481	0.000325	20.759769
1347.353443	-2.997100	3.540300	-10.610000	25.535686	0.000324	20.755731
1348.359633	-3.006300	3.539400	-10.640000	25.557405	0.000323	20.749093
1349.362475	-2.997900	3.539700	-10.611000	25.578139	0.000323	20.747630
1350.354380	-3.000400	3.540200	-10.622000	25.569047	0.000321	20.775958
1351.354985	-2.998800	3.538900	-10.611000	25.576104	0.000324	20.742742
1352.357477	-3.010400	3.537900	-10.650000	25.605172	0.000324	20.757710
1353.355050	-2.990600	3.538800	-10.582000	25.595510	0.000323	20.772663
1354.354250	-2.995400	3.537500	-10.595000	25.555705	0.000321	20.767775
1355.356316	-3.012600	3.537400	-10.656000	25.604782	0.000320	20.755896
1356.353776	-2.988000	3.537700	-10.570000	25.624741	0.000321	20.762666
1357.351608	-2.991900	3.538500	-10.586000	25.584669	0.000322	20.744232
1358.359033	-3.021700	3.534900	-10.680000	25.559802	0.000322	20.746758
1359.355484	-3.010600	3.536300	-10.645000	25.558776	0.000320	20.739563
1360.355543	-2.992800	3.537400	-10.586000	25.617197	0.000320	20.738492
1361.360168	-2.977200	3.536400	-10.528000	25.615001	0.000319	20.747193
1362.355999	-3.002700	3.535200	-10.615000	25.608878	0.000318	20.720654
1363.355894	-2.984500	3.536300	-10.553000	25.637296	0.000321	20.745877
1364.357146	-3.013000	3.534000	-10.646000	25.636270	0.000320	20.743898
1365.357120	-3.011800	3.535400	-10.647000	25.675682	0.000319	20.753611
1366.356350	-2.993700	3.535400	-10.583000	25.685206	0.000320	20.736623
1367.359960	-2.992000	3.533200	-10.570000	25.692058	0.000320	20.746352
1368.359364	-3.004800	3.533300	-10.616000	25.705261	0.000318	20.734008
1369.361883	-3.002100	3.533200	-10.606000	25.681633	0.000318	20.748683
1370.363069	-2.984500	3.533700	-10.544000	25.629791	0.000318	20.735969
1371.358546	-2.970900	3.534100	-10.498000	25.623745	0.000317	20.724206
1372.360374	-3.011800	3.532800	-10.639000	25.665811	0.000317	20.725203
1373.362597	-2.997700	3.532700	-10.589000	25.648596	0.000318	20.740157
1374.366855	-3.012800	3.531100	-10.637000	25.641408	0.000317	20.753326
1375.359772	-2.983700	3.532100	-10.538000	25.639105	0.000314	20.740582
1376.361631	-2.995900	3.531900	-10.579000	25.631007	0.000316	20.731499
1377.361857	-3.000700	3.530500	-10.593000	25.627172	0.000316	20.718638
1378.360066	-3.003400	3.530700	-10.604000	25.642760	0.000314	20.734295
1379.364200	-2.997800	3.529400	-10.580000	25.668229	0.000314	20.746599
1380.365777	-3.010600	3.528200	-10.621000	25.633937	0.000314	20.733020
1381.360558	-3.005500	3.529100	-10.606000	25.615369	0.000314	20.721009
1382.362948	-3.028400	3.528400	-10.684000	25.608540	0.000313	20.741178
1383.362022	-2.998800	3.527100	-10.577000	25.635639	0.000313	20.717659
1384.362536	-2.994400	3.528600	-10.565000	25.635085	0.000313	20.746027
1385.368746	-3.004800	3.528800	-10.603000	25.615208	0.000313	20.722744
1386.365007	-3.011100	3.528100	-10.623000	25.630510	0.000312	20.713930
1387.365401	-3.004100	3.527600	-10.596000	25.648483	0.000311	20.735302
1388.368923	-3.021300	3.526300	-10.653000	25.665168	0.000311	20.706539
1389.367118	-2.999000	3.527900	-10.580000	25.668083	0.000310	20.720373
1390.368934	-2.987300	3.526500	-10.532000	25.670288	0.000311	20.727329
1391.367942	-3.009200	3.525000	-10.606000	25.630315	0.000311	20.697612
1392.368356	-3.011100	3.526200	-10.616000	25.616697	0.000310	20.731352
1393.366836	-3.004900	3.525000	-10.591000	25.637022	0.000311	20.713358
1394.367855	-3.004600	3.526600	-10.595000	25.613636	0.000310	20.710733
1395.368109	-3.000300	3.525700	-10.577000	25.616313	0.000311	20.716741
1396.365443	-3.000700	3.524300	-10.574000	25.629663	0.000309	20.713554
1397.369228	-2.994000	3.523900	-10.549000	25.652071	0.000305	20.718516
1398.369918	-3.013600	3.522100	-10.613000	25.675724	0.000309	20.692010
1399.371170	-3.010500	3.523700	-10.607000	25.649857	0.000306	20.711076
1400.369563	-3.019900	3.521700	-10.635000	25.615311	0.000308	20.694870
1401.367911	-3.001800	3.522600	-10.572000	25.635115	0.000307	20.718555
1402.369106	-2.978700	3.522500	-10.491000	25.642294	0.000305	20.704902
1403.373889	-2.995300	3.522900	-10.551000	25.700011	0.000307	20.715456
1404.369431	-2.994700	3.522300	-10.547000	25.626438	0.000307	20.712685
1405.372208	-2.989400	3.520600	-10.524000	25.619079	0.000305	20.720942
1406.371270	-2.989400	3.520600	-10.524000	25.643644	0.000307	20.702938
1407.371065	-2.966400	3.521100	-10.444000	25.643823	0.000304	20.730621
1408.371251	-3.015400	3.519100	-10.610000	25.670480	0.000304	20.714245
1409.370284	-3.010700	3.519200	-10.594000	25.676111	0.000304	20.718005
1410.370602	-3.008000	3.519900	-10.586000	25.679620	0.000304	20.723900
1411.371160	-3.007800	3.519200	-10.584000	25.624644	0.000304	20.690967
1412.375111	-2.996700	3.518500	-10.543000	25.649568	0.000301	20.704620
1413.370281	-3.030100	3.517500	-10.657000	25.662159	0.000304	20.700671
1414.375084	-3.015400	3.517200	-10.605000	25.657804	0.000302	20.702461
1415.380343	-3.012500	3.516800	-10.594000	25.680741	0.000303	20.692781
1416.374746	-3.012900	3.516800	-10.595000	25.710472	0.000301	20.699411
1417.374733	-3.010200	3.517200	-10.586000	25.719204	0.000300	20.708182
1418.376956	-2.993200	3.516200	-10.524000	25.662287	0.000304	20.699377
1419.378626	-2.986500	3.515600	-10.498000	25.671159	0.000300	20.691218
1420.374759	-2.978700	3.516700	-10.474000	25.615214	0.000299	20.708524
1421.376288	-2.995900	3.516600	-10.534000	25.623133	0.000301	20.690398
1422.373699	-2.993000	3.515700	-10.521000	25.612707	0.000299	20.707429
1423.373083	-2.999100	3.514400	-10.539000	25.604273	0.000303	20.702277
1424.376810	-3.000400	3.515700	-10.547000	25.616393	0.000299	20.728201
1425.373338	-2.987000	3.515400	-10.499000	25.673501	0.000302	20.677448
1426.375611	-2.995700	3.514000	-10.526000	25.688565	0.000300	20.696373
1427.379796	-3.000900	3.512700	-10.540000	25.697705	0.000297	20.700338
1428.374190	-2.999000	3.512900	-10.534000	25.715050	0.000300	20.703535
1429.374555	-2.994500	3.513800	-10.521000	25.716588	0.000299	20.698915
1430.381158	-3.002300	3.511800	-10.543000	25.720136	0.000300	20.692047
1431.376289	-2.989000	3.513200	-10.499000	25.733394	0.000297	20.696355
1432.376311	-3.002100	3.512100	-10.541000	25.698126	0.000297	20.675628
1433.379851	-2.978600	3.513000	-10.462000	25.691045	0.000299	20.709770
1434.374370	-3.005200	3.511700	-10.553000	25.713442	0.000298	20.691487
1435.378557	-3.015300	3.510300	-10.584000	25.737167	0.000297	20.694455
1436.379524	-2.999800	3.511500	-10.533000	25.727979	0.000298	20.701348
1437.377350	-3.005200	3.509500	-10.546000	25.764659	0.000296	20.695517
1438.378391	-2.998900	3.509800	-10.524000	25.819814	0.000297	20.705401
1439.381551	-3.013000	3.509400	-10.572000	25.738215	0.000294	20.693137
1440.378254	-2.991500	3.510500	-10.500000	25.709492	0.000293	20.709332
1441.376806	-2.974800	3.510000	-10.440000	25.666972	0.000292	20.690805
1442.386300	-3.010100	3.508000	-10.558000	25.634991	0.000295	20.696144
1443.379653	-3.004600	3.508100	-10.539000	25.652255	0.000293	20.691671
1444.382622	-3.004500	3.507900	-10.538000	25.700130	0.000294	20.712257
1445.382617	-2.998200	3.508000	-10.516000	25.750233	0.000293	20.706631
1446.378641	-3.018300	3.507700	-10.586000	25.744724	0.000293	20.714849
1447.381466	-3.018600	3.506400	-10.583000	25.778644	0.000293	20.693917
1448.384595	-3.011600	3.505600	-10.557000	25.741556	0.000292	20.669938
1449.379794	-2.997300	3.506300	-10.508000	25.705476	0.000293	20.698659
1450.383343	-3.013700	3.505600	-10.564000	25.672211	0.000291	20.686110
1451.384188	-2.985000	3.506600	-10.466000	25.675628	0.000292	20.696181
1452.379614	-3.024700	3.504900	-10.601000	25.689620	0.000291	20.697906
1453.384380	-3.009600	3.504700	-10.546000	25.702838	0.000292	20.689845
1454.385649	-2.982500	3.506300	-10.457000	25.704245	0.000290	20.686991
1455.383598	-3.005500	3.505000	-10.534000	25.747894	0.000293	20.699066
1456.384223	-3.000500	3.504400	-10.514000	25.743856	0.000291	20.683155
1457.390229	-2.980000	3.504400	-10.442000	25.743978	0.000291	20.688019
1458.380803	-3.002500	3.503700	-10.519000	25.712822	0.000290	20.695606
1459.384030	-2.998900	3.503100	-10.505000	25.673680	0.000289	20.679049
1460.388819	-2.989900	3.503500	-10.475000	25.651702	0.000289	20.702970
1461.382089	-3.008600	3.501100	-10.532000	25.683609	0.000290	20.698033
1462.384277	-2.991900	3.502900	-10.480000	25.698852	0.000287	20.686790
1463.388523	-2.983800	3.502300	-10.450000	25.679196	0.000288	20.689806
1464.382821	-3.015300	3.501800	-10.558000	25.688272	0.000290	20.688965
1465.384634	-3.021300	3.500300	-10.575000	25.659417	0.000289	20.692700
1466.387940	-2.997800	3.501500	-10.495000	25.693276	0.000287	20.707743
1467.382868	-3.012300	3.499600	-10.541000	25.654215	0.000286	20.684630
1468.385071	-3.000200	3.500000	-10.500000	25.674758	0.000288	20.710007
1469.387110	-2.992500	3.500200	-10.474000	25.725416	0.000287	20.691660
1470.380940	-2.995500	3.499200	-10.481000	25.758957	0.000287	20.686943
1471.386447	-2.983900	3.500000	-10.443000	25.741628	0.000286	20.700358
1472.388165	-2.979100	3.498700	-10.422000	25.709040	0.000285	20.699869
1473.384552	-2.999400	3.498100	-10.491000	25.713621	0.000284	20.694986
1474.387709	-3.004600	3.498000	-10.509000	25.648800	0.000283	20.683933
1475.388808	-3.012100	3.497500	-10.534000	25.641067	0.000284	20.700349
1476.385069	-2.998900	3.498500	-10.491000	25.636263	0.000283	20.698844
1477.388790	-3.020600	3.497300	-10.563000	25.652129	0.000284	20.697235
1478.390412	-3.021500	3.496900	-10.566000	25.639568	0.000284	20.700741
1479.387594	-3.024700	3.496300	-10.574000	25.623127	0.000280	20.695133
1480.390149	-3.004400	3.496000	-10.502000	25.631746	0.000284	20.691462
1481.391248	-3.011500	3.494600	-10.522000	25.642995	0.000281	20.716986
1482.386984	-2.991600	3.495200	-10.455000	25.626063	0.000281	20.709937
1483.385859	-3.002100	3.494600	-10.489000	25.612177	0.000281	20.709267
1484.391618	-2.995300	3.494800	-10.466000	25.622694	0.000281	20.718408
1485.387635	-2.999000	3.493500	-10.476000	25.616304	0.000279	20.685910
1486.388995	-3.003800	3.493900	-10.494000	25.643360	0.000281	20.701705
1487.392523	-2.999400	3.492200	-10.473000	25.699986	0.000280	20.696464
1488.389419	-2.981900	3.494100	-10.418000	25.702021	0.000278	20.693766
1489.388739	-2.995900	3.492200	-10.462000	25.704902	0.000277	20.708041
1490.392046	-3.007800	3.492200	-10.504000	25.702289	0.000279	20.700200
1491.389263	-2.981300	3.493500	-10.414000	25.727585	0.000278	20.688149
1492.388879	-2.995300	3.490900	-10.456000	25.767530	0.000279	20.708833
1493.392977	-2.978700	3.491100	-10.397000	25.803551	0.000277	20.702816
1494.400138	-2.986500	3.490400	-10.424000	25.747631	0.000277	20.690266
1495.389826	-2.996700	3.490100	-10.458000	25.732330	0.000277	20.698606
1496.391459	-2.985200	3.490900	-10.420000	25.709126	0.000278	20.704223
1497.390873	-3.010500	3.489600	-10.504000	25.671628	0.000274	20.725830
1498.390516	-2.987400	3.489200	-10.422000	25.669959	0.000276	20.714670
1499.395460	-3.000400	3.490300	-10.472000	25.699758	0.000275	20.691019
1500.390281	-2.993100	3.490300	-10.446000	25.759774	0.000278	20.713370
1501.393456	-2.982800	3.488000	-10.403000	25.708401	0.000275	20.698279
1502.395777	-3.034500	3.487700	-10.582000	25.684904	0.000274	20.688427
1503.392172	-3.019400	3.488300	-10.531000	25.650798	0.000273	20.695899
1504.394195	-3.018400	3.487900	-10.527000	25.686662	0.000275	20.701573
1505.393691	-2.968800	3.488500	-10.356000	25.687606	0.000275	20.690193
1506.392836	-2.995000	3.486400	-10.441000	25.699831	0.000274	20.711482
1507.396584	-3.009400	3.486800	-10.492000	25.710217	0.000274	20.698679
1508.395583	-3.002800	3.486800	-10.469000	25.721921	0.000271	20.697633
1509.393661	-2.981100	3.487100	-10.394000	25.730866	0.000274	20.708989
1510.394966	-3.014000	3.486100	-10.506000	25.775865	0.000274	20.706774
1511.394113	-3.031400	3.484200	-10.561000	25.802202	0.000273	20.696718
1512.392350	-2.996200	3.484600	-10.439000	25.716874	0.000272	20.698728
1513.400653	-2.999100	3.484400	-10.449000	25.706830	0.000273	20.697648
1514.396442	-2.970600	3.486700	-10.356000	25.667730	0.000273	20.714802
1515.398029	-2.991300	3.483700	-10.420000	25.660152	0.000270	20.700077
1516.398491	-3.026600	3.483400	-10.542000	25.640772	0.000271	20.691992
1517.402035	-2.996200	3.483300	-10.436000	25.645045	0.000270	20.696284
1518.395490	-3.007700	3.483500	-10.476000	25.627202	0.000272	20.711082
1519.396401	-3.011800	3.483700	-10.492000	25.637817	0.000271	20.711785
1520.397218	-3.012100	3.482400	-10.489000	25.707384	0.000272	20.701524
1521.394401	-3.002300	3.481200	-10.450000	25.676559	0.000269	20.711816
1522.398241	-3.000000	3.483100	-10.449000	25.635292	0.000270	20.706878
1523.404738	-3.022200	3.481300	-10.520000	25.606868	0.000268	20.714842
1524.398237	-3.012700	3.480900	-10.487000	25.612802	0.000267	20.678598
1525.398111	-2.996700	3.480300	-10.429000	25.663170	0.000269	20.695048
1526.400570	-2.999500	3.481500	-10.441000	25.713902	0.000268	20.706649
1527.396387	-3.019500	3.481200	-10.511000	25.731271	0.000267	20.707500
1528.400034	-2.972500	3.480500	-10.345000	25.753107	0.000269	20.712838
1529.400486	-3.016600	3.479400	-10.495000	25.775342	0.000265	20.709094
1530.397924	-3.009500	3.479100	-10.470000	25.801027	0.000266	20.743431
1531.399220	-3.028200	3.478600	-10.533000	25.832123	0.000266	20.718241
1532.399905	-3.022200	3.477800	-10.509000	25.787883	0.000266	20.701302
1533.398038	-3.010100	3.478400	-10.470000	25.725345	0.000266	20.720040
1534.400788	-3.003200	3.478400	-10.446000	25.693350	0.000264	20.716827
1535.402139	-3.001900	3.478700	-10.441000	25.682785	0.000264	20.728502
1536.399636	-3.016300	3.477400	-10.488000	25.665269	0.000264	20.714701
1537.401482	-3.019500	3.476900	-10.497000	25.671781	0.000262	20.717923
1538.403447	-2.985600	3.477200	-10.380000	25.695930	0.000263	20.708987
1539.403569	-2.964600	3.477700	-10.309000	25.711216	0.000262	20.708219
1540.401047	-2.985100	3.477400	-10.378000	25.742348	0.000263	20.720523
1541.402529	-2.989300	3.475500	-10.389000	25.780477	0.000262	20.727529
1542.402662	-2.970000	3.477200	-10.326000	25.789348	0.000262	20.721741
1543.402986	-3.005600	3.475400	-10.444000	25.764778	0.000261	20.725984
1544.407768	-3.001700	3.474400	-10.429000	25.764729	0.000262	20.709338
1545.406646	-2.974400	3.475100	-10.335000	25.791538	0.000262	20.704973
1546.406031	-3.015000	3.474300	-10.475000	25.812258	0.000261	20.710614
1547.405771	-2.992100	3.473900	-10.392000	25.818638	0.000260	20.696633
1548.402554	-3.015600	3.474800	-10.477000	25.852955	0.000260	20.737747
1549.405015	-2.996500	3.473700	-10.408000	25.863479	0.000262	20.727455
1550.406498	-2.993700	3.473500	-10.398000	25.877435	0.000260	20.742424
1551.403397	-2.984900	3.472300	-10.363000	25.872039	0.000259	20.715665
1552.404191	-3.008900	3.472600	-10.448000	25.813461	0.000258	20.727945
1553.404892	-2.994300	3.472800	-10.397000	25.799666	0.000259	20.708871
1554.402729	-2.998100	3.472500	-10.410000	25.786580	0.000257	20.716115
1555.403968	-3.025500	3.470700	-10.500000	25.727818	0.000257	20.732482
1556.404340	-2.977300	3.471300	-10.334000	25.702929	0.000256	20.737829
1557.403310	-3.018900	3.470500	-10.476000	25.700438	0.000257	20.727740
1558.405011	-2.997100	3.471000	-10.402000	25.736388	0.000256	20.731607
1559.403662	-3.012000	3.469900	-10.451000	25.786848	0.000255	20.720178
1560.404040	-3.002600	3.470200	-10.419000	25.791520	0.000255	20.740519
1561.404140	-2.983300	3.468600	-10.346000	25.765719	0.000255	20.715075
1562.404733	-3.015700	3.468300	-10.458000	25.754935	0.000255	20.735538
1563.404158	-2.996600	3.468300	-10.392000	25.787198	0.000254	20.730013
1564.403420	-2.985000	3.468500	-10.353000	25.793521	0.000256	20.715500
1565.404464	-2.996800	3.469500	-10.396000	25.762439	0.000253	20.725057
1566.405200	-3.013500	3.467500	-10.447000	25.746691	0.000253	20.740534
1567.405463	-3.005900	3.466500	-10.419000	25.787409	0.000254	20.725957
1568.410159	-2.997200	3.468000	-10.393000	25.849088	0.000255	20.726749
1569.407178	-2.992800	3.465700	-10.371000	25.865560	0.000252	20.745193
1570.405507	-3.010900	3.467700	-10.440000	25.874601	0.000254	20.735309
1571.405338	-3.017100	3.465400	-10.455000	25.910764	0.000256	20.722326
1572.406078	-3.002300	3.465000	-10.402000	25.904726	0.000253	20.732856
1573.404953	-2.982100	3.464700	-10.332000	25.813629	0.000255	20.736649
1574.406383	-3.010900	3.463800	-10.428000	25.795269	0.000252	20.731008
1575.406341	-3.006900	3.465600	-10.420000	25.762031	0.000250	20.747882
1576.405620	-2.990900	3.463900	-10.359000	25.790476	0.000252	20.734254
1577.407748	-3.019000	3.462200	-10.451000	25.816111	0.000251	20.723969
1578.408523	-3.008200	3.463000	-10.417000	25.832656	0.000252	20.721148
1579.415822	-2.989300	3.464300	-10.355000	25.792282	0.000247	20.724688
1580.405776	-3.008300	3.464100	-10.420000	25.785649	0.000249	20.732250
1581.410049	-3.001300	3.461500	-10.388000	25.814028	0.000251	20.735627
1582.407351	-3.005200	3.461200	-10.401000	25.824721	0.000251	20.747317
1583.408713	-2.989700	3.462100	-10.349000	25.865998	0.000250	20.740418
1584.408868	-2.984600	3.462300	-10.332000	25.889769	0.000248	20.739167
1585.409575	-2.991200	3.462900	-10.357000	25.897890	0.000249	20.739739
1586.408820	-2.979200	3.462100	-10.314000	25.922229	0.000247	20.715825
1587.409030	-2.993400	3.461700	-10.362000	25.906727	0.000248	20.744824
1588.411031	-3.009600	3.459700	-10.412000	25.910527	0.000249	20.730149
1589.407434	-3.005200	3.459500	-10.396000	25.920390	0.000248	20.749067
1590.409345	-2.985400	3.461100	-10.332000	25.940529	0.000249	20.741324
1591.407936	-3.014400	3.458900	-10.425000	25.965820	0.000248	20.740180
1592.407932	-3.015500	3.458100	-10.427000	25.942597	0.000244	20.751462
1593.408010	-3.018900	3.458400	-10.440000	25.887570	0.000246	20.726527
1594.408774	-2.998700	3.458900	-10.371000	25.877211	0.000244	20.746941
1595.408296	-2.993500	3.458600	-10.353000	25.849135	0.000244	20.727744
1596.411955	-3.003900	3.457100	-10.384000	25.819797	0.000245	20.753750
1597.409242	-3.016300	3.457900	-10.430000	25.808809	0.000246	20.733704
1598.408548	-3.031000	3.456200	-10.475000	25.819910	0.000244	20.746751
1599.411460	-2.991800	3.458500	-10.346000	25.817957	0.000245	20.759015
1600.408754	-2.984400	3.457900	-10.319000	25.839807	0.000244	20.745402
1601.410961	-2.974200	3.457600	-10.282000	25.822790	0.000242	20.742533
1602.416635	-2.986700	3.456000	-10.321000	25.789846	0.000242	20.742631
1603.410770	-2.993400	3.457000	-10.347000	25.776995	0.000241	20.746317
1604.411120	-3.011000	3.454600	-10.400000	25.760848	0.000241	20.736736
1605.414653	-3.005300	3.456100	-10.386000	25.785248	0.000242	20.769781
1606.411439	-3.013400	3.454800	-10.410000	25.817687	0.000242	20.746415
1607.420177	-2.998800	3.454100	-10.358000	25.867443	0.000241	20.755146
1608.415292	-2.994100	3.454000	-10.340000	25.889709	0.000242	20.766609
1609.413240	-2.972400	3.455600	-10.270000	25.901100	0.000243	20.748180
1610.412344	-3.003400	3.452500	-10.368000	25.949324	0.000240	20.759169
1611.420504	-3.012100	3.453300	-10.400000	25.927833	0.000239	20.744690
1612.414014	-2.992100	3.452900	-10.331000	25.902802	0.000239	20.744200
1613.416351	-3.006300	3.452700	-10.378000	25.825133	0.000240	20.737773
1614.419388	-3.001400	3.452800	-10.362000	25.819770	0.000239	20.750404
1615.413764	-3.009000	3.452600	-10.388000	25.835965	0.000239	20.759086
1616.413642	-3.015500	3.450300	-10.402000	25.842728	0.000237	20.763984
1617.420870	-3.014300	3.451000	-10.401000	25.866051	0.000239	20.774611
1618.413892	-2.995900	3.450700	-10.337000	25.865457	0.000238	20.747936
1619.417573	-3.003300	3.451000	-10.363000	25.852494	0.000237	20.770949
1620.419991	-3.008400	3.449600	-10.377000	25.829390	0.000237	20.753430
1621.415511	-2.996300	3.451200	-10.340000	25.775472	0.000236	20.755694
1622.415547	-3.006200	3.449100	-10.367000	25.839171	0.000235	20.754247
1623.418790	-3.003000	3.449500	-10.358000	25.819078	0.000237	20.763461
1624.416860	-3.000200	3.448500	-10.345000	25.838163	0.000237	20.769830
1625.416859	-3.017600	3.447600	-10.402000	25.854561	0.000235	20.735567
1626.418907	-2.989300	3.450100	-10.312000	25.862260	0.000235	20.778389
1627.414289	-2.994800	3.448100	-10.325000	25.874906	0.000235	20.764066
1628.418292	-2.987400	3.447900	-10.298000	25.849598	0.000235	20.770411
1629.417651	-3.017200	3.446300	-10.397000	25.835754	0.000234	20.764565
1630.417323	-3.001300	3.446600	-10.343000	25.804065	0.000234	20.740318
1631.418793	-2.978800	3.446100	-10.264000	25.797749	0.000234	20.785657
1632.417415	-2.987700	3.445400	-10.293000	25.900019	0.000234	20.766535
1633.416653	-2.990500	3.446400	-10.306000	25.910607	0.000235	20.779542
1634.417322	-3.004800	3.445700	-10.353000	25.893274	0.000234	20.769716
1635.417840	-2.984400	3.445900	-10.283000	25.880034	0.000235	20.774908
1636.416644	-3.005500	3.445600	-10.355000	25.865850	0.000234	20.768245
1637.416826	-2.991700	3.446000	-10.308000	25.805106	0.000235	20.745157
1638.417519	-3.027500	3.443000	-10.423000	25.796463	0.000232	20.775357
1639.417108	-3.008800	3.443700	-10.361000	25.829928	0.000233	20.768670
1640.417042	-3.015100	3.443700	-10.381000	25.849427	0.000232	20.761704
1641.417482	-2.980300	3.444000	-10.263000	25.841500	0.000233	20.766070
1642.419269	-2.989000	3.442500	-10.289000	25.814440	0.000233	20.785355
1643.417780	-2.986200	3.443000	-10.281000	25.794868	0.000230	20.765219
1644.419043	-2.990800	3.443900	-10.299000	25.791140	0.000232	20.775700
1645.419098	-3.011500	3.442100	-10.365000	25.835876	0.000233	20.771800
1646.419912	-3.006700	3.442000	-10.349000	25.839929	0.000231	20.787251
1647.420222	-3.006100	3.440900	-10.343000	25.799783	0.000232	20.776321
1648.420362	-2.995800	3.441000	-10.308000	25.868021	0.000233	20.788919
1649.421811	-3.015200	3.440800	-10.373000	25.819624	0.000231	20.764008
1650.422395	-3.029200	3.440600	-10.421000	25.860844	0.000232	20.779338
1651.426304	-3.007600	3.441100	-10.348000	25.873652	0.000229	20.774660
1652.422083	-3.003600	3.439700	-10.331000	25.866889	0.000226	20.780669
1653.422359	-2.993200	3.440900	-10.298000	25.815561	0.000228	20.770834
1654.424648	-2.986300	3.440100	-10.272000	25.816466	0.000229	20.799243
1655.424811	-2.998700	3.440000	-10.314000	25.878737	0.000228	20.775028
1656.422990	-3.001700	3.438300	-10.319000	25.912118	0.000228	20.803820
1657.427454	-2.999800	3.438600	-10.314000	25.876670	0.000228	20.783856
1658.423376	-2.978000	3.438700	-10.239000	25.883725	0.000229	20.774823
1659.427042	-2.992000	3.438600	-10.288000	25.895321	0.000227	20.798326
1660.426967	-2.999700	3.437700	-10.311000	25.931265	0.000226	20.796029
1661.424806	-3.013900	3.436300	-10.355000	25.950062	0.000224	20.791205
1662.426561	-2.980200	3.437000	-10.243000	25.954879	0.000226	20.805527
1663.427388	-3.010600	3.434600	-10.339000	25.947994	0.000226	20.788654
1664.424571	-2.995300	3.435700	-10.289000	25.961045	0.000226	20.799394
1665.425625	-3.015100	3.434000	-10.353000	25.987499	0.000226	20.788987
1666.425351	-2.992400	3.434800	-10.278000	25.911994	0.000227	20.784729
1667.428481	-2.989400	3.434900	-10.267000	25.906141	0.000226	20.790230
1668.434990	-2.992600	3.434800	-10.278000	25.900322	0.000225	20.784384
1669.430222	-3.011900	3.432900	-10.339000	25.899859	0.000223	20.781074
1670.427759	-3.002000	3.434100	-10.308000	25.893048	0.000223	20.795568
1671.428610	-2.991800	3.434700	-10.275000	25.938674	0.000223	20.802998
1672.432063	-3.030200	3.431900	-10.397000	25.967041	0.000224	20.793090
1673.431036	-3.001400	3.433000	-10.303000	25.961100	0.000223	20.789019
1674.430770	-3.024600	3.431600	-10.378000	25.907808	0.000224	20.786214
1675.431650	-3.016400	3.433300	-10.355000	25.913724	0.000225	20.805434
1676.431749	-3.031900	3.432100	-10.405000	25.897856	0.000222	20.816045
1677.434626	-3.004500	3.432300	-10.311000	25.890214	0.000222	20.783711
1678.431783	-3.006200	3.432200	-10.317000	25.913861	0.000221	20.808416
1679.433795	-2.999500	3.432300	-10.294000	25.904007	0.000222	20.802785
1680.431069	-2.968000	3.432800	-10.187000	25.893338	0.000222	20.799178
1681.430032	-2.985300	3.431200	-10.243000	25.929802	0.000220	20.809258
1682.431666	-3.006900	3.430300	-10.313000	25.920445	0.000222	20.816452
1683.433057	-3.002300	3.430100	-10.297000	25.968780	0.000220	20.806217
1684.433203	-3.007100	3.428700	-10.309000	26.006317	0.000220	20.782763
1685.438672	-3.002800	3.429900	-10.298000	25.905333	0.000219	20.806961
1686.434013	-3.009700	3.429400	-10.320000	25.915171	0.000218	20.818267
1687.435252	-3.010700	3.428900	-10.322000	25.907619	0.000219	20.798827
1688.435998	-2.997900	3.429100	-10.279000	25.912290	0.000219	20.806364
1689.433780	-2.985000	3.428400	-10.232000	25.962547	0.000216	20.796162
1690.436214	-3.016700	3.427900	-10.340000	25.963881	0.000217	20.811727
1691.434791	-3.009700	3.428000	-10.317000	25.929762	0.000218	20.822494
1692.433838	-2.990000	3.427600	-10.247000	25.959829	0.000217	20.831362
1693.438091	-2.992600	3.427600	-10.256000	25.978521	0.000216	20.812210
1694.434883	-3.010100	3.426000	-10.311000	25.990408	0.000217	20.816566
1695.436577	-3.021200	3.427100	-10.351000	25.984428	0.000215	20.841851
1696.436747	-2.982900	3.425900	-10.218000	25.977942	0.000217	20.798827
1697.434708	-3.004100	3.425500	-10.289000	25.983036	0.000216	20.818643
1698.435326	-3.010200	3.425900	-10.312000	25.971831	0.000214	20.814024
1699.440899	-3.022100	3.423800	-10.346000	25.992768	0.000214	20.822730
1700.434400	-3.000100	3.425600	-10.277000	25.928353	0.000214	20.825820
1701.437566	-3.000200	3.423600	-10.271000	25.911590	0.000215	20.820833
1702.437865	-2.984200	3.424900	-10.220000	25.894769	0.000214	20.814367
1703.437208	-2.998800	3.422600	-10.263000	25.886298	0.000213	20.799693
1704.437960	-3.007400	3.421800	-10.290000	25.859955	0.000215	20.823489
1705.439594	-2.996500	3.423300	-10.257000	25.871682	0.000213	20.831950
1706.443334	-2.993700	3.423700	-10.248000	25.913868	0.000212	20.822648
1707.437378	-2.999600	3.423600	-10.269000	25.942592	0.000212	20.810727
1708.437622	-2.993200	3.422700	-10.243000	25.983344	0.000211	20.834125
1709.437485	-3.011400	3.421400	-10.302000	25.982041	0.000210	20.821911
1710.439301	-3.002500	3.420900	-10.271000	25.980495	0.000211	20.852598
1711.447742	-2.992800	3.420000	-10.235000	25.905647	0.000210	20.829087
1712.440871	-3.010700	3.420700	-10.297000	25.910440	0.000211	20.839118
1713.438441	-2.995500	3.420500	-10.245000	25.883089	0.000210	20.825392
1714.441180	-2.993600	3.420700	-10.239000	25.862638	0.000210	20.837090
1715.442760	-3.012000	3.420300	-10.301000	25.919578	0.000210	20.826487
1716.439458	-2.982800	3.420400	-10.201000	25.937392	0.000209	20.816408
1717.442466	-2.995800	3.417600	-10.238000	25.900919	0.000210	20.821966
1718.438416	-3.020000	3.417500	-10.320000	25.842448	0.000211	20.845257
1719.438986	-2.987500	3.419100	-10.214000	25.867155	0.000207	20.835463
1720.441347	-3.023700	3.416400	-10.329000	25.858561	0.000210	20.832046
1721.440130	-2.994800	3.417400	-10.233000	25.877913	0.000208	20.834417
1722.442305	-3.002300	3.416300	-10.256000	25.912669	0.000207	20.838038
1723.439761	-3.003200	3.416800	-10.261000	25.913385	0.000207	20.851085
1724.442331	-2.994500	3.416500	-10.230000	25.899445	0.000207	20.837081
1725.444683	-3.002200	3.416200	-10.255000	25.897426	0.000206	20.841691
1726.441231	-3.013100	3.416900	-10.294000	25.922189	0.000207	20.829584
1727.446528	-3.007900	3.416300	-10.275000	25.932874	0.000205	20.851223
1728.440516	-3.015700	3.416200	-10.302000	25.888157	0.000207	20.844233
1729.440265	-3.000500	3.415500	-10.246000	25.975804	0.000209	20.836033
1730.442231	-3.003900	3.413500	-10.253000	26.014178	0.000205	20.859886
1731.444133	-3.009100	3.414300	-10.273000	26.026399	0.000207	20.843717
1732.442866	-2.984000	3.415200	-10.190000	26.032054	0.000204	20.853191
1733.445046	-3.003500	3.414300	-10.254000	26.007115	0.000205	20.863221
1734.441035	-3.005800	3.413100	-10.258000	26.009002	0.000206	20.843781
1735.444461	-3.001700	3.412800	-10.243000	25.976746	0.000206	20.861634
1736.447511	-2.982800	3.413700	-10.182000	25.986429	0.000205	20.843862
1737.443586	-3.010400	3.413500	-10.274000	26.010026	0.000205	20.858086
1738.446449	-3.032700	3.412500	-10.348000	26.092384	0.000204	20.871132
1739.447409	-2.967100	3.413100	-10.126000	26.107272	0.000206	20.861436
1740.447699	-2.995400	3.411400	-10.217000	26.090536	0.000202	20.858371
1741.447917	-3.004400	3.410300	-10.245000	26.081025	0.000203	20.846444
1742.448166	-3.001500	3.411000	-10.237000	26.003149	0.000202	20.854021
1743.452067	-3.027300	3.410600	-10.324000	25.932599	0.000203	20.853792
1744.448350	-3.007100	3.410900	-10.256000	25.925088	0.000201	20.841505
1745.448315	-3.021200	3.410600	-10.304000	25.953040	0.000202	20.860577
1746.448423	-3.010900	3.409900	-10.265000	26.013498	0.000202	20.823169
1747.448031	-3.022700	3.409600	-10.305000	26.026524	0.000202	20.832937
1748.449185	-3.005300	3.409200	-10.245000	26.087361	0.000202	20.831948
1749.450095	-3.014400	3.408000	-10.272000	26.116683	0.000201	20.834384
1750.447801	-3.015900	3.407900	-10.277000	26.102356	0.000203	20.836109
1751.447963	-3.010800	3.407600	-10.259000	26.090379	0.000200	20.854420
1752.450814	-2.994400	3.408100	-10.204000	26.121695	0.000201	20.839893
1753.449611	-3.000400	3.407700	-10.223000	26.143051	0.000200	20.839067
1754.454118	-3.001300	3.407900	-10.227000	26.129041	0.000200	20.821671
1755.450738	-3.018300	3.406700	-10.281000	26.083657	0.000196	20.841028
1756.452324	-2.975200	3.407800	-10.137000	26.108293	0.000196	20.814100
1757.453982	-2.993800	3.405700	-10.195000	26.064236	0.000198	20.826257
1758.452599	-2.996900	3.406800	-10.209000	26.076399	0.000199	20.825202
1759.457132	-2.982100	3.406300	-10.157000	26.091598	0.000197	20.847110
1760.458127	-2.991100	3.405200	-10.184000	26.137965	0.000197	20.845336
1761.457928	-2.990700	3.406000	-10.186000	26.146386	0.000194	20.835306
1762.457175	-2.992700	3.404900	-10.189000	26.141536	0.000196	20.835174
1763.459485	-2.978600	3.404100	-10.138000	26.135621	0.000195	20.826386
1764.455832	-2.985900	3.404800	-10.166000	26.101962	0.000194	20.842825
1765.465224	-3.014800	3.404200	-10.261000	26.092061	0.000194	20.844730
1766.455972	-2.974800	3.403900	-10.125000	26.040638	0.000195	20.821039
1767.456118	-3.003600	3.403300	-10.222000	26.086739	0.000195	20.818522
1768.460142	-3.007900	3.402300	-10.233000	26.098080	0.000196	20.807632
1769.457670	-2.981000	3.402900	-10.143000	26.056163	0.000192	20.827154
1770.463720	-3.000200	3.402600	-10.208000	26.056723	0.000194	20.826295
1771.458562	-3.002600	3.403100	-10.218000	26.020141	0.000190	20.811352
1772.459859	-2.990400	3.401200	-10.170000	26.020833	0.000191	20.808253
1773.463398	-2.998600	3.401600	-10.198000	26.015088	0.000191	20.820024
1774.458539	-2.991000	3.399800	-10.168000	26.013102	0.000193	20.809021
1775.458372	-3.020400	3.399900	-10.268000	26.033892	0.000191	20.816158
1776.461906	-2.985700	3.400700	-10.152000	26.030141	0.000188	20.828984
1777.465150	-2.995000	3.399300	-10.180000	26.075055	0.000190	20.808678
1778.457802	-2.996300	3.399800	-10.186000	26.042989	0.000192	20.816289
1779.464611	-2.984400	3.400700	-10.149000	26.052288	0.000190	20.821839
1780.464795	-3.009400	3.398300	-10.226000	26.056706	0.000190	20.818217
1781.461166	-2.987500	3.399100	-10.154000	26.077625	0.000188	20.800829
1782.459011	-2.987600	3.398800	-10.153000	26.087282	0.000190	20.811007
1783.460764	-3.000100	3.398400	-10.194000	26.063483	0.000189	20.812699
1784.462338	-2.996400	3.397200	-10.178000	26.062189	0.000188	20.810925
1785.459805	-2.996400	3.397600	-10.180000	26.019025	0.000187	20.810230
1786.464353	-2.977400	3.397500	-10.115000	26.020758	0.000188	20.815290
1787.461827	-2.997900	3.397400	-10.184000	26.059569	0.000187	20.830576
1788.460276	-2.985600	3.396800	-10.141000	26.038463	0.000187	20.801310
1789.463462	-3.008900	3.395700	-10.217000	26.041441	0.000185	20.807147
1790.459570	-3.012800	3.395200	-10.228000	26.087859	0.000186	20.795939
1791.463082	-3.026500	3.395500	-10.276000	26.111250	0.000187	20.816123
1792.463358	-2.986100	3.394600	-10.135000	26.174758	0.000185	20.809289
1793.461166	-3.003800	3.395100	-10.197000	26.178899	0.000185	20.790690
1794.464863	-2.985400	3.392900	-10.129000	26.208145	0.000185	20.812018
1795.466047	-2.995700	3.395200	-10.170000	26.169892	0.000184	20.812933
1796.464919	-2.991000	3.393400	-10.149000	26.087735	0.000183	20.805298
1797.466349	-3.004500	3.394400	-10.198000	26.063765	0.000183	20.808240
1798.464104	-2.982600	3.394300	-10.123000	26.072056	0.000183	20.807562
1799.466375	-2.990800	3.392400	-10.145000	26.055807	0.000182	20.808305
1800.467843	-3.009800	3.392900	-10.211000	26.092111	0.000183	20.811591
1801.467373	-2.991200	3.391700	-10.145000	26.116333	0.000183	20.817436
1802.471148	-2.995200	3.392300	-10.159000	26.171664	0.000183	20.795748
1803.468897	-3.016000	3.391500	-10.227000	26.171777	0.000182	20.803448
1804.466547	-3.004700	3.392400	-10.192000	26.188317	0.000182	20.791145
1805.468204	-3.025500	3.389700	-10.255000	26.178350	0.000183	20.810527
1806.471534	-2.984000	3.391800	-10.120000	26.201943	0.000182	20.800096
1807.466751	-3.041800	3.389400	-10.308000	26.144741	0.000181	20.803782
1808.469300	-3.007200	3.388900	-10.191000	26.098594	0.000183	20.783492
1809.467350	-3.032400	3.389000	-10.276000	26.108342	0.000182	20.800399
1810.467463	-3.003600	3.390200	-10.182000	26.117095	0.000181	20.806349
1811.465787	-3.009300	3.388800	-10.197000	26.113930	0.000182	20.796530
1812.469231	-2.995500	3.389900	-10.153000	26.124189	0.000180	20.799727
1813.469015	-3.007700	3.389100	-10.192000	26.176616	0.000183	20.789344
1814.468337	-3.008000	3.388800	-10.193000	26.177551	0.000181	20.797396
1815.468526	-3.033100	3.386900	-10.272000	26.166193	0.000181	20.780293
1816.472410	-3.021800	3.387800	-10.237000	26.161426	0.000180	20.807271
1817.467595	-2.997600	3.387900	-10.155000	26.150768	0.000179	20.779966
1818.473339	-2.994800	3.386900	-10.142000	26.137848	0.000180	20.785950
1819.470658	-3.017500	3.386800	-10.218000	26.186393	0.000182	20.791582
1820.470450	-3.001200	3.386500	-10.162000	26.202037	0.000177	20.796871
1821.468961	-3.001500	3.386100	-10.163000	26.142720	0.000177	20.797958
1822.469793	-3.001600	3.385500	-10.161000	26.130524	0.000177	20.791393
1823.469898	-2.991200	3.386100	-10.128000	26.095750	0.000177	20.799601
1824.472057	-2.996400	3.385700	-10.144000	26.111192	0.000177	20.781452
1825.471334	-3.008200	3.384000	-10.179000	26.130768	0.000178	20.800647
1826.471057	-2.992000	3.384900	-10.126000	26.117026	0.000175	20.810072
1827.475869	-3.003300	3.383500	-10.160000	26.184683	0.000175	20.790338
1828.471068	-3.010400	3.384200	-10.186000	26.182771	0.000174	20.786521
1829.472788	-3.009000	3.382600	-10.178000	26.176954	0.000175	20.783046
1830.472721	-3.013400	3.383800	-10.196000	26.164222	0.000174	20.815771
1831.473806	-2.999600	3.381900	-10.144000	26.174522	0.000175	20.802887
1832.474236	-2.985600	3.383200	-10.099000	26.129295	0.000176	20.811495
1833.473647	-3.002300	3.383200	-10.156000	26.167973	0.000173	20.787772
1834.473903	-3.002700	3.382500	-10.156000	26.185871	0.000173	20.791532
1835.473930	-2.983500	3.383100	-10.092000	26.154834	0.000173	20.805389
1836.472970	-3.005200	3.382300	-10.163000	26.168615	0.000173	20.795529
1837.474723	-3.005900	3.382000	-10.164000	26.192811	0.000174	20.782858
1838.474852	-2.999300	3.380700	-10.138000	26.222806	0.000171	20.787395
1839.474221	-2.989500	3.379500	-10.102000	26.302032	0.000169	20.780243
1840.477610	-3.028100	3.378400	-10.229000	26.289960	0.000170	20.793715
1841.476112	-3.000600	3.380200	-10.141000	26.319839	0.000169	20.782965
1842.476680	-2.996500	3.378500	-10.122000	26.298559	0.000169	20.789080
1843.476686	-2.997200	3.378700	-10.126000	26.325013	0.000169	20.770147
1844.475564	-2.987000	3.380100	-10.096000	26.275440	0.000168	20.770114
1845.479863	-2.995300	3.378400	-10.118000	26.274733	0.000169	20.766558
1846.476476	-3.019600	3.378100	-10.200000	26.299146	0.000170	20.760272
1847.476782	-3.005000	3.377800	-10.149000	26.247635	0.000169	20.786269
1848.477722	-3.012400	3.376300	-10.170000	26.263857	0.000168	20.790242
1849.477149	-3.005500	3.377000	-10.148000	26.266021	0.000168	20.785304
1850.479727	-2.977000	3.377300	-10.052000	26.289532	0.000166	20.769102
1851.478974	-2.977900	3.376400	-10.053000	26.286318	0.000167	20.773933
1852.479568	-3.013800	3.377100	-10.177000	26.266063	0.000166	20.759742
1853.480824	-2.985900	3.375900	-10.079000	26.268976	0.000166	20.773575
1854.480764	-3.024600	3.375200	-10.207000	26.280031	0.000166	20.784685
1855.479334	-2.996800	3.376400	-10.118000	26.268324	0.000166	20.757747
1856.483744	-3.011700	3.375600	-10.165000	26.283961	0.000166	20.779625
1857.479638	-2.988900	3.374800	-10.086000	26.266731	0.000165	20.765155
1858.478487	-3.005100	3.374100	-10.139000	26.220166	0.000164	20.778579
1859.483709	-2.989800	3.374100	-10.087000	26.217523	0.000164	20.777345
1860.480903	-3.003600	3.373600	-10.133000	26.176000	0.000163	20.761224
1861.485845	-2.991000	3.374400	-10.092000	26.170687	0.000164	20.774378
1862.479412	-2.997400	3.372800	-10.108000	26.139373	0.000166	20.765671
1863.479386	-2.995800	3.372200	-10.102000	26.162601	0.000163	20.755820
1864.480893	-2.990600	3.373800	-10.088000	26.207135	0.000163	20.757423
1865.479999	-2.998800	3.371700	-10.110000	26.218362	0.000162	20.754006
1866.480072	-2.993700	3.372300	-10.094000	26.249699	0.000163	20.768427
1867.481737	-3.000300	3.371100	-10.114000	26.231598	0.000162	20.763988
1868.480774	-3.017200	3.370900	-10.169000	26.179247	0.000161	20.765909
1869.479406	-3.002100	3.370500	-10.117000	26.128391	0.000161	20.773603
1870.486231	-2.998200	3.371100	-10.107000	26.150813	0.000159	20.772899
1871.480011	-3.019800	3.370000	-10.176000	26.128375	0.000159	20.765052
1872.482067	-3.010600	3.370500	-10.146000	26.143134	0.000158	20.769925
1873.479458	-2.998000	3.369300	-10.100000	26.180558	0.000159	20.755847
1874.482664	-2.988500	3.369200	-10.067000	26.169575	0.000158	20.754293
1875.481176	-2.995500	3.369600	-10.093000	26.157421	0.000156	20.757254
1876.481683	-3.003400	3.368300	-10.116000	26.197700	0.000157	20.765012
1877.482450	-2.996000	3.368400	-10.090000	26.258592	0.000158	20.753656
1878.485375	-2.992300	3.368400	-10.078000	26.240598	0.000158	20.755962
1879.483459	-3.000200	3.367900	-10.104000	26.270299	0.000157	20.757360
1880.483644	-3.008200	3.366900	-10.128000	26.260969	0.000157	20.746087
1881.485338	-2.996000	3.368000	-10.089000	26.267029	0.000154	20.759764
1882.484055	-2.993200	3.366300	-10.075000	26.227005	0.000156	20.744673
1883.486811	-2.978200	3.366800	-10.026000	26.259927	0.000155	20.737454
1884.486082	-3.014200	3.366400	-10.146000	26.283454	0.000154	20.754934
1885.483480	-3.001400	3.366300	-10.103000	26.347482	0.000156	20.763330
1886.492805	-3.006400	3.366900	-10.121000	26.290044	0.000156	20.757289
1887.485288	-2.999900	3.365900	-10.097000	26.252949	0.000154	20.736605
1888.489295	-2.983200	3.364500	-10.036000	26.220231	0.000154	20.761100
1889.484980	-2.980800	3.365800	-10.032000	26.186412	0.000153	20.739918
1890.487343	-2.988600	3.364200	-10.053000	26.164926	0.000154	20.739664
1891.486789	-3.001100	3.363200	-10.092000	26.163349	0.000152	20.746614
1892.486545	-2.985200	3.363900	-10.041000	26.176357	0.000153	20.743090
1893.487276	-2.998200	3.363100	-10.082000	26.246337	0.000151	20.753669
1894.489663	-3.003500	3.364700	-10.105000	26.279325	0.000153	20.738929
1895.488439	-2.999200	3.361600	-10.081000	26.326286	0.000151	20.743925
1896.487175	-2.995200	3.362900	-10.072000	26.297393	0.000153	20.737647
1897.489401	-2.971000	3.364600	-9.993700	26.292316	0.000152	20.751037
1898.489269	-3.040100	3.361100	-10.217000	26.308985	0.000153	20.736494
1899.490901	-2.994000	3.362000	-10.065000	26.279537	0.000152	20.749100
1900.488840	-2.992100	3.359900	-10.052000	26.294115	0.000152	20.727239
1901.489255	-2.996400	3.361500	-10.071000	26.266286	0.000150	20.749534
1902.490520	-3.000700	3.361000	-10.085000	26.219103	0.000151	20.728196
1903.488708	-3.016900	3.359800	-10.134000	26.241255	0.000151	20.751881
1904.489147	-2.984900	3.360800	-10.030000	26.267629	0.000147	20.725278
1905.487819	-3.017800	3.359200	-10.136000	26.210080	0.000148	20.738096
1906.487583	-3.009800	3.358400	-10.107000	26.273290	0.000148	20.730020
1907.488420	-3.001300	3.359000	-10.081000	26.317616	0.000149	20.720037
1908.490211	-3.002000	3.358700	-10.081000	26.300786	0.000146	20.733944
1909.490301	-3.028600	3.359600	-10.174000	26.279034	0.000148	20.731525
1910.490047	-2.996100	3.358700	-10.062000	26.299468	0.000146	20.730723
1911.489425	-3.032000	3.358500	-10.182000	26.298102	0.000146	20.708485
1912.487880	-3.003200	3.357300	-10.082000	26.236472	0.000147	20.733323
1913.489515	-3.016900	3.356300	-10.125000	26.239418	0.000147	20.741974
1914.493217	-3.025300	3.356400	-10.153000	26.260414	0.000147	20.722769
1915.491199	-2.984300	3.356100	-10.015000	26.272072	0.000145	20.721208
1916.493869	-2.993700	3.356200	-10.047000	26.288643	0.000146	20.720792
1917.495489	-3.000100	3.356500	-10.068000	26.274358	0.000145	20.728722
1918.494554	-2.992100	3.356000	-10.041000	26.277694	0.000144	20.716426
1919.495148	-2.989300	3.355100	-10.029000	26.251141	0.000144	20.713924
1920.493033	-3.015700	3.354700	-10.115000	26.243649	0.000146	20.700230
1921.492624	-2.998600	3.354800	-10.059000	26.265387	0.000142	20.722076
1922.493692	-3.007100	3.354500	-10.087000	26.227932	0.000144	20.723319
1923.495458	-2.993800	3.354500	-10.042000	26.265435	0.000144	20.742515
1924.494104	-2.999300	3.353400	-10.057000	26.330073	0.000145	20.717383
1925.494506	-3.008700	3.353100	-10.088000	26.403720	0.000144	20.715536
1926.495408	-3.015100	3.352900	-10.108000	26.433571	0.000144	20.709977
1927.493464	-3.011100	3.353000	-10.095000	26.399181	0.000143	20.712397
1928.498560	-3.013500	3.353600	-10.105000	26.391365	0.000141	20.713550
1929.495676	-3.018300	3.352800	-10.119000	26.339168	0.000144	20.711824
1930.496475	-3.002200	3.352300	-10.064000	26.309332	0.000142	20.714082
1931.496984	-2.985400	3.351900	-10.006000	26.350068	0.000141	20.716615
1932.496428	-2.992800	3.350100	-10.025000	26.372421	0.000142	20.717270
1933.499430	-2.997300	3.350400	-10.042000	26.417866	0.000139	20.707942
1934.497068	-2.997400	3.350000	-10.041000	26.422754	0.000142	20.708113
1935.501107	-3.006200	3.351100	-10.072000	26.405080	0.000141	20.717851
1936.498919	-3.011000	3.348600	-10.081000	26.400207	0.000142	20.718643
1937.499265	-2.997500	3.348900	-10.038000	26.371511	0.000139	20.713510
1938.498811	-3.016400	3.348400	-10.099000	26.398426	0.000141	20.710215
1939.502819	-2.986700	3.349800	-10.004000	26.388470	0.000140	20.711114
1940.504247	-2.985900	3.348700	-9.997800	26.433190	0.000138	20.695842
1941.504268	-2.985900	3.349000	-9.998300	26.432718	0.000137	20.708645
1942.503603	-2.987800	3.348700	-10.004000	26.400916	0.000139	20.699440
1943.502873	-3.013500	3.348000	-10.088000	26.362401	0.000135	20.701034
1944.503250	-3.007100	3.346900	-10.064000	26.328782	0.000140	20.680047
1945.502859	-3.035300	3.346300	-10.156000	26.320542	0.000139	20.698320
1946.504860	-3.001800	3.347200	-10.046000	26.337372	0.000138	20.693422
1947.502007	-3.004200	3.346500	-10.053000	26.369152	0.000139	20.701181
1948.502661	-3.009000	3.346600	-10.069000	26.418313	0.000137	20.688950
1949.505838	-3.014600	3.345500	-10.085000	26.453947	0.000138	20.691574
1950.504827	-3.011300	3.345400	-10.073000	26.435622	0.000136	20.702554
1951.508672	-3.010200	3.344200	-10.066000	26.383411	0.000134	20.697968
1952.505376	-2.973500	3.346800	-9.950900	26.398426	0.000134	20.698360
1953.502779	-2.984500	3.343100	-9.975300	26.368095	0.000136	20.683522
1954.503308	-2.993400	3.344500	-10.011000	26.369511	0.000132	20.683996
1955.504214	-3.013300	3.343400	-10.074000	26.384209	0.000134	20.698295
1956.504579	-3.012800	3.342700	-10.070000	26.433385	0.000134	20.706470
1957.507382	-3.005200	3.344100	-10.049000	26.449458	0.000132	20.685165
1958.504839	-3.016500	3.343100	-10.084000	26.460624	0.000133	20.700183
1959.505394	-3.014100	3.343200	-10.076000	26.446390	0.000131	20.686349
1960.510437	-3.002700	3.342800	-10.036000	26.422851	0.000132	20.697305
1961.506990	-3.040600	3.340600	-10.156000	26.345359	0.000131	20.700976
1962.507070	-2.988500	3.342000	-9.986600	26.381035	0.000131	20.688941
1963.507938	-2.991200	3.341100	-9.993200	26.371249	0.000130	20.707557
1964.507668	-2.994600	3.340800	-10.004000	26.397002	0.000130	20.690290
1965.507106	-3.021600	3.340300	-10.092000	26.381498	0.000128	20.695571
1966.510616	-3.006800	3.339500	-10.040000	26.421574	0.000129	20.692227
1967.508872	-3.004000	3.340600	-10.035000	26.507560	0.000129	20.687142
1968.511224	-3.015700	3.340000	-10.072000	26.471895	0.000130	20.694442
1969.512056	-2.977800	3.340400	-9.946400	26.449407	0.000127	20.667568
1970.511727	-2.989100	3.340500	-9.983800	26.430211	0.000128	20.687158
1971.512166	-3.018400	3.338400	-10.075000	26.434856	0.000127	20.680445
1972.510924	-2.998700	3.338300	-10.010000	26.372510	0.000127	20.704082
1973.510448	-2.983600	3.338900	-9.960600	26.402329	0.000126	20.710344
1974.511363	-2.979900	3.338500	-9.947500	26.417230	0.000127	20.702561
1975.514395	-2.999000	3.336200	-10.004000	26.440924	0.000124	20.686071
1976.515018	-2.983400	3.338600	-9.959600	26.446105	0.000126	20.689382
1977.516355	-2.996100	3.337400	-9.998000	26.369557	0.000126	20.699217
1978.511560	-2.988300	3.336800	-9.970800	26.344732	0.000125	20.700346
1979.512229	-2.998800	3.336200	-10.003000	26.386842	0.000123	20.710901
1980.520240	-2.978200	3.335400	-9.932800	26.407162	0.000123	20.688173
1981.513558	-3.035300	3.334600	-10.120000	26.479461	0.000124	20.683553
1982.513988	-2.977000	3.336900	-9.933300	26.407031	0.000124	20.703216
1983.514859	-2.996500	3.336300	-9.996600	26.436785	0.000122	20.689971
1984.512545	-3.006600	3.335500	-10.028000	26.436785	0.000125	20.694713
1985.512247	-2.989000	3.334700	-9.966200	26.436370	0.000122	20.692874
1986.513135	-2.990000	3.333900	-9.967800	26.490791	0.000122	20.684510
1987.513791	-2.997700	3.334300	-9.994600	26.416289	0.000121	20.705408
1988.513034	-3.001800	3.333200	-10.005000	26.374993	0.000120	20.695671
1989.513171	-3.007200	3.333300	-10.023000	26.408098	0.000120	20.707134
1990.513153	-2.991100	3.332400	-9.966600	26.487050	0.000120	20.700666
1991.513009	-3.002900	3.333100	-10.008000	26.486082	0.000122	20.701116
1992.514043	-3.004500	3.332500	-10.012000	26.501479	0.000122	20.695729
1993.513918	-3.010300	3.332100	-10.030000	26.494582	0.000119	20.700651
1994.513604	-3.011400	3.331200	-10.030000	26.541574	0.000120	20.701419
1995.513740	-3.024100	3.329900	-10.069000	26.561191	0.000120	20.697429
1996.514935	-3.028800	3.329900	-10.085000	26.573804	0.000118	20.694462
1997.515543	-2.970800	3.332100	-9.898300	26.575472	0.000119	20.702303
1998.516783	-2.992300	3.329500	-9.961600	26.596193	0.000117	20.696579
1999.516863	-3.005200	3.329700	-10.005000	26.633780	0.000118	20.703545
2000.515451	-3.002100	3.328200	-9.990600	26.614573	0.000119	20.697038
2001.516145	-2.999200	3.329600	-9.985000	26.587736	0.000116	20.699932
2002.514735	-2.999600	3.328200	-9.981500	26.598097	0.000118	20.714142
2003.518345	-3.012200	3.328200	-10.024000	26.580791	0.000116	20.694847
2004.515327	-2.999400	3.328300	-9.981900	26.625527	0.000115	20.702360
2005.516223	-2.994600	3.327700	-9.964700	26.640003	0.000114	20.706481
2006.517085	-2.999000	3.327800	-9.978700	26.594625	0.000114	20.707332
2007.516979	-3.010400	3.326300	-10.013000	26.567544	0.000115	20.697178
2008.516358	-2.998900	3.327300	-9.976600	26.575197	0.000114	20.697285
2009.517840	-2.964000	3.326900	-9.859300	26.583362	0.000116	20.706915
2010.515880	-3.031300	3.325600	-10.080000	26.550051	0.000114	20.712786
2011.516335	-2.981600	3.325200	-9.913900	26.584883	0.000112	20.694219
2012.519520	-2.993700	3.325000	-9.953100	26.616388	0.000115	20.699337
2013.519209	-3.006400	3.323600	-9.990700	26.646094	0.000114	20.700751
2014.523610	-2.995600	3.325400	-9.960900	26.617478	0.000113	20.708968
2015.517192	-2.977600	3.325600	-9.900400	26.642720	0.000113	20.702574
2016.519486	-2.987300	3.324000	-9.928400	26.647388	0.000114	20.686877
2017.519549	-3.014200	3.324200	-10.018000	26.617746	0.000113	20.698805
2018.518775	-3.021800	3.323500	-10.042000	26.699716	0.000113	20.689223
2019.518132	-2.992700	3.323300	-9.944800	26.731315	0.000110	20.696810
2020.523756	-3.011700	3.322300	-10.005000	26.718718	0.000110	20.706432
2021.518693	-2.998500	3.322100	-9.960400	26.723955	0.000111	20.709326
2022.519325	-2.996100	3.322900	-9.955100	26.712295	0.000110	20.682429
2023.521130	-2.988300	3.321800	-9.925800	26.703130	0.000112	20.712098
2024.520577	-2.990700	3.321500	-9.932500	26.708172	0.000108	20.701519
2025.529058	-3.019300	3.321400	-10.028000	26.675215	0.000108	20.692567
2026.520000	-3.002100	3.320500	-9.967100	26.694072	0.000108	20.684971
2027.521227	-2.999900	3.320000	-9.958900	26.746324	0.000110	20.713799
2028.522641	-2.999500	3.320200	-9.958200	26.696780	0.000108	20.701445
2029.521163	-2.968800	3.321600	-9.859700	26.655601	0.000108	20.706040
2030.523765	-3.004900	3.319200	-9.973200	26.692559	0.000108	20.701944
2031.522841	-2.993200	3.319000	-9.933700	26.741739	0.000107	20.731001
2032.520635	-3.003400	3.318600	-9.966700	26.735429	0.000106	20.714224
2033.522946	-2.966900	3.319500	-9.847400	26.791835	0.000106	20.711192
2034.522776	-3.000200	3.319000	-9.956100	26.775077	0.000104	20.728483
2035.522740	-2.995800	3.317700	-9.937200	26.720492	0.000104	20.720070
2036.522966	-3.006500	3.316400	-9.969500	26.719077	0.000105	20.708690
2037.525123	-3.004200	3.317000	-9.964000	26.657374	0.000105	20.716833
2038.526755	-3.010800	3.316800	-9.985100	26.650917	0.000106	20.716506
2039.522834	-3.000600	3.316300	-9.949500	26.667954	0.000106	20.712770
2040.528194	-2.989400	3.317800	-9.917100	26.698090	0.000105	20.705134
2041.524850	-2.981500	3.316100	-9.886100	26.738145	0.000106	20.717430
2042.529716	-2.999300	3.314500	-9.940600	26.774313	0.000103	20.729137
2043.523590	-2.994700	3.315300	-9.927700	26.753620	0.000102	20.735834
2044.524789	-2.989200	3.313900	-9.905400	26.699676	0.000104	20.713841
2045.525310	-3.003000	3.314500	-9.952600	26.753018	0.000103	20.729538
2046.527817	-2.976600	3.315700	-9.868400	26.708238	0.000102	20.707276
2047.527833	-2.998400	3.313300	-9.934000	26.701465	0.000102	20.708053
2048.523694	-2.990500	3.313400	-9.908200	26.669004	0.000101	20.727103
2049.527449	-3.004300	3.312900	-9.951800	26.687495	0.000101	20.708233
2050.527803	-3.016700	3.313500	-9.995100	26.718191	9.991483E-5	20.723921
2051.530491	-2.999400	3.312800	-9.935400	26.735674	9.971681E-5	20.723481
2052.526860	-3.000200	3.312400	-9.936900	26.794105	9.829771E-5	20.725803
2053.525763	-3.009700	3.311100	-9.964600	26.780428	0.000100	20.720112
2054.526980	-2.999300	3.312400	-9.933300	26.707565	9.677960E-5	20.708496
2055.526947	-2.990800	3.311700	-9.903800	26.649903	9.941979E-5	20.731134
2056.530344	-3.006700	3.311100	-9.954000	26.638632	9.813270E-5	20.720277
2057.530447	-3.005900	3.309300	-9.946700	26.663085	9.819870E-5	20.726368
2058.529239	-2.995300	3.309400	-9.911200	26.623864	9.770366E-5	20.710646
2059.528785	-3.005100	3.309800	-9.945600	26.673942	9.618555E-5	20.724480
2060.529664	-3.011300	3.309200	-9.964600	26.707753	9.654858E-5	20.713901
2061.529006	-2.995500	3.310200	-9.915100	26.770697	9.644957E-5	20.727399
2062.531863	-2.993200	3.309200	-9.903800	26.800368	9.780267E-5	20.713607
2063.532856	-2.986800	3.308900	-9.881300	26.832533	9.526149E-5	20.735518
2064.534462	-2.990600	3.309300	-9.896200	26.831550	9.450243E-5	20.711768
2065.531822	-3.006000	3.308200	-9.943400	26.824355	9.479945E-5	20.729191
2066.531159	-2.992400	3.307600	-9.896700	26.863169	9.668059E-5	20.721277
2067.535376	-3.019400	3.307000	-9.984200	26.866032	9.562451E-5	20.722733
2068.532361	-3.024800	3.305600	-9.997300	26.851739	9.357836E-5	20.731595
2069.534729	-2.972200	3.307800	-9.830700	26.796190	9.331434E-5	20.725055
2070.533302	-3.009000	3.306200	-9.947900	26.790093	9.295132E-5	20.722243
2071.537253	-3.009800	3.305100	-9.946700	26.742257	9.298432E-5	20.736738
2072.535730	-2.995700	3.306100	-9.903500	26.772050	9.400739E-5	20.733975
2073.537876	-3.003900	3.305300	-9.927300	26.805956	9.450243E-5	20.735823
2074.533716	-3.008900	3.304200	-9.941300	26.840674	9.229127E-5	20.737065
2075.533226	-2.989300	3.303000	-9.871900	26.842992	9.235727E-5	20.729912
2076.536279	-2.992000	3.303900	-9.883600	26.911319	9.103718E-5	20.724647
2077.533930	-2.999900	3.302300	-9.906000	26.923271	9.143321E-5	20.718648
2078.535647	-3.004600	3.304100	-9.926300	26.894060	9.044313E-5	20.727682
2079.535884	-2.983300	3.302100	-9.849900	26.877400	9.196124E-5	20.754080
2080.533184	-2.985300	3.302200	-9.856900	26.841799	9.041013E-5	20.738670
2081.535306	-2.997900	3.303200	-9.901300	26.778850	9.031112E-5	20.741760
2082.534868	-2.999300	3.302800	-9.904900	26.764540	8.760493E-5	20.736856
2083.539309	-3.009300	3.301500	-9.934900	26.784086	8.968408E-5	20.713358
2084.537900	-2.996700	3.301800	-9.892900	26.773126	8.902403E-5	20.731264
2085.540729	-3.001900	3.300200	-9.905300	26.819570	8.932105E-5	20.731493
2086.537825	-2.987500	3.299100	-9.855100	26.908239	8.790195E-5	20.741466
2087.538687	-2.999100	3.300100	-9.896000	26.873451	8.889202E-5	20.727348
2088.539129	-3.009400	3.299300	-9.927600	26.853402	8.780294E-5	20.736112
2089.541306	-2.996700	3.300000	-9.888100	26.875331	8.786895E-5	20.727341
2090.541369	-3.020900	3.298100	-9.962300	26.873770	8.701088E-5	20.729091
2091.539715	-3.022200	3.297500	-9.965100	26.869745	8.697788E-5	20.747804
2092.541638	-3.005900	3.298800	-9.914900	26.882014	8.664786E-5	20.722682
2093.540387	-3.004100	3.298200	-9.907100	26.943047	8.710989E-5	20.729525
2094.543357	-3.017600	3.297300	-9.949000	26.954436	8.842999E-5	20.729124
2095.537653	-2.974000	3.297900	-9.806800	26.887511	8.734091E-5	20.726787
2096.539971	-3.004300	3.295200	-9.898800	26.878503	8.651585E-5	20.731480
2097.539539	-2.988000	3.296100	-9.847400	26.860103	8.565778E-5	20.727677
2098.540474	-2.992400	3.295900	-9.861400	26.855941	8.595481E-5	20.764745
2099.542035	-3.004200	3.295900	-9.901000	26.861080	8.509674E-5	20.738143
2100.543673	-2.971800	3.296800	-9.796800	26.892698	8.569079E-5	20.738641
2101.540934	-2.983800	3.296000	-9.833700	26.908089	8.720890E-5	20.736573
2102.540321	-3.003400	3.293600	-9.890300	26.926747	8.456870E-5	20.734946
2103.544302	-3.015300	3.293700	-9.930500	26.885032	8.268757E-5	20.746106
2104.541401	-3.036600	3.293700	-10.001000	26.885999	8.390866E-5	20.739018
2105.545448	-3.003400	3.294800	-9.894000	26.849339	8.539376E-5	20.737718
2106.540967	-3.008200	3.294000	-9.907900	26.861381	8.377665E-5	20.746507
2107.542809	-3.012700	3.291900	-9.916400	26.894512	8.252256E-5	20.768915
2108.544699	-2.983300	3.293800	-9.826300	26.893763	8.328161E-5	20.763895
2109.545518	-2.968100	3.292200	-9.770600	26.882048	8.338062E-5	20.754011
2110.545095	-2.988500	3.292400	-9.838600	26.924535	8.143348E-5	20.735567
2111.543547	-2.995800	3.291000	-9.858200	26.980850	8.242355E-5	20.727711
2112.546422	-2.994000	3.291500	-9.853900	26.961640	8.123546E-5	20.751542
2113.543525	-2.989200	3.291000	-9.835800	26.952136	8.047641E-5	20.742933
2114.544956	-2.996500	3.290200	-9.857700	26.918430	7.945333E-5	20.728953
2115.551522	-2.995700	3.289300	-9.852700	26.927185	8.133447E-5	20.751509
2116.549751	-3.005600	3.289800	-9.886800	26.954339	8.113645E-5	20.767909
2117.546299	-2.983600	3.289900	-9.815300	26.984710	7.763820E-5	20.748189
2118.546600	-3.021400	3.289900	-9.939300	26.994344	8.021239E-5	20.746972
2119.553426	-2.976700	3.291100	-9.795700	27.006001	7.958534E-5	20.773394
2120.546625	-3.010900	3.288700	-9.900500	26.981906	7.951934E-5	20.755326
2121.550116	-3.014000	3.287500	-9.908000	26.925819	7.925532E-5	20.769576
2122.549155	-2.988500	3.286400	-9.820600	26.952453	7.635110E-5	20.765064
2123.549731	-2.978000	3.286500	-9.786100	26.993474	7.803423E-5	20.768383
2124.548053	-2.997200	3.287200	-9.850800	27.042379	7.757219E-5	20.759716
2125.548304	-2.995400	3.287200	-9.845600	27.009229	7.800122E-5	20.749612
2126.551758	-2.987700	3.285900	-9.816400	26.971712	7.753919E-5	20.775896
2127.549103	-2.987400	3.286000	-9.815700	26.903754	7.575706E-5	20.755449
2128.549234	-2.979900	3.286500	-9.792800	26.900112	7.404093E-5	20.761270
2129.553198	-2.996400	3.285800	-9.844600	26.959769	7.608708E-5	20.761989
2130.550137	-2.992900	3.285200	-9.831000	26.992157	7.489900E-5	20.759472
2131.550585	-2.994500	3.282800	-9.829800	26.944543	7.506401E-5	20.793620
2132.550487	-3.008300	3.283200	-9.875300	26.972110	7.380992E-5	20.736466
2133.548261	-2.986700	3.284700	-9.810100	27.047705	7.496500E-5	20.769814
2134.553812	-2.988100	3.284100	-9.811500	27.128252	7.423895E-5	20.770215
2135.550334	-2.986400	3.283200	-9.803900	27.084130	7.400793E-5	20.759031
2136.553022	-2.981200	3.283700	-9.788000	27.047404	7.334788E-5	20.764296
2137.554564	-2.997600	3.280800	-9.834100	27.079415	7.291885E-5	20.766143
2138.551532	-2.981100	3.282600	-9.785200	27.097291	7.206079E-5	20.761362
2139.555859	-2.967600	3.282000	-9.737900	27.049469	7.215980E-5	20.767321
2140.553655	-2.988400	3.281200	-9.804800	27.084017	7.229181E-5	20.768401
2141.553864	-3.016100	3.280800	-9.894000	27.058363	7.060868E-5	20.773895
2142.557131	-3.001100	3.280500	-9.844500	27.056599	6.869454E-5	20.793458
2143.552921	-2.961800	3.281200	-9.717400	27.050323	7.008064E-5	20.786673
2144.555585	-3.006600	3.280000	-9.861000	27.063266	6.912357E-5	20.759385
2145.554006	-2.996400	3.278000	-9.821300	27.129562	7.050968E-5	20.770585
2146.557738	-2.982500	3.279200	-9.779500	27.171529	7.136774E-5	20.786715
2147.557292	-2.992800	3.279900	-9.815100	27.158940	7.060868E-5	20.773579
2148.556237	-2.995500	3.279200	-9.822000	27.163800	6.935459E-5	20.770407
2149.556378	-2.998800	3.277800	-9.829100	27.110594	6.882655E-5	20.770474
2150.553762	-2.982800	3.278000	-9.776200	27.097563	6.975062E-5	20.769223
2151.557052	-2.993300	3.277300	-9.807800	27.031323	7.050968E-5	20.776573
2152.554663	-2.997500	3.276300	-9.820100	26.969426	6.813350E-5	20.783554
2153.556493	-2.994900	3.276900	-9.813900	26.957525	6.674740E-5	20.807149
2154.554420	-2.991900	3.276800	-9.803300	26.992669	6.757246E-5	20.766625
2155.555118	-3.000700	3.277200	-9.833000	27.010546	6.724244E-5	20.790293
2156.558343	-3.008900	3.275300	-9.854400	27.039885	6.876055E-5	20.778072
2157.554984	-2.965900	3.277100	-9.719200	27.098819	6.747345E-5	20.789452
2158.559713	-2.983900	3.275700	-9.773000	27.101291	6.612035E-5	20.775343
2159.559188	-3.016100	3.274100	-9.874000	27.100495	6.810050E-5	20.782128
2160.558197	-2.988900	3.273400	-9.782900	27.144591	6.463525E-5	20.773847
2161.560405	-3.006000	3.273400	-9.838600	27.187461	6.760546E-5	20.781403
2162.561350	-2.998500	3.272900	-9.813800	27.162028	6.661539E-5	20.766728
2163.559826	-3.000400	3.273600	-9.821800	27.198896	6.516328E-5	20.771093
2164.563083	-2.987400	3.271300	-9.772100	27.185453	6.219307E-5	20.774168
2165.560278	-3.006900	3.270500	-9.833400	27.122281	6.331515E-5	20.815419
2166.563306	-3.006000	3.271200	-9.832100	27.117104	6.324914E-5	20.790772
2167.570117	-2.994700	3.270200	-9.790700	27.130834	6.423922E-5	20.773286
2168.560708	-3.002400	3.269300	-9.814100	27.108676	6.344716E-5	20.796520
2169.565146	-2.999900	3.270100	-9.808800	27.125210	6.166503E-5	20.788967
2170.561410	-3.009100	3.268600	-9.834100	27.163567	6.268810E-5	20.798622
2171.561280	-2.984500	3.268300	-9.753400	27.244804	6.361217E-5	20.770328
2172.562012	-3.002100	3.269000	-9.812900	27.194860	6.242408E-5	20.807337
2173.562000	-2.997900	3.268000	-9.796600	27.208759	6.140101E-5	20.802825
2174.563368	-3.012600	3.268200	-9.843800	27.199753	6.133500E-5	20.807517
2175.563838	-2.982700	3.268000	-9.746200	27.175760	6.242408E-5	20.809463
2176.563153	-3.011000	3.265700	-9.831800	27.144223	6.440423E-5	20.791968
2177.562501	-3.011700	3.266700	-9.837200	27.126284	6.054295E-5	20.799530
2178.563422	-3.003000	3.266900	-9.809500	27.185514	6.008091E-5	20.797936
2179.564565	-2.998200	3.267500	-9.795700	27.241611	6.146701E-5	20.790350
2180.569477	-3.029200	3.264700	-9.888400	27.259986	6.103798E-5	20.802669
2181.564590	-3.006500	3.264300	-9.812900	27.217569	5.786975E-5	20.787505
2182.565470	-3.012600	3.264000	-9.832200	27.178752	6.024592E-5	20.805360
2183.569366	-3.007800	3.263400	-9.814600	27.219187	5.922285E-5	20.790080
2184.566966	-2.989500	3.264400	-9.757000	27.193634	6.252309E-5	20.817957
2185.570746	-2.968700	3.264100	-9.689300	27.188132	5.852980E-5	20.794406
2186.566438	-2.999200	3.263000	-9.785900	27.182889	5.760573E-5	20.793874
2187.566833	-3.009600	3.264200	-9.822300	27.155424	5.786975E-5	20.811769
2188.568114	-3.010300	3.262400	-9.819900	27.188384	5.806777E-5	20.796082
2189.567541	-2.994900	3.262300	-9.769400	27.276478	5.720970E-5	20.803611
2190.573334	-3.003300	3.262500	-9.798000	27.255056	5.876082E-5	20.797710
2191.571116	-3.015300	3.261700	-9.834200	27.268659	5.803476E-5	20.805229
2192.570022	-3.022000	3.261900	-9.857300	27.336886	5.579060E-5	20.805107
2193.569423	-3.029000	3.260000	-9.872600	27.379252	5.628563E-5	20.810741
2194.573062	-2.990300	3.260700	-9.749100	27.391108	5.826578E-5	20.809866
2195.567107	-3.005200	3.261000	-9.799000	27.348678	5.456951E-5	20.812228
2196.573435	-2.988300	3.260100	-9.740600	27.328061	5.658266E-5	20.809979
2197.572463	-3.014200	3.258400	-9.820800	27.363974	5.740772E-5	20.807226
2198.571363	-3.001500	3.259200	-9.780700	27.361909	5.803476E-5	20.818899
2199.568283	-2.993200	3.258000	-9.750600	27.370044	5.744072E-5	20.812858
2200.571275	-3.008400	3.258600	-9.802600	27.368654	5.691268E-5	20.804822
2201.570273	-3.003400	3.258100	-9.784500	27.332272	5.701169E-5	20.824173
2202.570032	-3.010600	3.256400	-9.802400	27.371385	5.493254E-5	20.803301
2203.570683	-2.984500	3.255900	-9.716500	27.398032	5.513055E-5	20.825840
2204.570273	-2.989300	3.256500	-9.733500	27.332573	5.628563E-5	20.817838
2205.571551	-2.999600	3.256000	-9.766300	27.368687	5.546057E-5	20.812916
2206.571582	-2.998400	3.255400	-9.759600	27.421631	5.549358E-5	20.824925
2207.572977	-2.987200	3.256700	-9.727800	27.413707	5.371145E-5	20.832601
2208.573633	-2.982200	3.255600	-9.707400	27.425173	5.308440E-5	20.808575
2209.571163	-2.980800	3.254600	-9.700600	27.475627	5.486653E-5	20.832781
2210.572973	-3.018800	3.254100	-9.822200	27.440523	5.651665E-5	20.832077
2211.572127	-2.995800	3.253600	-9.745900	27.411895	5.519655E-5	20.815131
2212.574419	-3.007600	3.252500	-9.781600	27.392108	5.466852E-5	20.831261
2213.571374	-3.015700	3.251200	-9.803600	27.379674	5.384346E-5	20.823968
2214.571426	-3.004100	3.252900	-9.771000	27.381560	5.064222E-5	20.828235
2215.574314	-2.991400	3.251400	-9.725100	27.423638	5.153329E-5	20.816987
2216.574125	-2.993000	3.251500	-9.730600	27.449006	5.176430E-5	20.821172
2217.573767	-3.025400	3.251100	-9.834500	27.466071	5.120326E-5	20.810365
2218.576485	-2.990900	3.250400	-9.721100	27.428497	5.117026E-5	20.822350
2219.574362	-3.006600	3.250700	-9.773000	27.456377	5.192932E-5	20.828587
2220.573598	-3.010500	3.248200	-9.778200	27.443375	5.021319E-5	20.823093
2221.577443	-2.982500	3.250900	-9.695000	27.472450	5.262237E-5	20.848076
2222.578930	-2.985700	3.248500	-9.698200	27.435980	5.285338E-5	20.831775
2223.577537	-2.990600	3.248100	-9.712400	27.390986	4.985016E-5	20.833925
2224.576969	-3.012600	3.247000	-9.780600	27.379845	5.199532E-5	20.828881
2225.574592	-3.010700	3.247500	-9.776500	27.386744	5.364544E-5	20.835347
2226.576979	-2.983800	3.248100	-9.690600	27.373523	5.123626E-5	20.823469
2227.576260	-3.012900	3.246700	-9.781200	27.414665	5.298539E-5	20.825978
2228.580728	-3.009300	3.246700	-9.768700	27.426855	5.146728E-5	20.826388
2229.575534	-3.026200	3.246100	-9.822100	27.483159	5.080723E-5	20.811910
2230.577823	-2.974500	3.245400	-9.652100	27.441879	4.932212E-5	20.819692
2231.577870	-2.982100	3.244900	-9.675600	27.469531	5.057622E-5	20.855096
2232.576417	-2.979300	3.244800	-9.666800	27.387945	4.902510E-5	20.825177
2233.576862	-2.996800	3.245100	-9.724100	27.381362	5.051021E-5	20.830882
2234.580997	-2.984300	3.245100	-9.683300	27.470960	4.905810E-5	20.825715
2235.579131	-2.987900	3.243700	-9.690600	27.441040	4.859607E-5	20.833546
2236.580303	-3.017400	3.241700	-9.780900	27.479109	4.803503E-5	20.824430
2237.596610	-2.993600	3.241900	-9.705000	27.520965	4.846406E-5	20.821971
2238.581792	-3.012100	3.241900	-9.764100	27.487340	4.892610E-5	20.814220
2239.583984	-3.019900	3.240100	-9.783700	27.445176	4.773801E-5	20.813525
2240.583242	-3.006000	3.241600	-9.742800	27.487112	4.816704E-5	20.828689
2241.583706	-3.012400	3.242600	-9.767300	27.493102	4.872808E-5	20.822861
2242.583327	-2.995300	3.241000	-9.706400	27.422805	5.018019E-5	20.825158
2243.583232	-2.981500	3.241300	-9.663100	27.424487	4.717697E-5	20.811203
2244.583681	-3.008700	3.239800	-9.746400	27.498505	4.829905E-5	20.829719
2245.583902	-3.022600	3.238100	-9.786600	27.521767	4.717697E-5	20.811873
2246.583850	-3.010200	3.239900	-9.751500	27.467205	4.654992E-5	20.832368
2247.583519	-2.975000	3.238100	-9.632400	27.538636	4.664893E-5	20.827896
2248.583934	-3.002500	3.238400	-9.722800	27.517517	4.694595E-5	20.831304
2249.585255	-3.029200	3.237100	-9.804000	27.561061	4.826605E-5	20.809209
2250.585461	-3.013400	3.239400	-9.760100	27.606723	4.427275E-5	20.800625
2251.583539	-3.010900	3.237400	-9.747100	27.589214	4.377772E-5	20.798181
2252.584071	-3.000200	3.236900	-9.710000	27.568699	4.555985E-5	20.806936
2253.588966	-2.998900	3.234900	-9.700400	27.585299	4.400873E-5	20.809888
2254.589303	-2.984400	3.236400	-9.658400	27.642041	4.513082E-5	20.818144
2255.588973	-2.998200	3.235100	-9.698500	27.606000	4.450377E-5	20.797526
2256.593223	-2.999900	3.234300	-9.701900	27.620453	4.572486E-5	20.798319
2257.584381	-2.989800	3.234800	-9.670800	27.618179	4.176457E-5	20.808833
2258.585513	-3.004900	3.233300	-9.715000	27.549840	4.572486E-5	20.814513
2259.587574	-2.993700	3.234500	-9.682200	27.515048	4.387672E-5	20.790414
2260.592446	-3.026500	3.231600	-9.779600	27.589239	4.440476E-5	20.809585
2261.590463	-2.993700	3.232200	-9.675700	27.633233	4.394273E-5	20.813075
2262.583974	-2.981700	3.232800	-9.638600	27.636848	4.423975E-5	20.801540
2263.586001	-3.015900	3.230800	-9.742800	27.677649	4.275464E-5	20.787120
2264.583661	-3.017600	3.231900	-9.751200	27.692833	4.354670E-5	20.800029
2265.586412	-3.006600	3.230200	-9.710000	27.651286	4.252363E-5	20.813697
2266.584622	-3.013900	3.230700	-9.736400	27.577458	4.282065E-5	20.812904
2267.590046	-3.015400	3.228900	-9.734600	27.576847	4.202859E-5	20.795220
2268.584656	-3.004900	3.228900	-9.701400	27.511831	4.150055E-5	20.792393
2269.586106	-3.006100	3.227800	-9.702400	27.508426	4.324968E-5	20.800821
2270.586787	-3.006400	3.229400	-9.708300	27.478069	4.011445E-5	20.792565
2271.587214	-3.004900	3.228900	-9.702100	27.470893	4.278764E-5	20.816639
2272.586726	-2.995200	3.226800	-9.664000	27.514023	4.051048E-5	20.795547
2273.588634	-3.007400	3.226500	-9.702500	27.625816	4.093951E-5	20.808456
2274.589744	-3.005400	3.227700	-9.699500	27.668705	4.037847E-5	20.777171
2275.585549	-3.005400	3.225900	-9.693400	27.732209	4.222660E-5	20.782280
2276.589738	-3.039400	3.225300	-9.802800	27.773152	4.080750E-5	20.760894
2277.585623	-2.991200	3.224600	-9.644200	27.768489	3.836532E-5	20.796979
2278.584799	-2.985400	3.225300	-9.628000	27.747661	3.935539E-5	20.786924
2279.588011	-2.983800	3.225000	-9.621500	27.749001	4.074149E-5	20.782109
2280.589142	-2.992100	3.224500	-9.646300	27.774794	3.922338E-5	20.775348
2281.588398	-2.982100	3.225600	-9.618200	27.755923	3.899237E-5	20.782910
2282.593308	-2.977700	3.223400	-9.597100	27.764875	3.704522E-5	20.764418
2283.590751	-2.997400	3.221500	-9.655400	27.730455	4.024646E-5	20.783834
2284.591366	-2.999800	3.222000	-9.664200	27.767848	3.938840E-5	20.796808
2285.594845	-2.991500	3.222900	-9.640600	27.714435	3.691321E-5	20.781463
2286.603168	-3.053100	3.220800	-9.832500	27.695019	3.569212E-5	20.776149
2287.592623	-3.004600	3.220500	-9.675900	27.676861	3.754026E-5	20.788698
2288.592522	-3.012400	3.219600	-9.697600	27.663677	3.714423E-5	20.790129
2289.591739	-2.992500	3.218200	-9.629500	27.650450	3.572513E-5	20.777294
2290.592295	-2.997400	3.219500	-9.649000	27.653188	3.496607E-5	20.773411
2291.592122	-3.008200	3.218500	-9.681000	27.640952	3.364597E-5	20.781962
2292.593841	-2.986900	3.218300	-9.611400	27.599469	3.424002E-5	20.778153
2293.594238	-3.002100	3.218000	-9.659900	27.639450	3.526309E-5	20.767174
2294.596289	-2.997800	3.217100	-9.643500	27.645163	3.249089E-5	20.788569
2295.594124	-3.011900	3.216400	-9.686800	27.599770	3.579113E-5	20.793629
2296.595278	-3.007000	3.219200	-9.679800	27.691696	3.490007E-5	20.771858
2297.593439	-2.984700	3.216900	-9.600200	27.761935	3.390999E-5	20.774262
2298.595991	-2.982000	3.218200	-9.596000	27.806370	3.265590E-5	20.788159
2299.594288	-3.000300	3.215400	-9.646500	27.832015	3.143481E-5	20.764182
2300.594350	-3.007200	3.215800	-9.669800	27.846513	3.324994E-5	20.784464
2301.597339	-2.999600	3.214400	-9.641400	27.828717	3.249089E-5	20.783623
2302.594467	-2.994000	3.215200	-9.625200	27.807190	3.328295E-5	20.787563
2303.598923	-3.021200	3.213600	-9.707100	27.743186	3.199585E-5	20.781472
2304.594613	-2.984700	3.215400	-9.596200	27.748475	3.107178E-5	20.772096
2305.596363	-3.000800	3.213700	-9.643200	27.745916	3.311794E-5	20.778055
2306.595768	-3.004900	3.211600	-9.649900	27.713763	3.117079E-5	20.778890
2307.598978	-3.016000	3.212300	-9.687200	27.696466	3.001571E-5	20.770967
2308.595338	-2.972500	3.210600	-9.542900	27.681640	3.150082E-5	20.778808
2309.603571	-3.031100	3.210200	-9.728800	27.740295	3.100578E-5	20.763390
2310.595795	-2.995200	3.211800	-9.619000	27.752041	3.097278E-5	20.749131
2311.596031	-2.983000	3.210500	-9.576900	27.776371	3.037873E-5	20.781677
2312.598760	-2.992300	3.210100	-9.604900	27.777906	3.084077E-5	20.786067
2313.595449	-2.991500	3.208600	-9.597800	27.799530	3.051074E-5	20.752352
2314.599552	-2.998200	3.208500	-9.619000	27.728312	3.093978E-5	20.770297
2315.596803	-3.009100	3.208400	-9.653900	27.725680	3.219387E-5	20.766226
2316.598019	-2.982400	3.208100	-9.567200	27.790928	3.159982E-5	20.760765
2317.598043	-3.016400	3.207300	-9.673200	27.763805	3.067576E-5	20.770453
2318.597236	-2.990600	3.206700	-9.589400	27.710830	3.041174E-5	20.770248
2319.604446	-2.996200	3.206300	-9.605800	27.808953	3.278791E-5	20.749507
2320.602611	-3.011900	3.206300	-9.656300	27.861152	3.084077E-5	20.771221
2321.600147	-3.011000	3.206300	-9.653700	27.845060	2.998270E-5	20.771148
2322.598597	-3.015100	3.203800	-9.659000	27.800132	3.093978E-5	20.773347
2323.599307	-3.010900	3.204100	-9.646500	27.773228	3.298593E-5	20.761444
2324.598332	-3.013300	3.202600	-9.649400	27.774438	3.024672E-5	20.759817
2325.600492	-3.005400	3.203500	-9.626900	27.740742	3.242488E-5	20.757675
2326.600141	-3.011300	3.203300	-9.644900	27.808491	2.971869E-5	20.764216
2327.603475	-3.041700	3.200500	-9.734700	27.842835	3.113779E-5	20.782659
2328.602143	-2.994400	3.201800	-9.586200	27.876203	2.998270E-5	20.759342
2329.601703	-2.995100	3.200600	-9.584800	27.867106	3.027973E-5	20.743548
2330.604930	-3.010000	3.199700	-9.630400	27.897442	3.103878E-5	20.738519
2331.602740	-2.987500	3.202300	-9.565800	27.926091	3.100578E-5	20.751233
2332.601292	-3.001300	3.199400	-9.600800	27.850136	3.060975E-5	20.775782
2333.601802	-2.991800	3.198500	-9.568600	27.822388	2.839859E-5	20.740269
2334.600938	-2.970100	3.198300	-9.499000	27.830000	3.047774E-5	20.778750
2335.604286	-2.998000	3.196700	-9.582700	27.840617	2.955367E-5	20.739173
2336.605858	-3.016100	3.197300	-9.642100	27.928243	3.093978E-5	20.754347
2337.602527	-2.997700	3.196200	-9.579800	27.987997	3.024672E-5	20.740048
2338.602849	-2.994200	3.196700	-9.570800	27.928957	2.770554E-5	20.771662
2339.602141	-2.998900	3.196700	-9.585900	27.805330	2.968568E-5	20.766724
2340.604515	-3.011700	3.195700	-9.624500	27.791609	2.694648E-5	20.752441
2341.608162	-2.989600	3.194800	-9.550200	27.806288	2.833258E-5	20.752989
2342.604627	-3.015500	3.193000	-9.627900	27.820008	2.810157E-5	20.756366
2343.607843	-2.999100	3.194700	-9.580100	27.805127	2.516435E-5	20.757984
2344.606808	-2.999500	3.192800	-9.575700	27.849535	2.810157E-5	20.761900
2345.611155	-2.989400	3.193200	-9.544800	27.889376	2.608842E-5	20.746048
2346.606151	-2.980100	3.192400	-9.512800	27.947239	2.595641E-5	20.744068
2347.606771	-3.014400	3.191500	-9.619400	28.019588	2.707849E-5	20.737708
2348.607278	-3.001100	3.191800	-9.578200	28.019384	2.602241E-5	20.748884
2349.605539	-2.984300	3.190900	-9.521600	27.980587	2.688048E-5	20.735909
2350.607636	-2.991400	3.189300	-9.540000	27.886735	2.780454E-5	20.774210
2351.609951	-2.995900	3.189900	-9.555800	27.824474	2.414128E-5	20.752325
2352.608230	-3.019600	3.188200	-9.626100	27.807407	2.582440E-5	20.749847
2353.608274	-2.997300	3.187600	-9.553600	27.862228	2.391026E-5	20.738638
2354.612072	-3.002600	3.188600	-9.573700	27.932398	2.618743E-5	20.750468
2355.608810	-2.998700	3.187600	-9.558400	27.945905	2.684747E-5	20.733716
2356.611955	-3.008600	3.186900	-9.586700	27.909160	2.717750E-5	20.738458
2357.608619	-3.004500	3.186300	-9.572500	27.927630	2.546137E-5	20.755626
2358.608225	-2.998700	3.185000	-9.550000	27.911166	2.529636E-5	20.753754
2359.607706	-2.987900	3.185700	-9.517700	27.914235	2.457031E-5	20.740722
2360.609070	-2.975700	3.183600	-9.472400	27.853584	2.589040E-5	20.747483
2361.611231	-3.007500	3.183300	-9.572900	27.838882	2.470232E-5	20.737427
2362.610377	-3.002200	3.182300	-9.553000	27.809963	2.301919E-5	20.749101
2363.609841	-3.015200	3.182500	-9.594900	27.835177	2.437229E-5	20.748398
2364.610152	-2.995500	3.181900	-9.530400	27.904674	2.331622E-5	20.720666
2365.610076	-3.027300	3.180500	-9.627100	27.962049	2.447130E-5	20.739535
2366.609471	-3.018200	3.179400	-9.595500	27.973908	2.292019E-5	20.725392
2367.611950	-2.999700	3.180500	-9.539200	27.975945	2.255716E-5	20.733133
2368.610593	-2.979100	3.180500	-9.474800	27.936286	2.480132E-5	20.745846
2369.611716	-2.999100	3.178000	-9.530300	27.916321	2.166609E-5	20.730967
2370.613027	-2.997200	3.178400	-9.525800	27.999100	2.153408E-5	20.734154
2371.610854	-2.983200	3.177300	-9.477900	28.017024	2.282118E-5	20.761681
2372.614843	-2.994500	3.177100	-9.512300	27.953747	2.245815E-5	20.723117
2373.612607	-3.006600	3.175300	-9.545000	27.883034	1.955394E-5	20.742509
2374.612622	-2.987000	3.175200	-9.483800	27.855083	2.057701E-5	20.731447
2375.614702	-3.018800	3.173900	-9.580700	27.822925	2.094004E-5	20.735592
2376.613689	-3.029900	3.173700	-9.615700	27.800894	2.037900E-5	20.725748
2377.616092	-3.019600	3.172700	-9.578800	27.795517	1.800282E-5	20.729346
2378.618379	-2.987000	3.172700	-9.476200	27.797344	1.895989E-5	20.730710
2379.615211	-3.008400	3.172600	-9.543700	27.813363	1.876188E-5	20.718381
2380.615942	-2.995000	3.171800	-9.499100	27.863944	1.589067E-5	20.728036
2381.619650	-2.995900	3.170000	-9.496300	27.886825	1.833285E-5	20.717400
2382.618155	-3.021300	3.170800	-9.578700	27.928728	2.008198E-5	20.735868
2383.618780	-2.999600	3.170700	-9.510000	27.974301	1.886089E-5	20.731952
2384.618687	-3.009500	3.169000	-9.536300	28.030284	1.853086E-5	20.733776
2385.618001	-2.981400	3.167700	-9.443200	28.075689	1.912491E-5	20.717366
2386.619864	-3.011600	3.168400	-9.540800	28.026880	1.790382E-5	20.730349
2387.616623	-3.008000	3.166200	-9.523200	28.016168	1.763980E-5	20.723359
2388.617190	-2.998000	3.166600	-9.492200	28.016736	1.823384E-5	20.735312
2389.616443	-3.006500	3.165100	-9.514700	28.010612	1.836585E-5	20.729621
2390.617434	-2.989100	3.165500	-9.460900	28.030576	1.582466E-5	20.711783
2391.616188	-3.010700	3.163800	-9.523200	28.078344	1.800282E-5	20.731894
2392.617456	-3.010800	3.162600	-9.520900	28.117812	1.664973E-5	20.739857
2393.619190	-3.020200	3.163400	-9.553200	28.157400	1.793682E-5	20.707637
2394.624528	-2.995400	3.161600	-9.468700	28.078539	1.681474E-5	20.720710
2395.620034	-3.008900	3.161400	-9.511400	28.074713	1.671573E-5	20.743887
2396.620368	-2.974600	3.160300	-9.399700	28.086878	1.562665E-5	20.720095
2397.624961	-3.005700	3.159500	-9.494300	28.086887	1.651772E-5	20.706827
2398.625679	-3.033100	3.160100	-9.582400	28.085969	1.757379E-5	20.711119
2399.625883	-3.017200	3.158700	-9.529000	28.111996	1.523062E-5	20.740641
2400.623692	-3.004800	3.158800	-9.490400	28.068979	1.532963E-5	20.720095
2401.628098	-2.993300	3.158700	-9.453500	28.065454	1.572566E-5	20.722711
2402.624796	-2.989000	3.156800	-9.434900	28.061701	1.539563E-5	20.735529
2403.624381	-2.996400	3.155900	-9.455300	28.123802	1.572566E-5	20.716014
2404.626089	-3.016400	3.154300	-9.513900	28.169009	1.562665E-5	20.722170
2405.624827	-3.018400	3.154200	-9.519800	28.142235	1.562665E-5	20.717976
2406.627488	-3.016100	3.153300	-9.509900	28.214164	1.658372E-5	20.722586
2407.626447	-3.028400	3.153100	-9.548400	28.225313	1.400953E-5	20.714369
2408.626711	-3.020400	3.151700	-9.518300	28.247797	1.407554E-5	20.701918
2409.631187	-3.031000	3.150000	-9.546200	28.239612	1.341549E-5	20.718808
2410.629560	-3.007900	3.149700	-9.472700	28.208292	1.308546E-5	20.712880
2411.627955	-3.004300	3.150400	-9.463800	28.175226	1.321747E-5	20.713730
2412.628584	-3.014700	3.147700	-9.487100	28.206253	1.272244E-5	20.722682
2413.628687	-3.001300	3.148700	-9.449100	28.194965	1.433956E-5	20.716059
2414.629416	-3.004100	3.146900	-9.452800	28.159317	1.166636E-5	20.712412
2415.631383	-3.009400	3.146200	-9.467400	28.218708	1.193038E-5	20.734273
2416.631630	-3.005500	3.146600	-9.456100	28.279102	1.301946E-5	20.722532
2417.629624	-3.028900	3.144700	-9.524100	28.298580	1.031326E-5	20.721755
2418.634606	-3.035500	3.142300	-9.537800	28.326137	1.344849E-5	20.701136
2419.630006	-3.018000	3.142800	-9.483200	28.317773	1.377851E-5	20.704095
2420.635689	-2.987000	3.142900	-9.387100	28.332729	1.245842E-5	20.704930
2421.630912	-3.006000	3.142300	-9.445100	28.367461	1.140234E-5	20.703391
2422.630358	-3.000700	3.141700	-9.426500	28.278580	1.417454E-5	20.706359
2423.630880	-3.015200	3.139600	-9.465200	28.267278	1.166636E-5	20.706833
2424.631200	-2.987600	3.140300	-9.381000	28.225135	1.077529E-5	20.709449
2425.633168	-2.989800	3.139100	-9.384100	28.179224	1.090730E-5	20.718229
2426.631318	-2.975600	3.139400	-9.341000	28.176739	1.193038E-5	20.686327
2427.635971	-3.036500	3.136300	-9.522500	28.225816	1.156735E-5	20.721515
2428.631903	-3.008300	3.136500	-9.434800	28.252880	1.143534E-5	20.701819
2429.635866	-3.005800	3.135200	-9.423000	28.276962	1.239241E-5	20.722274
2430.633470	-3.000800	3.134500	-9.405200	28.287638	1.450457E-5	20.714531
2431.637500	-3.002300	3.133100	-9.405900	28.328162	1.499960E-5	20.703175
2432.634988	-3.019500	3.132900	-9.458800	28.247202	1.146834E-5	20.722657
2433.636287	-2.996200	3.131900	-9.382700	28.340867	1.077529E-5	20.712650
2434.638196	-3.013400	3.130900	-9.433300	28.367220	1.173236E-5	20.712158
2435.635970	-3.023900	3.130100	-9.464200	28.284169	1.173236E-5	20.715306
2436.642103	-2.980900	3.130900	-9.332000	28.248369	8.696140E-6	20.711029
2437.635262	-3.001600	3.129200	-9.391500	28.239810	9.620208E-6	20.708576
2438.639566	-3.019000	3.128000	-9.442000	28.263446	1.272244E-5	20.707243
2439.635374	-2.997700	3.128000	-9.375700	28.229115	9.422193E-6	20.700653
2440.635614	-3.018200	3.125400	-9.431900	28.256966	1.077529E-5	20.710201
2441.636657	-3.003200	3.124800	-9.383600	28.308215	1.262343E-5	20.718654
2442.639498	-2.998300	3.124500	-9.367200	28.353219	1.229340E-5	20.706121
2443.637118	-2.997300	3.122600	-9.358200	28.404066	1.028026E-5	20.720337
2444.638560	-2.992600	3.123000	-9.344900	28.370008	1.054428E-5	20.723027
2445.640597	-2.994700	3.122100	-9.349000	28.358105	1.051127E-5	20.721473
2446.637538	-2.988000	3.120200	-9.322600	28.396913	8.663138E-6	20.700330
2447.640965	-2.995300	3.119400	-9.342100	28.457069	7.970087E-6	20.722027
2448.636230	-2.980900	3.119200	-9.297100	28.473427	8.894155E-6	20.709102
2449.638600	-2.982900	3.118300	-9.300400	28.402561	8.828150E-6	20.709338
2450.639267	-2.992500	3.117300	-9.327300	28.297380	7.970087E-6	20.698260
2451.642231	-3.018400	3.114100	-9.398300	28.243457	5.791926E-6	20.715567
2452.639353	-2.995300	3.114100	-9.326700	28.312675	7.277036E-6	20.698487
2453.638495	-3.017100	3.114400	-9.395600	28.298377	7.277036E-6	20.711593
2454.639234	-3.024500	3.113200	-9.413300	28.300732	7.640062E-6	20.733406
2455.639958	-3.022900	3.112700	-9.408700	28.333265	7.838077E-6	20.723014
2456.638975	-3.015400	3.110100	-9.376800	28.319332	6.848004E-6	20.718468
2457.641554	-3.016200	3.109900	-9.379000	28.323619	6.848004E-6	20.719465
2458.645202	-2.987300	3.108400	-9.284800	28.294966	5.890934E-6	20.721910
2459.640524	-3.015700	3.108400	-9.373600	28.316701	6.583985E-6	20.702067
2460.650819	-2.996700	3.107700	-9.311700	28.335538	7.211031E-6	20.727199
2461.644149	-3.009700	3.105300	-9.345300	28.338744	4.636841E-6	20.692492
2462.641575	-3.006600	3.106600	-9.339600	28.339913	7.112024E-6	20.703154
2463.644374	-3.017300	3.104500	-9.367100	28.392328	4.735849E-6	20.685755
2464.642187	-3.009700	3.103900	-9.340800	28.433237	6.088948E-6	20.727426
2465.646365	-3.016800	3.102900	-9.359500	28.423974	7.178028E-6	20.729005
2466.651121	-3.012300	3.100200	-9.337900	28.360949	5.857931E-6	20.707740
2467.644997	-3.005700	3.100500	-9.318000	28.349241	3.349747E-6	20.708753
2468.650175	-2.991500	3.098900	-9.269600	28.357319	4.339819E-6	20.706930
2469.644421	-2.985000	3.099300	-9.250500	28.452737	5.065873E-6	20.711026
2470.644498	-3.001100	3.098100	-9.296500	28.498108	3.316744E-6	20.705507
2471.646042	-3.005600	3.096700	-9.306200	28.478536	2.788705E-6	20.711402
2472.646186	-2.997200	3.096400	-9.279900	28.429209	2.227664E-6	20.711516
2473.646076	-3.001200	3.095900	-9.290500	28.343305	1.699625E-6	20.714630
2474.647395	-3.001300	3.094500	-9.286100	28.307995	3.118730E-6	20.695671
2475.645771	-3.008500	3.092100	-9.301200	28.349362	3.465255E-7	20.708401
2476.645609	-2.989100	3.092200	-9.242000	28.386879	2.821708E-6	20.715832
2477.646551	-3.048200	3.089800	-9.417300	28.415278	2.788705E-6	20.728782
2478.647112	-3.023000	3.089200	-9.337400	28.396199	4.669844E-6	20.726166
2479.648668	-2.999700	3.089000	-9.265900	28.415083	4.900861E-6	20.723845
2480.645653	-2.997200	3.088000	-9.253800	28.357748	2.590691E-6	20.726329
2481.645402	-2.984000	3.086800	-9.210300	28.337159	3.382749E-6	20.732625
2482.647819	-2.989000	3.086500	-9.224500	28.327984	2.689698E-6	20.725283
2483.644407	-2.965400	3.085700	-9.148800	28.346057	1.600618E-6	20.713134
2484.649271	-2.994800	3.084000	-9.235200	28.405462	4.306817E-6	20.735494
2485.647594	-2.989100	3.082000	-9.211500	28.445040	1.072579E-6	20.726509
2486.646443	-2.975800	3.081500	-9.168900	28.458540	3.465255E-7	20.720189
2487.646835	-2.981600	3.081300	-9.186400	28.463224	2.128657E-6	20.729648
2488.647857	-2.982800	3.078300	-9.181500	28.463801	2.128657E-6	20.741610
2489.648621	-3.002600	3.076000	-9.235200	28.475645	1.765630E-6	20.729829
2490.649758	-3.026700	3.075400	-9.308200	28.416284	3.679771E-6	20.718415
2491.647049	-3.020600	3.075300	-9.287900	28.453588	1.204589E-6	20.718996
2492.647064	-3.012000	3.073700	-9.257400	28.431482	2.145158E-7	20.721391
2493.649819	-2.978100	3.074100	-9.153600	28.475320	3.514759E-6	20.720018
2494.647308	-2.985500	3.073000	-9.172900	28.536106	1.600618E-6	20.718170
2495.651877	-2.987100	3.070800	-9.171900	28.474062	2.392676E-6	20.718751
2496.648574	-3.017100	3.069700	-9.260100	28.432943	1.105581E-6	20.719069
2497.647914	-2.996300	3.068600	-9.193900	28.398017	1.237591E-6	20.731316
2498.650110	-3.001600	3.066300	-9.203600	28.442336	1.039577E-6	20.734219
2499.647309	-3.005800	3.066100	-9.215300	28.412249	2.920715E-6	20.731423
2500.652886	-3.005400	3.064900	-9.210500	28.333887	6.765498E-7	20.699456
2501.656195	-2.988000	3.064800	-9.155300	28.323745	2.260666E-6	20.723386
2502.647683	-3.001700	3.062300	-9.190700	28.344165	1.336598E-6	20.719290
2503.649870	-2.995000	3.061300	-9.166700	28.411599	1.831635E-6	20.715120
2504.650053	-2.995100	3.060400	-9.165400	28.375910	7.095522E-7	20.719012
2505.651923	-3.009200	3.058000	-9.200700	28.370380	2.161659E-6	20.728144
2506.652712	-3.005300	3.058100	-9.190700	28.369983	2.656696E-6	20.713992
2507.650024	-3.001500	3.056900	-9.174300	28.382915	-3.795279E-7	20.707099
2508.649191	-3.001000	3.053900	-9.163100	28.403090	-1.650122E-8	20.715087
2509.651370	-3.020400	3.053500	-9.221600	28.483380	9.405693E-7	20.717703
2510.651411	-2.949100	3.054500	-9.006500	28.601685	2.475182E-7	20.727318
2511.658478	-2.996500	3.050800	-9.139900	28.656043	1.798632E-6	20.732280
2512.652295	-3.015900	3.050400	-9.198600	28.681164	2.260666E-6	20.723442
2513.653088	-3.028200	3.048800	-9.231400	28.712582	1.039577E-6	20.725216
2514.654836	-3.042600	3.046700	-9.268200	28.617561	4.125304E-7	20.725764
2515.653729	-3.000500	3.047700	-9.143800	28.549296	2.359674E-6	20.735722
2516.655926	-3.000000	3.045200	-9.134600	28.579257	1.485109E-7	20.733653
2517.656120	-3.002600	3.044900	-9.142100	28.649459	1.006574E-6	20.735132
2518.653447	-2.989000	3.044000	-9.097100	28.595766	-8.745644E-7	20.738901
2519.658542	-3.000900	3.042600	-9.129600	28.546137	5.115377E-7	20.704564
2520.656933	-2.974100	3.041700	-9.045300	28.586578	1.567615E-6	20.749562
2521.657127	-2.972600	3.041200	-9.039300	28.571537	3.795279E-7	20.735835
2522.654776	-3.003500	3.038400	-9.124800	28.601586	-1.633620E-6	20.737176
2523.657059	-3.004300	3.037000	-9.122800	28.678768	-7.095522E-7	20.734306
2524.658454	-2.978900	3.034900	-9.039900	28.651051	2.805207E-7	20.724880
2525.656262	-2.999700	3.034700	-9.101300	28.621708	-4.455328E-7	20.736105
2526.657791	-2.980300	3.033200	-9.038800	28.563403	-1.815134E-7	20.727169
2527.658668	-2.991800	3.032700	-9.071900	28.549895	-1.815134E-7	20.719729
2528.654750	-3.007300	3.031200	-9.115000	28.573906	-9.075668E-7	20.723997
2529.658988	-3.000900	3.029700	-9.091100	28.582405	3.465255E-7	20.742040
2530.662672	-3.003900	3.028700	-9.097100	28.559311	-5.115377E-7	20.719729
2531.663348	-2.995000	3.027100	-9.065200	28.576934	-2.524686E-6	20.735107
2532.657645	-2.990000	3.026100	-9.047400	28.652421	-5.775425E-7	20.728632
2533.656652	-3.009200	3.024700	-9.101100	28.658420	-6.435474E-7	20.736096
2534.661036	-3.024700	3.022800	-9.142400	28.703774	-2.458681E-6	20.736733
2535.659632	-2.968300	3.022400	-8.971200	28.718837	-1.534613E-6	20.712550
2536.658849	-2.986200	3.020400	-9.018300	28.687598	8.415620E-7	20.737510
2537.659263	-3.019500	3.017700	-9.110600	28.728698	-1.600618E-6	20.749511
2538.658514	-2.989100	3.017700	-9.019600	28.776679	-8.745644E-7	20.744262
2539.659549	-2.972100	3.016000	-8.963400	28.807584	8.745644E-7	20.753108
2540.659792	-3.013500	3.014100	-9.082300	28.793812	-1.765630E-6	20.721690
2541.660826	-3.016200	3.012500	-9.085200	28.804800	-1.468608E-6	20.739398
2542.659891	-2.975900	3.014000	-8.968500	28.781362	-2.475182E-7	20.747082
2543.660787	-3.003200	3.011100	-9.041200	28.762858	3.465255E-7	20.726072
2544.663257	-3.009800	3.009600	-9.056800	28.781240	-2.260666E-6	20.750279
2545.663970	-2.999300	3.007900	-9.020400	28.731596	-3.135231E-7	20.771396
2546.663144	-2.987000	3.007700	-8.982100	28.768555	-2.062652E-6	20.746036
2547.667175	-2.970900	3.005800	-8.929400	28.757729	-5.775425E-7	20.749355
2548.662838	-2.972500	3.005600	-8.932800	28.692873	-1.831635E-6	20.720063
2549.664054	-2.993600	3.003500	-8.990700	28.692443	-3.019722E-6	20.756615
2550.663039	-3.008800	3.001000	-9.028000	28.683929	-2.953718E-6	20.730021
2551.663282	-2.981900	2.999100	-8.941900	28.641032	-1.402603E-6	20.730911
2552.665172	-2.987700	2.998900	-8.959100	28.638013	-2.524686E-6	20.742570
2553.666912	-2.999700	2.997500	-8.991000	28.674538	-2.145158E-7	20.741900
2554.663947	-2.979500	2.996700	-8.927600	28.707637	-6.435474E-7	20.754375
2555.664511	-2.990700	2.993700	-8.952100	28.750473	-2.145158E-7	20.724028
2556.667214	-2.980800	2.992700	-8.920100	28.807867	5.115377E-7	20.751023
2557.664767	-3.018000	2.990200	-9.022700	28.834453	-3.613766E-6	20.748881
2558.667102	-3.011800	2.990700	-9.005900	28.816883	-1.270594E-6	20.757735
2559.665234	-2.975300	2.990300	-8.896600	28.759157	-6.105450E-7	20.748897
2560.665990	-2.996200	2.988700	-8.953400	28.776995	-1.633620E-6	20.767815
2561.666431	-3.005200	2.986700	-8.974300	28.708731	1.204589E-6	20.756426
2562.666867	-3.018500	2.984900	-9.009000	28.610642	-2.260666E-6	20.770005
2563.674227	-3.014100	2.982100	-8.987000	28.622266	-3.349747E-6	20.765591
2564.664905	-3.016200	2.981900	-8.992900	28.636754	2.145158E-7	20.765010
2565.665719	-2.996300	2.981500	-8.932100	28.668392	-2.656696E-6	20.758944
2566.666440	-2.976400	2.979700	-8.868100	28.678561	-1.930642E-6	20.755436
2567.666257	-2.983600	2.977200	-8.881500	28.748061	-1.039577E-6	20.731555
2568.665340	-2.964100	2.976100	-8.820500	28.817644	-6.435474E-7	20.763717
2569.668315	-2.998600	2.974600	-8.919200	28.855737	-8.415620E-7	20.744717
2570.667203	-3.019400	2.972100	-8.972700	28.873792	-9.405693E-7	20.767174
2571.669145	-3.008100	2.970500	-8.934700	28.882459	8.250607E-8	20.745558
2572.672616	-2.946600	2.971900	-8.756000	28.884852	-5.296890E-6	20.765514
2573.674343	-2.991600	2.968100	-8.878000	28.884592	-1.567615E-6	20.768096
2574.670521	-3.017400	2.965600	-8.947600	28.857845	-1.237591E-6	20.764385
2575.668226	-3.017600	2.966000	-8.948600	28.836176	-1.006574E-6	20.757729
2576.671364	-3.011100	2.963900	-8.923700	28.814452	-2.475182E-7	20.746750
2577.668974	-3.005200	2.962600	-8.902000	28.836143	-2.788705E-6	20.752955
2578.668005	-2.985100	2.961400	-8.839100	28.771527	-2.425679E-6	20.766100
2579.670500	-3.007700	2.960200	-8.902600	28.709683	-3.052725E-6	20.745530
2580.670961	-2.995600	2.959800	-8.865700	28.729226	-3.976793E-6	20.763320
2581.669907	-3.031800	2.955100	-8.957900	28.705860	-8.415620E-7	20.748318
2582.668004	-2.997200	2.955600	-8.857600	28.749508	-3.085727E-6	20.753877
2583.670589	-3.015200	2.953600	-8.904000	28.756617	-2.425679E-6	20.767677
2584.671953	-3.004300	2.952000	-8.867800	28.754774	-1.105581E-6	20.761553
2585.672545	-2.988000	2.951300	-8.817400	28.741375	5.775425E-7	20.757539
2586.672359	-3.026800	2.946900	-8.919100	28.797479	-3.019722E-6	20.764741
2587.673280	-3.020900	2.947100	-8.901100	28.827425	-1.501611E-6	20.774044
2588.675385	-2.975500	2.946700	-8.766600	28.841594	-1.237591E-6	20.774567
2589.672001	-3.024100	2.943700	-8.900400	28.875215	-1.039577E-6	20.766237
2590.678913	-3.029000	2.942000	-8.909800	28.893343	2.145158E-7	20.773120
2591.673524	-2.971700	2.941500	-8.740100	28.863537	-1.435606E-6	20.782922
2592.674431	-2.974000	2.939600	-8.741700	28.809035	-4.405824E-6	20.785390
2593.675680	-3.013400	2.936800	-8.849100	28.841464	2.145158E-7	20.746934
2594.674098	-2.996400	2.935400	-8.794800	28.930061	1.155085E-7	20.778817
2595.674973	-2.988600	2.934300	-8.768400	28.926223	-1.534613E-6	20.759303
2596.678058	-3.023300	2.931800	-8.862900	28.949731	-2.392676E-6	20.765442
2597.675432	-2.995800	2.931100	-8.780500	28.965310	-1.798632E-6	20.784932
2598.674827	-3.002100	2.930800	-8.798200	29.000030	-1.270594E-6	20.790041
2599.674750	-2.969400	2.928700	-8.695800	29.068868	-2.722700E-6	20.791121
2600.675183	-2.982400	2.926100	-8.725600	29.070750	-5.775425E-7	20.769309
2601.680647	-3.013700	2.924900	-8.814100	29.004071	-2.293669E-6	20.790319
2602.674722	-3.003200	2.922500	-8.776500	28.996241	-3.580764E-6	20.781956
2603.674507	-2.990700	2.920500	-8.733500	29.043407	-3.349747E-6	20.784908
2604.679017	-3.006800	2.918700	-8.774400	29.099479	-3.877786E-6	20.775498
2605.674810	-2.997100	2.918600	-8.746600	28.991000	-2.293669E-6	20.789004
2606.679647	-3.000400	2.914900	-8.745200	29.025419	-3.283742E-6	20.792862
2607.676553	-3.026400	2.914000	-8.817500	29.028048	-2.458681E-6	20.806890
2608.676699	-3.034100	2.910300	-8.829100	29.012818	-2.458681E-6	20.788227
2609.679484	-2.999700	2.911100	-8.731100	28.967590	-2.805207E-7	20.770634
2610.674361	-2.974800	2.909300	-8.653600	29.009906	-2.623693E-6	20.772016
2611.677315	-3.024700	2.905500	-8.786500	29.048803	-1.765630E-6	20.788447
2612.677590	-3.019300	2.905300	-8.771300	29.047497	-2.722700E-6	20.794718
2613.678918	-3.006100	2.904400	-8.728800	29.007966	-1.963645E-6	20.773381
2614.679858	-3.038400	2.901700	-8.814800	29.025096	-1.831635E-6	20.795855
2615.677811	-2.997200	2.899200	-8.688100	29.123268	-2.656696E-6	20.781450
2616.680676	-2.989000	2.898000	-8.661400	29.100268	-2.689698E-6	20.800000
2617.688551	-2.985400	2.896300	-8.645900	29.130545	-2.689698E-6	20.776455
2618.679919	-3.043800	2.894200	-8.808100	29.114409	-8.415620E-7	20.793386
2619.679681	-2.999900	2.893200	-8.678300	29.064066	-1.996647E-6	20.806671
2620.684900	-2.996300	2.890800	-8.660300	29.079644	-4.273815E-6	20.783487
2621.682947	-2.970500	2.889000	-8.580700	29.128461	-2.227664E-6	20.794270
2622.684411	-2.996000	2.887900	-8.651300	29.170859	-1.798632E-6	20.798112
2623.682535	-3.004600	2.885300	-8.668300	29.213798	-1.996647E-6	20.810562
2624.683435	-2.992600	2.884400	-8.630800	29.224256	-2.194662E-6	20.786013
2625.683314	-2.995600	2.881900	-8.631900	29.203796	-3.481756E-6	20.800483
2626.680789	-2.977400	2.879800	-8.573500	29.132575	-1.996647E-6	20.798415
2627.685048	-3.006800	2.877400	-8.650300	29.144168	-2.524686E-6	20.786863
2628.684340	-2.993300	2.877400	-8.611800	29.163898	-1.534613E-6	20.798684
2629.682642	-3.007300	2.875000	-8.645200	29.150301	-3.547761E-6	20.789250
2630.682319	-3.033100	2.870700	-8.706200	29.099684	-2.029649E-6	20.795145
2631.682182	-3.019000	2.869900	-8.663200	29.016090	-4.174807E-6	20.783936
2632.682157	-3.012400	2.869000	-8.642200	28.986693	-3.778778E-6	20.783716
2633.684863	-3.033600	2.864900	-8.689600	29.012252	-2.887713E-6	20.796191
2634.682255	-3.001600	2.864900	-8.598000	29.021121	-3.283742E-6	20.784738
2635.681461	-3.002200	2.861800	-8.590800	29.115504	-1.963645E-6	20.794964
2636.683300	-2.993200	2.860700	-8.561900	29.197979	-2.953718E-6	20.794621
2637.681406	-2.992500	2.858300	-8.552200	29.281973	-2.755703E-6	20.808617
2638.685230	-2.982600	2.856800	-8.520000	29.316439	-1.204589E-6	20.796886
2639.683068	-3.014400	2.854100	-8.602500	29.364450	-1.996647E-6	20.810186
2640.682088	-3.002400	2.853100	-8.564900	29.303038	-2.293669E-6	20.811355
2641.682403	-3.037900	2.850200	-8.657700	29.251667	-4.339820E-6	20.801309
2642.682831	-2.999900	2.848000	-8.543100	29.290717	-2.326671E-6	20.788981
2643.682039	-3.003100	2.847200	-8.549700	29.225440	-5.098876E-6	20.798112
2644.686609	-2.999400	2.843700	-8.528800	29.215811	-4.504832E-6	20.805004
2645.684057	-2.996900	2.842800	-8.518800	29.240602	-2.788705E-6	20.795374
2646.684111	-2.991000	2.840700	-8.495700	29.280716	-3.217737E-6	20.818255
2647.688411	-3.005400	2.837900	-8.527800	29.206919	-3.151732E-6	20.825915
2648.683860	-3.011800	2.836200	-8.540800	29.214026	-3.349747E-6	20.811266
2649.686852	-2.999100	2.833300	-8.496900	29.191052	-3.349747E-6	20.794279
2650.683447	-3.015600	2.830800	-8.535800	29.168685	-5.461902E-6	20.811094
2651.684052	-3.016600	2.830000	-8.535900	29.118904	-2.227664E-6	20.807399
2652.682626	-2.983500	2.827500	-8.434900	29.154723	-2.953718E-6	20.829742
2653.683962	-3.017700	2.824100	-8.520800	29.172758	-1.897640E-6	20.820414
2654.686598	-3.004900	2.822800	-8.481600	29.184140	-2.854710E-6	20.810547
2655.685705	-2.999500	2.819400	-8.455500	29.160248	-1.897640E-6	20.804964
2656.685231	-2.992300	2.818100	-8.431900	29.233577	-3.151732E-6	20.828597
2657.684515	-3.045100	2.813900	-8.567600	29.310665	-2.920715E-6	20.832317
2658.685311	-3.003900	2.812300	-8.447300	29.307615	-8.415620E-7	20.808381
2659.684398	-3.013200	2.809400	-8.464300	29.276587	-2.854710E-6	20.812198
2660.687038	-3.005400	2.807600	-8.437600	29.373082	-3.943790E-6	20.817937
2661.685487	-2.986900	2.806900	-8.383400	29.374817	-6.435474E-7	20.816842
2662.685518	-2.993000	2.802700	-8.387200	29.327374	-2.755703E-6	20.830191
2663.687754	-2.990200	2.799600	-8.370100	29.317965	-2.392676E-6	20.816441
2664.686670	-2.990800	2.796800	-8.364100	29.297905	-1.534613E-6	20.848380
2665.687344	-2.986300	2.795000	-8.345600	29.303721	-2.590691E-6	20.823896
2666.684959	-3.017200	2.790600	-8.418100	29.286792	-1.204589E-6	20.835758
2667.684759	-2.970200	2.789200	-8.283100	29.272426	-3.844783E-6	20.843565
2668.686715	-3.015700	2.786500	-8.401800	29.243555	-1.600618E-6	20.811152
2669.686946	-2.987600	2.782700	-8.312800	29.222577	-2.623693E-6	20.834107
2670.686914	-2.992900	2.779500	-8.317600	29.252015	-3.943790E-6	20.831057
2671.686018	-2.988400	2.778600	-8.302400	29.333612	-2.475182E-7	20.829840
2672.685545	-2.982900	2.775700	-8.279100	29.318175	-2.920715E-6	20.825662
2673.684458	-2.997900	2.771200	-8.306900	29.375677	-2.788705E-6	20.820079
2674.685489	-2.989900	2.768900	-8.278200	29.423215	-2.854710E-6	20.838120
2675.688588	-3.008800	2.764600	-8.317500	29.450839	-2.029649E-6	20.834196
2676.688192	-2.980900	2.762400	-8.233400	29.516428	-1.996647E-6	20.851470
2677.685874	-2.991400	2.761100	-8.258600	29.513954	-3.976793E-6	20.833804
2678.685595	-2.970100	2.756600	-8.186600	29.533677	-1.402603E-6	20.827133
2679.693684	-3.015300	2.754200	-8.304000	29.540165	-1.963645E-6	20.851216
2680.689915	-3.029400	2.750000	-8.329900	29.480435	-3.778778E-6	20.836526
2681.687965	-2.998400	2.746700	-8.234900	29.441716	-1.171586E-6	20.825000
2682.687006	-2.987400	2.744900	-8.198800	29.414147	-3.052725E-6	20.825662
2683.688426	-3.005400	2.739800	-8.233100	29.445276	-3.745776E-6	20.814838
2684.690708	-2.988000	2.736900	-8.176900	29.378394	-2.920715E-6	20.842731
2685.689222	-2.987500	2.734300	-8.167900	29.390877	-3.382749E-6	20.852941
2686.694304	-3.021900	2.729000	-8.245800	29.395687	-3.019722E-6	20.824125
2687.688869	-2.988600	2.729100	-8.155500	29.422371	-3.877786E-6	20.839167
2688.694180	-2.978100	2.723900	-8.111000	29.459218	-1.732628E-6	20.852124
2689.690177	-3.014600	2.719100	-8.196400	29.478335	-1.138584E-6	20.850056
2690.689665	-3.018400	2.717000	-8.200000	29.498440	-3.118730E-6	20.845192
2691.691103	-3.002000	2.712700	-8.142600	29.461895	-1.435606E-6	20.840124
2692.696396	-3.014900	2.708100	-8.164000	29.469591	-8.415620E-7	20.849778
2693.690270	-3.003200	2.706200	-8.126600	29.456672	-3.547761E-6	20.846713
2694.690792	-3.008500	2.701700	-8.127400	29.473412	-1.765630E-6	20.840353
2695.694579	-3.018000	2.697700	-8.140600	29.472487	-2.854710E-6	20.842265
2696.690850	-3.005700	2.693300	-8.093900	29.511359	-2.458681E-6	20.846835
2697.693958	-2.969500	2.690600	-7.988300	29.463485	-2.788705E-6	20.827028
2698.697891	-2.984500	2.684500	-8.010800	29.484507	-8.415620E-7	20.848217
2699.690310	-2.983700	2.680900	-7.998000	29.504482	-1.138584E-6	20.858868
2700.691403	-2.994000	2.676900	-8.014000	29.591184	-1.237591E-6	20.839585
2701.691306	-2.988200	2.672800	-7.986300	29.576911	-1.633620E-6	20.839420
2702.692532	-2.994800	2.668100	-7.989800	29.634683	-1.435606E-6	20.840288
2703.692725	-2.986000	2.664600	-7.955700	29.584794	-4.455328E-7	20.817022
2704.689791	-2.997700	2.659100	-7.970500	29.559501	-1.633620E-6	20.856956
2705.693613	-3.015600	2.654000	-8.002200	29.582199	-1.765630E-6	20.840484
2706.692781	-3.018800	2.649700	-7.998500	29.625917	7.755571E-7	20.832873
2707.692506	-3.011500	2.644600	-7.963100	29.671141	-1.155085E-7	20.843378
2708.694855	-2.991200	2.641400	-7.898900	29.716955	4.785352E-7	20.839781
2709.692668	-2.988700	2.635700	-7.876700	29.773989	-1.485109E-7	20.847024
2710.692139	-3.016200	2.630400	-7.933200	29.762426	-1.138584E-6	20.832996
2711.694520	-2.999900	2.626200	-7.877700	29.703519	1.072579E-6	20.829554
2712.692681	-2.997400	2.620200	-7.852900	29.669478	7.425547E-7	20.855926
2713.697336	-2.982700	2.616000	-7.802100	29.649497	4.455328E-7	20.816343
2714.697935	-2.991500	2.610100	-7.807200	29.669129	7.425547E-7	20.838505
2715.694003	-3.023800	2.604200	-7.873900	29.773631	1.171586E-6	20.844767
2716.697457	-2.966300	2.599700	-7.710700	29.765709	1.600618E-6	20.831091
2717.696933	-2.966600	2.595500	-7.699300	29.792612	1.468608E-6	20.841145
2718.699099	-2.984100	2.589500	-7.726000	29.851960	-1.468608E-6	20.835554
2719.699424	-2.995800	2.582900	-7.736900	29.780352	-1.039577E-6	20.829259
2720.696582	-2.976300	2.576400	-7.666700	29.800962	-1.501611E-6	20.808788
2721.694993	-2.976700	2.572000	-7.655600	29.878430	1.435606E-6	20.817675
2722.701019	-2.992700	2.564400	-7.673900	29.938738	7.755571E-7	20.815901
2723.699431	-3.003700	2.559300	-7.686300	29.870087	5.445401E-7	20.822539
2724.701148	-3.002500	2.551900	-7.661700	29.814866	-7.755571E-7	20.819489
2725.698010	-3.002700	2.547900	-7.650200	29.827952	5.775425E-7	20.833631
2726.697129	-3.018500	2.541400	-7.669700	29.853596	-1.204589E-6	20.830566
2727.697345	-3.041900	2.534200	-7.708100	29.892949	2.805207E-7	20.817617
2728.698076	-3.031100	2.528300	-7.663200	29.940464	2.458681E-6	20.819538
2729.698686	-2.985100	2.523900	-7.533100	29.926431	8.415620E-7	20.807284
2730.697478	-2.994200	2.516200	-7.532700	29.958055	-9.405693E-7	20.826372
2731.698136	-3.022600	2.508500	-7.581600	29.957067	-5.115377E-7	20.827745
2732.699184	-2.971500	2.504500	-7.441400	29.874562	-8.745644E-7	20.811404
2733.699755	-2.986200	2.498400	-7.460200	29.873021	-1.897640E-6	20.812221
