LabVIEW Measurement	
Writer_Version	2
Reader_Version	2
Separator	Tab
Decimal_Separator	.
Multi_Headings	No
X_Columns	One
Time_Pref	Absolute
Operator	admin
Description	Clolumns are: time, Current, Voltage, Power, Battery Temp, and Chamber Temp
Date	2024/08/16
Time	13:07:17.8513970375061035156
***End_of_Header***	
	
Channels	6						
Samples	1	1	1	1	1	1	
Date	2024/09/07	2024/09/07	2024/09/07	2024/09/07	2024/09/07	2024/09/07	
Time	12:22:03.8531136512756347656	12:22:03.8589920997619628906	12:22:03.8639903068542480469	12:22:03.8374919891357421875	12:22:03.8374919891357421875	12:22:03.8374919891357421875	
X_Dimension	Time	Time	Time	Time	Time	Time	
X0	0.0000000000000000E+0	0.0000000000000000E+0	0.0000000000000000E+0	0.0000000000000000E+0	0.0000000000000000E+0	0.0000000000000000E+0	
Delta_X	1.000000	1.000000	1.000000	1.000000	1.000000	1.000000	
***End_of_Header***							
X_Value	Untitled	Untitled 1	Untitled 2	Untitled 3	Untitled 4	Untitled 5	Comment
0.000000	0.021559	4.093900	0.088282	20.851628	0.000473	20.771023
0.999237	-3.004600	3.926400	-11.796000	20.868419	0.000472	20.790186
2.002569	-3.006100	3.919800	-11.783000	20.846301	0.000472	20.787507
3.000215	-3.010200	3.914000	-11.780000	20.865414	0.000472	20.774853
4.000969	-3.003300	3.910100	-11.742000	20.869552	0.000470	20.781362
5.003670	-2.995300	3.907300	-11.702000	20.891035	0.000470	20.773449
6.000386	-3.012100	3.905500	-11.763000	20.891632	0.000468	20.793961
7.005241	-2.990600	3.904600	-11.676000	20.892673	0.000467	20.781251
8.002095	-2.996700	3.901000	-11.689000	20.902247	0.000466	20.784662
9.004707	-3.017700	3.898100	-11.762000	20.920411	0.000468	20.778646
10.002055	-3.006000	3.897000	-11.714000	20.902721	0.000466	20.777550
11.002337	-2.990600	3.896100	-11.651000	20.924573	0.000466	20.794662
12.006097	-3.012100	3.894000	-11.728000	20.925891	0.000465	20.766582
13.004643	-3.004800	3.893100	-11.697000	20.945452	0.000462	20.785672
14.004966	-3.003600	3.892500	-11.689000	20.955876	0.000462	20.809373
15.003454	-2.981800	3.890300	-11.599000	20.945144	0.000463	20.780148
16.007190	-3.005600	3.889100	-11.689000	20.949577	0.000463	20.797858
17.005613	-3.003300	3.889100	-11.679000	20.944959	0.000463	20.791817
18.006284	-3.010500	3.886700	-11.701000	20.971305	0.000461	20.785924
19.005851	-3.018000	3.886100	-11.727000	20.958301	0.000460	20.796626
20.006082	-2.992800	3.886400	-11.630000	20.984049	0.000461	20.786342
21.003741	-3.005300	3.884500	-11.674000	21.018681	0.000459	20.792057
22.006059	-2.992800	3.884100	-11.624000	21.036314	0.000461	20.796891
23.005024	-3.003600	3.882200	-11.659000	21.026949	0.000460	20.787524
24.006052	-3.009600	3.883600	-11.687000	21.045862	0.000458	20.784156
25.006509	-2.986600	3.883000	-11.596000	21.047555	0.000458	20.793910
26.004794	-2.991300	3.882400	-11.612000	21.039866	0.000459	20.798547
27.008082	-2.986100	3.880700	-11.587000	21.046669	0.000457	20.794446
28.006949	-2.998700	3.881300	-11.638000	21.068148	0.000455	20.784162
29.010077	-3.018300	3.880800	-11.713000	21.078097	0.000456	20.782259
30.009167	-2.983300	3.880500	-11.576000	21.074206	0.000456	20.784057
31.010269	-3.000300	3.879800	-11.639000	21.076213	0.000454	20.781323
32.010058	-2.995700	3.879400	-11.620000	21.076115	0.000453	20.806355
33.009276	-2.976700	3.878200	-11.543000	21.096744	0.000455	20.784790
34.016114	-2.995700	3.877600	-11.615000	21.092601	0.000453	20.798189
35.013383	-2.975500	3.878400	-11.540000	21.121584	0.000451	20.790196
36.011179	-3.008600	3.877100	-11.664000	21.142583	0.000454	20.797925
37.012266	-3.020400	3.877300	-11.710000	21.146523	0.000453	20.805659
38.013532	-2.991900	3.876100	-11.596000	21.145993	0.000453	20.809871
39.015824	-3.006500	3.874700	-11.649000	21.160059	0.000455	20.798337
40.015022	-2.998100	3.874200	-11.614000	21.146233	0.000454	20.812481
41.014719	-2.998600	3.874400	-11.617000	21.180411	0.000454	20.820591
42.013675	-2.983100	3.874200	-11.556000	21.175886	0.000455	20.822229
43.016062	-3.009000	3.873700	-11.656000	21.189133	0.000453	20.792807
44.014391	-2.970200	3.873800	-11.505000	21.207262	0.000453	20.805252
45.015386	-2.979600	3.875300	-11.546000	21.219456	0.000453	20.825037
46.014387	-2.999900	3.874100	-11.621000	21.221525	0.000452	20.811459
47.016397	-2.997000	3.873200	-11.607000	21.222195	0.000453	20.796009
48.014426	-2.983400	3.872700	-11.552000	21.240077	0.000453	20.812475
49.016186	-2.981300	3.873100	-11.545000	21.245433	0.000454	20.816410
50.019072	-2.992500	3.871700	-11.585000	21.249446	0.000454	20.805252
51.018111	-3.010500	3.871000	-11.653000	21.271224	0.000453	20.817555
52.019475	-2.991400	3.871400	-11.580000	21.284839	0.000452	20.814107
53.017593	-3.001100	3.871200	-11.617000	21.270362	0.000452	20.826176
54.023482	-3.008200	3.871300	-11.644000	21.298221	0.000451	20.819434
55.018157	-3.000700	3.870500	-11.613000	21.313018	0.000451	20.823331
56.020202	-3.008800	3.870700	-11.646000	21.329845	0.000452	20.819304
57.019902	-2.995600	3.869700	-11.592000	21.302135	0.000450	20.819083
58.018975	-2.993800	3.870600	-11.588000	21.330818	0.000451	20.795147
59.019128	-3.003200	3.869600	-11.621000	21.344187	0.000448	20.826540
60.018318	-2.989900	3.870500	-11.571000	21.351917	0.000452	20.820523
61.023437	-3.006900	3.868400	-11.632000	21.355099	0.000452	20.825129
62.021633	-3.000500	3.870200	-11.612000	21.393370	0.000449	20.810314
63.022302	-3.017400	3.868300	-11.671000	21.387036	0.000451	20.811090
64.022738	-2.980500	3.869000	-11.530000	21.385325	0.000451	20.800369
65.024165	-2.990700	3.869400	-11.571000	21.383787	0.000449	20.821115
66.021629	-2.992300	3.869100	-11.577000	21.423564	0.000448	20.815868
67.025388	-3.004900	3.867600	-11.620000	21.433110	0.000450	20.814988
68.022265	-2.993500	3.867200	-11.576000	21.421785	0.000450	20.839218
69.022369	-3.020400	3.866900	-11.679000	21.430611	0.000450	20.826238
70.021125	-3.005300	3.869000	-11.626000	21.430531	0.000450	20.841330
71.022159	-3.021400	3.865900	-11.680000	21.446865	0.000450	20.844397
72.024867	-2.998000	3.867300	-11.593000	21.454022	0.000450	20.826903
73.023605	-3.019300	3.866900	-11.674000	21.505644	0.000450	20.851053
74.022686	-3.009200	3.866100	-11.632000	21.480880	0.000451	20.822482
75.021583	-2.990300	3.867200	-11.563000	21.497256	0.000451	20.820850
76.023440	-3.016100	3.865800	-11.658000	21.471267	0.000452	20.821398
77.023547	-2.998100	3.866800	-11.592000	21.486554	0.000452	20.844754
78.025882	-3.004800	3.866500	-11.618000	21.511023	0.000449	20.826565
79.023003	-3.003900	3.866400	-11.613000	21.524155	0.000450	20.831171
80.022857	-3.000100	3.865700	-11.597000	21.534353	0.000449	20.822408
81.025040	-2.998200	3.866200	-11.591000	21.557565	0.000450	20.829514
82.023088	-3.005200	3.866500	-11.619000	21.542076	0.000451	20.832033
83.026824	-3.012600	3.865500	-11.644000	21.547781	0.000452	20.834422
84.023720	-2.999700	3.865500	-11.594000	21.564937	0.000450	20.842107
85.024188	-3.014100	3.864400	-11.647000	21.557227	0.000452	20.832969
86.028146	-3.026500	3.864400	-11.694000	21.586678	0.000454	20.822612
87.025705	-3.014900	3.863900	-11.648000	21.598666	0.000452	20.854046
88.027253	-2.994900	3.865000	-11.574000	21.594069	0.000452	20.850869
89.026109	-3.008800	3.864000	-11.624000	21.611792	0.000451	20.848690
90.026679	-2.995300	3.865200	-11.577000	21.606678	0.000453	20.842150
91.027610	-3.030700	3.863100	-11.707000	21.638824	0.000452	20.847766
92.028923	-3.002100	3.865000	-11.602000	21.633027	0.000453	20.839595
93.027491	-2.976700	3.864000	-11.501000	21.658065	0.000451	20.843314
94.028185	-3.002000	3.863100	-11.596000	21.657007	0.000451	20.853635
95.026231	-3.021300	3.864500	-11.675000	21.662668	0.000451	20.842231
96.026960	-3.020000	3.862800	-11.664000	21.659253	0.000453	20.837865
97.031241	-3.011200	3.861300	-11.627000	21.671683	0.000453	20.839399
98.028137	-3.024900	3.861300	-11.678000	21.682149	0.000452	20.853192
99.033686	-2.997000	3.863300	-11.577000	21.696708	0.000452	20.854011
100.026345	-2.992200	3.862600	-11.557000	21.704559	0.000452	20.854282
101.027863	-2.997300	3.862500	-11.576000	21.726303	0.000454	20.856129
102.027927	-2.997200	3.860900	-11.571000	21.736364	0.000454	20.840120
103.031162	-2.990300	3.862100	-11.548000	21.729786	0.000452	20.846813
104.030194	-2.983700	3.862300	-11.523000	21.739680	0.000452	20.853395
105.030377	-3.007100	3.860800	-11.609000	21.755407	0.000452	20.854910
106.026614	-2.995200	3.862400	-11.568000	21.770038	0.000452	20.863389
107.027885	-3.013400	3.861400	-11.635000	21.773527	0.000452	20.861665
108.033139	-2.996600	3.860800	-11.568000	21.789154	0.000453	20.876831
109.037854	-3.009400	3.859700	-11.615000	21.761572	0.000454	20.863925
110.031084	-2.988400	3.862500	-11.542000	21.794138	0.000453	20.858587
111.029409	-2.996300	3.860800	-11.566000	21.804198	0.000454	20.843052
112.029058	-3.002800	3.861900	-11.596000	21.812479	0.000452	20.868882
113.029412	-2.995300	3.860700	-11.564000	21.821997	0.000453	20.868452
114.030406	-2.978100	3.862700	-11.502000	21.825756	0.000454	20.854671
115.033571	-2.981400	3.862000	-11.513000	21.860061	0.000454	20.854868
116.030918	-2.990300	3.860800	-11.544000	21.862172	0.000454	20.859826
117.030270	-3.016700	3.859800	-11.643000	21.852691	0.000457	20.855552
118.034988	-2.998600	3.859900	-11.573000	21.854992	0.000455	20.848847
119.032547	-3.001200	3.859500	-11.582000	21.861267	0.000454	20.850386
120.032956	-3.015300	3.859500	-11.637000	21.906288	0.000456	20.858465
121.036191	-2.976100	3.859800	-11.486000	21.881853	0.000452	20.871464
122.034557	-2.988100	3.858500	-11.529000	21.894335	0.000454	20.853613
123.034819	-3.002200	3.859500	-11.585000	21.896003	0.000456	20.882307
124.037451	-3.002800	3.858800	-11.586000	21.904425	0.000455	20.862764
125.036478	-3.011100	3.859500	-11.620000	21.928805	0.000456	20.857296
126.037969	-2.998500	3.860500	-11.575000	21.940217	0.000455	20.880572
127.036573	-3.013400	3.857500	-11.623000	21.956439	0.000457	20.895861
128.040266	-3.008600	3.858700	-11.608000	21.954120	0.000457	20.878367
129.036481	-2.996600	3.859600	-11.564000	21.947685	0.000455	20.880461
130.036420	-2.996900	3.858400	-11.562000	21.965027	0.000455	20.876958
131.039819	-3.001500	3.858100	-11.579000	21.963526	0.000455	20.896791
132.038043	-2.999800	3.857300	-11.570000	21.979078	0.000456	20.889599
133.034715	-2.992500	3.858200	-11.544000	21.991713	0.000458	20.877593
134.034977	-2.997000	3.857800	-11.560000	21.987444	0.000457	20.865734
135.040833	-3.008200	3.855000	-11.596000	22.003770	0.000457	20.884920
136.036199	-2.972700	3.857700	-11.467000	22.021418	0.000458	20.869398
137.038794	-2.993400	3.856300	-11.542000	22.024894	0.000457	20.896109
138.037587	-3.013800	3.856300	-11.621000	22.041699	0.000459	20.880691
139.039779	-2.986400	3.856800	-11.517000	22.041638	0.000457	20.878733
140.040576	-2.976900	3.856000	-11.478000	22.034233	0.000459	20.886492
141.037854	-3.002100	3.856700	-11.578000	22.063844	0.000457	20.872515
142.039105	-3.008300	3.856000	-11.599000	22.056506	0.000457	20.888875
143.038090	-3.000300	3.856000	-11.569000	22.071183	0.000459	20.904989
144.045365	-2.995900	3.856800	-11.554000	22.092472	0.000457	20.908283
145.038525	-3.018900	3.854900	-11.637000	22.070950	0.000459	20.889584
146.038332	-3.006000	3.855600	-11.589000	22.100087	0.000459	20.882245
147.039851	-2.997900	3.855100	-11.557000	22.128197	0.000462	20.894738
148.040521	-2.982900	3.855100	-11.498000	22.116252	0.000460	20.914547
149.039019	-3.001200	3.855600	-11.571000	22.132177	0.000461	20.887818
150.040900	-3.009000	3.854700	-11.598000	22.098452	0.000460	20.906210
151.042854	-2.971500	3.854800	-11.454000	22.151564	0.000460	20.893951
152.040087	-3.010300	3.853800	-11.600000	22.162771	0.000462	20.894266
153.044693	-2.992700	3.853700	-11.532000	22.159130	0.000462	20.899155
154.041216	-2.999200	3.854400	-11.559000	22.162285	0.000463	20.894728
155.040974	-3.004000	3.853400	-11.575000	22.183849	0.000463	20.912997
156.041348	-3.009800	3.852000	-11.593000	22.205277	0.000461	20.900787
157.040766	-2.993000	3.853900	-11.534000	22.188222	0.000462	20.904100
158.046206	-2.975100	3.854900	-11.467000	22.203623	0.000463	20.918570
159.044793	-3.005800	3.852000	-11.576000	22.204638	0.000462	20.904889
160.042866	-3.016300	3.851700	-11.616000	22.230181	0.000461	20.891583
161.045525	-2.997800	3.852500	-11.548000	22.237377	0.000462	20.903055
162.048104	-2.989600	3.852900	-11.518000	22.238797	0.000462	20.904951
163.044724	-2.997900	3.853300	-11.550000	22.247586	0.000462	20.918017
164.049582	-3.003000	3.852700	-11.569000	22.226522	0.000463	20.906411
165.046583	-3.014000	3.851400	-11.608000	22.267771	0.000465	20.908831
166.044228	-2.982700	3.852800	-11.491000	22.255779	0.000466	20.921478
167.046089	-2.991100	3.852600	-11.522000	22.286055	0.000465	20.904854
168.045808	-2.995800	3.851400	-11.537000	22.279573	0.000464	20.939612
169.046862	-2.983700	3.851100	-11.489000	22.304917	0.000466	20.922316
170.045229	-3.005500	3.851400	-11.575000	22.315310	0.000466	20.923714
171.044768	-2.996400	3.850400	-11.535000	22.317346	0.000466	20.925753
172.047948	-2.993800	3.852400	-11.533000	22.326712	0.000467	20.919011
173.047177	-3.011100	3.851100	-11.595000	22.318466	0.000465	20.923081
174.048221	-3.004800	3.849400	-11.566000	22.313651	0.000468	20.906407
175.048086	-2.995000	3.852300	-11.536000	22.327506	0.000470	20.922650
176.047489	-2.981000	3.850400	-11.477000	22.334135	0.000468	20.908901
177.049067	-2.982400	3.850800	-11.483000	22.343723	0.000468	20.913285
178.052186	-2.999500	3.849100	-11.543000	22.360548	0.000470	20.912589
179.049219	-2.985700	3.851000	-11.497000	22.385736	0.000470	20.891821
180.050660	-2.994600	3.851000	-11.532000	22.379052	0.000468	20.887973
181.048805	-2.994100	3.849200	-11.524000	22.398638	0.000470	20.913748
182.050408	-2.978500	3.849600	-11.466000	22.405519	0.000470	20.919215
183.049988	-3.000500	3.849700	-11.550000	22.377281	0.000470	20.908484
184.050971	-2.992900	3.848300	-11.517000	22.359504	0.000469	20.909648
185.053796	-3.002100	3.848000	-11.550000	22.383056	0.000472	20.895775
186.051476	-2.990500	3.847500	-11.505000	22.391001	0.000472	20.881448
187.052465	-2.998700	3.848300	-11.539000	22.412782	0.000473	20.907050
188.052665	-2.993400	3.848600	-11.519000	22.432687	0.000472	20.902328
189.054679	-3.050900	3.846400	-11.734000	22.427024	0.000472	20.889071
190.054806	-3.003200	3.846900	-11.552000	22.454756	0.000472	20.904988
191.053021	-3.005500	3.847400	-11.562000	22.471248	0.000475	20.885944
192.052989	-3.003600	3.848500	-11.558000	22.453970	0.000473	20.918424
193.052853	-3.015000	3.847400	-11.599000	22.473087	0.000474	20.878303
194.053863	-2.997600	3.846900	-11.531000	22.486817	0.000474	20.879725
195.053882	-3.001600	3.847400	-11.547000	22.488577	0.000475	20.909934
196.058010	-3.003400	3.846600	-11.552000	22.478431	0.000474	20.892189
197.052962	-2.985200	3.846800	-11.483000	22.521140	0.000473	20.900822
198.054796	-2.996400	3.847000	-11.526000	22.502670	0.000476	20.885644
199.056695	-3.009000	3.845700	-11.571000	22.496184	0.000477	20.875830
200.055978	-3.008100	3.845500	-11.567000	22.534232	0.000477	20.895441
201.054740	-2.986600	3.846700	-11.488000	22.508020	0.000476	20.867296
202.057646	-3.001500	3.845400	-11.541000	22.525729	0.000478	20.894512
203.054255	-2.993500	3.845800	-11.512000	22.527746	0.000481	20.891317
204.054567	-3.001500	3.846800	-11.545000	22.534294	0.000478	20.874169
205.058142	-2.964800	3.847000	-11.404000	22.551781	0.000477	20.882199
206.056273	-2.991000	3.845200	-11.500000	22.540991	0.000476	20.860962
207.058218	-3.000900	3.844500	-11.536000	22.569440	0.000477	20.888978
208.054280	-3.007600	3.844000	-11.560000	22.538089	0.000480	20.873228
209.057323	-3.001700	3.844900	-11.540000	22.551641	0.000478	20.882532
210.058083	-3.009000	3.844300	-11.567000	22.548179	0.000479	20.887126
211.057223	-3.006400	3.843400	-11.554000	22.567836	0.000480	20.868407
212.067822	-3.021100	3.842600	-11.608000	22.600145	0.000482	20.868525
213.056843	-2.997100	3.843800	-11.519000	22.594360	0.000480	20.881222
214.056839	-2.995100	3.843200	-11.510000	22.617927	0.000481	20.873532
215.060036	-2.983700	3.842800	-11.465000	22.625974	0.000481	20.882540
216.058279	-2.997400	3.844300	-11.522000	22.660600	0.000482	20.879290
217.057933	-3.004600	3.842700	-11.544000	22.670043	0.000483	20.876420
218.059799	-2.994700	3.843200	-11.509000	22.668592	0.000481	20.854580
219.059518	-3.000200	3.842900	-11.529000	22.623744	0.000484	20.841902
220.059635	-2.994200	3.842600	-11.504000	22.655431	0.000484	20.876957
221.059379	-2.994100	3.842000	-11.502000	22.642422	0.000482	20.886212
222.059631	-3.025800	3.842300	-11.625000	22.680361	0.000483	20.876798
223.060843	-2.986000	3.842500	-11.472000	22.656169	0.000481	20.859680
224.060176	-3.007900	3.841500	-11.554000	22.663461	0.000483	20.890690
225.060296	-3.010300	3.842000	-11.565000	22.644501	0.000484	20.858899
226.060926	-2.972900	3.843600	-11.426000	22.670428	0.000483	20.868746
227.061060	-2.996500	3.841100	-11.509000	22.682908	0.000485	20.849005
228.064593	-2.995000	3.840800	-11.503000	22.689259	0.000485	20.852995
229.059483	-3.009000	3.841300	-11.558000	22.696507	0.000484	20.866419
230.060446	-3.008800	3.841300	-11.557000	22.698838	0.000486	20.853581
231.060669	-3.006400	3.840700	-11.546000	22.730780	0.000487	20.857602
232.061387	-2.987100	3.840200	-11.470000	22.736922	0.000488	20.843841
233.065371	-3.006200	3.840700	-11.545000	22.735084	0.000487	20.881826
234.064273	-2.999300	3.838700	-11.512000	22.755555	0.000487	20.840221
235.060490	-2.993600	3.839600	-11.493000	22.772743	0.000486	20.846058
236.061491	-3.038900	3.837100	-11.660000	22.777901	0.000488	20.855017
237.064464	-3.009800	3.838800	-11.553000	22.799189	0.000486	20.841730
238.062694	-2.986500	3.839500	-11.465000	22.779654	0.000489	20.827852
239.064525	-3.003300	3.838200	-11.526000	22.766622	0.000487	20.854151
240.061943	-3.005500	3.838900	-11.536000	22.773821	0.000488	20.850457
241.062053	-2.977100	3.839300	-11.429000	22.773440	0.000489	20.860980
242.062893	-3.005200	3.838100	-11.533000	22.789903	0.000490	20.854713
243.064725	-2.979800	3.838700	-11.436000	22.812573	0.000489	20.875051
244.067903	-2.983700	3.838200	-11.451000	22.827418	0.000489	20.859103
245.063729	-3.013600	3.837700	-11.565000	22.812715	0.000489	20.856702
246.064397	-3.019200	3.836800	-11.583000	22.853094	0.000492	20.845945
247.066489	-2.995400	3.836800	-11.492000	22.848928	0.000490	20.865003
248.063559	-3.026400	3.835600	-11.607000	22.838416	0.000490	20.856371
249.064357	-3.015000	3.835300	-11.563000	22.844558	0.000493	20.853515
250.067047	-2.997700	3.837100	-11.502000	22.849094	0.000491	20.840990
251.066185	-3.008900	3.837000	-11.543000	22.839850	0.000493	20.838367
252.066224	-3.007200	3.836100	-11.536000	22.869214	0.000492	20.822265
253.068757	-3.018500	3.834300	-11.574000	22.892060	0.000491	20.848472
254.068938	-3.027600	3.835500	-11.610000	22.893997	0.000492	20.843300
255.071508	-3.017200	3.834400	-11.569000	22.919628	0.000493	20.851434
256.067577	-2.994600	3.835800	-11.486000	22.911079	0.000494	20.863732
257.066868	-3.019900	3.833800	-11.577000	22.913937	0.000493	20.843837
258.067720	-2.988200	3.835000	-11.458000	22.953219	0.000494	20.851423
259.067924	-2.994200	3.834700	-11.480000	22.941455	0.000493	20.828259
260.071969	-3.011300	3.833000	-11.542000	22.951842	0.000494	20.824916
261.071157	-2.973300	3.834600	-11.401000	22.939907	0.000496	20.844725
262.069788	-3.016400	3.833800	-11.563000	22.972887	0.000496	20.838413
263.070984	-3.011700	3.833300	-11.543000	22.967400	0.000493	20.839554
264.073890	-2.985100	3.834000	-11.443000	22.998782	0.000496	20.831641
265.070930	-3.005600	3.833400	-11.521000	22.967646	0.000496	20.835533
266.071941	-3.020700	3.832300	-11.576000	22.968746	0.000498	20.846117
267.071068	-3.016900	3.833300	-11.563000	22.974241	0.000496	20.854468
268.071937	-2.999500	3.833900	-11.498000	22.965698	0.000495	20.846857
269.070281	-3.005800	3.832500	-11.519000	22.953640	0.000497	20.834302
270.071662	-3.000700	3.832100	-11.498000	22.944795	0.000496	20.847726
271.075142	-2.993700	3.832500	-11.472000	22.979141	0.000497	20.831403
272.073328	-2.992200	3.831900	-11.465000	22.982226	0.000497	20.816003
273.072883	-2.985800	3.832500	-11.442000	22.973136	0.000497	20.829654
274.076592	-3.000600	3.832100	-11.498000	22.987654	0.000499	20.839458
275.072145	-3.006000	3.831000	-11.515000	23.001082	0.000499	20.828256
276.073603	-3.006200	3.831100	-11.516000	23.000653	0.000500	20.842050
277.077616	-2.994100	3.831100	-11.470000	23.001052	0.000497	20.833916
278.074682	-3.007900	3.829700	-11.519000	23.021855	0.000497	20.820621
279.075949	-2.995700	3.830100	-11.473000	23.031793	0.000499	20.839586
280.075889	-2.995000	3.830300	-11.471000	22.998716	0.000499	20.824463
281.076047	-3.002500	3.831000	-11.502000	23.018912	0.000499	20.822413
282.077398	-3.013100	3.830700	-11.542000	23.028850	0.000499	20.835215
283.075716	-3.016600	3.829500	-11.550000	23.051890	0.000500	20.816575
284.076653	-3.010300	3.828600	-11.524000	23.055779	0.000502	20.841335
285.078182	-3.033100	3.828500	-11.611000	23.050826	0.000500	20.821199
286.077343	-3.000700	3.829200	-11.489000	23.055312	0.000499	20.845608
287.079434	-2.995200	3.828500	-11.467000	23.066693	0.000500	20.820029
288.076383	-3.006100	3.829400	-11.509000	23.056627	0.000501	20.804727
289.076264	-3.003200	3.828600	-11.497000	23.095933	0.000501	20.819456
290.077401	-3.001500	3.829500	-11.493000	23.084404	0.000502	20.819283
291.078548	-2.991600	3.828900	-11.454000	23.121811	0.000503	20.825946
292.077264	-2.999600	3.826700	-11.478000	23.125050	0.000503	20.805958
293.080023	-2.999500	3.826900	-11.478000	23.118524	0.000504	20.815065
294.077674	-2.995500	3.827900	-11.465000	23.140621	0.000502	20.816345
295.077804	-3.000200	3.828500	-11.485000	23.136959	0.000503	20.805563
296.079353	-2.985900	3.828100	-11.429000	23.145905	0.000504	20.824485
297.079478	-2.964000	3.827700	-11.344000	23.144333	0.000504	20.831918
298.081844	-2.969600	3.826100	-11.361000	23.158134	0.000503	20.824885
299.079197	-2.987200	3.825800	-11.427000	23.173748	0.000507	20.820618
300.078844	-2.982900	3.826500	-11.412000	23.164477	0.000505	20.817017
301.078537	-3.005500	3.826900	-11.501000	23.147018	0.000506	20.823230
302.082279	-2.974900	3.826100	-11.381000	23.168538	0.000505	20.834363
303.082624	-2.957700	3.826500	-11.316000	23.184024	0.000506	20.823803
304.082636	-2.999800	3.825200	-11.473000	23.194015	0.000508	20.810582
305.080982	-2.999900	3.825600	-11.475000	23.217716	0.000510	20.816315
306.080233	-2.974700	3.825700	-11.380000	23.233024	0.000507	20.808422
307.081193	-3.010800	3.824100	-11.513000	23.250377	0.000510	20.812062
308.081987	-2.994900	3.824900	-11.455000	23.236035	0.000510	20.806698
309.086133	-2.998700	3.823900	-11.466000	23.218799	0.000508	20.805073
310.084241	-3.025200	3.822700	-11.564000	23.239814	0.000509	20.790571
311.082637	-2.995000	3.824900	-11.455000	23.236226	0.000510	20.796458
312.085357	-3.002700	3.824900	-11.484000	23.245541	0.000507	20.814802
313.082569	-3.017100	3.822500	-11.531000	23.267994	0.000508	20.807432
314.084397	-3.011700	3.824200	-11.517000	23.268216	0.000509	20.819034
315.086225	-3.003300	3.822100	-11.479000	23.261518	0.000511	20.809003
316.084152	-3.009300	3.821800	-11.501000	23.267467	0.000512	20.796472
317.085425	-2.999400	3.823000	-11.466000	23.269354	0.000511	20.791725
318.084942	-3.021700	3.822300	-11.548000	23.258994	0.000511	20.807421
319.084603	-3.003700	3.822600	-11.481000	23.263651	0.000509	20.794545
320.089268	-3.002500	3.821700	-11.474000	23.314723	0.000511	20.802107
321.084486	-3.012300	3.821000	-11.508000	23.321188	0.000510	20.797681
322.085193	-2.999500	3.820700	-11.459000	23.334588	0.000511	20.804472
323.088365	-3.006600	3.820100	-11.485000	23.358439	0.000512	20.792816
324.083690	-2.989100	3.820300	-11.418000	23.331695	0.000512	20.806314
325.085909	-2.992800	3.820700	-11.434000	23.351472	0.000513	20.816652
326.085234	-2.992800	3.819900	-11.431000	23.356000	0.000511	20.787526
327.083534	-2.996100	3.820200	-11.444000	23.362402	0.000514	20.800581
328.084925	-3.018800	3.818900	-11.527000	23.361633	0.000514	20.777999
329.085438	-3.008400	3.819300	-11.488000	23.351152	0.000512	20.776503
330.084648	-3.008100	3.818000	-11.483000	23.368853	0.000514	20.793770
331.088377	-3.003100	3.818700	-11.467000	23.394522	0.000513	20.791996
332.084656	-3.012800	3.817200	-11.499000	23.406975	0.000514	20.788831
333.085787	-2.990000	3.818800	-11.417000	23.401273	0.000514	20.790703
334.090566	-2.993800	3.818400	-11.430000	23.389871	0.000515	20.788283
335.084198	-2.998000	3.818500	-11.447000	23.372115	0.000516	20.811738
336.088402	-2.988700	3.817400	-11.408000	23.376605	0.000516	20.796798
337.086143	-3.012600	3.817800	-11.500000	23.399603	0.000517	20.791399
338.085264	-2.987200	3.816100	-11.398000	23.418930	0.000517	20.778054
339.086750	-2.985200	3.816500	-11.392000	23.403215	0.000515	20.797864
340.086006	-2.978600	3.816900	-11.368000	23.403816	0.000517	20.790407
341.091660	-2.974000	3.816700	-11.350000	23.417585	0.000518	20.803732
342.091483	-2.978800	3.816700	-11.368000	23.412553	0.000517	20.773559
343.087702	-3.011000	3.815600	-11.488000	23.432495	0.000519	20.786435
344.088928	-3.014900	3.815200	-11.501000	23.452812	0.000518	20.771238
345.088694	-3.011000	3.815200	-11.487000	23.452653	0.000518	20.807589
346.090281	-3.017200	3.814700	-11.509000	23.479898	0.000520	20.793172
347.092485	-3.010300	3.815100	-11.484000	23.480833	0.000517	20.783204
348.092080	-3.007700	3.815900	-11.477000	23.519302	0.000520	20.782883
349.092563	-2.979700	3.815500	-11.369000	23.531422	0.000520	20.775593
350.093158	-3.019000	3.814300	-11.515000	23.506027	0.000519	20.764361
351.091920	-3.011100	3.815200	-11.487000	23.507318	0.000522	20.791259
352.094625	-3.013300	3.813300	-11.490000	23.515654	0.000522	20.768796
353.091693	-3.004800	3.814600	-11.461000	23.514757	0.000520	20.761732
354.093469	-3.008800	3.813100	-11.472000	23.506588	0.000521	20.781518
355.092856	-2.986000	3.813900	-11.387000	23.532450	0.000521	20.767614
356.093848	-2.978800	3.814400	-11.361000	23.537954	0.000521	20.786882
357.098409	-3.010500	3.812600	-11.476000	23.538102	0.000519	20.762848
358.094757	-3.008100	3.813400	-11.469000	23.527094	0.000522	20.779789
359.095083	-2.985800	3.813600	-11.386000	23.518052	0.000520	20.766458
360.094401	-2.973000	3.812600	-11.332000	23.487533	0.000522	20.783281
361.100212	-2.987900	3.811900	-11.388000	23.504083	0.000524	20.764783
362.095193	-2.978800	3.813300	-11.358000	23.529025	0.000521	20.802113
363.097303	-3.022600	3.809900	-11.515000	23.545525	0.000525	20.781669
364.096003	-3.009000	3.811200	-11.467000	23.549476	0.000524	20.768560
365.096365	-3.010700	3.811000	-11.473000	23.532079	0.000522	20.765819
366.096409	-2.980800	3.810600	-11.358000	23.557487	0.000523	20.792238
367.095906	-2.999300	3.811000	-11.430000	23.557137	0.000524	20.759644
368.099689	-2.990600	3.811000	-11.395000	23.560842	0.000521	20.760039
369.094619	-2.973500	3.811500	-11.332000	23.586354	0.000524	20.772337
370.094717	-2.972600	3.809900	-11.325000	23.586802	0.000525	20.762355
371.094884	-3.017800	3.808900	-11.493000	23.596232	0.000526	20.772282
372.094850	-3.010500	3.809300	-11.466000	23.610968	0.000523	20.772356
373.095166	-3.016000	3.807900	-11.483000	23.609322	0.000525	20.779241
374.097666	-2.995700	3.809100	-11.410000	23.592087	0.000527	20.780930
375.094829	-3.020700	3.808900	-11.505000	23.594723	0.000525	20.755596
376.095975	-2.954800	3.809100	-11.255000	23.591707	0.000525	20.773437
377.096972	-2.991300	3.807700	-11.389000	23.551798	0.000526	20.776104
378.094612	-2.997600	3.808200	-11.414000	23.561485	0.000524	20.785340
379.097023	-3.003600	3.808000	-11.436000	23.543697	0.000527	20.762293
380.096143	-2.993200	3.807300	-11.395000	23.575068	0.000527	20.781413
381.097693	-3.014800	3.807600	-11.478000	23.621016	0.000526	20.785749
382.094618	-3.018500	3.807000	-11.491000	23.639560	0.000528	20.764036
383.100021	-3.015000	3.807300	-11.478000	23.642989	0.000528	20.797345
384.096331	-2.998800	3.805800	-11.411000	23.626681	0.000526	20.778151
385.095852	-2.996900	3.807900	-11.411000	23.627228	0.000525	20.764475
386.097718	-3.024200	3.806800	-11.512000	23.633095	0.000529	20.785530
387.097178	-2.983600	3.808200	-11.361000	23.617009	0.000527	20.777938
388.099974	-2.986500	3.805500	-11.364000	23.630276	0.000527	20.781756
389.097640	-2.987600	3.806800	-11.372000	23.667580	0.000528	20.775532
390.101150	-3.001900	3.804700	-11.420000	23.674872	0.000527	20.782842
391.096453	-2.996300	3.804900	-11.400000	23.652963	0.000529	20.766567
392.100867	-2.998400	3.804200	-11.406000	23.692838	0.000527	20.762447
393.098738	-2.985300	3.805000	-11.357000	23.678546	0.000529	20.773249
394.099457	-3.005000	3.803800	-11.429000	23.711401	0.000529	20.764462
395.103431	-2.990400	3.803900	-11.374000	23.752890	0.000530	20.772394
396.102146	-2.998500	3.803500	-11.404000	23.757146	0.000531	20.770023
397.102490	-2.989600	3.803500	-11.369000	23.740712	0.000528	20.764451
398.101184	-2.984900	3.802800	-11.350000	23.761766	0.000531	20.775604
399.104744	-2.960700	3.803400	-11.260000	23.733539	0.000530	20.779545
400.100932	-3.007200	3.802400	-11.433000	23.769770	0.000530	20.771301
401.105124	-3.006400	3.803500	-11.433000	23.761928	0.000531	20.761541
402.101822	-3.018000	3.802300	-11.475000	23.776416	0.000531	20.755678
403.104447	-2.998800	3.802100	-11.400000	23.762794	0.000532	20.774738
404.104676	-2.997200	3.801100	-11.391000	23.761247	0.000532	20.760859
405.110365	-3.002600	3.800500	-11.411000	23.777173	0.000532	20.788681
406.108397	-2.996500	3.802500	-11.394000	23.790341	0.000531	20.780072
407.104177	-2.988000	3.801400	-11.358000	23.786927	0.000530	20.773330
408.103855	-3.000900	3.800100	-11.402000	23.770419	0.000531	20.755830
409.103169	-3.005700	3.800900	-11.424000	23.780848	0.000532	20.791891
410.104406	-3.007000	3.799200	-11.424000	23.805734	0.000532	20.776066
411.106216	-2.975000	3.800900	-11.307000	23.816753	0.000532	20.775260
412.104461	-2.977200	3.800300	-11.313000	23.780211	0.000532	20.776554
413.105737	-2.997100	3.799800	-11.388000	23.815097	0.000533	20.795885
414.105876	-3.002700	3.798900	-11.406000	23.815520	0.000532	20.779240
415.109218	-2.996500	3.799100	-11.383000	23.820698	0.000532	20.794863
416.109727	-2.992300	3.798400	-11.365000	23.828086	0.000535	20.771925
417.109468	-3.013500	3.796700	-11.441000	23.827111	0.000532	20.794655
418.110150	-3.003700	3.798100	-11.407000	23.808141	0.000534	20.776108
419.109937	-2.981800	3.797900	-11.324000	23.859660	0.000533	20.777506
420.109567	-3.009800	3.796600	-11.426000	23.882082	0.000535	20.778177
421.109872	-3.009900	3.796300	-11.424000	23.909773	0.000533	20.776073
422.113638	-2.997700	3.796900	-11.381000	23.890140	0.000532	20.794318
423.113482	-3.011400	3.795800	-11.430000	23.871220	0.000534	20.792890
424.110020	-2.991000	3.795900	-11.352000	23.836799	0.000534	20.771178
425.110241	-2.997100	3.797100	-11.380000	23.853295	0.000536	20.772072
426.111700	-3.001100	3.795600	-11.390000	23.821193	0.000536	20.799153
427.113182	-2.998500	3.795000	-11.378000	23.842143	0.000535	20.773217
428.117053	-3.006900	3.795200	-11.411000	23.848113	0.000535	20.774462
429.111518	-3.003700	3.796500	-11.403000	23.848063	0.000534	20.791482
430.111559	-3.005100	3.795700	-11.406000	23.813316	0.000535	20.771340
431.114716	-2.971500	3.795100	-11.275000	23.839423	0.000535	20.795147
432.112024	-2.984700	3.794400	-11.324000	23.838226	0.000537	20.795843
433.116332	-3.014100	3.794800	-11.438000	23.874588	0.000537	20.807648
434.111889	-2.990600	3.794600	-11.347000	23.889040	0.000537	20.780413
435.116104	-2.996000	3.793600	-11.365000	23.899142	0.000539	20.791017
436.114035	-2.995800	3.794200	-11.365000	23.924178	0.000536	20.796208
437.113597	-2.998500	3.794100	-11.375000	23.940053	0.000538	20.777039
438.115840	-3.010900	3.792600	-11.419000	23.931020	0.000537	20.782206
439.114890	-2.992800	3.793600	-11.353000	23.942190	0.000537	20.796252
440.115730	-2.988800	3.792200	-11.334000	23.958237	0.000537	20.792903
441.115918	-3.015400	3.792500	-11.435000	23.944377	0.000538	20.790859
442.118326	-2.996100	3.793800	-11.366000	23.925985	0.000535	20.796598
443.117045	-2.993200	3.791800	-11.349000	23.942106	0.000539	20.772460
444.120146	-3.007800	3.791600	-11.404000	23.954183	0.000538	20.799270
445.119766	-2.986700	3.792300	-11.325000	23.947135	0.000539	20.784141
446.121171	-3.004400	3.792500	-11.394000	23.962063	0.000539	20.795318
447.119376	-3.033000	3.790100	-11.494000	23.972195	0.000539	20.810220
448.119438	-3.002100	3.791200	-11.380000	23.968560	0.000539	20.795669
449.125399	-2.997700	3.790800	-11.363000	23.992570	0.000538	20.778969
450.119829	-2.999100	3.789700	-11.365000	23.992668	0.000539	20.809888
451.119557	-2.962100	3.790200	-11.226000	24.019023	0.000541	20.800756
452.118419	-2.981900	3.789100	-11.298000	23.996973	0.000539	20.794765
453.118864	-3.012800	3.789100	-11.414000	23.968899	0.000540	20.789845
454.123225	-3.010100	3.787900	-11.401000	23.971594	0.000539	20.808194
455.119379	-3.020800	3.788900	-11.444000	23.977312	0.000540	20.803971
456.119094	-3.001300	3.789300	-11.372000	23.990398	0.000539	20.818042
457.118279	-2.992800	3.787400	-11.334000	24.020510	0.000541	20.802721
458.125309	-3.011200	3.787500	-11.404000	24.038648	0.000540	20.820912
459.123605	-3.011400	3.788500	-11.408000	24.034344	0.000541	20.806638
460.124854	-3.002600	3.788000	-11.374000	24.062534	0.000540	20.802193
461.124619	-3.023400	3.786100	-11.446000	24.060815	0.000541	20.799995
462.122890	-2.992700	3.786400	-11.330000	24.092865	0.000541	20.786620
463.127316	-3.019600	3.787100	-11.435000	24.076121	0.000540	20.808233
464.125441	-3.040000	3.785700	-11.507000	24.081932	0.000543	20.811216
465.128780	-3.012000	3.785400	-11.401000	24.081888	0.000541	20.815439
466.126426	-3.003200	3.786300	-11.369000	24.097736	0.000541	20.818057
467.125237	-2.999700	3.785300	-11.354000	24.110077	0.000543	20.822373
468.127712	-2.990700	3.785500	-11.321000	24.093727	0.000543	20.830157
469.125776	-3.008300	3.785700	-11.387000	24.082656	0.000541	20.808149
470.129127	-2.989000	3.784400	-11.311000	24.070039	0.000543	20.809719
471.128022	-2.988300	3.785300	-11.310000	24.097326	0.000541	20.789671
472.127454	-2.995700	3.783100	-11.332000	24.121093	0.000542	20.815404
473.128750	-3.009800	3.784600	-11.390000	24.115494	0.000543	20.808840
474.131888	-3.003400	3.782500	-11.360000	24.094135	0.000540	20.799747
475.131143	-2.976700	3.784900	-11.266000	24.075549	0.000542	20.805763
476.133758	-3.011800	3.782600	-11.391000	24.069925	0.000545	20.799174
477.131402	-2.992200	3.783000	-11.318000	24.089703	0.000543	20.793405
478.130638	-3.003800	3.782600	-11.361000	24.085994	0.000541	20.819557
479.143545	-3.028200	3.780400	-11.446000	24.090520	0.000542	20.805604
480.131463	-2.989400	3.782000	-11.305000	24.090515	0.000543	20.830255
481.135962	-3.001800	3.781300	-11.350000	24.086205	0.000542	20.821665
482.134203	-2.986600	3.783000	-11.298000	24.105190	0.000544	20.824110
483.136502	-2.993500	3.781200	-11.318000	24.148088	0.000544	20.812607
484.137105	-3.012900	3.780100	-11.388000	24.197124	0.000546	20.803470
485.137180	-3.022500	3.780500	-11.426000	24.218421	0.000544	20.823883
486.136823	-2.997900	3.781000	-11.334000	24.167288	0.000546	20.805786
487.144216	-2.984200	3.781400	-11.283000	24.171562	0.000545	20.825246
488.136698	-3.040600	3.780300	-11.493000	24.197016	0.000544	20.786765
489.137177	-3.024200	3.779300	-11.428000	24.220174	0.000543	20.813313
490.138071	-3.015800	3.779000	-11.396000	24.229278	0.000544	20.818652
491.137223	-3.014000	3.779500	-11.390000	24.235621	0.000544	20.816953
492.146864	-2.988200	3.780000	-11.293000	24.203752	0.000542	20.824342
493.140988	-2.994600	3.779300	-11.316000	24.193445	0.000543	20.819694
494.139980	-3.017300	3.778500	-11.399000	24.195232	0.000543	20.823857
495.139753	-3.008000	3.777400	-11.361000	24.232252	0.000546	20.832540
496.140298	-2.999700	3.778400	-11.333000	24.236408	0.000543	20.813001
497.141314	-3.000400	3.778500	-11.337000	24.218844	0.000544	20.815298
498.140123	-2.999200	3.777400	-11.328000	24.217278	0.000542	20.834115
499.140878	-3.004200	3.778300	-11.350000	24.219710	0.000545	20.822331
500.143484	-3.035700	3.774700	-11.458000	24.240805	0.000544	20.832584
501.144112	-3.005400	3.776400	-11.349000	24.251480	0.000543	20.821956
502.143790	-3.011300	3.776500	-11.372000	24.267478	0.000543	20.831364
503.143556	-3.021500	3.776800	-11.411000	24.265760	0.000544	20.832011
504.144878	-2.950200	3.776800	-11.142000	24.276006	0.000544	20.826642
505.145228	-2.984200	3.776300	-11.268000	24.254390	0.000545	20.819185
506.147533	-3.019800	3.776400	-11.403000	24.252721	0.000545	20.826045
507.148841	-2.972300	3.776000	-11.222000	24.246797	0.000545	20.839543
508.148715	-2.986700	3.774800	-11.273000	24.266375	0.000545	20.824568
509.149499	-2.995700	3.775400	-11.309000	24.252268	0.000546	20.826539
510.148400	-2.983700	3.775500	-11.264000	24.275307	0.000545	20.857234
511.154359	-2.986700	3.773900	-11.271000	24.299488	0.000545	20.835972
512.152564	-2.996500	3.774600	-11.309000	24.329537	0.000545	20.831502
513.154012	-2.996700	3.774600	-11.310000	24.313614	0.000545	20.845874
514.153993	-3.010700	3.773600	-11.360000	24.316199	0.000545	20.829976
515.152493	-2.994300	3.774700	-11.302000	24.288212	0.000545	20.832722
516.156540	-2.985300	3.773800	-11.265000	24.311620	0.000544	20.841503
517.156806	-3.002500	3.773500	-11.329000	24.337316	0.000546	20.824133
518.156579	-2.975100	3.773100	-11.224000	24.302314	0.000547	20.858720
519.155061	-2.996500	3.771400	-11.300000	24.330024	0.000547	20.849060
520.152174	-2.998600	3.771200	-11.307000	24.300718	0.000545	20.835784
521.156219	-2.987500	3.772000	-11.268000	24.289615	0.000545	20.821327
522.160217	-2.974700	3.772900	-11.222000	24.303219	0.000545	20.831180
523.158341	-2.981700	3.771900	-11.246000	24.261751	0.000546	20.847904
524.155092	-2.988200	3.771200	-11.269000	24.288039	0.000547	20.830652
525.157808	-2.969800	3.770700	-11.197000	24.317020	0.000546	20.860670
526.157196	-2.960500	3.770700	-11.162000	24.343760	0.000546	20.850037
527.160304	-2.996400	3.769600	-11.294000	24.344184	0.000547	20.877961
528.158523	-2.992600	3.768900	-11.278000	24.338660	0.000546	20.851558
529.153836	-2.984600	3.769600	-11.249000	24.394452	0.000544	20.847785
530.156753	-2.993100	3.768800	-11.280000	24.397214	0.000544	20.842969
531.157753	-2.989200	3.770000	-11.267000	24.353725	0.000548	20.840593
532.157962	-3.007300	3.768300	-11.331000	24.368722	0.000546	20.829560
533.158852	-3.013600	3.767800	-11.354000	24.398647	0.000545	20.844406
534.156427	-3.015400	3.768900	-11.364000	24.391232	0.000546	20.863519
535.157640	-3.009700	3.768500	-11.341000	24.405583	0.000546	20.856106
536.154970	-3.029900	3.767400	-11.414000	24.437668	0.000546	20.866957
537.157701	-3.007600	3.767800	-11.332000	24.429240	0.000545	20.857553
538.155400	-3.005000	3.767000	-11.319000	24.431100	0.000548	20.850886
539.158420	-3.015900	3.766800	-11.358000	24.419329	0.000545	20.844292
540.165841	-3.007500	3.765500	-11.324000	24.436915	0.000545	20.879476
541.158935	-3.012900	3.766800	-11.348000	24.433956	0.000546	20.854224
542.155180	-3.013100	3.765100	-11.343000	24.409931	0.000546	20.859519
543.157369	-2.978000	3.766800	-11.217000	24.420245	0.000544	20.846633
544.156348	-2.995200	3.766700	-11.281000	24.387381	0.000545	20.862976
545.156851	-2.983500	3.765200	-11.232000	24.419215	0.000544	20.860773
546.157249	-2.981200	3.766000	-11.226000	24.451703	0.000545	20.848322
547.164093	-2.996400	3.764400	-11.279000	24.476579	0.000543	20.865692
548.157407	-3.023800	3.764800	-11.383000	24.443964	0.000545	20.850041
549.157618	-3.020300	3.764800	-11.370000	24.456646	0.000545	20.869401
550.160444	-3.019200	3.763700	-11.362000	24.479203	0.000547	20.868798
551.166715	-3.017100	3.763200	-11.352000	24.453333	0.000546	20.860387
552.159131	-2.998000	3.763800	-11.282000	24.478401	0.000544	20.865148
553.165190	-3.023500	3.763500	-11.378000	24.459294	0.000546	20.873954
554.159272	-3.021800	3.762100	-11.368000	24.438002	0.000546	20.879619
555.159500	-2.991700	3.762600	-11.255000	24.443545	0.000547	20.875223
556.158890	-3.024000	3.762200	-11.377000	24.430331	0.000547	20.879510
557.169824	-2.986500	3.763600	-11.240000	24.421849	0.000546	20.870052
558.160054	-3.003500	3.761600	-11.297000	24.418614	0.000545	20.887195
559.160995	-3.002400	3.761600	-11.293000	24.403244	0.000545	20.878888
560.163023	-3.020400	3.760600	-11.358000	24.437293	0.000544	20.888390
561.164469	-2.987000	3.761700	-11.236000	24.407414	0.000546	20.888286
562.165227	-2.993700	3.761000	-11.258000	24.413533	0.000545	20.883520
563.162621	-3.026500	3.759000	-11.375000	24.435545	0.000544	20.866249
564.162846	-3.001200	3.760200	-11.284000	24.450969	0.000546	20.866077
565.167315	-2.989900	3.760600	-11.243000	24.466743	0.000545	20.881900
566.162995	-3.021000	3.759200	-11.355000	24.488778	0.000543	20.888360
567.166300	-2.967500	3.759500	-11.155000	24.504196	0.000545	20.876329
568.168722	-3.005000	3.758600	-11.294000	24.511512	0.000543	20.884143
569.165829	-2.987400	3.760400	-11.233000	24.527260	0.000545	20.885244
570.164943	-2.984500	3.759300	-11.218000	24.525222	0.000545	20.879406
571.169495	-2.990000	3.759600	-11.240000	24.540098	0.000547	20.876789
572.167657	-2.988500	3.758600	-11.231000	24.558209	0.000547	20.879313
573.166724	-3.000100	3.757800	-11.273000	24.553035	0.000545	20.894983
574.167593	-2.995200	3.757600	-11.254000	24.550180	0.000544	20.869361
575.167387	-2.991900	3.757800	-11.243000	24.556545	0.000545	20.895660
576.173598	-3.003600	3.756300	-11.281000	24.543441	0.000544	20.880617
577.167935	-2.986400	3.757000	-11.219000	24.548300	0.000546	20.878379
578.172560	-3.013800	3.756500	-11.320000	24.558740	0.000545	20.887906
579.173913	-2.979200	3.756800	-11.191000	24.514672	0.000543	20.887314
580.168530	-3.017800	3.755400	-11.332000	24.522012	0.000547	20.887091
581.167579	-3.016200	3.756100	-11.328000	24.532985	0.000542	20.875816
582.168382	-3.019000	3.755800	-11.338000	24.537913	0.000547	20.888820
583.167994	-2.999000	3.756400	-11.264000	24.549722	0.000544	20.897349
584.171147	-2.983700	3.757100	-11.209000	24.542368	0.000546	20.889497
585.169070	-2.988100	3.755300	-11.220000	24.552066	0.000545	20.899700
586.168467	-3.017500	3.754900	-11.329000	24.554955	0.000544	20.885057
587.171927	-2.990000	3.755000	-11.225000	24.584751	0.000545	20.910210
588.170671	-2.991700	3.754600	-11.232000	24.595300	0.000545	20.905622
589.173195	-3.027700	3.752500	-11.361000	24.616546	0.000546	20.903706
590.169691	-3.013800	3.752200	-11.308000	24.588670	0.000546	20.869100
591.169949	-3.012900	3.753200	-11.307000	24.577422	0.000546	20.878202
592.170537	-3.004200	3.753900	-11.277000	24.578293	0.000546	20.900411
593.169365	-2.978000	3.753300	-11.177000	24.601852	0.000544	20.889438
594.171331	-3.008200	3.752800	-11.288000	24.608739	0.000544	20.876434
595.173747	-3.017100	3.752300	-11.321000	24.660767	0.000546	20.896871
596.173458	-3.003200	3.752000	-11.266000	24.669504	0.000546	20.895206
597.171075	-3.017500	3.751000	-11.317000	24.625933	0.000546	20.900323
598.172669	-3.002000	3.750900	-11.259000	24.631204	0.000544	20.901345
599.172153	-2.987600	3.751700	-11.208000	24.610172	0.000546	20.896362
600.171093	-2.990300	3.751100	-11.216000	24.586244	0.000544	20.891320
601.171554	-3.003600	3.750800	-11.265000	24.600740	0.000545	20.894960
602.171969	-3.025700	3.749600	-11.344000	24.627336	0.000543	20.902679
603.173234	-3.011400	3.749900	-11.291000	24.618033	0.000543	20.902827
604.173849	-3.007500	3.750600	-11.278000	24.633853	0.000545	20.900210
605.176804	-2.983500	3.750100	-11.187000	24.632184	0.000547	20.915603
606.173957	-3.004600	3.749900	-11.266000	24.662377	0.000547	20.893271
607.173699	-2.987600	3.750600	-11.204000	24.673442	0.000545	20.896787
608.176475	-3.011300	3.748600	-11.287000	24.670735	0.000546	20.906872
609.183889	-2.994000	3.749000	-11.222000	24.678394	0.000545	20.901281
610.176561	-3.028900	3.748300	-11.352000	24.688238	0.000548	20.915425
611.184364	-3.013200	3.747800	-11.291000	24.701069	0.000545	20.901750
612.175710	-3.016900	3.747200	-11.304000	24.693484	0.000547	20.904570
613.177254	-3.015600	3.748500	-11.303000	24.681721	0.000548	20.902723
614.179684	-3.026700	3.747400	-11.341000	24.692190	0.000546	20.924606
615.180251	-2.999500	3.747700	-11.239000	24.662195	0.000546	20.893088
616.182542	-2.988500	3.748700	-11.202000	24.680667	0.000546	20.900244
617.177927	-2.993300	3.746800	-11.214000	24.699494	0.000545	20.906807
618.180234	-2.990000	3.746100	-11.200000	24.739706	0.000544	20.904960
619.178687	-2.996700	3.747500	-11.228000	24.714333	0.000543	20.910318
620.180863	-2.984100	3.747200	-11.181000	24.742314	0.000547	20.937446
621.179835	-3.007200	3.746100	-11.264000	24.728828	0.000544	20.940982
622.178463	-2.997800	3.746200	-11.229000	24.698809	0.000544	20.947841
623.180037	-2.996000	3.746500	-11.224000	24.723183	0.000544	20.931050
624.179975	-3.004700	3.745300	-11.251000	24.781023	0.000544	20.904224
625.185462	-2.980700	3.744900	-11.161000	24.737077	0.000545	20.930769
626.182081	-3.002900	3.743800	-11.242000	24.731609	0.000546	20.901103
627.186768	-3.003500	3.744400	-11.245000	24.725934	0.000542	20.920062
628.187555	-3.021000	3.743700	-11.309000	24.735856	0.000545	20.908683
629.183621	-3.006500	3.743700	-11.254000	24.737195	0.000545	20.911449
630.182829	-3.006200	3.743300	-11.252000	24.732396	0.000544	20.911375
631.182884	-2.995400	3.744000	-11.214000	24.706010	0.000545	20.908604
632.184224	-3.008000	3.742300	-11.256000	24.703067	0.000543	20.902806
633.183306	-3.015500	3.741500	-11.282000	24.700901	0.000542	20.914382
634.182871	-3.011100	3.741700	-11.266000	24.720746	0.000544	20.898263
635.186322	-2.988200	3.743000	-11.184000	24.768418	0.000544	20.904851
636.185442	-3.005400	3.742900	-11.248000	24.796388	0.000543	20.915375
637.185647	-2.991900	3.742100	-11.194000	24.760745	0.000544	20.895255
638.186743	-2.999700	3.741800	-11.223000	24.739459	0.000545	20.904238
639.184395	-3.014300	3.740500	-11.273000	24.773399	0.000540	20.901314
640.185181	-2.980700	3.741000	-11.150000	24.772380	0.000543	20.912619
641.188256	-3.006900	3.740000	-11.244000	24.785009	0.000541	20.895897
642.186498	-3.021700	3.740200	-11.301000	24.783212	0.000543	20.897413
643.189397	-3.007600	3.740400	-11.248000	24.762025	0.000542	20.895116
644.185298	-3.001600	3.739100	-11.223000	24.770598	0.000543	20.888548
645.191477	-3.009500	3.739600	-11.254000	24.765027	0.000543	20.878216
646.187288	-2.997100	3.740700	-11.211000	24.804340	0.000543	20.874996
647.186937	-3.006600	3.739500	-11.242000	24.814331	0.000543	20.897822
648.189872	-3.022000	3.739300	-11.300000	24.802687	0.000542	20.887560
649.190426	-3.001800	3.740300	-11.227000	24.836403	0.000544	20.876828
650.187471	-3.004300	3.738800	-11.231000	24.833815	0.000542	20.899832
651.189515	-3.019700	3.737100	-11.283000	24.855645	0.000543	20.906095
652.190240	-3.015600	3.737800	-11.271000	24.831270	0.000542	20.904865
653.186649	-3.010600	3.736800	-11.250000	24.800511	0.000542	20.874946
654.188395	-2.975400	3.738600	-11.123000	24.787380	0.000540	20.902544
655.187362	-3.003400	3.737300	-11.223000	24.793419	0.000541	20.894380
656.196617	-2.999900	3.736600	-11.209000	24.791175	0.000542	20.876482
657.189147	-2.999400	3.736100	-11.205000	24.798803	0.000539	20.890775
658.188900	-3.011700	3.736400	-11.252000	24.804276	0.000542	20.870664
659.191428	-2.984800	3.737200	-11.154000	24.789698	0.000541	20.902025
660.193138	-2.999700	3.736800	-11.208000	24.799714	0.000540	20.884103
661.186829	-3.003500	3.736100	-11.221000	24.812273	0.000542	20.882483
662.187744	-2.986600	3.735500	-11.156000	24.796751	0.000540	20.903887
663.188812	-3.002400	3.735400	-11.214000	24.811643	0.000541	20.876161
664.188827	-3.013400	3.736500	-11.258000	24.832274	0.000541	20.886434
665.192009	-2.995500	3.734600	-11.186000	24.792937	0.000541	20.885836
666.189366	-2.977000	3.736500	-11.122000	24.803995	0.000539	20.874650
667.190070	-3.007200	3.734200	-11.229000	24.804763	0.000540	20.894859
668.192245	-3.006700	3.733800	-11.226000	24.794910	0.000540	20.890187
669.191400	-2.993200	3.734600	-11.177000	24.785185	0.000540	20.900341
670.200102	-2.986000	3.734400	-11.150000	24.778389	0.000539	20.867444
671.194720	-2.995000	3.733500	-11.181000	24.781096	0.000539	20.883910
672.193119	-3.000500	3.732800	-11.200000	24.820010	0.000542	20.887876
673.190595	-3.001000	3.733500	-11.203000	24.867471	0.000538	20.873870
674.192837	-3.003900	3.731600	-11.207000	24.860557	0.000539	20.871198
675.191863	-2.998300	3.733000	-11.192000	24.860331	0.000538	20.888513
676.192712	-3.026000	3.730800	-11.288000	24.828524	0.000538	20.861335
677.190391	-3.000100	3.731900	-11.195000	24.884317	0.000539	20.873233
678.195837	-3.000900	3.732500	-11.200000	24.899631	0.000537	20.867741
679.197433	-2.999000	3.731500	-11.190000	24.864524	0.000539	20.846731
680.195912	-2.988100	3.731700	-11.150000	24.843333	0.000539	20.873825
681.194273	-3.005800	3.731100	-11.213000	24.803942	0.000540	20.873173
682.193211	-2.983600	3.730500	-11.129000	24.824479	0.000536	20.891412
683.195489	-3.019600	3.729900	-11.262000	24.838008	0.000537	20.869904
684.198102	-2.995900	3.729300	-11.172000	24.849268	0.000537	20.889738
685.195011	-3.009400	3.729100	-11.221000	24.890069	0.000535	20.869524
686.201779	-3.007500	3.728600	-11.213000	24.853520	0.000535	20.857498
687.195106	-2.988500	3.730300	-11.147000	24.863909	0.000536	20.889259
688.196375	-3.003700	3.729300	-11.200000	24.839465	0.000536	20.853349
689.195673	-3.004100	3.728500	-11.201000	24.845680	0.000536	20.874759
690.195509	-3.017000	3.727800	-11.246000	24.836679	0.000537	20.861933
691.197179	-3.014600	3.727800	-11.237000	24.808799	0.000537	20.892272
692.200253	-2.986700	3.728500	-11.134000	24.875587	0.000535	20.882962
693.198029	-2.989200	3.727100	-11.140000	24.916240	0.000535	20.856910
694.197700	-2.993200	3.728300	-11.159000	24.896275	0.000535	20.880967
695.201237	-3.005200	3.726700	-11.199000	24.921658	0.000535	20.884632
696.196396	-2.981600	3.726900	-11.111000	24.916934	0.000534	20.858555
697.201927	-2.995400	3.726200	-11.161000	24.884238	0.000535	20.872206
698.198498	-3.008700	3.726700	-11.211000	24.871832	0.000534	20.860229
699.199432	-2.984200	3.727200	-11.122000	24.898214	0.000533	20.871534
700.197151	-2.989300	3.726300	-11.138000	24.914744	0.000533	20.867736
701.199700	-3.005200	3.727400	-11.200000	24.924719	0.000535	20.868739
702.201151	-3.010300	3.725300	-11.213000	24.897072	0.000532	20.877500
703.199101	-3.023600	3.725600	-11.263000	24.892397	0.000532	20.862852
704.199604	-3.020700	3.725000	-11.252000	24.896999	0.000533	20.887382
705.199715	-2.974000	3.725900	-11.080000	24.900581	0.000533	20.856841
706.199943	-3.010300	3.725200	-11.213000	24.901870	0.000532	20.879945
707.200430	-3.009100	3.724600	-11.208000	24.866842	0.000532	20.861859
708.203458	-2.993400	3.724300	-11.148000	24.884696	0.000532	20.876458
709.200619	-2.988900	3.723800	-11.129000	24.828825	0.000532	20.864481
710.200911	-2.967000	3.725100	-11.051000	24.824002	0.000532	20.870546
711.204397	-3.017900	3.725000	-11.239000	24.828455	0.000529	20.866007
712.202209	-3.021700	3.722400	-11.247000	24.811171	0.000532	20.857197
713.205781	-3.006700	3.722800	-11.192000	24.845690	0.000531	20.871924
714.203517	-3.030900	3.721800	-11.278000	24.853249	0.000532	20.857700
715.204051	-3.022400	3.722600	-11.250000	24.887712	0.000533	20.844400
716.203121	-3.002200	3.722400	-11.174000	24.919468	0.000532	20.861098
717.203499	-3.019700	3.721700	-11.237000	24.908381	0.000532	20.858031
718.207811	-3.016400	3.722400	-11.227000	24.872875	0.000533	20.841362
719.207795	-2.995000	3.720800	-11.142000	24.899552	0.000532	20.846326
720.205356	-2.992300	3.722700	-11.138000	24.903435	0.000533	20.860654
721.204529	-2.985000	3.720900	-11.106000	24.913996	0.000531	20.859873
722.210854	-2.994200	3.721400	-11.142000	24.949283	0.000529	20.846928
723.205960	-2.998200	3.719900	-11.152000	24.954947	0.000531	20.830803
724.209241	-2.993600	3.721000	-11.139000	24.945647	0.000530	20.849917
725.207663	-3.017700	3.720600	-11.226000	24.908454	0.000530	20.844355
726.207037	-3.009300	3.719900	-11.194000	24.881177	0.000531	20.845427
727.208941	-2.987500	3.720200	-11.114000	24.938438	0.000530	20.849793
728.209256	-3.017500	3.720900	-11.227000	24.932400	0.000530	20.830931
729.211304	-3.009600	3.718800	-11.191000	24.964572	0.000530	20.848050
730.207240	-2.994000	3.719800	-11.137000	24.986622	0.000531	20.850741
731.207648	-2.992200	3.720100	-11.130000	24.993058	0.000531	20.832546
732.213082	-3.007900	3.717500	-11.181000	25.012751	0.000527	20.857053
733.212765	-2.999100	3.719400	-11.154000	24.990770	0.000532	20.860594
734.207876	-3.011500	3.718800	-11.198000	24.987567	0.000529	20.835095
735.211125	-3.034200	3.717600	-11.279000	25.008819	0.000529	20.864012
736.208021	-2.999900	3.719200	-11.157000	25.023182	0.000529	20.840972
737.207272	-3.002300	3.717000	-11.159000	24.962870	0.000529	20.832117
738.209173	-2.989100	3.718700	-11.115000	24.944791	0.000528	20.851428
739.207763	-3.001300	3.717300	-11.156000	24.987405	0.000528	20.849630
740.211676	-3.014100	3.716200	-11.200000	25.033176	0.000529	20.832986
741.208066	-2.990800	3.717600	-11.117000	25.023128	0.000528	20.838547
742.208645	-2.983200	3.715800	-11.083000	24.997891	0.000529	20.855414
743.207389	-2.970000	3.717500	-11.040000	24.946946	0.000530	20.854540
744.209439	-2.984000	3.717400	-11.092000	24.977898	0.000528	20.838666
745.207268	-2.990200	3.717000	-11.114000	24.991646	0.000528	20.837767
746.210665	-2.991200	3.714900	-11.111000	25.001827	0.000526	20.831391
747.211024	-2.998700	3.714900	-11.139000	24.980624	0.000526	20.831920
748.210049	-2.967200	3.715400	-11.023000	24.979999	0.000529	20.841249
749.211839	-2.993800	3.713600	-11.117000	25.001350	0.000528	20.851300
750.209802	-2.998600	3.713600	-11.135000	25.068426	0.000526	20.832335
751.213070	-3.004700	3.714700	-11.161000	25.069243	0.000527	20.840741
752.209815	-2.993500	3.714000	-11.116000	25.047436	0.000527	20.828334
753.211037	-3.003700	3.713900	-11.155000	25.017052	0.000527	20.829604
754.212519	-2.986100	3.713300	-11.088000	25.019438	0.000526	20.812085
755.214097	-2.987200	3.714500	-11.096000	25.027144	0.000525	20.836415
756.213106	-2.993100	3.713100	-11.112000	25.052125	0.000526	20.834938
757.211805	-3.017500	3.711700	-11.199000	25.076013	0.000526	20.838529
758.214811	-3.018000	3.712300	-11.202000	25.094981	0.000528	20.812999
759.212755	-2.999400	3.712300	-11.134000	25.124236	0.000527	20.828142
760.216399	-3.006000	3.711100	-11.154000	25.093431	0.000526	20.831832
761.212788	-2.980300	3.712900	-11.064000	25.081401	0.000524	20.836825
762.215252	-2.999700	3.712200	-11.135000	25.050271	0.000525	20.835447
763.215592	-2.984800	3.711200	-11.077000	25.043854	0.000524	20.825214
764.213074	-3.000100	3.710800	-11.132000	25.008053	0.000526	20.842855
765.214987	-3.012100	3.711000	-11.177000	25.015035	0.000526	20.830424
766.213734	-2.989800	3.709500	-11.090000	25.012866	0.000525	20.857169
767.216647	-3.017400	3.710800	-11.196000	25.034845	0.000526	20.834188
768.213354	-2.989700	3.710600	-11.092000	25.010853	0.000522	20.841873
769.214715	-2.994800	3.711000	-11.113000	25.023179	0.000523	20.826745
770.214764	-3.009200	3.709800	-11.162000	24.987500	0.000524	20.839769
771.213913	-2.997800	3.709800	-11.120000	24.935335	0.000522	20.838144
772.214349	-3.002100	3.710100	-11.137000	24.988863	0.000523	20.852517
773.217770	-2.988500	3.708700	-11.082000	24.964201	0.000521	20.832504
774.216866	-3.002100	3.710000	-11.137000	24.964043	0.000524	20.823812
775.215321	-2.974500	3.710200	-11.035000	25.029355	0.000523	20.798805
776.220973	-2.988300	3.709800	-11.086000	25.074376	0.000523	20.832618
777.221479	-2.992200	3.709400	-11.097000	25.120788	0.000522	20.800974
778.221581	-2.981100	3.708500	-11.055000	25.163371	0.000522	20.817643
779.216329	-3.022200	3.707400	-11.204000	25.167794	0.000523	20.823032
780.217130	-2.978100	3.708600	-11.043000	25.131229	0.000519	20.830894
781.216063	-3.009900	3.706400	-11.155000	25.148630	0.000523	20.812329
782.217528	-3.020600	3.706500	-11.195000	25.170101	0.000521	20.835779
783.219188	-3.005500	3.707600	-11.142000	25.109998	0.000521	20.825229
784.216627	-2.975900	3.708700	-11.036000	25.115086	0.000522	20.830337
785.218086	-2.980500	3.706700	-11.047000	25.110815	0.000521	20.823679
786.216732	-2.992400	3.705100	-11.085000	25.133955	0.000524	20.816562
787.216765	-3.027800	3.706700	-11.222000	25.152380	0.000519	20.848808
788.217757	-3.012300	3.705700	-11.161000	25.163883	0.000518	20.802036
789.218782	-3.000900	3.706300	-11.121000	25.148242	0.000519	20.832327
790.218048	-2.984300	3.706300	-11.060000	25.152769	0.000520	20.818379
791.217874	-3.014500	3.705400	-11.169000	25.116498	0.000520	20.837918
792.220407	-2.990800	3.706100	-11.083000	25.135593	0.000520	20.833379
793.218412	-3.000500	3.702700	-11.109000	25.109384	0.000518	20.818449
794.222682	-2.999800	3.704300	-11.111000	25.119308	0.000517	20.819876
795.221133	-2.999700	3.705200	-11.113000	25.097280	0.000518	20.839015
796.221829	-3.000800	3.703400	-11.112000	25.072369	0.000517	20.816853
797.220773	-2.987600	3.701900	-11.058000	25.086909	0.000518	20.811060
798.220469	-3.002100	3.703200	-11.116000	25.079051	0.000518	20.809336
799.220374	-2.989100	3.704000	-11.070000	25.057328	0.000517	20.813134
800.223169	-2.991900	3.703600	-11.080000	25.089787	0.000516	20.822010
801.221890	-3.000600	3.703100	-11.110000	25.127874	0.000516	20.817570
802.221306	-3.016200	3.701400	-11.163000	25.130954	0.000517	20.817343
803.224326	-3.015100	3.702000	-11.161000	25.127968	0.000515	20.810552
804.223902	-3.007300	3.701100	-11.130000	25.113178	0.000516	20.809929
805.224626	-2.997200	3.703000	-11.097000	25.118073	0.000514	20.812947
806.222528	-3.013500	3.701400	-11.152000	25.136268	0.000516	20.813194
807.222748	-2.999000	3.701800	-11.101000	25.084213	0.000515	20.820682
808.221637	-2.990500	3.700400	-11.065000	25.085552	0.000515	20.822974
809.223736	-2.988400	3.701400	-11.060000	25.109341	0.000515	20.805603
810.226170	-2.993500	3.700500	-11.077000	25.120406	0.000512	20.812918
811.226248	-3.011000	3.700300	-11.141000	25.140539	0.000513	20.806102
812.224455	-2.991400	3.700000	-11.068000	25.161045	0.000512	20.833800
813.222070	-3.027700	3.698400	-11.197000	25.143319	0.000513	20.812686
814.226808	-3.015400	3.699300	-11.154000	25.107520	0.000513	20.822268
815.222661	-3.002100	3.700300	-11.108000	25.114576	0.000514	20.796634
816.227374	-3.007900	3.698600	-11.125000	25.052527	0.000511	20.815427
817.223237	-3.010500	3.698700	-11.133000	25.071416	0.000513	20.804991
818.226306	-3.006200	3.697800	-11.116000	25.069921	0.000511	20.806809
819.225997	-3.009300	3.698600	-11.128000	25.060055	0.000510	20.783630
820.224483	-3.002700	3.698600	-11.106000	25.086182	0.000511	20.808908
821.227551	-2.968400	3.699400	-10.979000	25.095181	0.000512	20.808459
822.227018	-2.998200	3.697200	-11.084000	25.097415	0.000510	20.818287
823.223926	-2.984400	3.697100	-11.033000	25.103004	0.000512	20.808251
824.227603	-3.010100	3.696100	-11.125000	25.133278	0.000512	20.797391
825.224693	-2.995400	3.697500	-11.073000	25.173306	0.000513	20.786840
826.225955	-3.010600	3.695800	-11.125000	25.145258	0.000513	20.794719
827.233000	-2.978600	3.697000	-11.011000	25.142946	0.000511	20.808993
828.229286	-3.010900	3.695400	-11.126000	25.148737	0.000512	20.797737
829.228129	-3.014600	3.696000	-11.141000	25.166064	0.000509	20.788105
830.228248	-3.018200	3.694200	-11.148000	25.138863	0.000513	20.795411
831.226309	-3.015900	3.694400	-11.141000	25.139807	0.000511	20.804419
832.232257	-2.995700	3.694800	-11.068000	25.110474	0.000509	20.786352
833.228261	-3.008700	3.694800	-11.115000	25.088668	0.000508	20.815197
834.228925	-2.979000	3.696100	-11.010000	25.067988	0.000509	20.794912
835.230142	-2.982600	3.696300	-11.024000	25.091551	0.000509	20.785849
836.227186	-2.980600	3.696100	-11.016000	25.144526	0.000510	20.785449
837.232760	-2.989000	3.694500	-11.042000	25.147360	0.000509	20.776914
838.230110	-2.991900	3.693800	-11.051000	25.167521	0.000506	20.785300
839.230247	-3.004900	3.693300	-11.097000	25.174301	0.000509	20.776460
840.230253	-3.012500	3.692500	-11.122000	25.164284	0.000508	20.793905
841.232941	-2.993800	3.694100	-11.058000	25.206589	0.000507	20.799866
842.232103	-3.005800	3.693300	-11.100000	25.198314	0.000507	20.796300
843.231338	-2.993100	3.693000	-11.053000	25.146878	0.000510	20.798716
844.231930	-3.025800	3.692400	-11.172000	25.140462	0.000508	20.793223
845.232322	-3.001800	3.692500	-11.083000	25.137481	0.000507	20.798765
846.235909	-3.005900	3.693500	-11.101000	25.138421	0.000506	20.797338
847.232674	-3.012300	3.693200	-11.124000	25.158755	0.000506	20.802104
848.235783	-3.026300	3.692500	-11.174000	25.166361	0.000505	20.782713
849.232918	-3.016400	3.691200	-11.133000	25.164669	0.000506	20.788601
850.232153	-2.981400	3.692700	-11.008000	25.190567	0.000506	20.780935
851.232677	-2.990500	3.691200	-11.038000	25.233869	0.000507	20.799753
852.231688	-3.006700	3.691500	-11.098000	25.229039	0.000507	20.781627
853.235031	-3.011800	3.689100	-11.109000	25.198813	0.000506	20.786843
854.235082	-2.980900	3.691000	-11.001000	25.213601	0.000505	20.777508
855.233657	-3.009700	3.690000	-11.105000	25.206763	0.000506	20.801937
856.234489	-2.996700	3.690400	-11.058000	25.180915	0.000504	20.783099
857.238630	-2.992700	3.689500	-11.041000	25.140838	0.000505	20.789807
858.232707	-2.973400	3.690500	-10.972000	25.131037	0.000504	20.776175
859.235696	-2.973200	3.688900	-10.968000	25.116941	0.000503	20.778146
860.235514	-2.988100	3.689900	-11.025000	25.106870	0.000503	20.795063
861.234543	-2.984700	3.688600	-11.008000	25.128125	0.000505	20.783683
862.233686	-2.995200	3.688000	-11.045000	25.177816	0.000502	20.772876
863.232834	-3.018900	3.687000	-11.129000	25.225788	0.000503	20.779786
864.232553	-3.018300	3.688300	-11.132000	25.231677	0.000502	20.783328
865.233146	-2.995000	3.687400	-11.043000	25.254342	0.000503	20.780004
866.233399	-3.008000	3.686600	-11.089000	25.271446	0.000501	20.784849
867.233870	-3.009200	3.686700	-11.093000	25.299481	0.000502	20.774116
868.236799	-3.017500	3.686300	-11.122000	25.298508	0.000501	20.775983
869.235591	-3.029400	3.685500	-11.164000	25.278225	0.000501	20.772689
870.237098	-2.999000	3.685900	-11.053000	25.282800	0.000501	20.781076
871.235961	-3.017400	3.685800	-11.120000	25.264476	0.000502	20.765048
872.235599	-3.004400	3.685300	-11.072000	25.220255	0.000500	20.774705
873.238071	-3.008000	3.685800	-11.085000	25.195125	0.000500	20.788356
874.237805	-2.994900	3.684900	-11.035000	25.209491	0.000501	20.794718
875.238798	-2.998900	3.686000	-11.053000	25.171308	0.000498	20.788628
876.235489	-3.014100	3.684100	-11.104000	25.120771	0.000499	20.781516
877.236897	-3.010400	3.684300	-11.091000	25.142468	0.000499	20.769158
878.237044	-2.986100	3.684600	-11.002000	25.162556	0.000497	20.794541
879.237737	-3.010000	3.684100	-11.089000	25.157636	0.000498	20.790075
880.236254	-3.014100	3.684900	-11.106000	25.160868	0.000501	20.784786
881.243574	-2.996100	3.683100	-11.033000	25.199519	0.000497	20.792293
882.238525	-3.024800	3.683600	-11.141000	25.234148	0.000498	20.779644
883.237401	-3.003400	3.683300	-11.061000	25.202406	0.000497	20.785709
884.238471	-2.994200	3.682800	-11.026000	25.231708	0.000496	20.796635
885.238505	-3.005000	3.682400	-11.063000	25.246825	0.000497	20.780044
886.245110	-2.997300	3.682400	-11.037000	25.285855	0.000496	20.804532
887.237866	-3.026600	3.681700	-11.142000	25.282693	0.000495	20.797563
888.239332	-2.974900	3.683900	-10.959000	25.298252	0.000495	20.781891
889.241501	-3.007800	3.681500	-11.072000	25.278644	0.000495	20.785912
890.243028	-3.015500	3.681700	-11.102000	25.251208	0.000495	20.771168
891.244701	-3.026900	3.681600	-11.143000	25.284040	0.000495	20.784217
892.242525	-3.002900	3.681600	-11.054000	25.240670	0.000494	20.784296
893.241282	-2.997900	3.681700	-11.036000	25.183631	0.000495	20.791042
894.241863	-2.986500	3.681700	-10.995000	25.194888	0.000491	20.784799
895.242690	-3.004900	3.679800	-11.057000	25.235858	0.000494	20.802698
896.240097	-3.000900	3.680500	-11.044000	25.195119	0.000493	20.781712
897.245011	-3.019500	3.678700	-11.108000	25.211658	0.000493	20.793101
898.242471	-2.978600	3.680300	-10.960000	25.203063	0.000492	20.788265
899.244523	-2.996500	3.679400	-11.025000	25.226973	0.000493	20.803261
900.248624	-2.982200	3.678600	-10.969000	25.260037	0.000492	20.791886
901.250315	-2.997700	3.679300	-11.028000	25.287280	0.000491	20.786996
902.245245	-2.979800	3.680300	-10.966000	25.263893	0.000490	20.781533
903.245471	-2.987400	3.678300	-10.988000	25.246872	0.000489	20.792419
904.245450	-3.000200	3.676900	-11.030000	25.241430	0.000488	20.789327
905.244714	-2.987100	3.678900	-10.988000	25.267533	0.000491	20.766695
906.245967	-3.012500	3.677300	-11.076000	25.219513	0.000491	20.793401
907.247710	-3.008500	3.677600	-11.064000	25.222549	0.000491	20.804983
908.246911	-2.999300	3.677000	-11.027000	25.199761	0.000491	20.787320
909.244496	-3.017000	3.676600	-11.091000	25.213678	0.000491	20.786595
910.245996	-3.019600	3.676100	-11.099000	25.237149	0.000491	20.783606
911.250098	-2.994600	3.677400	-11.011000	25.262307	0.000491	20.797011
912.248806	-3.016700	3.675200	-11.086000	25.229667	0.000490	20.778939
913.246523	-3.007500	3.676300	-11.055000	25.267305	0.000491	20.786856
914.246608	-3.026400	3.675000	-11.121000	25.249536	0.000487	20.771386
915.246440	-3.007200	3.675600	-11.052000	25.252124	0.000489	20.792950
916.245453	-3.002200	3.675800	-11.034000	25.270345	0.000487	20.787063
917.245689	-3.011500	3.674700	-11.065000	25.312380	0.000491	20.790861
918.251612	-2.998000	3.673500	-11.012000	25.288276	0.000488	20.773771
919.246582	-3.002300	3.673800	-11.029000	25.291808	0.000489	20.786326
920.247012	-3.006200	3.673400	-11.042000	25.279259	0.000486	20.791744
921.247179	-3.010900	3.672700	-11.057000	25.283710	0.000485	20.787205
922.248055	-3.011900	3.674300	-11.066000	25.251724	0.000485	20.774057
923.247993	-3.002100	3.675100	-11.032000	25.315459	0.000484	20.800590
924.252119	-3.013300	3.672000	-11.063000	25.303481	0.000486	20.775761
925.248566	-3.001500	3.674000	-11.026000	25.264328	0.000488	20.779125
926.249495	-2.994300	3.672600	-10.996000	25.279194	0.000487	20.771291
927.251050	-2.997400	3.673000	-11.009000	25.246588	0.000486	20.773168
928.249866	-3.026900	3.671800	-11.113000	25.210100	0.000485	20.800071
929.251059	-3.023300	3.672200	-11.101000	25.245870	0.000483	20.793784
930.248305	-3.003300	3.672100	-11.027000	25.251365	0.000484	20.809258
931.248563	-2.999900	3.672500	-11.016000	25.272370	0.000484	20.800950
932.251274	-3.003200	3.669600	-11.020000	25.274535	0.000486	20.790795
933.249803	-2.999400	3.671300	-11.010000	25.285402	0.000484	20.804076
934.253032	-2.982700	3.670800	-10.947000	25.273418	0.000485	20.782087
935.252360	-2.979500	3.670100	-10.935000	25.258434	0.000484	20.808294
936.255771	-3.009200	3.669600	-11.042000	25.306653	0.000483	20.786058
937.253572	-3.017900	3.670300	-11.075000	25.297680	0.000482	20.814033
938.254777	-2.982600	3.671000	-10.949000	25.278416	0.000483	20.800382
939.252930	-3.008400	3.667700	-11.033000	25.292436	0.000480	20.803553
940.256367	-3.015200	3.670300	-11.066000	25.293110	0.000481	20.782418
941.258427	-3.001300	3.669500	-11.012000	25.337751	0.000482	20.784566
942.253669	-2.996200	3.667400	-10.987000	25.365937	0.000479	20.801014
943.256654	-3.000600	3.669900	-11.011000	25.364447	0.000481	20.797146
944.254865	-3.012500	3.666200	-11.044000	25.322994	0.000481	20.790612
945.258099	-3.002700	3.667700	-11.012000	25.302668	0.000480	20.810506
946.255812	-3.006100	3.667600	-11.025000	25.304552	0.000480	20.823777
947.255135	-2.992500	3.668100	-10.976000	25.344544	0.000482	20.788542
948.255757	-3.014900	3.667000	-11.054000	25.369995	0.000482	20.798924
949.256463	-3.012000	3.666700	-11.043000	25.395376	0.000479	20.790745
950.257599	-3.004400	3.666500	-11.014000	25.408642	0.000482	20.787470
951.262889	-2.975500	3.667400	-10.910000	25.442871	0.000479	20.800504
952.256029	-3.014700	3.665900	-11.050000	25.452389	0.000479	20.787776
953.255461	-3.009000	3.666300	-11.031000	25.419832	0.000480	20.793965
954.259761	-3.022700	3.665600	-11.080000	25.401913	0.000477	20.799680
955.256590	-3.002100	3.666100	-11.005000	25.362941	0.000477	20.797057
956.267174	-3.018200	3.665400	-11.061000	25.340628	0.000478	20.786033
957.257078	-3.025700	3.664900	-11.088000	25.340476	0.000478	20.783983
958.257330	-3.003200	3.665100	-11.006000	25.318935	0.000474	20.796968
959.257395	-3.016800	3.663500	-11.051000	25.315177	0.000478	20.802678
960.261886	-2.991000	3.665100	-10.962000	25.330589	0.000475	20.808194
961.262770	-2.990200	3.665000	-10.958000	25.357255	0.000476	20.807943
962.260282	-3.020600	3.663200	-11.063000	25.392991	0.000475	20.810634
963.257490	-3.008100	3.664100	-11.021000	25.404447	0.000475	20.802697
964.259664	-2.983700	3.664800	-10.933000	25.445134	0.000475	20.804673
965.262485	-2.994700	3.663600	-10.970000	25.418740	0.000474	20.792869
966.260590	-2.976100	3.663600	-10.903000	25.354520	0.000474	20.801877
967.263120	-2.989000	3.662000	-10.945000	25.352783	0.000475	20.804875
968.261027	-2.988200	3.661100	-10.940000	25.349744	0.000476	20.807039
969.260187	-2.985200	3.661400	-10.928000	25.353723	0.000473	20.813405
970.263552	-2.978700	3.662700	-10.909000	25.342513	0.000474	20.817796
971.261484	-2.987000	3.661300	-10.935000	25.306253	0.000473	20.816003
972.267480	-3.003700	3.660800	-10.995000	25.325537	0.000470	20.807390
973.262101	-2.972000	3.660400	-10.878000	25.322039	0.000474	20.810516
974.261600	-3.003200	3.661200	-10.995000	25.336231	0.000472	20.829980
975.260384	-3.011500	3.660600	-11.023000	25.313932	0.000471	20.822290
976.260906	-3.018900	3.660000	-11.048000	25.299617	0.000471	20.820246
977.261792	-3.025300	3.658200	-11.066000	25.331356	0.000472	20.815603
978.264518	-3.027600	3.658800	-11.076000	25.347018	0.000472	20.809044
979.261598	-2.998400	3.659500	-10.971000	25.349178	0.000470	20.826385
980.260933	-2.993500	3.660000	-10.955000	25.363521	0.000469	20.818502
981.262863	-3.015900	3.658400	-11.032000	25.379006	0.000473	20.804179
982.266161	-3.008900	3.659100	-11.009000	25.411657	0.000470	20.797136
983.266397	-2.997600	3.658900	-10.968000	25.411190	0.000471	20.823693
984.264062	-3.012700	3.657600	-11.018000	25.402071	0.000470	20.831605
985.262582	-2.997600	3.657900	-10.964000	25.361534	0.000468	20.837843
986.262125	-2.986300	3.656300	-10.919000	25.374855	0.000469	20.807123
987.263158	-3.005600	3.657800	-10.993000	25.368593	0.000469	20.817430
988.267005	-3.001500	3.656700	-10.975000	25.369636	0.000468	20.835547
989.264416	-2.979400	3.657400	-10.896000	25.407368	0.000468	20.820329
990.263800	-2.991000	3.657200	-10.938000	25.384574	0.000468	20.814037
991.265200	-2.996300	3.656800	-10.956000	25.355671	0.000468	20.810145
992.266407	-2.991000	3.655100	-10.932000	25.330692	0.000466	20.831057
993.263949	-2.978600	3.657000	-10.891000	25.303691	0.000467	20.807266
994.264818	-3.009700	3.655200	-11.000000	25.282670	0.000469	20.821248
995.268353	-3.013200	3.655000	-11.013000	25.327337	0.000466	20.821999
996.264830	-2.983000	3.655000	-10.903000	25.369316	0.000466	20.830010
997.267071	-3.031300	3.653900	-11.075000	25.367599	0.000467	20.827812
998.265200	-3.029300	3.654200	-11.069000	25.369139	0.000466	20.828410
999.271059	-3.018000	3.654100	-11.027000	25.414840	0.000467	20.813134
1000.263798	-3.004400	3.653100	-10.974000	25.382282	0.000466	20.810787
1001.265708	-2.996000	3.653800	-10.945000	25.356315	0.000464	20.834974
1002.265990	-2.965800	3.654100	-10.837000	25.350722	0.000463	20.806599
1003.264252	-2.997000	3.654500	-10.952000	25.349630	0.000463	20.835374
1004.274350	-3.005300	3.651800	-10.974000	25.371697	0.000465	20.847573
1005.270261	-3.012800	3.652200	-11.002000	25.417225	0.000464	20.824538
1006.267053	-2.982800	3.652700	-10.894000	25.429355	0.000463	20.830553
1007.267763	-2.996100	3.652700	-10.943000	25.453589	0.000465	20.838293
1008.272459	-3.011200	3.650900	-10.993000	25.483685	0.000462	20.828686
1009.269687	-2.982200	3.653200	-10.894000	25.504258	0.000460	20.840337
1010.271019	-2.985700	3.651600	-10.901000	25.500009	0.000463	20.817104
1011.270209	-3.003400	3.651600	-10.966000	25.460922	0.000463	20.836174
1012.271904	-3.018700	3.650700	-11.020000	25.414869	0.000462	20.832603
1013.270330	-3.002400	3.651000	-10.960000	25.417378	0.000460	20.847923
1014.267747	-2.986200	3.650100	-10.899000	25.457686	0.000460	20.833872
1015.274449	-2.998200	3.650900	-10.946000	25.455650	0.000458	20.844629
1016.276235	-3.021000	3.649700	-11.025000	25.458753	0.000461	20.826884
1017.270867	-2.986100	3.651800	-10.903000	25.448016	0.000461	20.834119
1018.270910	-3.013700	3.650400	-11.000000	25.380566	0.000460	20.843676
1019.271682	-3.006600	3.649800	-10.973000	25.430914	0.000460	20.843024
1020.270704	-3.033900	3.648700	-11.069000	25.456663	0.000458	20.852759
1021.276528	-2.973800	3.648500	-10.849000	25.501986	0.000460	20.824306
1022.272094	-3.013700	3.647800	-10.993000	25.512074	0.000458	20.835384
1023.271486	-2.975700	3.648700	-10.857000	25.481236	0.000460	20.839029
1024.276638	-2.988900	3.648800	-10.905000	25.515694	0.000461	20.826692
1025.273299	-2.984600	3.648300	-10.888000	25.551184	0.000458	20.828667
1026.274623	-2.998300	3.647400	-10.935000	25.558462	0.000457	20.842141
1027.274361	-3.006100	3.646400	-10.960000	25.549743	0.000458	20.850927
1028.276907	-3.027800	3.645300	-11.037000	25.527276	0.000458	20.857762
1029.273270	-3.024000	3.645600	-11.023000	25.491442	0.000457	20.842639
1030.274997	-3.006100	3.646200	-10.960000	25.439124	0.000456	20.868811
1031.280358	-2.990300	3.645700	-10.901000	25.407738	0.000456	20.848675
1032.276915	-3.014300	3.644900	-10.986000	25.416110	0.000457	20.839064
1033.277242	-3.002600	3.645800	-10.946000	25.416085	0.000456	20.841410
1034.278499	-2.982000	3.645200	-10.869000	25.419361	0.000454	20.857027
1035.276117	-3.010100	3.643200	-10.965000	25.434491	0.000457	20.848038
1036.279813	-3.006100	3.644000	-10.953000	25.417994	0.000454	20.852809
1037.281142	-3.015300	3.642900	-10.984000	25.407408	0.000454	20.863042
1038.278773	-3.025000	3.642600	-11.018000	25.416371	0.000454	20.851180
1039.279681	-3.016700	3.642800	-10.988000	25.435485	0.000455	20.872268
1040.287559	-2.998400	3.643400	-10.924000	25.469703	0.000451	20.855896
1041.279565	-2.994100	3.642900	-10.906000	25.479639	0.000452	20.876778
1042.280442	-2.989400	3.642400	-10.888000	25.467038	0.000453	20.855116
1043.279049	-2.976000	3.643200	-10.841000	25.451579	0.000453	20.859507
1044.282181	-2.997700	3.642600	-10.919000	25.478817	0.000450	20.891125
1045.279667	-3.029600	3.639600	-11.026000	25.496907	0.000449	20.863774
1046.280658	-2.991700	3.641300	-10.893000	25.509503	0.000451	20.857931
1047.282004	-2.995500	3.641500	-10.907000	25.495137	0.000448	20.861996
1048.280404	-3.009300	3.639800	-10.952000	25.523269	0.000450	20.865117
1049.277939	-3.017000	3.640400	-10.982000	25.505524	0.000448	20.871953
1050.280203	-3.000500	3.640900	-10.923000	25.487799	0.000450	20.856524
1051.283286	-2.997200	3.640300	-10.910000	25.456734	0.000449	20.880329
1052.280298	-3.004200	3.639500	-10.932000	25.458101	0.000447	20.867479
1053.282950	-3.002400	3.640000	-10.928000	25.437276	0.000448	20.884023
1054.280625	-2.987000	3.640000	-10.872000	25.445697	0.000448	20.867350
1055.281053	-2.964300	3.639300	-10.787000	25.483791	0.000449	20.862930
1056.282023	-3.018200	3.637800	-10.979000	25.472532	0.000448	20.881495
1057.281671	-2.999500	3.638500	-10.913000	25.487047	0.000447	20.886113
1058.283497	-3.006900	3.639500	-10.941000	25.501625	0.000446	20.887950
1059.282700	-3.021400	3.637000	-10.988000	25.516331	0.000445	20.893235
1060.281458	-3.008400	3.637500	-10.942000	25.508654	0.000444	20.885526
1061.281331	-3.010100	3.638000	-10.950000	25.514044	0.000444	20.886198
1062.289479	-2.970200	3.637300	-10.802000	25.540681	0.000444	20.876439
1063.283209	-2.995500	3.637100	-10.894000	25.544159	0.000445	20.897947
1064.284781	-2.982600	3.637000	-10.847000	25.544129	0.000444	20.863781
1065.282314	-2.985900	3.635900	-10.856000	25.537293	0.000441	20.873985
1066.289576	-3.003300	3.635300	-10.917000	25.523153	0.000444	20.867372
1067.284075	-3.014300	3.634700	-10.954000	25.483586	0.000442	20.881689
1068.284941	-2.988200	3.636900	-10.867000	25.457887	0.000444	20.877220
1069.285485	-2.986700	3.634600	-10.855000	25.480374	0.000441	20.889369
1070.284026	-2.983100	3.634300	-10.840000	25.488204	0.000443	20.885853
1071.284471	-3.018500	3.634100	-10.969000	25.493964	0.000442	20.883102
1072.284302	-2.993800	3.634800	-10.881000	25.508350	0.000440	20.894229
1073.285332	-3.011500	3.634600	-10.943000	25.486951	0.000440	20.892180
1074.287379	-2.991700	3.634300	-10.872000	25.514484	0.000441	20.890432
1075.287794	-2.976900	3.633800	-10.816000	25.543752	0.000441	20.909392
1076.283002	-2.987000	3.633100	-10.851000	25.597221	0.000441	20.888175
1077.285135	-2.995200	3.632900	-10.880000	25.584803	0.000438	20.897514
1078.291851	-2.997000	3.632000	-10.884000	25.573866	0.000441	20.900280
1079.286723	-3.002300	3.632900	-10.906000	25.571825	0.000439	20.907239
1080.288419	-2.979700	3.632600	-10.823000	25.578931	0.000439	20.899678
1081.286272	-3.003500	3.631600	-10.907000	25.556687	0.000438	20.902468
1082.289088	-3.011600	3.630900	-10.934000	25.573011	0.000437	20.906533
1083.287833	-2.984800	3.631600	-10.838000	25.596740	0.000437	20.911872
1084.287039	-2.974800	3.631100	-10.801000	25.600817	0.000438	20.906009
1085.293190	-2.965200	3.631600	-10.768000	25.642731	0.000439	20.877459
1086.288459	-2.993500	3.628700	-10.862000	25.580983	0.000436	20.893204
1087.288057	-3.018700	3.628600	-10.952000	25.544973	0.000437	20.881223
1088.289957	-2.990800	3.630200	-10.856000	25.553649	0.000434	20.909847
1089.290202	-3.000000	3.629300	-10.886000	25.550339	0.000435	20.915058
1090.290172	-3.003700	3.629100	-10.901000	25.555105	0.000438	20.926955
1091.291230	-2.998600	3.628200	-10.878000	25.570690	0.000436	20.912262
1092.289823	-3.017500	3.627100	-10.944000	25.584726	0.000435	20.910712
1093.290189	-2.995200	3.628100	-10.866000	25.592403	0.000432	20.913206
1094.295339	-3.027500	3.626700	-10.979000	25.586418	0.000433	20.901980
1095.290395	-3.029800	3.627900	-10.990000	25.613923	0.000433	20.903052
1096.294305	-2.999200	3.627700	-10.879000	25.662127	0.000433	20.915428
1097.292006	-2.991100	3.627100	-10.848000	25.643814	0.000432	20.953455
1098.291005	-3.013500	3.626100	-10.927000	25.596598	0.000431	20.911730
1099.292401	-2.983300	3.625300	-10.815000	25.617745	0.000432	20.916846
1100.298397	-2.996400	3.626100	-10.864000	25.652130	0.000430	20.920560
1101.295307	-2.982900	3.627100	-10.818000	25.647311	0.000432	20.909083
1102.296325	-2.989400	3.624600	-10.834000	25.662811	0.000431	20.912797
1103.292509	-2.997400	3.626000	-10.867000	25.668127	0.000432	20.914817
1104.292406	-2.987600	3.626200	-10.832000	25.690536	0.000432	20.912668
1105.295493	-3.004900	3.624100	-10.890000	25.694288	0.000429	20.918333
1106.293364	-2.992100	3.624500	-10.843000	25.667404	0.000429	20.927366
1107.292681	-2.993800	3.624400	-10.849000	25.635376	0.000431	20.904683
1108.292607	-3.013700	3.622800	-10.917000	25.652564	0.000430	20.906772
1109.293449	-3.000700	3.623000	-10.870000	25.652868	0.000429	20.915138
1110.293253	-3.020300	3.622400	-10.940000	25.637859	0.000427	20.911918
1111.298986	-2.994900	3.623000	-10.849000	25.623352	0.000428	20.950922
1112.298086	-3.004000	3.622200	-10.880000	25.614279	0.000428	20.921425
1113.296458	-3.000900	3.622300	-10.869000	25.591170	0.000426	20.916708
1114.296193	-3.008100	3.622300	-10.896000	25.629952	0.000426	20.912037
1115.295311	-3.007700	3.620900	-10.889000	25.564106	0.000425	20.906125
1116.297017	-3.007200	3.621600	-10.890000	25.568931	0.000427	20.918555
1117.296001	-3.012400	3.621300	-10.909000	25.590599	0.000425	20.915661
1118.300082	-2.988400	3.621900	-10.823000	25.586325	0.000427	20.899517
1119.298108	-2.983400	3.621900	-10.805000	25.603868	0.000425	20.917133
1120.295639	-3.030600	3.619700	-10.969000	25.608716	0.000425	20.899719
1121.299345	-2.996600	3.619700	-10.846000	25.617707	0.000425	20.913489
1122.297793	-3.006200	3.618900	-10.878000	25.594130	0.000426	20.898346
1123.299381	-3.000700	3.618900	-10.858000	25.622432	0.000423	20.909226
1124.297753	-2.987800	3.618800	-10.811000	25.670606	0.000425	20.906876
1125.297667	-2.995700	3.617700	-10.837000	25.664946	0.000424	20.918733
1126.298367	-2.977600	3.619500	-10.776000	25.661012	0.000422	20.890603
1127.297959	-3.003700	3.617200	-10.864000	25.597155	0.000424	20.899014
1128.300847	-2.998400	3.617400	-10.846000	25.604438	0.000422	20.903957
1129.300089	-3.016200	3.616600	-10.907000	25.589630	0.000422	20.893354
1130.299496	-2.999300	3.618700	-10.852000	25.600140	0.000421	20.888736
1131.301726	-2.994400	3.616700	-10.830000	25.661887	0.000423	20.895275
1132.302389	-2.994100	3.615900	-10.826000	25.669613	0.000421	20.890707
1133.300122	-2.994100	3.616900	-10.829000	25.682182	0.000419	20.909019
1134.301587	-3.011200	3.616400	-10.889000	25.669756	0.000420	20.891798
1135.299579	-3.001400	3.615700	-10.851000	25.667847	0.000422	20.893201
1136.300680	-3.016700	3.614900	-10.904000	25.691225	0.000421	20.885862
1137.301985	-2.996400	3.615900	-10.834000	25.679846	0.000420	20.886761
1138.300549	-3.005400	3.614900	-10.864000	25.674850	0.000418	20.882691
1139.302368	-2.992400	3.614700	-10.815000	25.636660	0.000419	20.912136
1140.299806	-2.999200	3.614300	-10.839000	25.619935	0.000420	20.881116
1141.300923	-3.006000	3.614200	-10.864000	25.617201	0.000417	20.882163
1142.299677	-3.010300	3.613500	-10.877000	25.687223	0.000418	20.885161
1143.304942	-2.993900	3.614600	-10.821000	25.673331	0.000418	20.881640
1144.304359	-3.010900	3.613500	-10.879000	25.634742	0.000419	20.903572
1145.310497	-2.998500	3.614000	-10.836000	25.637201	0.000417	20.890396
1146.304121	-3.023900	3.611400	-10.919000	25.646373	0.000416	20.892495
1147.302915	-3.004600	3.612100	-10.851000	25.627316	0.000417	20.902278
1148.305917	-3.025900	3.611600	-10.927000	25.593447	0.000415	20.887230
1149.305432	-2.985300	3.611900	-10.782000	25.559306	0.000414	20.874281
1150.323691	-2.994500	3.611300	-10.813000	25.568848	0.000414	20.889551
1151.303510	-2.983300	3.611900	-10.774000	25.596752	0.000413	20.891023
1152.304548	-3.005500	3.609500	-10.848000	25.605275	0.000415	20.880143
1153.304780	-3.009300	3.610400	-10.864000	25.610124	0.000414	20.877901
1154.304589	-2.996100	3.610900	-10.817000	25.597676	0.000414	20.870142
1155.310380	-2.999400	3.609600	-10.826000	25.586075	0.000411	20.876034
1156.308101	-3.002800	3.609300	-10.838000	25.624168	0.000413	20.873041
1157.308260	-2.988000	3.609400	-10.785000	25.642856	0.000412	20.882799
1158.306807	-2.976300	3.609100	-10.741000	25.635873	0.000412	20.883846
1159.309361	-2.971500	3.610700	-10.728000	25.595325	0.000410	20.856401
1160.308246	-3.003300	3.607300	-10.833000	25.585661	0.000411	20.852860
1161.309160	-2.991400	3.608000	-10.791000	25.575722	0.000411	20.861844
1162.307601	-3.003800	3.607800	-10.836000	25.619181	0.000411	20.850964
1163.308923	-3.000200	3.606700	-10.820000	25.594484	0.000409	20.870254
1164.307847	-2.983900	3.607300	-10.762000	25.592074	0.000408	20.855033
1165.309446	-3.011300	3.607000	-10.861000	25.594439	0.000409	20.883959
1166.318675	-3.020900	3.605700	-10.892000	25.529580	0.000404	20.847748
1167.312566	-3.021000	3.605200	-10.890000	25.556743	0.000407	20.854164
1168.312973	-2.989800	3.605300	-10.779000	25.586339	0.000408	20.864920
1169.314033	-2.986300	3.605600	-10.767000	25.640135	0.000405	20.844508
1170.313837	-2.996900	3.605200	-10.804000	25.705155	0.000405	20.866190
1171.315022	-2.997600	3.603800	-10.803000	25.699520	0.000407	20.848202
1172.320844	-2.983500	3.604700	-10.754000	25.652857	0.000406	20.859655
1173.314649	-2.994100	3.604500	-10.791000	25.601024	0.000406	20.866866
1174.318864	-3.007200	3.604200	-10.836000	25.642196	0.000405	20.873129
1175.323837	-2.977200	3.603500	-10.727000	25.667812	0.000406	20.864244
1176.318298	-2.972000	3.603300	-10.708000	25.722405	0.000407	20.869291
1177.320814	-3.005500	3.602400	-10.827000	25.710397	0.000405	20.849170
1178.317247	-3.002500	3.603000	-10.817000	25.666568	0.000404	20.860150
1179.317066	-2.994300	3.603000	-10.788000	25.636580	0.000407	20.853739
1180.318771	-2.998300	3.602400	-10.800000	25.663066	0.000406	20.854736
1181.317669	-3.013800	3.600800	-10.851000	25.652430	0.000403	20.865864
1182.321293	-3.003700	3.601800	-10.818000	25.662418	0.000405	20.857404
1183.336333	-3.011000	3.601200	-10.842000	25.671938	0.000404	20.870758
1184.318347	-3.006600	3.602300	-10.830000	25.693374	0.000400	20.861469
1185.319892	-2.988300	3.601000	-10.760000	25.714818	0.000402	20.861197
1186.325104	-2.997900	3.600600	-10.793000	25.694244	0.000401	20.840533
1187.322366	-3.001800	3.600800	-10.808000	25.692080	0.000403	20.837411
1188.322927	-3.001600	3.599500	-10.803000	25.688407	0.000401	20.857428
1189.321408	-3.002200	3.599500	-10.806000	25.681744	0.000400	20.855952
1190.322672	-2.990100	3.600500	-10.765000	25.708205	0.000398	20.840804
1191.323686	-2.991700	3.599000	-10.767000	25.724899	0.000399	20.852357
1192.323854	-2.971400	3.600500	-10.698000	25.726566	0.000397	20.849289
1193.326718	-2.998600	3.598000	-10.789000	25.750247	0.000397	20.852213
1194.323761	-2.996100	3.598600	-10.780000	25.766046	0.000398	20.852435
1195.327486	-2.995800	3.596800	-10.774000	25.741992	0.000396	20.849611
1196.328803	-3.003800	3.596200	-10.801000	25.728926	0.000398	20.854505
1197.326009	-2.977700	3.599000	-10.716000	25.746963	0.000397	20.859819
1198.329689	-2.998900	3.596900	-10.786000	25.745099	0.000396	20.850361
1199.332026	-3.004600	3.596700	-10.805000	25.809572	0.000397	20.844948
1200.327443	-3.026500	3.595200	-10.879000	25.768111	0.000398	20.849294
1201.327374	-3.013900	3.595700	-10.837000	25.754274	0.000397	20.859103
1202.334874	-3.012300	3.595900	-10.831000	25.725376	0.000394	20.847146
1203.328556	-3.005800	3.596000	-10.807000	25.715315	0.000396	20.849842
1204.330046	-2.967000	3.596400	-10.670000	25.692459	0.000393	20.843955
1205.329063	-2.999800	3.596000	-10.785000	25.683514	0.000394	20.831178
1206.329218	-2.992500	3.595400	-10.758000	25.640283	0.000390	20.827113
1207.328941	-3.004200	3.593300	-10.793000	25.640578	0.000392	20.863444
1208.329085	-2.991100	3.593700	-10.748000	25.652504	0.000392	20.842706
1209.333735	-2.998800	3.593700	-10.776000	25.659417	0.000393	20.825942
1210.330955	-2.991300	3.593700	-10.747000	25.714572	0.000391	20.828234
1211.331446	-2.982600	3.592600	-10.715000	25.734034	0.000388	20.844463
1212.332248	-2.995000	3.592400	-10.758000	25.739596	0.000390	20.843411
1213.335474	-2.982400	3.592600	-10.713000	25.727844	0.000389	20.852943
1214.331739	-2.974300	3.593000	-10.685000	25.767127	0.000389	20.817487
1215.336602	-2.977200	3.591800	-10.692000	25.752793	0.000388	20.851926
1216.337844	-2.983200	3.592700	-10.717000	25.732023	0.000390	20.838176
1217.332573	-3.018200	3.590200	-10.835000	25.710706	0.000386	20.839050
1218.334626	-3.016900	3.590900	-10.833000	25.668495	0.000388	20.842645
1219.332685	-3.009600	3.590800	-10.805000	25.677415	0.000388	20.828372
1220.337987	-2.999200	3.589800	-10.766000	25.692054	0.000385	20.833118
1221.335289	-3.009400	3.590100	-10.803000	25.719833	0.000389	20.833044
1222.332624	-3.015000	3.589300	-10.821000	25.723884	0.000386	20.839484
1223.333225	-2.999500	3.589400	-10.765000	25.753103	0.000387	20.838012
1224.333782	-2.971400	3.589100	-10.663000	25.767043	0.000387	20.830204
1225.336192	-2.985000	3.588500	-10.711000	25.755713	0.000387	20.810290
1226.337263	-2.996300	3.588400	-10.751000	25.727636	0.000385	20.816701
1227.333294	-3.011400	3.588400	-10.805000	25.778922	0.000386	20.821748
1228.334738	-3.017000	3.587000	-10.822000	25.790644	0.000385	20.827833
1229.336166	-2.995300	3.588300	-10.747000	25.795817	0.000385	20.844882
1230.332939	-2.984200	3.588600	-10.708000	25.739319	0.000383	20.816582
1231.334848	-3.003200	3.586200	-10.770000	25.711168	0.000386	20.832401
1232.333402	-2.969200	3.586600	-10.647000	25.729431	0.000385	20.832253
1233.333394	-2.993900	3.586500	-10.737000	25.699514	0.000385	20.849618
1234.333598	-2.998000	3.585300	-10.748000	25.719444	0.000380	20.817006
1235.334945	-2.997300	3.585100	-10.745000	25.711964	0.000381	20.812339
1236.336216	-2.985800	3.585200	-10.704000	25.740160	0.000383	20.833547
1237.335527	-2.995600	3.584900	-10.738000	25.702572	0.000382	20.822345
1238.335100	-2.990800	3.585000	-10.721000	25.657178	0.000381	20.819426
1239.335501	-3.012400	3.584600	-10.797000	25.661850	0.000381	20.840239
1240.337326	-3.016400	3.584100	-10.810000	25.714920	0.000381	20.818152
1241.334048	-2.996600	3.584100	-10.739000	25.731122	0.000380	20.820202
1242.340125	-3.044500	3.582400	-10.905000	25.735321	0.000380	20.803557
1243.341500	-2.988400	3.584700	-10.712000	25.780166	0.000379	20.823946
1244.336810	-2.970500	3.583600	-10.644000	25.772589	0.000381	20.816335
1245.335937	-3.018300	3.580700	-10.807000	25.735597	0.000376	20.832757
1246.336813	-3.026900	3.581800	-10.841000	25.721243	0.000377	20.817865
1247.340111	-3.012100	3.582000	-10.788000	25.705989	0.000376	20.803967
1248.336702	-2.990800	3.581700	-10.711000	25.743183	0.000376	20.820463
1249.341489	-3.023600	3.580800	-10.827000	25.763605	0.000377	20.805414
1250.340238	-3.036200	3.580600	-10.871000	25.744374	0.000378	20.811701
1251.338668	-3.010300	3.581100	-10.780000	25.738886	0.000376	20.820888
1252.341696	-3.009200	3.580800	-10.774000	25.771786	0.000376	20.824537
1253.347279	-3.007300	3.580000	-10.765000	25.770193	0.000376	20.803023
1254.343935	-3.011600	3.579800	-10.780000	25.764809	0.000375	20.816106
1255.343143	-2.999700	3.580500	-10.740000	25.766923	0.000376	20.808747
1256.343761	-2.997100	3.580600	-10.731000	25.741132	0.000374	20.799437
1257.343778	-2.993600	3.579300	-10.714000	25.713285	0.000373	20.819356
1258.346247	-3.005800	3.579100	-10.757000	25.725190	0.000374	20.795278
1259.342517	-2.986000	3.577600	-10.682000	25.751330	0.000372	20.795929
1260.343098	-3.020100	3.579100	-10.808000	25.766342	0.000373	20.808163
1261.344307	-2.992300	3.577600	-10.704000	25.733893	0.000374	20.799752
1262.344203	-2.995600	3.578500	-10.720000	25.715886	0.000372	20.801105
1263.342820	-2.964900	3.578900	-10.610000	25.668954	0.000373	20.814184
1264.345623	-2.984200	3.576900	-10.673000	25.682073	0.000372	20.817404
1265.346418	-3.025500	3.576600	-10.819000	25.709134	0.000371	20.782469
1266.346158	-3.008300	3.576300	-10.757000	25.705510	0.000371	20.809175
1267.346917	-2.984700	3.576600	-10.675000	25.780817	0.000371	20.779081
1268.347420	-2.982600	3.577100	-10.668000	25.783777	0.000372	20.777313
1269.348675	-2.986100	3.575300	-10.675000	25.826785	0.000371	20.783531
1270.346361	-2.987100	3.575700	-10.680000	25.818235	0.000371	20.805762
1271.346013	-3.013400	3.574300	-10.770000	25.810643	0.000370	20.791023
1272.347843	-3.011100	3.573600	-10.759000	25.770692	0.000370	20.781239
1273.346471	-3.011900	3.574400	-10.764000	25.753625	0.000369	20.810088
1274.348832	-2.993400	3.573700	-10.697000	25.777010	0.000368	20.786637
1275.348963	-3.018600	3.573800	-10.787000	25.792337	0.000369	20.802981
1276.346807	-3.008300	3.572600	-10.747000	25.818746	0.000368	20.805327
1277.347010	-2.996400	3.572200	-10.702000	25.833707	0.000365	20.777208
1278.346584	-3.012000	3.572400	-10.759000	25.833461	0.000367	20.799720
1279.354273	-3.000700	3.572400	-10.719000	25.811773	0.000366	20.790262
1280.351670	-2.984800	3.572100	-10.662000	25.769270	0.000366	20.781233
1281.349120	-3.004900	3.571300	-10.730000	25.733144	0.000367	20.774343
1282.348022	-3.008800	3.571400	-10.744000	25.708970	0.000365	20.778986
1283.352738	-2.994200	3.571300	-10.693000	25.719429	0.000366	20.789017
1284.349124	-2.998300	3.570900	-10.706000	25.763158	0.000365	20.800224
1285.350344	-3.037200	3.568500	-10.837000	25.763286	0.000364	20.771429
1286.350245	-3.013000	3.569800	-10.755000	25.743858	0.000363	20.788898
1287.352449	-2.983900	3.569200	-10.649000	25.757848	0.000364	20.769285
1288.351119	-3.006500	3.569800	-10.732000	25.777870	0.000364	20.783233
1289.351617	-2.988100	3.569400	-10.665000	25.826219	0.000362	20.780117
1290.352685	-3.000600	3.568200	-10.705000	25.802244	0.000362	20.777370
1291.351141	-3.005800	3.568000	-10.724000	25.767987	0.000363	20.780418
1292.351828	-2.972600	3.568500	-10.606000	25.778121	0.000361	20.775424
1293.349463	-3.022800	3.568200	-10.786000	25.750177	0.000360	20.770589
1294.350949	-2.996000	3.568000	-10.689000	25.718200	0.000361	20.788256
1295.351256	-3.004500	3.567500	-10.718000	25.667668	0.000361	20.783969
1296.352641	-3.000500	3.566100	-10.699000	25.718942	0.000358	20.756759
1297.353521	-3.000400	3.565600	-10.697000	25.745328	0.000358	20.765719
1298.365974	-3.001600	3.566600	-10.705000	25.719168	0.000361	20.760779
1299.352683	-2.998700	3.566800	-10.695000	25.776488	0.000359	20.773784
1300.353788	-3.005500	3.564800	-10.712000	25.813105	0.000359	20.775479
1301.356937	-2.990300	3.565200	-10.660000	25.799289	0.000358	20.769186
1302.355063	-2.992600	3.566600	-10.672000	25.792739	0.000358	20.752175
1303.353638	-3.002300	3.564800	-10.701000	25.750998	0.000357	20.777103
1304.354102	-3.001700	3.564100	-10.698000	25.714226	0.000357	20.767195
1305.351858	-3.011100	3.564600	-10.733000	25.703919	0.000356	20.778180
1306.357143	-2.978500	3.565000	-10.618000	25.718406	0.000358	20.771394
1307.358451	-3.006000	3.563900	-10.713000	25.744517	0.000356	20.768697
1308.354740	-2.991300	3.563600	-10.659000	25.736767	0.000357	20.763283
1309.355552	-2.988500	3.563400	-10.648000	25.785220	0.000356	20.749838
1310.360646	-3.022000	3.562400	-10.765000	25.777987	0.000356	20.758695
1311.358432	-2.995200	3.561400	-10.666000	25.792202	0.000354	20.770603
1312.361506	-3.004600	3.561400	-10.700000	25.794912	0.000355	20.772850
1313.357390	-3.002400	3.561300	-10.692000	25.827408	0.000356	20.753809
1314.359250	-3.009300	3.561000	-10.715000	25.883502	0.000354	20.752787
1315.356941	-3.003100	3.561100	-10.694000	25.825072	0.000355	20.752412
1316.367251	-3.008100	3.560700	-10.711000	25.831508	0.000355	20.767886
1317.360668	-2.998200	3.558900	-10.670000	25.826045	0.000353	20.756235
1318.359940	-2.995500	3.560900	-10.666000	25.804288	0.000351	20.753819
1319.361390	-3.041000	3.558200	-10.820000	25.773876	0.000352	20.765471
1320.364465	-2.996200	3.559900	-10.665000	25.677428	0.000352	20.764374
1321.361565	-2.977100	3.560200	-10.599000	25.690696	0.000353	20.741189
1322.361302	-2.996700	3.559200	-10.665000	25.717038	0.000349	20.744889
1323.363128	-3.001600	3.558400	-10.680000	25.697732	0.000350	20.755370
1324.361261	-3.006300	3.556900	-10.692000	25.703673	0.000352	20.755172
1325.364336	-3.004400	3.558400	-10.690000	25.704469	0.000351	20.766404
1326.364483	-3.014800	3.557300	-10.723000	25.749516	0.000348	20.746691
1327.363663	-2.957300	3.559600	-10.526000	25.746586	0.000348	20.745644
1328.365033	-2.987100	3.557100	-10.624000	25.778213	0.000348	20.760818
1329.362320	-3.001400	3.557500	-10.676000	25.830165	0.000350	20.758950
1330.367054	-2.994900	3.557100	-10.652000	25.847487	0.000347	20.735098
1331.364509	-2.989000	3.556500	-10.630000	25.814416	0.000350	20.752139
1332.364002	-2.972600	3.555800	-10.569000	25.800560	0.000347	20.760506
1333.368996	-3.009700	3.555700	-10.700000	25.797527	0.000346	20.747975
1334.365568	-3.004800	3.554700	-10.681000	25.801480	0.000346	20.743411
1335.363034	-2.981200	3.554400	-10.596000	25.858023	0.000343	20.759908
1336.366057	-3.014200	3.554300	-10.712000	25.808717	0.000347	20.750682
1337.369254	-3.011300	3.553700	-10.701000	25.804715	0.000344	20.749980
1338.367179	-2.995600	3.554200	-10.646000	25.810109	0.000343	20.737854
1339.369800	-2.998200	3.553100	-10.651000	25.840396	0.000344	20.734614
1340.368164	-2.987300	3.553500	-10.614000	25.882680	0.000343	20.745797
1341.368752	-3.001000	3.552600	-10.659000	25.885836	0.000344	20.736165
1342.368237	-2.998500	3.553600	-10.654000	25.885590	0.000343	20.733073
1343.367415	-3.005100	3.551900	-10.673000	25.848455	0.000342	20.739864
1344.370455	-2.984400	3.552900	-10.602000	25.787613	0.000342	20.730430
1345.369981	-3.003600	3.551200	-10.665000	25.771195	0.000343	20.731956
1346.370851	-2.999600	3.551100	-10.651000	25.768638	0.000341	20.751674
1347.369182	-3.002900	3.552700	-10.667000	25.776918	0.000342	20.752879
1348.365986	-3.011100	3.550400	-10.690000	25.781068	0.000343	20.753729
1349.369019	-3.008800	3.549900	-10.680000	25.809144	0.000342	20.728824
1350.373680	-2.981200	3.550000	-10.582000	25.813668	0.000341	20.751387
1351.373808	-2.981100	3.550900	-10.584000	25.830562	0.000339	20.727105
1352.367594	-3.020700	3.548700	-10.718000	25.799537	0.000343	20.733872
1353.374664	-2.992900	3.549700	-10.623000	25.766622	0.000340	20.731630
1354.367530	-3.003300	3.550000	-10.661000	25.793577	0.000340	20.721247
1355.371837	-3.004300	3.548500	-10.660000	25.835764	0.000340	20.739444
1356.368247	-3.008900	3.547900	-10.674000	25.794403	0.000341	20.742467
1357.370846	-2.995000	3.548100	-10.625000	25.791369	0.000337	20.756015
1358.368277	-2.985500	3.547900	-10.592000	25.778978	0.000337	20.746413
1359.368024	-3.028400	3.546900	-10.741000	25.759448	0.000339	20.742442
1360.371296	-3.001100	3.547100	-10.644000	25.772345	0.000337	20.749233
1361.371500	-2.978600	3.547700	-10.567000	25.772424	0.000335	20.742200
1362.367831	-3.019700	3.546100	-10.707000	25.761744	0.000335	20.732420
1363.370181	-3.018500	3.544900	-10.699000	25.777149	0.000337	20.737463
1364.371346	-3.020400	3.545200	-10.707000	25.764133	0.000336	20.742881
1365.372633	-2.988300	3.546000	-10.596000	25.729875	0.000335	20.728858
1366.373495	-3.006900	3.545500	-10.660000	25.719318	0.000336	20.731531
1367.371843	-2.994800	3.545600	-10.618000	25.774622	0.000334	20.729234
1368.373008	-2.982900	3.545000	-10.574000	25.796114	0.000333	20.747030
1369.376815	-2.993700	3.543600	-10.607000	25.808092	0.000333	20.742940
1370.373189	-2.992700	3.543500	-10.604000	25.817561	0.000333	20.728271
1371.376209	-3.012200	3.542900	-10.671000	25.868612	0.000333	20.745889
1372.375673	-2.994400	3.543100	-10.608000	25.871724	0.000331	20.740006
1373.379274	-2.977900	3.544300	-10.554000	25.883898	0.000333	20.751288
1374.374107	-2.991600	3.543100	-10.599000	25.823260	0.000332	20.738263
1375.376500	-2.990300	3.543400	-10.594000	25.798764	0.000330	20.733570
1376.372650	-2.986800	3.542500	-10.580000	25.777232	0.000330	20.748927
1377.377773	-2.987900	3.541300	-10.580000	25.734527	0.000330	20.724047
1378.374810	-2.986800	3.540600	-10.574000	25.740044	0.000333	20.724847
1379.375425	-2.979200	3.542300	-10.553000	25.813736	0.000331	20.737230
1380.376646	-2.981600	3.540800	-10.556000	25.839825	0.000331	20.748739
1381.376307	-2.975800	3.542000	-10.539000	25.846782	0.000332	20.735339
1382.378674	-2.975500	3.541200	-10.536000	25.851999	0.000330	20.744847
1383.376129	-2.999900	3.539900	-10.619000	25.805918	0.000328	20.733644
1384.375037	-3.004600	3.538800	-10.632000	25.732658	0.000329	20.752992
1385.375515	-3.000500	3.539200	-10.619000	25.721132	0.000330	20.725766
1386.377026	-3.018200	3.538600	-10.679000	25.756561	0.000329	20.738594
1387.378913	-2.991700	3.537600	-10.583000	25.795322	0.000328	20.739122
1388.379470	-2.984000	3.538300	-10.557000	25.813308	0.000329	20.759087
1389.376682	-3.015000	3.537700	-10.665000	25.805038	0.000330	20.754572
1390.378047	-2.993500	3.537200	-10.587000	25.791526	0.000329	20.747637
1391.381986	-3.006700	3.536100	-10.631000	25.785984	0.000328	20.720259
1392.376878	-3.003800	3.536800	-10.623000	25.802038	0.000324	20.749663
1393.380400	-2.995100	3.537200	-10.593000	25.806464	0.000327	20.743202
1394.377975	-3.003000	3.535500	-10.616000	25.800106	0.000328	20.744402
1395.376657	-3.005900	3.534300	-10.623000	25.766469	0.000326	20.738114
1396.377294	-3.005100	3.535500	-10.624000	25.788954	0.000326	20.731777
1397.382706	-3.001800	3.535900	-10.613000	25.765180	0.000325	20.727811
1398.378119	-2.989900	3.535300	-10.569000	25.730824	0.000325	20.717008
1399.378168	-2.992100	3.534900	-10.576000	25.775221	0.000324	20.752122
1400.377618	-3.007100	3.534300	-10.627000	25.767850	0.000323	20.751357
1401.377358	-2.992800	3.533000	-10.572000	25.775673	0.000326	20.743567
1402.378775	-2.994300	3.532600	-10.577000	25.792800	0.000322	20.729001
1403.377598	-2.997500	3.532600	-10.588000	25.785621	0.000323	20.756405
1404.382557	-2.984800	3.533600	-10.546000	25.731812	0.000323	20.758781
1405.381796	-2.977800	3.533200	-10.520000	25.725897	0.000324	20.732449
1406.380484	-3.019000	3.530900	-10.658000	25.690029	0.000322	20.742891
1407.383090	-2.988500	3.532800	-10.557000	25.724938	0.000321	20.742866
1408.383693	-2.992900	3.531800	-10.570000	25.773564	0.000322	20.749510
1409.383833	-2.996200	3.531000	-10.578000	25.822808	0.000322	20.744447
1410.381492	-2.990800	3.530500	-10.558000	25.853494	0.000320	20.760574
1411.381554	-3.022600	3.529800	-10.668000	25.853725	0.000320	20.764599
1412.381538	-3.014600	3.529000	-10.638000	25.863681	0.000319	20.736193
1413.382620	-2.998200	3.530100	-10.583000	25.851488	0.000320	20.750972
1414.383983	-3.012800	3.528900	-10.631000	25.859620	0.000320	20.763883
1415.382365	-2.999100	3.529000	-10.582000	25.849654	0.000321	20.744862
1416.381519	-2.976800	3.528600	-10.503000	25.817862	0.000317	20.729046
1417.381389	-3.004100	3.529300	-10.600000	25.791207	0.000316	20.742101
1418.386611	-3.000200	3.528500	-10.586000	25.761896	0.000320	20.753437
1419.380926	-2.999100	3.527700	-10.578000	25.777105	0.000317	20.751170
1420.384709	-3.001600	3.527400	-10.587000	25.731341	0.000318	20.745504
1421.383314	-2.981500	3.527400	-10.516000	25.728661	0.000317	20.753718
1422.387059	-3.025300	3.525700	-10.665000	25.718925	0.000316	20.731136
1423.383754	-3.000500	3.525800	-10.579000	25.716019	0.000314	20.742916
1424.384807	-3.003200	3.525900	-10.588000	25.765363	0.000314	20.750281
1425.386685	-3.004900	3.525700	-10.594000	25.778757	0.000315	20.746665
1426.386101	-3.002500	3.526000	-10.586000	25.788051	0.000314	20.722808
1427.385005	-2.999900	3.526000	-10.576000	25.832003	0.000313	20.745623
1428.387417	-2.989900	3.525500	-10.539000	25.850087	0.000312	20.759997
1429.387385	-2.987000	3.525300	-10.528000	25.850092	0.000312	20.745776
1430.388577	-2.996700	3.525300	-10.564000	25.870074	0.000311	20.744986
1431.393222	-3.009700	3.522800	-10.603000	25.892552	0.000313	20.742438
1432.390754	-2.996100	3.522500	-10.552000	25.830725	0.000313	20.749081
1433.401625	-2.980800	3.524700	-10.506000	25.802256	0.000312	20.769322
1434.391031	-3.012800	3.523900	-10.616000	25.752195	0.000312	20.763607
1435.389810	-3.004100	3.522100	-10.580000	25.756149	0.000311	20.756673
1436.393842	-3.000800	3.522000	-10.568000	25.797865	0.000310	20.762067
1437.391051	-3.014500	3.521600	-10.615000	25.793696	0.000310	20.761197
1438.390591	-3.025100	3.521600	-10.653000	25.760383	0.000308	20.768987
1439.391949	-2.992800	3.521400	-10.538000	25.715887	0.000310	20.734723
1440.391189	-3.002700	3.521500	-10.572000	25.784142	0.000308	20.741169
1441.393418	-3.003600	3.519600	-10.571000	25.811073	0.000306	20.746884
1442.392521	-3.016800	3.518900	-10.615000	25.837285	0.000310	20.753774
1443.394276	-2.990400	3.519700	-10.524000	25.896811	0.000309	20.755725
1444.390785	-3.027000	3.519500	-10.652000	25.893089	0.000307	20.770479
1445.395159	-2.989900	3.518100	-10.518000	25.833292	0.000310	20.751186
1446.392880	-2.998000	3.518600	-10.548000	25.824059	0.000307	20.745704
1447.391484	-2.992400	3.517600	-10.524000	25.782520	0.000307	20.772257
1448.393534	-2.993300	3.519000	-10.533000	25.810970	0.000306	20.775231
1449.394989	-2.977700	3.516800	-10.471000	25.838303	0.000306	20.760961
1450.392720	-2.989100	3.518200	-10.514000	25.850502	0.000307	20.771319
1451.393558	-2.990400	3.516900	-10.516000	25.843402	0.000306	20.751384
1452.394214	-2.999000	3.516500	-10.545000	25.849066	0.000306	20.758023
1453.394639	-3.016100	3.516800	-10.606000	25.835481	0.000305	20.738211
1454.392616	-2.991000	3.515800	-10.515000	25.875479	0.000303	20.771280
1455.393928	-3.014200	3.515000	-10.594000	25.864456	0.000305	20.764474
1456.394531	-2.998300	3.514700	-10.537000	25.899108	0.000304	20.769887
1457.393103	-3.020900	3.515700	-10.620000	25.893646	0.000305	20.763926
1458.395810	-3.005600	3.514300	-10.562000	25.869323	0.000304	20.762725
1459.396039	-3.028800	3.514200	-10.642000	25.843644	0.000303	20.763481
1460.395917	-3.002700	3.513300	-10.548000	25.814782	0.000303	20.763886
1461.398888	-3.002800	3.513400	-10.549000	25.757759	0.000302	20.757342
1462.398351	-3.022600	3.511900	-10.613000	25.721740	0.000302	20.755776
1463.397686	-3.008600	3.512600	-10.567000	25.731678	0.000299	20.751533
1464.400719	-2.995500	3.513100	-10.522000	25.766659	0.000303	20.762014
1465.397149	-3.019800	3.511900	-10.604000	25.785625	0.000303	20.754038
1466.401722	-3.031100	3.511000	-10.640000	25.805047	0.000300	20.764064
1467.399561	-3.005500	3.511400	-10.552000	25.815957	0.000300	20.763645
1468.400739	-3.032200	3.509400	-10.640000	25.814713	0.000301	20.762869
1469.399210	-3.025000	3.509900	-10.616000	25.875637	0.000301	20.758637
1470.399856	-3.005900	3.510600	-10.552000	25.900254	0.000300	20.777677
1471.404819	-3.009100	3.509400	-10.559000	25.895712	0.000300	20.766001
1472.406385	-3.001800	3.510500	-10.536000	25.862298	0.000298	20.763729
1473.403584	-3.005800	3.509500	-10.547000	25.885923	0.000297	20.780349
1474.403171	-3.017500	3.507800	-10.584000	25.885063	0.000299	20.776166
1475.402512	-2.995600	3.508400	-10.509000	25.915638	0.000298	20.769424
1476.402763	-2.998600	3.509400	-10.522000	25.925757	0.000298	20.761097
1477.401929	-3.004200	3.508300	-10.539000	25.928534	0.000298	20.791389
1478.403957	-3.009700	3.507100	-10.554000	25.871149	0.000297	20.776887
1479.406213	-3.005200	3.507800	-10.540000	25.860672	0.000298	20.758775
1480.402952	-2.995400	3.507500	-10.505000	25.870540	0.000298	20.786707
1481.404104	-2.997000	3.507200	-10.510000	25.862368	0.000297	20.784662
1482.402860	-3.006500	3.507000	-10.543000	25.907030	0.000297	20.756983
1483.402086	-2.985200	3.507700	-10.471000	25.873598	0.000297	20.767494
1484.402028	-2.980000	3.506200	-10.448000	25.849605	0.000298	20.761883
1485.405809	-2.974900	3.505300	-10.427000	25.879114	0.000295	20.782519
1486.402542	-2.991100	3.505400	-10.484000	25.877103	0.000294	20.789982
1487.403309	-2.985500	3.505000	-10.463000	25.890324	0.000295	20.785720
1488.403256	-2.984900	3.505400	-10.462000	25.920733	0.000296	20.777387
1489.405062	-3.014400	3.504900	-10.565000	25.894804	0.000293	20.779788
1490.408934	-2.992800	3.505500	-10.490000	25.852201	0.000295	20.787725
1491.403842	-3.000300	3.503600	-10.511000	25.873048	0.000293	20.789227
1492.404947	-2.987100	3.503900	-10.466000	25.808633	0.000293	20.778573
1493.406460	-2.977300	3.503700	-10.431000	25.806923	0.000292	20.777803
1494.407281	-2.990200	3.502700	-10.473000	25.826354	0.000293	20.770296
1495.407207	-3.010000	3.501000	-10.537000	25.839030	0.000292	20.798202
1496.406082	-3.014900	3.502400	-10.558000	25.846435	0.000294	20.791416
1497.408085	-3.013600	3.501400	-10.550000	25.898581	0.000290	20.785953
1498.408003	-3.004100	3.501100	-10.517000	25.935174	0.000291	20.786205
1499.409163	-2.991600	3.503400	-10.480000	25.946752	0.000292	20.788354
1500.406614	-3.014300	3.500600	-10.550000	25.961413	0.000290	20.786013
1501.409663	-3.000700	3.501400	-10.506000	26.003820	0.000291	20.778832
1502.408418	-3.002900	3.500900	-10.512000	25.995846	0.000289	20.779830
1503.408501	-2.987000	3.500100	-10.454000	25.909752	0.000288	20.784374
1504.412901	-2.982300	3.500000	-10.437000	25.841637	0.000288	20.772846
1505.410558	-3.013100	3.499000	-10.542000	25.833102	0.000287	20.788454
1506.413939	-3.017500	3.498500	-10.556000	25.896443	0.000287	20.766262
1507.410858	-3.034400	3.496800	-10.609000	25.846569	0.000287	20.803879
1508.410953	-2.991800	3.500100	-10.471000	25.833048	0.000288	20.767536
1509.410218	-3.006200	3.497900	-10.514000	25.885923	0.000288	20.779875
1510.411390	-3.006700	3.498300	-10.517000	25.829159	0.000288	20.805356
1511.417314	-3.007800	3.496200	-10.515000	25.884684	0.000289	20.805183
1512.413048	-3.013000	3.495000	-10.530000	25.910476	0.000286	20.790317
1513.410942	-3.003600	3.495800	-10.499000	25.921258	0.000286	20.778863
1514.412693	-3.026300	3.496200	-10.579000	25.893815	0.000287	20.785433
1515.424630	-2.998500	3.495900	-10.482000	25.920791	0.000287	20.791197
1516.419023	-3.000900	3.496200	-10.491000	25.940044	0.000285	20.786356
1517.416918	-2.990000	3.495600	-10.451000	25.931712	0.000286	20.786520
1518.413177	-2.998900	3.495400	-10.482000	25.913791	0.000288	20.808345
1519.415016	-2.976400	3.496200	-10.405000	25.930694	0.000289	20.806361
1520.414179	-3.000500	3.493500	-10.481000	25.916087	0.000286	20.792635
1521.413219	-2.996700	3.493100	-10.465000	25.937135	0.000285	20.788175
1522.422415	-2.990900	3.492900	-10.446000	25.958993	0.000287	20.796858
1523.418173	-2.983100	3.493900	-10.422000	25.958447	0.000285	20.807690
1524.415370	-2.977700	3.493500	-10.402000	25.936761	0.000283	20.793015
1525.415294	-2.987500	3.492600	-10.432000	25.889367	0.000284	20.798508
1526.414461	-3.018300	3.490500	-10.535000	25.861524	0.000284	20.810841
1527.414765	-2.995500	3.491700	-10.459000	25.871889	0.000285	20.812718
1528.417461	-3.001100	3.491400	-10.477000	25.886177	0.000284	20.816640
1529.417960	-3.018300	3.492000	-10.539000	25.888237	0.000283	20.799743
1530.417135	-3.015200	3.490400	-10.524000	25.883448	0.000284	20.810106
1531.418337	-2.996200	3.491000	-10.459000	25.907642	0.000282	20.786996
1532.418666	-3.014500	3.490600	-10.521000	25.882234	0.000282	20.809360
1533.417907	-3.006500	3.489100	-10.488000	25.857439	0.000284	20.794410
1534.416680	-3.002100	3.489700	-10.475000	25.912446	0.000282	20.810788
1535.416246	-3.011500	3.488800	-10.506000	25.946055	0.000282	20.799033
1536.419394	-2.995400	3.487900	-10.447000	25.987666	0.000281	20.818553
1537.418483	-2.991100	3.488200	-10.432000	26.017202	0.000280	20.816933
1538.420737	-2.989500	3.488200	-10.426000	25.980936	0.000279	20.798515
1539.421735	-3.010000	3.487500	-10.496000	25.949418	0.000280	20.815688
1540.419830	-3.002400	3.487300	-10.469000	25.915761	0.000282	20.832135
1541.421803	-3.007500	3.486900	-10.486000	25.933898	0.000280	20.827122
1542.422623	-2.996400	3.486800	-10.447000	25.969325	0.000279	20.810083
1543.419961	-2.997000	3.485800	-10.446000	25.975386	0.000278	20.821863
1544.429377	-2.992200	3.486400	-10.431000	25.932315	0.000276	20.817472
1545.420904	-3.013700	3.486400	-10.506000	25.906209	0.000279	20.815427
1546.418694	-2.983400	3.485900	-10.399000	25.900924	0.000279	20.830507
1547.420205	-2.986600	3.485200	-10.408000	25.939528	0.000279	20.808597
1548.418561	-2.992400	3.485500	-10.429000	25.937395	0.000278	20.831109
1549.422278	-2.996700	3.484900	-10.442000	25.916737	0.000277	20.820314
1550.424911	-3.004200	3.483300	-10.464000	25.954942	0.000280	20.845418
1551.422314	-3.009800	3.483500	-10.484000	26.019107	0.000277	20.819795
1552.421094	-3.002900	3.483300	-10.458000	26.012446	0.000277	20.823534
1553.427873	-2.998300	3.482600	-10.440000	25.997275	0.000277	20.827732
1554.423323	-2.999500	3.483100	-10.447000	25.960444	0.000274	20.837196
1555.425504	-2.970700	3.483100	-10.347000	25.920479	0.000277	20.833082
1556.423454	-3.003200	3.481800	-10.456000	25.921871	0.000275	20.815040
1557.433788	-2.954900	3.482500	-10.290000	25.942623	0.000275	20.829724
1558.425458	-2.996100	3.481300	-10.429000	25.979455	0.000276	20.818364
1559.425294	-3.003300	3.480600	-10.453000	25.997444	0.000274	20.813203
1560.428290	-2.988500	3.482400	-10.407000	25.965307	0.000274	20.824065
1561.423745	-2.969500	3.481000	-10.336000	25.939802	0.000274	20.833054
1562.423464	-2.980700	3.480300	-10.373000	25.903092	0.000274	20.821779
1563.424922	-3.005200	3.479300	-10.455000	25.933151	0.000273	20.813096
1564.424356	-3.011700	3.480900	-10.482000	25.917079	0.000273	20.841994
1565.424702	-3.018100	3.477800	-10.494000	25.917232	0.000274	20.826975
1566.426950	-3.024900	3.479000	-10.523000	25.894508	0.000274	20.814579
1567.424279	-2.999500	3.479400	-10.435000	25.872177	0.000272	20.839086
1568.424618	-2.999600	3.478500	-10.433000	25.886367	0.000273	20.819202
1569.426825	-3.002800	3.478500	-10.444000	25.877282	0.000273	20.844688
1570.427021	-2.996700	3.476600	-10.418000	25.909284	0.000271	20.829422
1571.427632	-2.992500	3.477800	-10.406000	25.902180	0.000273	20.836035
1572.427459	-2.977500	3.478200	-10.355000	25.919250	0.000271	20.829477
1573.426571	-2.980500	3.477100	-10.362000	25.910902	0.000268	20.829625
1574.426946	-3.014700	3.475600	-10.477000	25.939447	0.000271	20.828430
1575.427505	-2.994500	3.476800	-10.410000	25.938705	0.000271	20.839538
1576.427840	-2.986900	3.477100	-10.385000	25.964815	0.000269	20.847751
1577.430486	-2.977200	3.476100	-10.348000	25.982799	0.000271	20.842585
1578.429995	-2.978700	3.475500	-10.350000	25.969682	0.000270	20.843158
1579.427653	-3.008500	3.474900	-10.453000	25.955774	0.000270	20.848626
1580.431722	-2.985800	3.475300	-10.375000	25.970130	0.000269	20.837444
1581.428328	-3.007300	3.474600	-10.448000	25.960347	0.000267	20.836150
1582.429538	-3.007700	3.474100	-10.448000	25.924777	0.000267	20.840719
1583.428074	-2.991500	3.473600	-10.391000	25.915736	0.000268	20.853446
1584.429981	-3.006500	3.471700	-10.437000	25.918543	0.000265	20.860060
1585.429655	-3.012200	3.472700	-10.460000	25.912781	0.000267	20.843840
1586.429698	-2.999300	3.472900	-10.415000	25.902944	0.000266	20.844863
1587.432206	-3.017700	3.472400	-10.477000	25.948558	0.000264	20.837109
1588.429046	-3.005600	3.472100	-10.434000	25.933701	0.000264	20.870545
1589.428941	-3.015100	3.470200	-10.462000	25.943760	0.000264	20.862633
1590.433724	-3.005000	3.469800	-10.425000	25.955815	0.000263	20.851986
1591.429608	-2.983200	3.472600	-10.358000	25.945383	0.000264	20.849566
1592.430125	-2.987000	3.470200	-10.364000	25.969649	0.000263	20.868728
1593.433740	-2.991000	3.471200	-10.382000	25.958573	0.000263	20.848118
1594.430658	-3.014500	3.468900	-10.455000	25.979069	0.000263	20.836942
1595.435050	-3.007600	3.469000	-10.431000	26.007086	0.000262	20.871252
1596.431734	-2.995700	3.469400	-10.392000	25.953933	0.000263	20.883757
1597.434773	-2.992700	3.469700	-10.383000	25.923751	0.000260	20.866714
1598.436494	-2.999100	3.468800	-10.402000	25.923358	0.000261	20.845931
1599.432530	-3.007400	3.467800	-10.428000	25.903088	0.000263	20.844059
1600.433093	-3.000700	3.468700	-10.408000	25.876411	0.000259	20.861356
1601.433533	-3.010400	3.467800	-10.438000	25.877208	0.000259	20.848406
1602.433420	-3.000200	3.468200	-10.404000	25.895659	0.000259	20.847976
1603.435274	-2.983100	3.466800	-10.341000	25.921206	0.000259	20.880751
1604.433635	-2.979000	3.467600	-10.328000	25.934028	0.000259	20.868503
1605.435066	-2.979200	3.467600	-10.329000	25.930473	0.000256	20.873940
1606.434439	-3.009000	3.466000	-10.428000	25.955223	0.000259	20.858502
1607.439809	-3.009000	3.465800	-10.428000	25.993500	0.000258	20.881310
1608.435887	-3.006100	3.465700	-10.418000	26.033988	0.000259	20.859401
1609.438062	-3.002400	3.464800	-10.402000	26.069088	0.000257	20.870484
1610.434049	-3.007800	3.464800	-10.420000	26.072323	0.000256	20.870416
1611.439843	-2.994200	3.464500	-10.372000	26.098130	0.000258	20.868371
1612.446666	-3.016700	3.463600	-10.447000	25.998604	0.000254	20.864628
1613.438741	-3.033100	3.462300	-10.501000	25.997941	0.000255	20.871074
1614.439688	-3.010500	3.462800	-10.423000	25.997936	0.000255	20.886714
1615.439052	-2.990800	3.463000	-10.356000	26.050877	0.000257	20.880635
1616.439143	-2.995900	3.463400	-10.375000	26.071346	0.000254	20.849047
1617.439684	-2.992200	3.462500	-10.360000	26.024130	0.000255	20.866091
1618.438872	-3.003900	3.462400	-10.400000	26.056005	0.000253	20.859711
1619.440712	-2.989000	3.462300	-10.348000	26.067857	0.000255	20.859292
1620.442776	-2.985000	3.461600	-10.332000	26.101038	0.000253	20.848535
1621.439230	-2.989700	3.461700	-10.349000	26.083706	0.000254	20.858620
1622.440429	-2.999800	3.459900	-10.378000	26.066398	0.000254	20.862093
1623.441024	-3.002600	3.460500	-10.389000	26.056463	0.000254	20.867757
1624.441926	-2.994800	3.460300	-10.363000	26.065410	0.000253	20.868212
1625.444045	-3.006800	3.460500	-10.405000	26.054488	0.000251	20.866247
1626.443084	-2.998300	3.458800	-10.369000	26.021031	0.000253	20.861081
1627.441713	-2.994000	3.460300	-10.360000	25.978537	0.000252	20.854424
1628.438979	-3.003500	3.457900	-10.385000	26.003501	0.000253	20.858168
1629.441335	-3.020000	3.458100	-10.442000	26.007080	0.000255	20.869350
1630.441929	-2.982800	3.458200	-10.314000	25.958218	0.000253	20.851081
1631.442925	-3.005000	3.459000	-10.393000	25.937212	0.000249	20.841831
1632.441478	-3.008500	3.457400	-10.401000	25.924168	0.000252	20.849590
1633.443224	-3.017600	3.458200	-10.434000	25.921740	0.000252	20.854737
1634.443193	-3.011000	3.456900	-10.407000	25.979846	0.000253	20.844835
1635.442441	-3.005000	3.456100	-10.384000	26.018374	0.000252	20.842292
1636.445605	-3.024000	3.455300	-10.448000	26.041528	0.000251	20.848960
1637.445354	-2.989800	3.456000	-10.331000	26.019992	0.000249	20.849132
1638.449304	-2.990700	3.456400	-10.337000	26.014206	0.000250	20.830992
1639.448073	-2.988200	3.455100	-10.324000	26.021364	0.000249	20.834390
1640.449129	-3.021200	3.455100	-10.437000	26.044420	0.000251	20.850917
1641.447395	-3.000600	3.455000	-10.366000	26.020420	0.000250	20.831545
1642.446728	-2.997400	3.454200	-10.353000	26.017490	0.000248	20.823386
1643.446329	-3.007900	3.455200	-10.392000	26.035282	0.000249	20.803330
1644.448277	-2.981500	3.454600	-10.299000	26.015381	0.000249	20.835492
1645.459911	-3.020100	3.453500	-10.429000	26.010594	0.000247	20.835424
1646.453249	-3.013100	3.453400	-10.405000	26.082743	0.000249	20.811662
1647.453100	-2.970200	3.453200	-10.256000	26.059055	0.000247	20.836224
1648.452559	-3.001200	3.452600	-10.361000	26.064418	0.000248	20.827862
1649.453043	-3.017400	3.451400	-10.413000	26.076908	0.000249	20.848472
1650.456250	-3.004700	3.451100	-10.369000	26.100203	0.000246	20.820670
1651.454446	-3.020000	3.451600	-10.424000	26.058155	0.000247	20.822043
1652.456550	-3.000700	3.452000	-10.358000	26.021045	0.000248	20.846397
1653.453506	-3.023600	3.451000	-10.434000	26.044592	0.000248	20.828331
1654.454969	-2.972100	3.451900	-10.259000	26.031255	0.000246	20.844328
1655.457005	-2.994100	3.450100	-10.329000	26.049660	0.000246	20.839587
1656.458081	-3.006400	3.450800	-10.373000	26.056813	0.000245	20.824488
1657.463970	-3.019300	3.448900	-10.412000	26.058479	0.000245	20.816206
1658.458828	-3.011500	3.448600	-10.384000	26.020076	0.000246	20.821243
1659.459187	-3.011200	3.448400	-10.383000	26.002014	0.000244	20.825856
1660.461266	-2.955900	3.449600	-10.195000	25.987144	0.000244	20.834149
1661.461298	-2.991300	3.448200	-10.314000	26.058425	0.000243	20.813780
1662.460153	-2.994000	3.448000	-10.322000	26.072140	0.000244	20.809069
1663.463450	-2.999000	3.447500	-10.338000	26.042630	0.000242	20.824464
1664.461002	-2.984400	3.448100	-10.289000	26.006936	0.000241	20.816102
1665.462374	-3.015100	3.447700	-10.393000	26.015430	0.000243	20.817524
1666.465532	-3.010900	3.447300	-10.379000	26.020799	0.000243	20.839039
1667.462783	-3.009500	3.446300	-10.371000	25.998348	0.000243	20.803206
1668.467920	-3.005300	3.446600	-10.357000	26.009074	0.000241	20.815405
1669.463248	-3.000100	3.447000	-10.340000	25.996381	0.000240	20.843429
1670.464002	-2.982600	3.446400	-10.277000	26.061213	0.000243	20.820849
1671.467228	-3.001100	3.445100	-10.338000	26.052718	0.000241	20.809469
1672.467279	-2.993400	3.445100	-10.311000	26.094492	0.000241	20.823466
1673.467512	-2.981900	3.445400	-10.273000	26.090048	0.000242	20.811415
1674.464685	-2.981100	3.445100	-10.269000	26.086720	0.000241	20.818028
1675.466491	-2.999700	3.443600	-10.329000	26.086966	0.000242	20.828232
1676.465589	-2.967100	3.443400	-10.215000	26.109519	0.000239	20.821495
1677.470284	-2.990800	3.445100	-10.302000	26.077424	0.000242	20.815800
1678.469317	-2.998900	3.442300	-10.323000	26.099682	0.000239	20.816354
1679.471847	-3.021600	3.442100	-10.399000	26.092397	0.000239	20.831792
1680.468033	-3.014100	3.441500	-10.372000	26.087481	0.000240	20.808362
1681.467144	-2.993200	3.441500	-10.301000	26.078038	0.000239	20.822106
1682.474798	-2.977600	3.442200	-10.249000	26.085441	0.000239	20.824329
1683.470315	-2.983300	3.440700	-10.263000	26.096098	0.000238	20.805640
1684.474388	-2.999600	3.441300	-10.322000	26.071982	0.000238	20.811755
1685.471079	-3.001300	3.441000	-10.327000	26.119093	0.000236	20.805511
1686.472322	-2.975700	3.441800	-10.240000	26.084001	0.000236	20.812925
1687.473678	-3.011000	3.439500	-10.356000	26.041326	0.000234	20.824102
1688.474274	-2.989800	3.438600	-10.280000	26.043214	0.000235	20.802291
1689.476229	-3.012800	3.438500	-10.358000	26.033162	0.000235	20.805467
1690.476541	-3.030900	3.437200	-10.416000	26.048558	0.000236	20.813350
1691.475485	-3.000800	3.440000	-10.322000	26.052132	0.000234	20.801767
1692.474266	-2.982200	3.439700	-10.257000	26.055839	0.000236	20.809285
1693.477026	-2.998100	3.437400	-10.305000	26.076745	0.000234	20.806583
1694.475800	-3.006800	3.437000	-10.334000	26.043986	0.000233	20.823929
1695.480350	-3.009700	3.437700	-10.346000	26.070782	0.000234	20.827144
1696.478329	-2.987700	3.436500	-10.266000	26.057623	0.000234	20.796379
1697.480317	-2.992900	3.437800	-10.288000	26.057838	0.000232	20.793276
1698.479057	-2.987800	3.437100	-10.268000	26.018944	0.000230	20.809200
1699.478561	-2.994600	3.435900	-10.288000	26.019760	0.000232	20.804804
1700.486462	-3.010700	3.434600	-10.340000	26.051875	0.000233	20.813363
1701.477265	-2.980200	3.435000	-10.236000	26.116881	0.000233	20.819410
1702.480371	-3.013900	3.436300	-10.356000	26.086226	0.000229	20.819429
1703.486070	-3.007600	3.434600	-10.329000	26.112481	0.000231	20.806454
1704.478762	-3.004200	3.436100	-10.322000	26.075171	0.000231	20.812114
1705.479011	-2.992600	3.435300	-10.279000	26.062380	0.000231	20.796417
1706.479810	-3.005200	3.433600	-10.318000	26.069611	0.000228	20.823597
1707.478651	-2.994000	3.434300	-10.281000	26.063752	0.000229	20.811546
1708.477894	-3.014400	3.433100	-10.348000	26.042137	0.000229	20.798837
1709.484058	-3.009400	3.431900	-10.328000	26.066180	0.000228	20.791700
1710.479122	-2.998700	3.432900	-10.293000	26.081930	0.000228	20.791405
1711.481289	-2.985400	3.432800	-10.247000	26.021475	0.000227	20.789459
1712.478391	-2.970600	3.433400	-10.198000	26.027095	0.000227	20.796527
1713.479162	-3.010800	3.432500	-10.334000	26.008065	0.000228	20.778356
1714.478294	-3.002500	3.431100	-10.301000	26.012263	0.000224	20.797273
1715.478439	-3.001200	3.431400	-10.297000	26.033972	0.000224	20.788264
1716.482527	-3.000700	3.430300	-10.292000	26.026402	0.000225	20.799150
1717.486990	-3.001300	3.432000	-10.299000	26.055661	0.000224	20.811478
1718.480269	-3.006800	3.429400	-10.311000	26.040634	0.000225	20.806336
1719.481382	-3.013100	3.430100	-10.334000	26.026132	0.000225	20.788921
1720.486169	-2.990000	3.430900	-10.257000	26.038078	0.000224	20.794759
1721.483178	-3.000300	3.429300	-10.288000	25.995904	0.000223	20.781784
1722.482153	-2.986700	3.428700	-10.240000	25.978815	0.000226	20.776944
1723.483366	-3.017200	3.428700	-10.344000	25.991686	0.000224	20.799358
1724.481897	-3.005600	3.429100	-10.305000	26.002167	0.000223	20.795664
1725.483841	-3.010700	3.428500	-10.321000	26.071619	0.000224	20.796692
1726.483286	-3.019200	3.428000	-10.349000	26.113785	0.000224	20.784057
1727.489991	-3.010800	3.426900	-10.316000	26.116169	0.000222	20.782659
1728.483517	-3.006500	3.426700	-10.301000	26.151088	0.000222	20.812530
1729.482850	-2.988800	3.428400	-10.245000	26.160108	0.000221	20.791723
1730.484242	-3.000200	3.427200	-10.281000	26.186153	0.000221	20.796083
1731.483920	-2.992100	3.426800	-10.252000	26.218092	0.000223	20.792616
1732.486452	-2.992400	3.427200	-10.255000	26.230090	0.000219	20.801828
1733.495532	-3.002000	3.425900	-10.284000	26.213595	0.000221	20.773872
1734.484310	-2.980900	3.425700	-10.211000	26.167623	0.000219	20.784575
1735.488677	-2.996700	3.425400	-10.264000	26.170833	0.000219	20.797758
1736.485541	-3.022600	3.423500	-10.347000	26.090662	0.000217	20.804445
1737.487551	-3.017600	3.423600	-10.331000	26.106259	0.000218	20.795461
1738.487459	-2.976900	3.423700	-10.191000	26.081046	0.000218	20.757799
1739.484792	-3.017100	3.422500	-10.325000	26.072503	0.000220	20.783829
1740.486027	-2.987600	3.422900	-10.225000	26.071235	0.000218	20.781132
1741.487127	-2.998200	3.424300	-10.266000	26.020744	0.000216	20.772603
1742.486659	-2.981300	3.422600	-10.203000	26.029662	0.000218	20.799580
1743.487491	-3.015900	3.422800	-10.322000	26.038727	0.000220	20.788299
1744.487554	-3.016000	3.421300	-10.318000	26.032464	0.000216	20.784851
1745.493737	-3.016600	3.421200	-10.320000	26.044788	0.000217	20.772578
1746.483809	-2.995400	3.422700	-10.251000	26.041779	0.000218	20.770503
1747.488861	-3.000300	3.420400	-10.262000	26.010553	0.000216	20.781329
1748.493291	-3.008900	3.420400	-10.291000	26.029534	0.000215	20.783804
1749.488174	-2.988000	3.419500	-10.216000	26.071559	0.000216	20.776242
1750.487697	-3.007600	3.419900	-10.285000	26.110525	0.000214	20.779833
1751.486795	-2.999800	3.419700	-10.257000	26.118793	0.000216	20.769174
1752.487029	-2.986000	3.419800	-10.211000	26.108760	0.000218	20.777585
1753.486773	-2.998800	3.419400	-10.253000	26.139856	0.000215	20.792235
1754.490742	-3.021600	3.419300	-10.331000	26.126313	0.000216	20.792852
1755.486445	-2.995000	3.419300	-10.240000	26.137417	0.000213	20.789785
1756.489346	-3.003300	3.418500	-10.266000	26.146481	0.000213	20.803634
1757.492378	-3.017400	3.418400	-10.314000	26.076194	0.000215	20.770942
1758.487288	-3.009100	3.418000	-10.285000	26.038588	0.000214	20.761606
1759.488957	-3.035400	3.416200	-10.368000	26.060375	0.000212	20.772592
1760.492201	-2.999200	3.417600	-10.249000	26.082678	0.000212	20.776508
1761.488914	-3.011900	3.415900	-10.287000	26.048326	0.000213	20.774236
1762.488795	-3.012000	3.415400	-10.286000	26.012637	0.000211	20.777259
1763.493693	-3.002900	3.416500	-10.257000	25.982905	0.000212	20.779630
1764.489572	-3.003600	3.415200	-10.257000	26.008291	0.000212	20.769100
1765.491655	-3.003400	3.415900	-10.258000	26.028260	0.000211	20.777783
1766.489059	-2.986100	3.414500	-10.196000	26.080324	0.000210	20.774617
1767.490836	-2.996400	3.415000	-10.232000	26.099494	0.000209	20.774439
1768.490859	-2.998700	3.413700	-10.236000	26.082211	0.000211	20.764186
1769.490607	-2.984100	3.414100	-10.187000	26.077222	0.000210	20.755379
1770.496133	-3.006000	3.414300	-10.262000	26.111911	0.000211	20.778380
1771.495736	-3.002200	3.414200	-10.249000	26.168217	0.000210	20.779482
1772.492024	-2.988100	3.412300	-10.195000	26.163621	0.000211	20.785769
1773.492426	-2.992200	3.412600	-10.210000	26.161862	0.000211	20.761242
1774.496959	-3.011300	3.411400	-10.271000	26.139856	0.000211	20.750034
1775.494087	-2.998700	3.411900	-10.231000	26.131986	0.000208	20.776267
1776.497899	-3.004700	3.411800	-10.251000	26.077939	0.000209	20.763687
1777.495232	-2.999700	3.411100	-10.231000	26.018306	0.000207	20.760195
1778.493940	-3.009800	3.411200	-10.266000	26.032704	0.000210	20.783670
1779.494511	-2.992000	3.410800	-10.204000	26.080078	0.000208	20.765836
1780.495086	-3.010500	3.411000	-10.268000	26.114968	0.000206	20.775763
1781.495974	-2.991700	3.410300	-10.202000	26.059456	0.000206	20.766926
1782.496930	-2.997600	3.410600	-10.223000	26.060621	0.000206	20.777106
1783.495386	-2.987900	3.409400	-10.186000	26.121870	0.000206	20.759463
1784.496318	-3.028100	3.408500	-10.320000	26.143257	0.000206	20.776212
1785.495000	-2.997800	3.407800	-10.215000	26.126313	0.000205	20.747806
1786.495658	-2.978100	3.409000	-10.151000	26.122189	0.000204	20.765948
1787.500511	-2.970900	3.409300	-10.127000	26.102694	0.000205	20.762955
1788.495684	-2.996800	3.407200	-10.210000	26.071229	0.000205	20.751254
1789.499135	-2.984100	3.407500	-10.167000	26.040800	0.000204	20.743440
1790.497474	-3.014000	3.407300	-10.269000	26.080362	0.000205	20.765646
1791.498885	-2.986600	3.406500	-10.172000	26.053242	0.000202	20.768743
1792.499403	-3.008200	3.406000	-10.246000	26.088905	0.000202	20.755738
1793.501697	-2.998100	3.406400	-10.211000	26.078646	0.000203	20.764871
1794.499990	-2.994200	3.406700	-10.200000	26.082972	0.000201	20.779649
1795.500152	-2.994500	3.406200	-10.199000	26.119082	0.000201	20.750023
1796.500996	-2.993400	3.405100	-10.191000	26.145188	0.000203	20.761083
1797.500663	-2.997600	3.405300	-10.207000	26.085681	0.000202	20.759137
1798.502133	-2.986100	3.405500	-10.168000	26.065664	0.000202	20.750879
1799.508459	-2.991400	3.404400	-10.183000	26.071701	0.000204	20.773066
1800.503576	-2.995900	3.405000	-10.200000	26.109748	0.000201	20.753921
1801.504067	-3.016700	3.403200	-10.265000	26.123629	0.000200	20.750799
1802.505198	-3.000900	3.403200	-10.212000	26.177221	0.000199	20.744906
1803.508147	-3.001100	3.403500	-10.213000	26.168187	0.000201	20.742941
1804.502844	-2.991400	3.404300	-10.182000	26.114142	0.000201	20.738895
1805.504344	-2.985100	3.402800	-10.157000	26.149656	0.000198	20.742812
1806.505536	-2.982000	3.402600	-10.145000	26.177864	0.000202	20.746976
1807.504138	-3.017500	3.400800	-10.261000	26.190089	0.000198	20.732232
1808.508622	-2.987900	3.402100	-10.164000	26.253213	0.000199	20.736396
1809.506309	-2.977400	3.401000	-10.125000	26.221507	0.000199	20.758589
1810.513485	-2.982200	3.402400	-10.146000	26.188796	0.000198	20.749426
1811.505711	-2.996700	3.401400	-10.192000	26.170939	0.000199	20.731955
1812.507193	-2.988400	3.400100	-10.159000	26.181920	0.000199	20.749155
1813.509259	-3.007600	3.399700	-10.224000	26.198765	0.000198	20.749486
1814.513927	-2.972400	3.400400	-10.106000	26.197541	0.000198	20.744936
1815.506073	-3.023200	3.398900	-10.275000	26.224834	0.000196	20.741069
1816.506274	-3.004900	3.399800	-10.215000	26.235564	0.000196	20.737626
1817.510935	-2.995000	3.398500	-10.178000	26.221488	0.000195	20.752405
1818.510342	-3.009300	3.397500	-10.223000	26.156568	0.000196	20.736955
1819.511680	-2.999700	3.397600	-10.190000	26.145867	0.000195	20.737583
1820.508723	-3.015600	3.397100	-10.244000	26.082334	0.000193	20.744868
1821.512553	-3.002200	3.399000	-10.204000	26.084546	0.000195	20.734762
1822.510285	-2.999800	3.396500	-10.188000	26.099598	0.000196	20.723332
1823.508389	-3.014300	3.396900	-10.239000	26.141577	0.000194	20.715726
1824.512627	-3.002000	3.396900	-10.196000	26.116286	0.000193	20.739153
1825.509162	-2.985900	3.394700	-10.135000	26.090962	0.000193	20.723190
1826.509645	-3.022500	3.394700	-10.259000	26.105910	0.000194	20.734891
1827.513360	-3.000100	3.396000	-10.188000	26.147839	0.000191	20.732452
1828.510002	-3.006300	3.394600	-10.205000	26.156633	0.000193	20.720899
1829.509563	-3.006500	3.393500	-10.202000	26.139076	0.000194	20.743086
1830.517146	-3.001300	3.395400	-10.189000	26.171616	0.000193	20.718410
1831.510978	-2.988800	3.394900	-10.145000	26.224188	0.000192	20.727617
1832.510345	-3.011000	3.394100	-10.218000	26.202979	0.000193	20.723374
1833.513878	-3.027600	3.392800	-10.270000	26.242388	0.000194	20.720775
1834.512273	-3.000200	3.393400	-10.180000	26.273878	0.000193	20.741042
1835.515163	-2.990100	3.393400	-10.145000	26.254680	0.000190	20.733603
1836.511222	-2.987800	3.392500	-10.136000	26.251225	0.000192	20.726337
1837.512949	-3.000400	3.392200	-10.177000	26.239355	0.000190	20.727211
1838.512739	-2.995800	3.392800	-10.163000	26.266004	0.000189	20.732180
1839.513096	-2.992600	3.392400	-10.151000	26.278713	0.000193	20.723141
1840.519524	-2.979400	3.393200	-10.109000	26.276226	0.000191	20.726805
1841.514741	-3.009400	3.391400	-10.205000	26.299143	0.000188	20.723283
1842.512414	-3.005600	3.391400	-10.192000	26.300111	0.000188	20.744646
1843.512523	-3.009800	3.390200	-10.203000	26.272372	0.000189	20.737158
1844.518286	-3.009600	3.390600	-10.203000	26.215727	0.000187	20.735711
1845.513967	-3.011400	3.389000	-10.205000	26.217836	0.000188	20.756796
1846.517998	-3.013300	3.389800	-10.213000	26.192203	0.000189	20.734831
1847.521223	-3.002200	3.389100	-10.174000	26.161423	0.000189	20.748946
1848.514717	-3.009100	3.388500	-10.195000	26.152831	0.000186	20.728932
1849.516186	-3.008300	3.388900	-10.194000	26.137583	0.000186	20.753915
1850.515478	-3.006400	3.388400	-10.186000	26.165198	0.000187	20.734247
1851.518755	-3.004900	3.387700	-10.179000	26.181762	0.000186	20.721967
1852.517267	-2.978400	3.387700	-10.089000	26.177087	0.000187	20.744298
1853.515932	-2.987500	3.386300	-10.116000	26.149689	0.000186	20.733361
1854.516933	-2.972900	3.388200	-10.071000	26.135434	0.000184	20.745117
1855.517135	-2.990500	3.387700	-10.130000	26.162852	0.000183	20.730941
1856.515984	-2.989300	3.387100	-10.124000	26.173779	0.000183	20.709677
1857.523956	-3.005400	3.385600	-10.174000	26.161308	0.000182	20.711845
1858.517905	-3.006700	3.386000	-10.180000	26.163820	0.000184	20.738079
1859.517933	-3.005600	3.385500	-10.174000	26.149487	0.000183	20.754971
1860.520882	-3.003300	3.385300	-10.166000	26.137341	0.000184	20.713840
1861.519662	-3.010300	3.385100	-10.188000	26.146797	0.000181	20.745630
1862.522603	-2.986300	3.386400	-10.112000	26.112822	0.000182	20.747526
1863.522552	-3.009000	3.383000	-10.178000	26.143341	0.000182	20.745476
1864.519343	-3.009000	3.384000	-10.181000	26.176899	0.000181	20.726564
1865.517784	-3.032000	3.383500	-10.258000	26.160703	0.000180	20.727833
1866.517969	-2.976700	3.384800	-10.074000	26.162241	0.000180	20.735069
1867.518759	-2.984500	3.382900	-10.096000	26.226708	0.000179	20.715924
1868.521070	-3.004700	3.383700	-10.165000	26.200786	0.000179	20.718799
1869.518639	-3.021800	3.381900	-10.218000	26.207736	0.000177	20.724834
1870.518457	-3.020800	3.382700	-10.218000	26.218539	0.000179	20.728578
1871.523650	-2.983300	3.382500	-10.091000	26.198997	0.000178	20.726010
1872.519890	-2.999300	3.381500	-10.141000	26.213594	0.000179	20.730722
1873.523369	-3.001600	3.381300	-10.148000	26.246727	0.000178	20.745526
1874.522772	-2.997000	3.380400	-10.130000	26.259564	0.000179	20.730925
1875.522021	-2.996000	3.381300	-10.129000	26.287451	0.000179	20.742828
1876.523389	-3.020200	3.380400	-10.209000	26.293879	0.000177	20.733167
1877.522088	-2.998600	3.380100	-10.135000	26.304725	0.000177	20.742645
1878.532629	-2.988500	3.379600	-10.100000	26.323622	0.000175	20.723702
1879.523178	-3.002300	3.380100	-10.147000	26.325062	0.000175	20.737952
1880.523797	-3.002500	3.379600	-10.146000	26.350588	0.000176	20.728992
1881.522826	-2.996600	3.379300	-10.126000	26.356972	0.000178	20.737306
1882.523071	-3.016400	3.378300	-10.189000	26.338439	0.000176	20.748551
1883.533614	-3.015700	3.376700	-10.182000	26.299800	0.000175	20.740066
1884.526191	-2.995200	3.377000	-10.113000	26.283488	0.000175	20.736475
1885.523669	-3.008000	3.378300	-10.160000	26.323145	0.000174	20.724645
1886.525720	-3.009100	3.376700	-10.159000	26.352317	0.000172	20.740214
1887.525284	-2.998700	3.377400	-10.127000	26.289341	0.000175	20.761798
1888.526471	-2.995600	3.377100	-10.115000	26.310431	0.000175	20.757388
1889.531106	-3.008900	3.375000	-10.154000	26.285346	0.000174	20.744980
1890.526304	-2.992600	3.375800	-10.102000	26.225742	0.000174	20.743878
1891.526679	-2.977100	3.375400	-10.048000	26.248366	0.000175	20.724886
1892.525933	-3.001500	3.374800	-10.129000	26.307864	0.000174	20.739635
1893.526126	-2.994300	3.373800	-10.101000	26.346404	0.000173	20.752764
1894.526641	-2.978500	3.375100	-10.052000	26.323857	0.000172	20.752863
1895.528357	-2.985700	3.374300	-10.074000	26.277496	0.000172	20.783086
1896.526466	-2.977000	3.374800	-10.046000	26.264035	0.000172	20.734943
1897.528342	-3.012700	3.372900	-10.160000	26.226533	0.000170	20.768382
1898.529973	-2.981900	3.373700	-10.059000	26.249580	0.000171	20.747444
1899.527487	-2.984100	3.374100	-10.067000	26.308287	0.000172	20.753811
1900.531344	-2.998700	3.373800	-10.116000	26.336418	0.000171	20.761220
1901.528791	-2.993600	3.373400	-10.098000	26.344855	0.000168	20.744569
1902.529296	-3.004900	3.371100	-10.129000	26.287424	0.000170	20.755604
1903.530652	-2.993200	3.372300	-10.093000	26.291566	0.000170	20.740800
1904.530727	-3.011400	3.371200	-10.151000	26.290874	0.000170	20.738207
1905.531339	-2.997100	3.372700	-10.108000	26.245328	0.000169	20.750284
1906.535175	-3.010400	3.370800	-10.146000	26.265936	0.000168	20.756295
1907.531416	-3.000500	3.370400	-10.112000	26.271701	0.000169	20.754028
1908.533593	-2.979300	3.370400	-10.041000	26.247815	0.000166	20.765586
1909.532518	-2.989100	3.369700	-10.071000	26.242295	0.000168	20.757194
1910.531274	-3.000200	3.369000	-10.107000	26.275053	0.000168	20.757396
1911.531901	-2.991900	3.369100	-10.079000	26.258209	0.000167	20.769867
1912.532673	-2.987300	3.369100	-10.064000	26.276242	0.000165	20.752427
1913.531849	-2.993100	3.368400	-10.081000	26.303528	0.000166	20.754719
1914.532504	-2.974900	3.369700	-10.024000	26.352595	0.000167	20.777479
1915.531474	-2.994800	3.367800	-10.085000	26.387782	0.000167	20.752150
1916.535265	-3.005400	3.368200	-10.122000	26.408043	0.000166	20.742168
1917.531805	-3.022300	3.366700	-10.174000	26.376061	0.000167	20.758389
1918.530773	-3.005200	3.368200	-10.121000	26.305661	0.000165	20.766819
1919.531467	-3.020700	3.366900	-10.169000	26.307769	0.000166	20.753765
1920.531853	-3.007100	3.364800	-10.118000	26.342363	0.000165	20.749651
1921.536342	-3.005300	3.365300	-10.113000	26.375701	0.000165	20.763243
1922.535961	-2.989400	3.365200	-10.059000	26.352216	0.000165	20.750544
1923.532219	-3.004200	3.366300	-10.112000	26.340165	0.000165	20.750287
1924.533533	-2.998700	3.366500	-10.094000	26.351532	0.000164	20.769297
1925.534400	-3.003400	3.364900	-10.105000	26.401785	0.000162	20.766699
1926.535675	-3.006100	3.364200	-10.112000	26.401019	0.000165	20.754075
1927.537434	-2.984500	3.364000	-10.039000	26.320535	0.000164	20.751896
1928.535160	-3.028100	3.361900	-10.179000	26.286191	0.000163	20.749623
1929.542245	-2.992600	3.363800	-10.066000	26.294782	0.000163	20.782440
1930.534746	-2.996900	3.363600	-10.080000	26.314274	0.000164	20.760302
1931.534677	-3.011100	3.363200	-10.126000	26.381832	0.000162	20.768456
1932.536858	-3.029600	3.363000	-10.188000	26.410929	0.000162	20.761190
1933.535371	-3.000000	3.361800	-10.085000	26.346738	0.000160	20.796722
1934.536891	-3.005400	3.361900	-10.103000	26.356247	0.000161	20.773088
1935.537264	-2.987500	3.361500	-10.041000	26.372110	0.000162	20.772910
1936.536335	-3.023900	3.361100	-10.162000	26.417646	0.000160	20.754190
1937.537638	-3.011100	3.360900	-10.119000	26.475768	0.000163	20.770885
1938.539749	-3.003200	3.361300	-10.094000	26.455129	0.000163	20.777167
1939.539495	-3.001700	3.360600	-10.087000	26.468215	0.000160	20.771353
1940.539856	-2.985600	3.360400	-10.031000	26.513795	0.000161	20.792038
1941.541905	-2.991100	3.359700	-10.047000	26.480598	0.000163	20.750134
1942.538259	-3.005200	3.359200	-10.095000	26.407226	0.000160	20.771693
1943.540090	-2.979600	3.360200	-10.010000	26.425914	0.000159	20.774829
1944.544906	-3.013600	3.358600	-10.120000	26.408012	0.000160	20.781492
1945.540421	-3.018100	3.359700	-10.139000	26.414856	0.000159	20.793113
1946.542315	-3.004100	3.358300	-10.088000	26.453584	0.000160	20.780355
1947.540138	-3.008200	3.357300	-10.098000	26.477912	0.000159	20.785842
1948.545318	-3.010500	3.357800	-10.107000	26.458718	0.000159	20.787413
1949.541681	-2.991300	3.358000	-10.044000	26.430978	0.000159	20.793196
1950.540977	-2.986800	3.357800	-10.028000	26.449273	0.000158	20.779815
1951.543500	-3.002200	3.356000	-10.075000	26.470668	0.000155	20.782828
1952.547878	-2.962900	3.357400	-9.946100	26.465798	0.000157	20.790261
1953.541295	-3.006600	3.356300	-10.090000	26.454942	0.000156	20.792626
1954.545478	-3.003500	3.355200	-10.076000	26.436834	0.000155	20.791494
1955.541909	-3.001000	3.356600	-10.072000	26.452647	0.000158	20.787000
1956.542494	-3.033900	3.354200	-10.175000	26.505230	0.000155	20.783428
1957.543169	-2.999200	3.355500	-10.063000	26.511853	0.000156	20.791508
1958.541726	-3.012500	3.354500	-10.105000	26.474974	0.000153	20.780992
1959.545367	-3.016000	3.353900	-10.114000	26.488954	0.000155	20.790303
1960.543501	-3.014900	3.354600	-10.112000	26.532415	0.000154	20.793211
1961.543747	-2.982800	3.354900	-10.005000	26.504726	0.000155	20.796199
1962.543694	-2.991300	3.354200	-10.032000	26.492958	0.000151	20.789585
1963.546885	-3.016700	3.352000	-10.111000	26.484290	0.000152	20.795571
1964.545012	-3.012400	3.352100	-10.097000	26.510131	0.000154	20.788355
1965.547050	-3.003400	3.352200	-10.067000	26.513673	0.000154	20.793338
1966.547323	-2.978000	3.352900	-9.983900	26.530006	0.000151	20.797427
1967.546372	-3.026600	3.350500	-10.140000	26.540683	0.000151	20.798203
1968.547412	-3.004800	3.351200	-10.069000	26.553507	0.000152	20.812041
1969.547108	-3.002400	3.351100	-10.060000	26.566022	0.000151	20.794750
1970.553549	-3.013900	3.350200	-10.095000	26.516360	0.000152	20.799357
1971.547797	-2.999000	3.351100	-10.049000	26.526118	0.000149	20.800158
1972.545741	-3.018000	3.349600	-10.108000	26.525936	0.000149	20.809932
1973.549271	-2.990600	3.350600	-10.019000	26.500463	0.000151	20.808509
1974.549020	-3.002600	3.349300	-10.055000	26.474115	0.000151	20.811423
1975.554282	-2.998200	3.349500	-10.042000	26.471953	0.000151	20.819207
1976.556829	-3.007600	3.347600	-10.067000	26.474257	0.000149	20.799712
1977.549950	-3.021000	3.348800	-10.116000	26.425520	0.000149	20.809521
1978.549881	-3.011200	3.348100	-10.080000	26.412630	0.000148	20.807471
1979.555416	-3.013900	3.348000	-10.089000	26.460277	0.000148	20.817902
1980.549828	-2.997800	3.348000	-10.036000	26.483392	0.000147	20.803678
1981.553599	-3.010800	3.348700	-10.081000	26.556129	0.000145	20.809935
1982.551094	-2.999700	3.345800	-10.035000	26.568889	0.000146	20.811382
1983.550673	-3.021400	3.346300	-10.109000	26.586361	0.000146	20.810928
1984.550016	-2.996200	3.345700	-10.024000	26.609350	0.000143	20.829770
1985.550966	-2.985600	3.346500	-9.989400	26.625583	0.000144	20.805312
1986.550420	-3.001400	3.346400	-10.043000	26.679725	0.000145	20.822282
1987.551206	-3.015000	3.344300	-10.082000	26.683125	0.000146	20.814795
1988.551350	-2.997300	3.345900	-10.026000	26.644774	0.000142	20.831716
1989.553019	-2.992400	3.346500	-10.013000	26.657681	0.000142	20.820035
1990.552974	-3.000000	3.344600	-10.033000	26.652468	0.000143	20.816691
1991.553182	-3.015900	3.343800	-10.083000	26.573748	0.000140	20.823853
1992.555307	-2.999300	3.343800	-10.029000	26.561258	0.000140	20.820781
1993.553876	-2.993300	3.344300	-10.010000	26.570299	0.000141	20.821808
1994.556599	-3.015900	3.343700	-10.083000	26.608082	0.000138	20.814746
1995.559527	-2.976900	3.343100	-9.950900	26.630600	0.000139	20.812251
1996.555387	-2.997300	3.341500	-10.014000	26.575935	0.000139	20.817991
1997.557489	-2.981600	3.343900	-9.968600	26.553293	0.000139	20.824629
1998.554323	-2.995100	3.341200	-10.006000	26.538941	0.000138	20.826322
1999.555389	-2.994900	3.342200	-10.008000	26.528440	0.000138	20.820509
2000.559570	-2.982000	3.340700	-9.960600	26.550291	0.000138	20.829197
2001.556393	-2.992900	3.341700	-10.000000	26.505332	0.000137	20.832368
2002.558583	-2.990300	3.340900	-9.989300	26.516702	0.000139	20.820090
2003.561140	-3.012000	3.340600	-10.060000	26.525591	0.000139	20.847042
2004.560163	-2.985500	3.339600	-9.969400	26.542897	0.000138	20.846894
2005.560187	-3.004200	3.340200	-10.034000	26.573061	0.000138	20.828378
2006.563757	-2.992400	3.340000	-9.993700	26.553746	0.000136	20.832669
2007.557348	-2.975000	3.340200	-9.935400	26.591977	0.000136	20.837436
2008.559875	-3.019200	3.338000	-10.077000	26.654837	0.000135	20.807219
2009.557873	-3.003300	3.339600	-10.029000	26.670455	0.000136	20.852317
2010.558248	-2.995400	3.336500	-9.993400	26.656453	0.000138	20.852465
2011.562003	-2.992500	3.337300	-9.985300	26.614402	0.000134	20.821572
2012.559771	-3.023600	3.335500	-10.084000	26.543722	0.000135	20.842508
2013.565568	-2.994400	3.338200	-9.994800	26.468474	0.000133	20.828986
2014.560847	-3.015300	3.335200	-10.056000	26.478503	0.000135	20.846178
2015.560904	-2.982600	3.336900	-9.952000	26.529503	0.000134	20.828215
2016.562319	-2.992300	3.336200	-9.981600	26.560286	0.000133	20.843037
2017.563922	-2.991300	3.337000	-9.980800	26.556567	0.000134	20.843092
2018.562163	-2.995900	3.335500	-9.991600	26.581665	0.000134	20.832759
2019.564615	-2.981400	3.335800	-9.944900	26.567362	0.000135	20.832606
2020.565196	-3.009900	3.335100	-10.038000	26.643601	0.000134	20.834330
2021.561900	-2.993600	3.335600	-9.984700	26.689223	0.000132	20.847477
2022.565486	-2.995000	3.333300	-9.982700	26.675801	0.000133	20.849157
2023.563370	-2.989500	3.333600	-9.964600	26.691832	0.000132	20.837298
2024.565619	-3.021900	3.333600	-10.073000	26.656832	0.000135	20.835303
2025.563035	-3.019800	3.333300	-10.064000	26.648367	0.000132	20.848603
2026.564333	-3.003500	3.333000	-10.010000	26.688255	0.000134	20.854564
2027.563621	-3.018500	3.332600	-10.058000	26.645335	0.000132	20.831332
2028.563362	-3.010000	3.332800	-10.031000	26.616741	0.000130	20.822501
2029.566319	-3.029800	3.331900	-10.094000	26.611272	0.000130	20.835969
2030.562126	-2.990900	3.331200	-9.962200	26.623486	0.000132	20.850144
2031.565693	-2.990000	3.331300	-9.959900	26.618371	0.000133	20.857804
2032.568250	-3.002700	3.330100	-9.998600	26.608019	0.000130	20.849768
2033.564894	-2.990300	3.331400	-9.961000	26.549157	0.000129	20.856031
2034.568456	-2.980300	3.329500	-9.922000	26.579566	0.000130	20.858149
2035.565647	-2.986700	3.329300	-9.942500	26.606299	0.000129	20.841876
2036.572852	-2.977500	3.329000	-9.910800	26.664540	0.000130	20.845422
2037.566818	-2.998700	3.330300	-9.984600	26.729006	0.000128	20.859972
2038.566707	-3.001000	3.329600	-9.991300	26.728082	0.000126	20.856198
2039.567350	-3.009900	3.329600	-10.021000	26.688245	0.000130	20.866881
2040.571168	-2.953000	3.330300	-9.832900	26.699283	0.000127	20.870392
2041.569002	-3.008900	3.327800	-10.012000	26.734287	0.000127	20.845841
2042.567793	-2.986500	3.328800	-9.940600	26.756748	0.000126	20.870318
2043.573204	-2.980000	3.328200	-9.916900	26.714302	0.000128	20.868422
2044.568027	-2.986800	3.327500	-9.937400	26.713978	0.000126	20.873785
2045.570831	-2.999000	3.326700	-9.975100	26.743646	0.000125	20.868525
2046.569133	-3.015900	3.326200	-10.031000	26.746623	0.000126	20.848286
2047.570010	-3.009400	3.326700	-10.011000	26.799088	0.000127	20.848404
2048.569879	-3.022000	3.324900	-10.046000	26.782386	0.000128	20.863853
2049.570270	-2.997700	3.325900	-9.969500	26.773990	0.000126	20.873429
2050.570253	-3.022300	3.323800	-10.045000	26.768827	0.000125	20.862549
2051.571035	-2.999500	3.323400	-9.967900	26.768454	0.000125	20.860277
2052.570422	-2.993000	3.324400	-9.948800	26.751451	0.000126	20.861675
2053.572037	-2.995400	3.324000	-9.955600	26.708455	0.000125	20.865862
2054.573534	-3.003700	3.323200	-9.981200	26.705026	0.000123	20.864786
2055.573738	-3.012200	3.323000	-10.008000	26.694099	0.000123	20.883671
2056.576962	-2.975500	3.324200	-9.890800	26.683497	0.000124	20.879177
2057.576265	-2.987700	3.323700	-9.929300	26.695337	0.000121	20.862158
2058.578408	-3.013500	3.322600	-10.012000	26.708538	0.000122	20.855989
2059.578941	-3.016200	3.321200	-10.017000	26.779417	0.000122	20.858971
2060.576677	-2.981200	3.323200	-9.906100	26.818956	0.000123	20.849889
2061.579236	-3.011700	3.321800	-10.004000	26.836110	0.000123	20.866330
2062.575635	-3.024600	3.319500	-10.039000	26.862306	0.000121	20.868819
2063.580810	-2.999300	3.321300	-9.960900	26.858081	0.000122	20.863149
2064.577766	-2.989100	3.321100	-9.925900	26.845049	0.000122	20.879916
2065.578753	-2.992200	3.320700	-9.934900	26.822954	0.000122	20.870976
2066.578547	-2.990300	3.320800	-9.929700	26.827444	0.000120	20.903937
2067.581937	-3.014000	3.320400	-10.007000	26.819913	0.000119	20.910589
2068.576531	-3.015500	3.318400	-10.006000	26.809857	0.000119	20.881041
2069.578898	-3.001600	3.318100	-9.959000	26.807396	0.000119	20.885678
2070.583094	-3.004900	3.319100	-9.972600	26.830694	0.000119	20.881603
2071.582449	-3.009300	3.318100	-9.984500	26.919293	0.000120	20.907151
2072.583846	-3.007200	3.318400	-9.978600	26.948891	0.000117	20.885707
2073.581069	-2.987800	3.317300	-9.910900	26.914046	0.000117	20.899980
2074.579825	-2.998000	3.317800	-9.946000	26.913693	0.000118	20.898202
2075.579455	-2.998900	3.315900	-9.943500	26.943075	0.000118	20.898350
2076.582521	-3.002800	3.315800	-9.955600	26.960963	0.000116	20.889312
2077.586094	-3.011000	3.316900	-9.985900	26.895489	0.000116	20.886062
2078.581659	-3.004900	3.315400	-9.961800	26.821920	0.000115	20.895539
2079.582114	-3.016900	3.315800	-10.002000	26.785033	0.000115	20.903021
2080.582998	-3.001400	3.314200	-9.946900	26.809678	0.000115	20.884654
2081.584734	-3.000200	3.315300	-9.944900	26.862956	0.000115	20.899815
2082.582318	-3.002900	3.315700	-9.954700	26.837265	0.000113	20.875882
2083.586565	-2.995900	3.314400	-9.928600	26.847212	0.000114	20.903899
2084.584293	-3.005100	3.314100	-9.959100	26.847507	0.000113	20.888076
2085.582822	-2.988600	3.314400	-9.904600	26.905282	0.000112	20.894012
2086.588861	-2.995600	3.313500	-9.925400	26.898847	0.000115	20.900343
2087.584780	-3.017300	3.312000	-9.992300	26.895197	0.000112	20.896674
2088.587808	-2.980000	3.313000	-9.871600	26.869856	0.000111	20.886367
2089.585237	-3.002500	3.311700	-9.942200	26.828024	0.000109	20.888401
2090.586376	-2.978400	3.312700	-9.865000	26.821397	0.000111	20.905444
2091.587054	-3.011200	3.312000	-9.972200	26.893468	0.000110	20.885453
2092.586498	-3.011300	3.312400	-9.973800	26.933971	0.000111	20.863594
2093.591907	-2.983100	3.311500	-9.877500	26.919570	0.000110	20.896999
2094.587067	-3.013300	3.311900	-9.978700	26.887377	0.000110	20.908723
2095.586823	-3.010000	3.311100	-9.965700	26.918145	0.000108	20.897463
2096.594263	-3.001400	3.310400	-9.935600	26.935862	0.000109	20.887304
2097.588202	-3.000000	3.309800	-9.928700	26.928857	0.000109	20.875046
2098.590994	-3.016200	3.308500	-9.978300	26.920075	0.000107	20.867164
2099.591807	-2.996600	3.308400	-9.913300	26.890088	0.000108	20.886795
2100.590788	-2.994400	3.310100	-9.910600	26.921902	0.000108	20.884173
2101.591351	-2.998300	3.308700	-9.919600	26.858611	0.000106	20.887388
2102.593401	-2.999800	3.307200	-9.920300	26.937011	0.000106	20.870443
2103.596107	-3.040800	3.309400	-10.063000	27.011431	0.000106	20.861355
2104.593091	-3.004200	3.307100	-9.934600	27.043369	0.000107	20.873085
2105.597285	-3.003700	3.307500	-9.934200	27.047785	0.000108	20.887481
2106.595481	-2.992800	3.307200	-9.896600	26.988200	0.000105	20.866442
2107.592339	-3.002300	3.307000	-9.927500	26.977650	0.000104	20.876695
2108.598262	-2.995200	3.306700	-9.903200	26.968268	0.000104	20.866788
2109.595278	-2.983000	3.306000	-9.861100	26.970651	0.000105	20.871080
2110.592622	-3.000100	3.305800	-9.916800	26.925207	0.000104	20.862842
2111.594939	-2.976300	3.305400	-9.836300	26.928601	0.000104	20.865780
2112.593356	-3.002900	3.304800	-9.923400	26.965729	0.000102	20.870872
2113.593987	-3.010200	3.304600	-9.946600	27.003076	0.000103	20.880453
2114.596467	-3.002600	3.304900	-9.922400	27.023572	0.000104	20.860762
2115.593052	-3.021700	3.304600	-9.985000	27.001436	0.000102	20.878804
2116.593197	-3.001600	3.304400	-9.917100	26.990365	0.000103	20.869568
2117.601693	-3.005100	3.303300	-9.925700	26.934947	0.000101	20.879273
2118.595982	-2.991700	3.302100	-9.878100	26.981328	0.000102	20.866170
2119.594955	-3.022100	3.302800	-9.980600	27.034926	0.000101	20.887353
2120.594494	-2.983900	3.302900	-9.855000	27.077207	0.000101	20.863967
2121.595938	-2.990900	3.301300	-9.873000	27.034926	0.000101	20.860328
2122.599332	-2.991700	3.301700	-9.877400	27.044847	0.000101	20.870778
2123.595070	-2.997900	3.301100	-9.895800	27.001318	9.928778E-5	20.860668
2124.596430	-3.009000	3.299400	-9.927500	26.929240	0.000100	20.866896
2125.596110	-3.018900	3.300400	-9.962100	26.911572	9.938679E-5	20.860510
2126.596587	-3.005500	3.300600	-9.918800	26.910604	9.849572E-5	20.871390
2127.596397	-3.009200	3.300200	-9.930400	26.954427	9.849572E-5	20.858559
2128.598011	-3.005200	3.299500	-9.914400	27.011921	0.000102	20.869435
2129.596559	-2.973300	3.299700	-9.810900	27.059910	9.912277E-5	20.883080
2130.596796	-2.997300	3.299800	-9.890000	27.058913	9.885875E-5	20.851734
2131.596761	-3.029500	3.297500	-9.988000	27.050274	9.849572E-5	20.866279
2132.596624	-2.989000	3.298300	-9.858100	26.985277	9.763766E-5	20.861606
2133.597213	-3.016400	3.295400	-9.939000	27.031635	9.899076E-5	20.864604
2134.597310	-2.997400	3.297600	-9.883000	27.017162	9.770366E-5	20.848627
2135.601439	-3.004400	3.297900	-9.907200	27.054429	9.767066E-5	20.853862
2136.596474	-3.004500	3.296300	-9.902800	27.070778	9.899076E-5	20.856554
2137.596912	-2.998100	3.296300	-9.882300	27.045937	9.641657E-5	20.830625
2138.597271	-2.978200	3.296000	-9.814900	26.981932	9.621856E-5	20.863458
2139.598761	-2.977100	3.295500	-9.810300	27.043968	9.737364E-5	20.851877
2140.598958	-3.013400	3.293100	-9.922200	27.126817	9.694461E-5	20.850800
2141.603108	-3.008300	3.294400	-9.908200	27.179269	9.397439E-5	20.849501
2142.601918	-2.996300	3.295800	-9.874800	27.133830	9.651558E-5	20.847422
2143.606501	-2.989100	3.293800	-9.844900	27.175586	9.456844E-5	20.828254
2144.605169	-2.971400	3.294600	-9.788600	27.131993	9.239028E-5	20.860273
2145.603050	-3.003600	3.293000	-9.889700	27.132956	9.542650E-5	20.875939
2146.603981	-2.988100	3.292800	-9.837400	27.106801	9.265430E-5	20.849635
2147.604415	-3.013400	3.292700	-9.921100	27.068534	9.443643E-5	20.839125
2148.604513	-3.011400	3.292600	-9.914000	27.041360	9.235727E-5	20.832660
2149.604941	-2.989400	3.292300	-9.840100	27.033467	9.285231E-5	20.848430
2150.604842	-3.011100	3.292200	-9.911700	27.074633	9.133420E-5	20.832931
2151.604557	-3.006400	3.289500	-9.888500	27.076495	9.166422E-5	20.842863
2152.605025	-2.999900	3.290600	-9.870300	27.083365	9.265430E-5	20.837920
2153.607003	-3.026900	3.288900	-9.955000	27.126891	9.206025E-5	20.848504
2154.605253	-2.996000	3.290700	-9.857200	27.148155	9.077316E-5	20.840019
2155.605847	-2.997500	3.290600	-9.862400	27.193161	9.153221E-5	20.844034
2156.605368	-3.000700	3.290100	-9.872600	27.224220	9.064115E-5	20.832126
2157.605719	-2.974300	3.289900	-9.784400	27.163035	9.166422E-5	20.829854
2158.606758	-2.981300	3.288500	-9.802700	27.117605	8.892502E-5	20.833475
2159.607217	-3.014600	3.286800	-9.907700	27.058250	9.100417E-5	20.836843
2160.607925	-2.987000	3.287800	-9.819700	27.026361	8.948606E-5	20.842231
2161.606714	-2.985400	3.288200	-9.815600	27.004029	9.034413E-5	20.837317
2162.610457	-3.023100	3.286300	-9.933400	27.070282	8.819897E-5	20.845150
2163.606655	-3.001300	3.285200	-9.859300	27.144001	8.925505E-5	20.835366
2164.609330	-3.001700	3.286700	-9.864900	27.129632	8.839698E-5	20.828975
2165.608367	-3.012700	3.286200	-9.899100	27.166978	8.899103E-5	20.834295
2166.610293	-2.985400	3.285800	-9.807700	27.205158	8.928805E-5	20.830022
2167.609462	-3.011000	3.285900	-9.892700	27.164695	8.578979E-5	20.843851
2168.613237	-2.997300	3.285400	-9.846000	27.103731	8.750592E-5	20.821419
2169.614479	-3.000900	3.285700	-9.859400	27.087824	8.440369E-5	20.829603
2170.611735	-3.017000	3.284500	-9.908200	27.165981	8.720890E-5	20.830447
2171.614632	-3.001300	3.284600	-9.856900	27.210343	8.437069E-5	20.830971
2172.614604	-3.019900	3.283300	-9.914500	27.253192	8.631783E-5	20.834240
2173.615315	-3.022400	3.283000	-9.921600	27.260189	8.592180E-5	20.829899
2174.612217	-3.008400	3.281600	-9.870300	27.247186	8.572379E-5	20.818243
2175.613517	-2.998900	3.281900	-9.840800	27.227088	8.318260E-5	20.839278
2176.613262	-3.007700	3.280700	-9.866600	27.224456	8.476672E-5	20.834734
2177.613809	-3.012600	3.279900	-9.879900	27.273216	8.357863E-5	20.834467
2178.615493	-2.978500	3.280300	-9.769600	27.286885	8.314960E-5	20.842054
2179.615584	-2.992000	3.280500	-9.814400	27.292414	8.229154E-5	20.812054
2180.616570	-2.978500	3.280700	-9.770700	27.267530	8.308360E-5	20.827800
2181.616155	-3.008000	3.281300	-9.869100	27.284205	8.215953E-5	20.821340
2182.615996	-3.015100	3.280300	-9.888900	27.288943	8.192851E-5	20.812830
2183.617507	-2.993200	3.280400	-9.817300	27.226219	8.229154E-5	20.834611
2184.622538	-3.002000	3.278500	-9.841200	27.220788	7.978335E-5	20.811131
2185.616835	-3.009000	3.279100	-9.865800	27.251252	8.116946E-5	20.807634
2186.617873	-2.997500	3.277200	-9.821900	27.273682	8.136747E-5	20.840152
2187.615089	-2.985600	3.278600	-9.788100	27.306261	8.050941E-5	20.822663
2188.617342	-2.980900	3.278500	-9.772700	27.377847	8.113645E-5	20.830665
2189.618812	-2.980100	3.278400	-9.768800	27.344883	8.074042E-5	20.819315
2190.617470	-2.994200	3.277000	-9.810600	27.331135	7.955234E-5	20.826348
2191.617485	-2.983400	3.277400	-9.777200	27.283100	7.984936E-5	20.818332
2192.617101	-2.988200	3.277700	-9.793800	27.291192	8.103745E-5	20.816514
2193.617753	-3.005500	3.276100	-9.845400	27.334081	7.895829E-5	20.830734
2194.620767	-2.999100	3.274500	-9.819800	27.310714	7.823224E-5	20.815289
2195.625539	-3.011100	3.273700	-9.856000	27.287617	7.810023E-5	20.793479
2196.621221	-2.993700	3.274200	-9.801300	27.344524	7.720917E-5	20.805678
2197.617250	-3.027600	3.273400	-9.910000	27.297929	7.711016E-5	20.807170
2198.624688	-2.994200	3.273100	-9.798800	27.315325	7.823224E-5	20.799065
2199.620810	-3.016400	3.272700	-9.870100	27.308426	7.585607E-5	20.810617
2200.622898	-2.987400	3.273700	-9.779300	27.340474	7.958534E-5	20.810138
2201.620646	-3.006800	3.272100	-9.838200	27.364468	7.803423E-5	20.815783
2202.621546	-3.019300	3.272900	-9.880600	27.382875	7.572406E-5	20.792101
2203.623304	-3.016300	3.270500	-9.863200	27.402719	7.717616E-5	20.834349
2204.621292	-3.014500	3.270500	-9.858000	27.395650	7.697815E-5	20.813961
2205.623784	-3.006600	3.271300	-9.834300	27.357913	7.737418E-5	20.806819
2206.625104	-2.998400	3.271300	-9.807500	27.353500	7.430495E-5	20.825612
2207.626903	-2.999700	3.269200	-9.806000	27.295223	7.602108E-5	20.804923
2208.621497	-3.024900	3.268100	-9.884500	27.312261	7.380992E-5	20.815423
2209.622556	-3.003500	3.269900	-9.820600	27.303482	7.546004E-5	20.817497
2210.624222	-3.016600	3.269800	-9.863500	27.333325	7.466798E-5	20.814327
2211.623497	-2.984300	3.268200	-9.751200	27.339899	7.430495E-5	20.787749
2212.622551	-3.008400	3.268500	-9.832100	27.354182	7.341389E-5	20.794057
2213.625206	-2.988700	3.267700	-9.765500	27.394172	7.285285E-5	20.799198
2214.625804	-2.992000	3.268800	-9.778500	27.360506	7.394193E-5	20.808953
2215.625737	-3.006600	3.266400	-9.819800	27.336242	7.186278E-5	20.810148
2216.622164	-3.012600	3.266200	-9.839200	27.337606	7.107072E-5	20.816263
2217.625062	-3.005200	3.266000	-9.813600	27.289773	7.202779E-5	20.813665
2218.624195	-3.012000	3.266100	-9.836700	27.252559	7.176377E-5	20.816060
2219.621995	-3.004300	3.265900	-9.811000	27.184402	7.314987E-5	20.804404
2220.624093	-2.991300	3.265200	-9.766900	27.228586	7.225880E-5	20.797638
2221.622226	-3.008600	3.264300	-9.819700	27.322759	7.285285E-5	20.784258
2222.625866	-2.995000	3.264100	-9.773800	27.348953	6.912357E-5	20.797332
2223.625136	-3.017500	3.262600	-9.843600	27.373954	7.301786E-5	20.815369
2224.625526	-3.002100	3.263600	-9.796300	27.382615	7.097171E-5	20.797529
2225.628150	-2.997200	3.263000	-9.778800	27.321168	6.829851E-5	20.802098
2226.628695	-2.997900	3.263200	-9.782000	27.318512	7.008064E-5	20.792788
2227.625861	-2.981500	3.262500	-9.725900	27.345850	7.070769E-5	20.790891
2228.626609	-3.005300	3.260100	-9.796500	27.396652	6.701142E-5	20.815443
2229.627928	-3.013300	3.261000	-9.825300	27.358818	6.691241E-5	20.790659
2230.628409	-3.016500	3.260100	-9.832900	27.426291	6.777048E-5	20.797846
2231.632701	-3.017700	3.262200	-9.843600	27.394315	6.796849E-5	20.788911
2232.632696	-2.995300	3.259100	-9.761300	27.374568	6.671440E-5	20.807926
2233.630968	-2.995500	3.261400	-9.769000	27.361322	6.714343E-5	20.785592
2234.631321	-2.997800	3.260000	-9.772400	27.341152	7.090571E-5	20.785690
2235.632977	-3.026200	3.260300	-9.865100	27.302722	6.707742E-5	20.802982
2236.635988	-2.979700	3.259400	-9.711200	27.398233	6.915658E-5	20.794749
2237.637542	-3.002900	3.258300	-9.783800	27.400791	6.559232E-5	20.780726
2238.631471	-2.998600	3.257100	-9.765800	27.439434	6.618636E-5	20.797317
2239.631344	-3.013200	3.257700	-9.815800	27.382674	6.717643E-5	20.786683
2240.634705	-3.004600	3.257600	-9.786600	27.344496	6.447023E-5	20.794270
2241.633817	-3.004000	3.256800	-9.782500	27.369074	6.526229E-5	20.782959
2242.637206	-2.991100	3.256600	-9.739800	27.449945	6.618636E-5	20.811685
2243.634301	-3.012800	3.255100	-9.805900	27.471075	6.872755E-5	20.791218
2244.635690	-3.010400	3.255600	-9.799800	27.505375	6.384319E-5	20.792536
2245.638474	-2.991400	3.255600	-9.737800	27.498508	6.489927E-5	20.798903
2246.635579	-3.016200	3.253700	-9.813100	27.525591	6.282011E-5	20.769253
2247.638753	-2.994100	3.253700	-9.740600	27.509666	6.278711E-5	20.775042
2248.636409	-2.992800	3.252700	-9.733800	27.507948	6.476726E-5	20.794176
2249.635619	-2.979800	3.252700	-9.690800	27.500682	6.166503E-5	20.793030
2250.639255	-3.007900	3.252100	-9.781100	27.424873	6.420621E-5	20.791677
2251.637055	-3.008800	3.252300	-9.784300	27.446381	6.288612E-5	20.794349
2252.638868	-3.003500	3.252100	-9.767100	27.503648	6.407421E-5	20.765194
2253.640048	-2.979100	3.252500	-9.688100	27.545738	6.357917E-5	20.793317
2254.637602	-2.992400	3.252300	-9.731100	27.595317	6.258910E-5	20.787252
2255.637409	-2.995600	3.251100	-9.738000	27.553745	6.249009E-5	20.776717
2256.642543	-3.016100	3.249800	-9.800200	27.540500	6.192905E-5	20.806065
2257.638690	-3.017900	3.249300	-9.805400	27.531316	6.232508E-5	20.775961
2258.642913	-2.990400	3.250300	-9.718700	27.571569	6.083997E-5	20.774737
2259.639706	-3.017800	3.250200	-9.807500	27.587267	6.083997E-5	20.774885
2260.638376	-3.008300	3.247800	-9.769600	27.571839	6.159902E-5	20.786862
2261.638061	-2.990100	3.249000	-9.714100	27.578834	6.041094E-5	20.762606
2262.639464	-2.999600	3.248500	-9.743000	27.586595	6.067496E-5	20.770415
2263.639176	-2.998500	3.248300	-9.739300	27.555164	6.001491E-5	20.777197
2264.640405	-2.981000	3.248600	-9.682800	27.482215	6.097198E-5	20.771131
2265.639359	-3.018100	3.246200	-9.796100	27.482706	6.301813E-5	20.766410
2266.639148	-3.017400	3.244500	-9.788900	27.559450	6.067496E-5	20.783879
2267.640784	-2.984000	3.246600	-9.687200	27.618001	6.229207E-5	20.770248
2268.638314	-3.010900	3.245800	-9.772500	27.662767	6.037793E-5	20.763609
2269.641063	-2.986700	3.245600	-9.692700	27.669064	6.044394E-5	20.788913
2270.638400	-3.007100	3.245100	-9.757300	27.721563	5.859580E-5	20.762557
2271.639244	-3.023300	3.244200	-9.807300	27.729068	6.041094E-5	20.765842
2272.639753	-3.019900	3.242100	-9.789500	27.695806	6.093898E-5	20.775518
2273.638982	-3.005700	3.243300	-9.747700	27.659572	5.899183E-5	20.776990
2274.642530	-3.014300	3.242000	-9.772100	27.687074	5.984990E-5	20.771473
2275.639585	-3.014200	3.242600	-9.772800	27.641239	5.694568E-5	20.783199
2276.640843	-3.024200	3.241600	-9.802300	27.573259	5.879382E-5	20.775963
2277.644075	-3.005100	3.241600	-9.740300	27.587093	5.829878E-5	20.767122
2278.640503	-3.002100	3.241300	-9.730200	27.626004	5.763873E-5	20.767868
2279.646966	-2.988300	3.241800	-9.685800	27.621307	5.565859E-5	20.770254
2280.638563	-2.999200	3.239800	-9.715300	27.626068	5.885982E-5	20.775045
2281.640841	-3.014500	3.239000	-9.763400	27.637500	5.687968E-5	20.785126
2282.642267	-3.009000	3.240100	-9.748400	27.608726	5.704469E-5	20.775614
2283.643102	-2.977600	3.238800	-9.642700	27.626059	5.707769E-5	20.782622
2284.645006	-2.995800	3.237500	-9.698300	27.584404	5.645065E-5	20.773900
2285.643293	-3.021100	3.237200	-9.778200	27.570365	6.017992E-5	20.786802
2286.643793	-2.993500	3.238700	-9.693900	27.627655	5.780375E-5	20.773797
2287.644144	-2.990300	3.239400	-9.685200	27.670957	5.592261E-5	20.773273
2288.642715	-3.004700	3.239100	-9.731600	27.645360	5.430549E-5	20.767430
2289.642276	-2.998600	3.237200	-9.706000	27.653096	5.364544E-5	20.756722
2290.648066	-2.999900	3.236400	-9.708400	27.630517	5.532856E-5	20.756288
2291.644803	-2.998700	3.236800	-9.705400	27.652635	5.381045E-5	20.754836
2292.646183	-2.990600	3.236100	-9.677500	27.615507	5.427249E-5	20.748771
2293.651510	-3.003700	3.235900	-9.717700	27.708924	5.245735E-5	20.765486
2294.643705	-3.000400	3.236100	-9.709200	27.731987	5.522956E-5	20.771625
2295.648766	-2.984500	3.234600	-9.652500	27.657132	5.348043E-5	20.762207
2296.645806	-3.018200	3.232200	-9.754400	27.624167	5.252336E-5	20.757485
2297.646174	-2.991500	3.234900	-9.676200	27.585079	5.476752E-5	20.748500
2298.649220	-2.999700	3.235000	-9.702300	27.576941	5.331542E-5	20.782986
2299.645882	-2.973500	3.233500	-9.613800	27.571355	5.298539E-5	20.757451
2300.647159	-2.970200	3.233500	-9.603000	27.571330	5.196232E-5	20.770229
2301.650994	-2.984000	3.231500	-9.642200	27.631246	5.140128E-5	20.771721
2302.647706	-3.004700	3.230900	-9.706800	27.644460	5.258936E-5	20.748981
2303.646510	-3.010400	3.229900	-9.721900	27.624758	5.051021E-5	20.790323
2304.646825	-3.020400	3.230600	-9.756700	27.636960	5.143428E-5	20.752814
2305.645529	-2.982400	3.229000	-9.629400	27.605491	5.018019E-5	20.742486
2306.647454	-2.983500	3.231100	-9.638000	27.647745	5.291939E-5	20.756079
2307.646157	-2.992800	3.229600	-9.665400	27.636656	4.985016E-5	20.762940
2308.646778	-2.984600	3.229000	-9.636200	27.592155	4.886009E-5	20.780751
2309.650573	-2.980400	3.229000	-9.622000	27.562742	4.849706E-5	20.766329
2310.650647	-2.982800	3.228500	-9.629100	27.638856	5.074123E-5	20.775585
2311.651390	-2.999100	3.227100	-9.677700	27.712433	4.895910E-5	20.761430
2312.649937	-3.008600	3.226400	-9.705500	27.763820	4.849706E-5	20.766201
2313.647677	-2.993600	3.225400	-9.654700	27.743309	4.711096E-5	20.772113
2314.646654	-3.017800	3.225500	-9.732400	27.652247	4.579087E-5	20.768196
2315.644887	-2.986500	3.225900	-9.633600	27.659163	4.687994E-5	20.776578
2316.648251	-2.987200	3.225000	-9.633000	27.616729	4.582387E-5	20.752845
2317.649034	-2.992500	3.223500	-9.645400	27.636446	4.562585E-5	20.769367
2318.648979	-3.017800	3.223100	-9.726200	27.597089	4.377772E-5	20.766275
2319.648838	-3.019700	3.223500	-9.732200	27.498247	4.427275E-5	20.783942
2320.651270	-3.007600	3.222300	-9.690500	27.536396	4.460278E-5	20.781073
2321.649686	-3.008200	3.221200	-9.689000	27.637565	4.216060E-5	20.766225
2322.655763	-2.988600	3.222400	-9.630200	27.710925	4.324968E-5	20.765603
2323.651472	-2.992900	3.222900	-9.644100	27.755211	4.324968E-5	20.743312
2324.649596	-2.985300	3.222500	-9.619300	27.797944	4.344769E-5	20.760239
2325.651939	-2.995100	3.222400	-9.649700	27.835291	4.357970E-5	20.764160
2326.648533	-2.972700	3.221600	-9.575800	27.869413	4.410774E-5	20.736861
2327.652079	-3.014800	3.219300	-9.704200	27.903435	4.417375E-5	20.762095
2328.655002	-3.011300	3.218600	-9.691100	27.865575	4.328268E-5	20.744852
2329.654550	-2.999400	3.218300	-9.652100	27.818708	4.150055E-5	20.768334
2330.652766	-3.009700	3.218300	-9.685200	27.766120	4.239162E-5	20.743859
2331.656776	-2.981500	3.218300	-9.594400	27.802845	4.173157E-5	20.750473
2332.654309	-2.973500	3.218300	-9.568800	27.838480	3.902537E-5	20.767844
2333.655730	-2.988900	3.216900	-9.614200	27.847510	4.199559E-5	20.767449
2334.655031	-2.996100	3.216100	-9.634800	27.819615	4.150055E-5	20.766876
2335.654938	-2.965900	3.217200	-9.540900	27.777359	3.985043E-5	20.762756
2336.655844	-2.973900	3.216300	-9.563500	27.754674	4.027946E-5	20.748936
2337.654496	-2.985000	3.215400	-9.596800	27.744357	4.130254E-5	20.763210
2338.656229	-2.998500	3.214800	-9.638800	27.740175	4.001544E-5	20.747622
2339.655520	-2.995100	3.214700	-9.627200	27.669227	4.008145E-5	20.781490
2340.654657	-2.992000	3.214400	-9.616900	27.663445	4.024646E-5	20.760024
2341.653637	-2.989200	3.212700	-9.603300	27.696753	3.859634E-5	20.757979
2342.655106	-2.992900	3.212900	-9.615400	27.766688	4.054348E-5	20.776200
2343.655705	-2.990300	3.212700	-9.606200	27.762997	3.754026E-5	20.757786
2344.654276	-3.006100	3.211800	-9.653900	27.701720	3.899237E-5	20.767245
2345.657032	-2.991600	3.211200	-9.606000	27.698122	3.754026E-5	20.756038
2346.653944	-3.021500	3.210300	-9.699000	27.760739	3.843133E-5	20.757885
2347.655149	-2.997800	3.210500	-9.624300	27.831465	3.872835E-5	20.761732
2348.654429	-3.016700	3.210400	-9.683300	27.791722	3.777128E-5	20.747813
2349.659127	-3.024600	3.208400	-9.702900	27.824530	3.981743E-5	20.777513
2350.655326	-3.007900	3.210100	-9.654300	27.871049	3.935539E-5	20.753207
2351.657241	-3.010700	3.207400	-9.654900	27.917791	3.919038E-5	20.775596
2352.657880	-2.974800	3.210200	-9.548300	27.879857	3.932239E-5	20.743105
2353.657917	-3.000600	3.208100	-9.625200	27.795751	3.655019E-5	20.759454
2354.660732	-3.005400	3.207000	-9.637800	27.782161	3.872835E-5	20.769960
2355.662752	-3.009100	3.206600	-9.648400	27.790372	3.704522E-5	20.750247
2356.660412	-3.007600	3.206500	-9.643200	27.761587	3.803530E-5	20.753048
2357.659729	-3.006800	3.205800	-9.638300	27.788914	3.866234E-5	20.754944
2358.663501	-2.997200	3.205800	-9.608300	27.839007	3.853033E-5	20.763632
2359.660803	-3.027100	3.204200	-9.698200	27.876304	3.754026E-5	20.776514
2360.666838	-2.993400	3.205400	-9.594900	27.897336	3.810130E-5	20.762595
2361.666458	-2.998300	3.205700	-9.610200	27.820019	3.919038E-5	20.754954
2362.661854	-2.997700	3.203200	-9.601700	27.768742	3.836532E-5	20.773051
2363.664958	-3.000400	3.202300	-9.607500	27.767628	3.767227E-5	20.769085
2364.662369	-3.021400	3.202000	-9.673700	27.764128	3.952041E-5	20.776943
2365.665926	-3.021800	3.201400	-9.673400	27.754960	3.773827E-5	20.761552
2366.664141	-2.979600	3.201100	-9.537300	27.751289	3.688021E-5	20.773505
2367.667574	-2.991800	3.203000	-9.581900	27.763073	3.767227E-5	20.742689
2368.663301	-2.996300	3.203300	-9.597300	27.762081	3.767227E-5	20.765400
2369.666041	-2.987200	3.201000	-9.561200	27.785296	3.707823E-5	20.766476
2370.665785	-2.993000	3.201700	-9.581700	27.757271	3.483406E-5	20.764352
2371.667008	-2.990200	3.199400	-9.565500	27.756187	3.648418E-5	20.747139
2372.665436	-2.990300	3.199400	-9.565800	27.795690	3.622016E-5	20.763661
2373.665325	-2.998500	3.199100	-9.591100	27.842377	3.721024E-5	20.758489
2374.666502	-3.004400	3.196900	-9.603900	27.865712	3.674820E-5	20.789088
2375.665733	-2.996900	3.196500	-9.578500	27.881956	3.513108E-5	20.782677
2376.667977	-2.974800	3.196800	-9.508800	27.922937	3.592314E-5	20.770818
2377.667640	-2.992700	3.195000	-9.561000	27.952075	3.635217E-5	20.770274
2378.666935	-2.986300	3.195600	-9.541900	27.966855	3.447103E-5	20.767133
2379.664353	-2.979600	3.194800	-9.518300	27.948380	3.678120E-5	20.770348
2380.667483	-2.992700	3.195100	-9.561100	27.942256	3.622016E-5	20.771771
2381.669139	-3.020700	3.194200	-9.648100	28.012200	3.460304E-5	20.764411
2382.667826	-2.996000	3.193600	-9.567500	27.985796	3.516409E-5	20.763438
2383.666151	-3.009300	3.192200	-9.605300	27.886942	3.113779E-5	20.757822
2384.669136	-3.016400	3.191300	-9.625700	27.847372	3.367898E-5	20.766362
2385.665345	-2.985200	3.192100	-9.528100	27.879002	3.242488E-5	20.755521
2386.665588	-2.994700	3.191300	-9.556000	27.972086	3.414101E-5	20.794209
2387.668519	-3.011400	3.189400	-9.603700	27.980143	3.308493E-5	20.774344
2388.665384	-2.975900	3.190800	-9.495100	27.940450	3.394300E-5	20.760470
2389.669037	-2.998700	3.190100	-9.565300	27.941417	3.430602E-5	20.761443
2390.669597	-2.988800	3.190500	-9.534900	27.945386	3.265590E-5	20.759748
2391.669126	-3.004800	3.188500	-9.579500	27.973254	3.074176E-5	20.775470
2392.670879	-3.016000	3.187900	-9.614100	27.963263	3.060975E-5	20.766836
2393.668924	-3.020800	3.185700	-9.623100	27.942364	3.334895E-5	20.797010
2394.668747	-2.975500	3.188100	-9.485200	27.895578	3.173183E-5	20.766515
2395.670857	-3.000200	3.186700	-9.560000	27.957365	3.252389E-5	20.790771
2396.671190	-3.011600	3.183900	-9.588000	27.935076	3.219387E-5	20.751742
2397.670665	-3.009900	3.184600	-9.585200	27.903018	3.153382E-5	20.802452
2398.674611	-3.007700	3.183300	-9.573800	27.926322	3.239188E-5	20.796037
2399.670104	-3.025100	3.184000	-9.631400	27.906512	3.212786E-5	20.786529
2400.671438	-2.980100	3.183900	-9.487800	27.901330	3.024672E-5	20.785580
2401.674179	-2.995200	3.182000	-9.529900	27.970628	3.229287E-5	20.778517
2402.669832	-3.009400	3.181600	-9.574400	27.935494	3.027973E-5	20.770654
2403.677715	-2.989200	3.181200	-9.508200	27.944027	3.037873E-5	20.801529
2404.674412	-2.980400	3.182300	-9.484000	28.006556	3.216086E-5	20.783861
2405.674695	-2.987800	3.181400	-9.504500	27.968675	2.978469E-5	20.777974
2406.674900	-3.000000	3.178800	-9.536000	27.951245	3.166583E-5	20.776551
2407.674787	-2.997100	3.178700	-9.525600	27.939861	2.796956E-5	20.785482
2408.677902	-2.969600	3.178300	-9.437200	27.980231	3.031273E-5	20.788657
2409.674829	-3.000600	3.177100	-9.532300	28.029569	3.107178E-5	20.774309
2410.676023	-2.995200	3.177600	-9.516600	28.055873	3.027973E-5	20.787985
2411.679721	-3.021100	3.175100	-9.591400	28.052154	3.031273E-5	20.790880
2412.678077	-2.991900	3.176600	-9.503000	28.082074	2.958668E-5	20.772635
2413.683565	-3.007200	3.175400	-9.548300	28.117032	3.189685E-5	20.781747
2414.678962	-2.989100	3.174100	-9.486500	28.067801	2.948767E-5	20.775810
2415.679437	-2.998900	3.172400	-9.511700	28.043504	2.994970E-5	20.769844
2416.680036	-3.007200	3.171900	-9.537200	28.024412	2.876162E-5	20.782394
2417.679925	-3.014400	3.170400	-9.555300	28.055682	2.912464E-5	20.756972
2418.679331	-3.009500	3.171800	-9.544600	28.067207	2.968568E-5	20.786118
2419.686020	-3.033200	3.170400	-9.614600	28.101317	2.664946E-5	20.791057
2420.683581	-2.999100	3.170900	-9.509300	28.111012	2.816757E-5	20.786118
2421.681898	-3.002700	3.169400	-9.516100	28.091161	2.605542E-5	20.777514
2422.687109	-2.989200	3.168700	-9.470200	28.078046	2.750752E-5	20.786123
2423.683848	-3.004500	3.169100	-9.519800	28.035726	2.628643E-5	20.786197
2424.686704	-3.006700	3.168200	-9.524800	28.091480	2.688048E-5	20.785422
2425.684258	-3.001400	3.167800	-9.507300	28.085861	2.546137E-5	20.775973
2426.682886	-2.990100	3.166200	-9.466100	28.062585	2.519735E-5	20.771982
2427.684461	-2.980100	3.166100	-9.433600	28.068958	2.750752E-5	20.795467
2428.685622	-2.986600	3.166300	-9.455200	28.094791	2.760653E-5	20.785910
2429.690419	-3.006200	3.163600	-9.510300	28.023096	2.579140E-5	20.780121
2430.689829	-2.986400	3.163100	-9.445500	27.964488	2.628643E-5	20.787984
2431.686859	-2.999200	3.162600	-9.483800	27.932185	2.572539E-5	20.772065
2432.689342	-2.998800	3.162000	-9.480800	27.926085	2.648445E-5	20.794850
2433.688311	-2.999800	3.162100	-9.484500	27.981000	2.780454E-5	20.794647
2434.683960	-2.973900	3.161100	-9.399000	28.025603	2.711149E-5	20.791180
2435.686655	-2.991600	3.162100	-9.457600	28.089644	2.678147E-5	20.794953
2436.685526	-2.986500	3.160500	-9.438300	28.142990	2.595641E-5	20.788439
2437.683492	-2.998900	3.159400	-9.473400	28.142745	2.724350E-5	20.790088
2438.690149	-3.005200	3.158200	-9.489200	28.129606	2.730951E-5	20.792983
2439.684080	-2.979700	3.159200	-9.412600	28.126333	2.648445E-5	20.785421
2440.689560	-3.018900	3.155300	-9.524800	28.026452	2.473532E-5	20.799147
2441.685783	-2.978200	3.156200	-9.399400	28.020799	2.730951E-5	20.784922
2442.685629	-3.009900	3.155100	-9.495900	28.063467	2.658346E-5	20.802742
2443.685710	-3.001900	3.155500	-9.471400	28.175218	2.526336E-5	20.784374
2444.685351	-3.015400	3.153100	-9.506000	28.166745	2.453730E-5	20.784853
2445.685863	-3.027100	3.152200	-9.541100	28.162634	2.711149E-5	20.808688
2446.689501	-3.016500	3.151300	-9.504800	28.153410	2.569239E-5	20.799877
2447.685811	-3.010400	3.151700	-9.487200	28.147459	2.301919E-5	20.787248
2448.684934	-3.011500	3.150200	-9.486100	28.085336	2.272217E-5	20.793936
2449.689192	-2.992500	3.151500	-9.429400	28.004759	2.249115E-5	20.805286
2450.686235	-3.002200	3.150000	-9.456400	27.965592	2.259016E-5	20.785776
2451.691741	-3.012600	3.148800	-9.484200	28.021226	2.242515E-5	20.809059
2452.687352	-2.998600	3.148000	-9.439400	27.991500	2.169910E-5	20.802846
2453.686938	-3.018200	3.147600	-9.499600	27.998444	2.259016E-5	20.811731
2454.690109	-3.040600	3.146600	-9.566800	28.040514	2.272217E-5	20.808560
2455.688465	-3.005800	3.146100	-9.455700	28.141292	2.156709E-5	20.805695
2456.697835	-2.982000	3.146900	-9.383300	28.171632	2.196312E-5	20.820117
2457.689165	-2.992100	3.144400	-9.407100	28.109985	2.120406E-5	20.825861
2458.688154	-2.966600	3.144000	-9.325700	28.145457	2.143508E-5	20.798035
2459.687182	-3.003200	3.142500	-9.436700	28.167623	2.061002E-5	20.802332
2460.687190	-2.992800	3.140600	-9.398600	28.190304	2.067602E-5	20.796716
2461.693231	-2.983100	3.141300	-9.369800	28.148612	1.998297E-5	20.810693
2462.689052	-2.993500	3.139700	-9.397700	28.175232	1.994997E-5	20.783914
2463.689567	-2.999800	3.139000	-9.415800	28.238297	2.146808E-5	20.827965
2464.686106	-3.005700	3.138400	-9.431300	28.243257	2.074203E-5	20.807829
2465.691254	-2.988800	3.138100	-9.377900	28.225336	1.952094E-5	20.784096
2466.690838	-2.994200	3.137300	-9.392200	28.264626	1.925692E-5	20.825076
2467.687932	-2.992700	3.136200	-9.383700	28.271715	1.853086E-5	20.802341
2468.694213	-2.991500	3.135900	-9.379100	28.238876	1.998297E-5	20.811004
2469.690475	-2.957300	3.135700	-9.272000	28.203554	2.080803E-5	20.812901
2470.693938	-2.988300	3.133300	-9.362100	28.253824	1.915791E-5	20.825105
2471.692527	-3.006500	3.131600	-9.414300	28.170836	2.163309E-5	20.814101
2472.694062	-3.044900	3.131000	-9.532500	28.172347	1.919091E-5	20.827950
2473.693392	-3.016800	3.131400	-9.445600	28.198947	2.097304E-5	20.806366
2474.693874	-3.015000	3.129700	-9.435500	28.211668	1.846486E-5	20.816328
2475.692858	-3.010800	3.129000	-9.419900	28.229560	1.899290E-5	20.813953
2476.694217	-2.998500	3.127900	-9.378600	28.238312	1.750779E-5	20.807117
2477.694455	-3.010400	3.128000	-9.415200	28.196200	1.839885E-5	20.809290
2478.696383	-3.027100	3.126800	-9.463700	28.085393	1.697975E-5	20.820546
2479.694851	-2.998600	3.126800	-9.375400	28.090128	1.853086E-5	20.813459
2480.692165	-3.019600	3.124500	-9.434200	28.168515	1.519762E-5	20.825515
2481.698954	-2.975400	3.124400	-9.296000	28.209642	1.737578E-5	20.831832
2482.695682	-3.016300	3.122800	-9.418100	28.277061	1.641871E-5	20.825742
2483.696980	-2.985500	3.123300	-9.323300	28.351147	1.833285E-5	20.829214
2484.694798	-3.002500	3.121700	-9.371900	28.432242	1.513161E-5	20.837852
2485.696483	-3.003300	3.120200	-9.369900	28.415296	1.585767E-5	20.809408
2486.694365	-3.005900	3.118500	-9.372600	28.423296	1.602268E-5	20.822680
2487.694478	-3.004300	3.119200	-9.369600	28.339983	1.717776E-5	20.826981
2488.695563	-3.003500	3.116800	-9.359500	28.326380	1.410854E-5	20.826087
2489.694487	-2.995300	3.117300	-9.336800	28.338030	1.410854E-5	20.831653
2490.695607	-2.991900	3.116100	-9.322100	28.338854	1.351449E-5	20.826319
2491.696093	-3.014100	3.114900	-9.386700	28.330260	1.361350E-5	20.818614
2492.695784	-2.994200	3.115100	-9.326700	28.380053	1.493360E-5	20.824180
2493.696635	-3.004600	3.112200	-9.350400	28.410434	1.443856E-5	20.844341
2494.698150	-3.019500	3.110900	-9.392700	28.307955	1.387752E-5	20.829821
2495.698776	-3.022700	3.110400	-9.401400	28.335278	1.358050E-5	20.832201
2496.698995	-3.037100	3.108900	-9.440400	28.337981	1.575866E-5	20.833974
2497.697847	-3.013600	3.107800	-9.364900	28.345692	1.400953E-5	20.823247
2498.698939	-3.011100	3.108200	-9.357400	28.354344	1.212839E-5	20.812045
2499.699223	-2.996200	3.107900	-9.310800	28.312561	1.361350E-5	20.832087
2500.699029	-2.984600	3.107300	-9.273800	28.361020	1.268943E-5	20.844370
2501.699523	-2.973500	3.105800	-9.233800	28.308475	1.450457E-5	20.827973
2502.699186	-2.988100	3.104800	-9.277100	28.323431	1.453757E-5	20.824540
2503.699659	-2.999200	3.103100	-9.306300	28.355306	1.209539E-5	20.816332
2504.701648	-2.976300	3.103600	-9.235500	28.396724	1.341549E-5	20.838122
2505.702305	-2.991600	3.100800	-9.275700	28.319394	1.166636E-5	20.846553
2506.702172	-3.002600	3.099700	-9.306500	28.320861	1.127033E-5	20.827642
2507.699479	-2.992800	3.099300	-9.274200	28.368103	1.265643E-5	20.843916
2508.701125	-2.985100	3.098000	-9.246600	28.435811	1.067629E-5	20.835757
2509.698721	-3.001900	3.097000	-9.296800	28.404268	1.011524E-5	20.830072
2510.703105	-3.023100	3.095100	-9.355700	28.389352	1.463658E-5	20.833070
2511.701239	-3.007300	3.095300	-9.308100	28.431784	1.199638E-5	20.836443
2512.699920	-2.992600	3.095200	-9.262100	28.431912	1.061028E-5	20.814287
2513.702965	-2.990900	3.093300	-9.250300	28.465343	1.288745E-5	20.828985
2514.700193	-3.011700	3.092500	-9.313000	28.504428	1.206239E-5	20.826619
2515.704145	-3.014500	3.090400	-9.315400	28.488051	1.328348E-5	20.830516
2516.700537	-3.003800	3.091100	-9.284000	28.521775	1.400953E-5	20.836976
2517.700535	-3.004800	3.088800	-9.280600	28.482131	1.348149E-5	20.836882
2518.700769	-2.986100	3.089600	-9.225200	28.461743	1.361350E-5	20.831524
2519.704122	-2.990600	3.087400	-9.232500	28.420601	1.212839E-5	20.832294
2520.701289	-3.003100	3.086800	-9.269100	28.368510	1.397653E-5	20.850963
2521.700670	-2.993500	3.085000	-9.234100	28.382916	1.447156E-5	20.855038
2522.703165	-3.018600	3.083000	-9.305100	28.396022	1.202939E-5	20.854010
2523.703649	-2.980000	3.083700	-9.189100	28.438877	1.278844E-5	20.826516
2524.701637	-2.999600	3.082200	-9.244800	28.419689	1.249142E-5	20.840384
2525.702061	-3.012800	3.080000	-9.278900	28.514732	1.259043E-5	20.843160
2526.708879	-2.997700	3.078800	-9.228600	28.568753	1.374551E-5	20.847303
2527.704229	-2.976700	3.078700	-9.164100	28.600689	1.219440E-5	20.842009
2528.706998	-2.988700	3.078200	-9.198800	28.572215	1.265643E-5	20.835144
2529.705480	-3.016300	3.076300	-9.278200	28.535222	1.298646E-5	20.839614
2530.702724	-2.997000	3.075100	-9.215600	28.546748	1.189738E-5	20.859280
2531.707829	-2.999300	3.074400	-9.220200	28.545629	1.252442E-5	20.834447
2532.702985	-2.978200	3.074000	-9.153800	28.612434	1.212839E-5	20.852415
2533.703456	-2.993600	3.071000	-9.191800	28.637905	1.470258E-5	20.847249
2534.703477	-3.005300	3.071300	-9.229500	28.629755	1.331648E-5	20.860851
2535.703170	-2.997000	3.070400	-9.201000	28.645609	1.110532E-5	20.852163
2536.704611	-2.989600	3.068200	-9.170300	28.550235	1.153435E-5	20.865162
2537.704197	-2.982300	3.067900	-9.148500	28.543197	1.219440E-5	20.844799
2538.705131	-2.977500	3.065400	-9.126800	28.531103	1.354750E-5	20.851585
2539.705289	-3.003300	3.066000	-9.207100	28.491578	1.226040E-5	20.854455
2540.704835	-2.995900	3.063600	-9.177200	28.525630	1.044527E-5	20.863617
2541.707902	-2.995500	3.062200	-9.171500	28.539754	1.255742E-5	20.839436
2542.706702	-3.012300	3.060600	-9.218800	28.553207	1.298646E-5	20.838759
2543.704708	-2.972300	3.060900	-9.097500	28.544958	1.153435E-5	20.866012
2544.704132	-2.999400	3.059700	-9.176400	28.616936	1.110532E-5	20.859320
2545.705320	-3.018400	3.056900	-9.225500	28.620305	1.252442E-5	20.849911
2546.705777	-2.989100	3.057400	-9.138100	28.618275	1.127033E-5	20.845970
2547.707911	-2.971000	3.056700	-9.080500	28.607398	1.384452E-5	20.869153
2548.707828	-3.032400	3.053300	-9.258100	28.672708	9.785220E-6	20.860490
2549.708132	-3.037100	3.052300	-9.269600	28.728157	1.084130E-5	20.844745
2550.707193	-2.973700	3.053100	-9.078200	28.757936	1.308546E-5	20.854351
2551.707799	-2.991900	3.051500	-9.128000	28.660443	1.470258E-5	20.852879
2552.710818	-2.986700	3.049800	-9.107900	28.598894	1.127033E-5	20.876709
2553.710673	-3.017700	3.047700	-9.195900	28.575781	1.308546E-5	20.860070
2554.710131	-3.006500	3.045700	-9.155500	28.649042	1.123733E-5	20.880275
2555.708869	-2.999200	3.044800	-9.130800	28.642652	1.193038E-5	20.881900
2556.710956	-2.981600	3.045500	-9.079700	28.569974	1.120432E-5	20.884093
2557.708900	-3.023500	3.042300	-9.197500	28.522172	9.422193E-6	20.882418
2558.712509	-3.008500	3.042000	-9.151200	28.521382	1.216140E-5	20.874512
2559.713794	-2.970800	3.042200	-9.036800	28.548263	1.265643E-5	20.858910
2560.708135	-3.011500	3.038800	-9.150900	28.591847	9.851225E-6	20.861552
2561.711915	-3.008100	3.039200	-9.141300	28.588703	8.465123E-6	20.892997
2562.707671	-2.987600	3.037400	-9.073700	28.605078	1.209539E-5	20.859705
2563.713366	-3.016900	3.036500	-9.158800	28.636522	9.422193E-6	20.861503
2564.709657	-3.004500	3.035400	-9.118300	28.624037	7.871079E-6	20.883065
2565.710440	-2.997000	3.034600	-9.093600	28.668211	1.150135E-5	20.886779
2566.711846	-3.022300	3.031600	-9.160900	28.686315	1.166636E-5	20.884152
2567.711995	-3.008300	3.030200	-9.114800	28.659433	9.389191E-6	20.875569
2568.711438	-3.022800	3.030100	-9.157800	28.691999	8.498126E-6	20.885135
2569.716529	-2.980600	3.029500	-9.028900	28.719890	9.950232E-6	20.903744
2570.712432	-3.012700	3.025300	-9.113300	28.762604	1.143534E-5	20.887500
2571.714264	-2.971600	3.025600	-8.990100	28.770650	1.173236E-5	20.897975
2572.717948	-2.976600	3.025000	-9.003600	28.748472	1.061028E-5	20.880853
2573.715726	-2.980100	3.023800	-9.010700	28.707842	1.130333E-5	20.889239
2574.719869	-3.081200	3.019100	-9.301000	28.750552	1.034626E-5	20.893852
2575.717410	-2.997000	3.021300	-9.054000	28.784492	1.120432E-5	20.890108
2576.719294	-3.020200	3.017000	-9.110800	28.712868	1.034626E-5	20.885767
2577.717502	-3.005400	3.018000	-9.069500	28.687242	9.950232E-6	20.905472
2578.716905	-3.003200	3.016500	-9.058500	28.700722	1.133633E-5	20.910515
2579.719104	-2.997800	3.014300	-9.035300	28.657388	1.298646E-5	20.893422
2580.719334	-3.022000	3.013900	-9.107600	28.680328	9.653210E-6	20.908939
2581.718782	-2.998400	3.012400	-9.031800	28.723431	1.173236E-5	20.891664
2582.719563	-2.986000	3.012800	-8.995700	28.778805	1.011524E-5	20.906189
2583.720000	-2.973300	3.010100	-8.949000	28.788591	9.224179E-6	20.905616
2584.722400	-2.973900	3.009100	-8.947400	28.833896	9.818223E-6	20.886770
2585.721017	-2.969700	3.007200	-8.929700	28.863917	7.739070E-6	20.905631
2586.723194	-2.986300	3.006100	-8.976300	28.853758	8.432121E-6	20.905354
2587.722294	-2.986100	3.005100	-8.972100	28.864382	8.663138E-6	20.902781
2588.726923	-2.964200	3.004200	-8.904500	28.861313	1.001624E-5	20.901586
2589.721488	-3.009400	3.002200	-9.033400	28.864029	9.257181E-6	20.903848
2590.725155	-3.028000	3.000100	-9.082900	28.839284	7.607060E-6	20.903576
2591.723844	-2.973300	3.000800	-8.921400	28.832244	8.201104E-6	20.903122
2592.724514	-3.017100	2.997900	-9.044900	28.788621	9.092169E-6	20.907068
2593.724231	-2.975000	2.998400	-8.919900	28.738274	1.024725E-5	20.900924
2594.722658	-2.995600	2.995900	-8.973200	28.775809	8.333113E-6	20.910757
2595.722914	-3.005500	2.993500	-8.995900	28.824639	1.143534E-5	20.894040
2596.723815	-3.016100	2.992100	-9.023900	28.888999	9.125172E-6	20.915725
2597.722143	-3.050700	2.991300	-9.124200	28.934721	7.178028E-6	20.894934
2598.723133	-3.012600	2.988100	-9.000400	28.940643	8.960159E-6	20.901374
2599.722961	-3.005700	2.988000	-8.980300	28.871629	9.158174E-6	20.893013
2600.728536	-3.017100	2.986000	-9.008300	28.893652	7.475050E-6	20.909034
2601.740107	-2.961300	2.985600	-8.840000	28.893873	8.267109E-6	20.884128
2602.725203	-3.027700	2.982500	-9.028200	28.864049	7.706067E-6	20.887274
2603.725692	-2.992600	2.981300	-8.920800	28.819138	7.376043E-6	20.891343
2604.724363	-3.011100	2.981100	-8.975600	28.848149	7.805075E-6	20.888326
2605.725329	-3.026100	2.979100	-9.014200	28.857190	7.277036E-6	20.884632
2606.723697	-3.000800	2.978400	-8.937300	28.863240	7.277036E-6	20.899734
2607.723794	-3.015600	2.976400	-8.974800	28.916425	8.168101E-6	20.893097
2608.725099	-2.981100	2.975800	-8.869900	28.951306	7.805075E-6	20.886987
2609.726210	-3.012300	2.973200	-8.955400	28.963150	9.290184E-6	20.883747
2610.726879	-2.989700	2.972100	-8.884800	28.947443	7.541055E-6	20.886414
2611.730978	-3.020900	2.969400	-8.969300	28.897285	5.329892E-6	20.877609
2612.725752	-3.000100	2.969000	-8.906200	28.856587	7.112024E-6	20.901092
2613.726680	-2.972600	2.967200	-8.819200	28.821114	6.451975E-6	20.895230
2614.726426	-2.996700	2.965100	-8.885500	28.835705	8.003089E-6	20.870576
2615.730026	-3.009500	2.965500	-8.923700	28.883591	7.178028E-6	20.870452
2616.725368	-2.988400	2.962500	-8.852500	28.878713	5.626914E-6	20.892563
2617.730969	-3.015200	2.960200	-8.924300	28.918498	6.253960E-6	20.879065
2618.728422	-2.967800	2.960300	-8.785200	28.945501	7.508053E-6	20.861701
2619.728909	-3.029700	2.956300	-8.955300	28.983029	7.970087E-6	20.883861
2620.730453	-2.987200	2.956900	-8.832100	29.020781	7.343041E-6	20.886809
2621.728252	-3.012200	2.953600	-8.896100	29.023379	6.848004E-6	20.863350
2622.734159	-3.050300	2.951600	-9.002500	28.956478	7.211031E-6	20.856164
2623.732467	-3.003900	2.952000	-8.866100	28.888332	5.395897E-6	20.884710
2624.728894	-2.999500	2.950000	-8.847800	28.915836	8.960159E-6	20.866427
2625.737837	-3.007000	2.949000	-8.866700	28.943501	7.277036E-6	20.879599
2626.731737	-3.005900	2.946900	-8.857300	28.949551	6.848004E-6	20.878107
2627.730502	-2.979600	2.946800	-8.778900	28.977092	7.409045E-6	20.873139
2628.728970	-2.997400	2.945100	-8.827500	28.877639	6.451975E-6	20.872991
2629.731686	-2.990100	2.944100	-8.802400	28.946232	5.758924E-6	20.870496
2630.729783	-2.986100	2.941000	-8.781800	28.881429	6.352968E-6	20.879653
2631.730801	-3.017200	2.938200	-8.864400	28.802202	6.881007E-6	20.867173
2632.732183	-3.001400	2.937800	-8.816800	28.891391	8.036092E-6	20.839905
2633.731868	-3.017800	2.935400	-8.857400	28.929117	8.135099E-6	20.860367
2634.732904	-2.994800	2.935200	-8.789400	28.898677	6.550982E-6	20.860520
2635.732552	-2.992600	2.933500	-8.778300	28.869049	6.781999E-6	20.870501
2636.733882	-3.009100	2.930900	-8.817500	28.878708	8.069094E-6	20.843249
2637.733497	-2.983800	2.929600	-8.739900	28.945565	6.319965E-6	20.874566
2638.734660	-3.030600	2.926600	-8.867400	29.000604	7.970087E-6	20.857473
2639.733801	-3.015000	2.924900	-8.817100	29.039168	6.187956E-6	20.857922
2640.735264	-2.976700	2.925000	-8.706100	29.081967	6.848004E-6	20.846518
2641.735693	-2.973900	2.922700	-8.690300	29.013511	5.824929E-6	20.851986
2642.736304	-2.991900	2.920600	-8.737200	28.970807	7.244033E-6	20.854480
2643.739089	-3.009800	2.918700	-8.784300	28.966057	6.550982E-6	20.865340
2644.737138	-2.998400	2.918500	-8.749800	28.899991	7.112024E-6	20.860895
2645.734518	-2.987300	2.917600	-8.714900	28.971675	8.069094E-6	20.853932
2646.734747	-3.019200	2.913800	-8.796300	29.064958	6.055946E-6	20.839811
2647.738574	-3.017600	2.912000	-8.786700	29.028668	8.399118E-6	20.852559
2648.736070	-2.973500	2.910900	-8.654700	29.107108	4.372822E-6	20.851936
2649.739770	-3.006300	2.908900	-8.743600	29.126676	6.781999E-6	20.845575
2650.740464	-3.001200	2.908100	-8.726800	29.167912	6.418973E-6	20.833075
2651.738831	-2.978100	2.904300	-8.648800	29.214000	6.715994E-6	20.854860
2652.740054	-3.013000	2.904900	-8.750900	29.107657	8.036092E-6	20.835421
2653.738034	-3.014500	2.902900	-8.749500	29.043115	6.781999E-6	20.851467
2654.744177	-3.006100	2.899900	-8.716000	29.054801	5.626914E-6	20.824836
2655.737522	-3.010000	2.898400	-8.723300	29.081502	7.244033E-6	20.833247
2656.736543	-2.999000	2.897600	-8.688800	29.127044	8.366116E-6	20.851161
2657.738262	-2.990300	2.894500	-8.654600	29.150453	8.663138E-6	20.851042
2658.737951	-2.981100	2.893800	-8.625900	29.146385	8.201104E-6	20.828452
2659.739326	-3.017200	2.891300	-8.722600	29.098119	6.451975E-6	20.832447
2660.741403	-2.994900	2.890600	-8.655800	29.058561	7.343041E-6	20.829099
2661.735806	-2.977600	2.888500	-8.600000	29.070350	6.220958E-6	20.835761
2662.739906	-2.991800	2.885800	-8.633000	29.090487	8.036092E-6	20.825706
2663.738368	-2.999600	2.885800	-8.654600	29.113118	6.055946E-6	20.810578
2664.742579	-3.004800	2.883600	-8.663400	29.099771	6.947011E-6	20.843120
2665.743591	-3.031600	2.880000	-8.729900	29.096501	7.871079E-6	20.826076
2666.740177	-3.000100	2.879200	-8.636600	29.125799	8.102096E-6	20.848958
2667.740942	-2.990300	2.876700	-8.601400	29.104221	9.323186E-6	20.844760
2668.743713	-3.016100	2.873600	-8.666300	29.007776	8.102096E-6	20.831983
2669.743590	-3.016400	2.871900	-8.662000	28.955855	7.838077E-6	20.818080
2670.746782	-3.021300	2.871400	-8.673900	29.037541	6.154953E-6	20.835895
2671.744113	-3.007700	2.868600	-8.627000	28.977524	1.113832E-5	20.838014
2672.744821	-2.991300	2.866900	-8.575300	28.961768	6.947011E-6	20.831623
2673.747211	-2.982900	2.866400	-8.548700	28.958076	8.762145E-6	20.844024
2674.745098	-3.016400	2.863900	-8.637500	29.047189	6.418973E-6	20.828546
2675.749137	-2.991000	2.861800	-8.558600	29.161634	9.950232E-6	20.825326
2676.744458	-2.996200	2.859100	-8.565900	29.190979	7.013016E-6	20.843516
2677.744614	-3.022100	2.857200	-8.634200	29.201159	5.296890E-6	20.827696
2678.744803	-2.982900	2.856000	-8.518300	29.148282	7.475050E-6	20.841269
2679.750021	-3.002800	2.853300	-8.567500	29.120789	5.230885E-6	20.849601
2680.745042	-3.019700	2.850500	-8.606800	29.125221	6.220958E-6	20.829885
2681.749582	-3.017500	2.847900	-8.592600	29.116206	6.352968E-6	20.826966
2682.744056	-2.999300	2.848400	-8.542800	29.127196	7.607060E-6	20.841358
2683.746904	-3.006400	2.844800	-8.551700	29.100698	5.824929E-6	20.835520
2684.744891	-3.005800	2.843200	-8.545600	29.185695	6.815002E-6	20.826813
2685.746570	-2.965400	2.843100	-8.430600	29.267858	4.075800E-6	20.815255
2686.749729	-2.982700	2.839200	-8.467000	29.280738	5.494905E-6	20.824442
2687.747085	-3.022000	2.835500	-8.567200	29.270833	6.649990E-6	20.825840
2688.745724	-3.018800	2.832400	-8.549700	29.330559	5.296890E-6	20.824392
2689.746283	-2.992200	2.831900	-8.473200	29.290721	4.471829E-6	20.834502
2690.753642	-2.992700	2.829800	-8.467200	29.267667	4.999868E-6	20.825968
2691.747017	-2.949900	2.828700	-8.343800	29.341880	5.725922E-6	20.825844
2692.747966	-2.995400	2.825700	-8.462700	29.324100	6.055946E-6	20.826892
2693.746027	-2.990500	2.823200	-8.441600	29.269975	5.692919E-6	20.817389
2694.750810	-2.979300	2.820800	-8.403300	29.278939	6.947011E-6	20.825474
2695.746094	-2.982400	2.818800	-8.406300	29.255939	6.418973E-6	20.805614
2696.748275	-3.022700	2.815600	-8.510500	29.228429	6.121951E-6	20.828625
2697.747072	-2.987000	2.815100	-8.407400	29.167957	6.286963E-6	20.837861
2698.747301	-2.994600	2.810600	-8.415300	29.170976	6.055946E-6	20.816722
2699.748904	-3.000800	2.808500	-8.427300	29.208427	6.286963E-6	20.810839
2700.752303	-2.976900	2.807000	-8.355600	29.219553	4.834856E-6	20.809249
2701.751507	-3.016200	2.803600	-8.455300	29.246171	7.904082E-6	20.818055
2702.757525	-3.044500	2.799800	-8.523000	29.285325	5.659917E-6	20.818633
2703.751457	-3.016400	2.797500	-8.437600	29.346388	7.838077E-6	20.811896
2704.749956	-3.011000	2.796700	-8.420100	29.351093	5.725922E-6	20.817586
2705.752314	-3.047200	2.792600	-8.508800	29.400372	6.616987E-6	20.824106
2706.753282	-2.991700	2.791000	-8.347800	29.388287	6.220958E-6	20.796753
2707.753841	-2.960800	2.789700	-8.258400	29.368632	5.989941E-6	20.806814
2708.755766	-2.979700	2.784500	-8.296300	29.231923	5.527907E-6	20.820293
2709.754557	-2.995400	2.781600	-8.331300	29.291313	5.560909E-6	20.794797
2710.753933	-3.036100	2.778000	-8.433700	29.310804	4.735849E-6	20.837199
2711.758019	-3.012000	2.775300	-8.358400	29.360894	4.405824E-6	20.817507
2712.754929	-3.016200	2.772000	-8.360000	29.411461	4.768851E-6	20.813946
2713.759603	-2.991700	2.770000	-8.286300	29.395569	6.517980E-6	20.814524
2714.755737	-2.995900	2.767500	-8.289900	29.429709	6.022943E-6	20.804364
2715.754464	-2.987900	2.765000	-8.260800	29.419198	4.174807E-6	20.831701
2716.756063	-3.013100	2.760700	-8.317500	29.431576	4.768851E-6	20.817151
2717.757635	-3.023300	2.757100	-8.334400	29.507836	5.659917E-6	20.823844
2718.759157	-2.990100	2.754200	-8.234300	29.468896	5.329892E-6	20.790757
2719.756296	-3.009200	2.752100	-8.280500	29.459390	4.669844E-6	20.806305
2720.757136	-3.004300	2.750200	-8.261400	29.451819	6.022943E-6	20.791562
2721.757904	-3.004000	2.744300	-8.243300	29.539978	5.725922E-6	20.789389
2722.755889	-2.993400	2.741900	-8.206500	29.573207	4.108802E-6	20.802497
2723.758215	-2.984600	2.739400	-8.174600	29.557940	4.966866E-6	20.804176
2724.758976	-2.998200	2.736100	-8.202400	29.529473	4.801853E-6	20.796817
2725.758232	-2.986700	2.732900	-8.160900	29.533760	4.603839E-6	20.810622
2726.758259	-3.011700	2.727800	-8.214200	29.569361	4.042798E-6	20.807155
2727.760691	-2.973300	2.726500	-8.106000	29.595701	5.362895E-6	20.811896
2728.758344	-3.011700	2.722000	-8.196500	29.607494	7.079021E-6	20.798180
2729.760146	-3.002100	2.716200	-8.153600	29.563061	6.616987E-6	20.804596
2730.759178	-2.997700	2.714500	-8.136700	29.575069	6.286963E-6	20.802003
2731.765179	-2.980700	2.711900	-8.081600	29.607553	4.768851E-6	20.782118
2732.761050	-3.008400	2.707900	-8.145600	29.571287	5.197883E-6	20.792500
2733.761202	-3.011800	2.701600	-8.135800	29.518983	4.273815E-6	20.800941
2734.762878	-3.031400	2.700300	-8.184600	29.522653	4.504832E-6	20.797054
2735.762514	-2.976600	2.695500	-8.022300	29.612051	4.900861E-6	20.808464
2736.760825	-2.989500	2.693000	-8.050200	29.697845	6.748997E-6	20.793014
2737.771160	-3.000700	2.686500	-8.061100	29.685230	5.560909E-6	20.793098
2738.764585	-2.994300	2.683500	-8.033300	29.661866	8.333113E-6	20.777604
2739.762378	-3.034900	2.678800	-8.129100	29.655929	9.224179E-6	20.799119
2740.768877	-2.998700	2.674000	-8.017800	29.627410	6.550982E-6	20.798818
2741.762473	-2.983100	2.670300	-7.965400	29.657350	3.184734E-6	20.806716
2742.762269	-2.989700	2.666800	-7.971900	29.661411	4.504832E-6	20.787577
2743.762690	-3.023500	2.661000	-8.044600	29.618219	4.537834E-6	20.791449
2744.764740	-2.968900	2.657800	-7.889600	29.649462	5.659917E-6	20.794022
2745.764915	-3.000700	2.651700	-7.956000	29.683971	5.527907E-6	20.783769
2746.764843	-3.020700	2.648300	-7.997600	29.753580	4.867858E-6	20.788041
2747.763160	-2.998500	2.644100	-7.927100	29.799098	6.220958E-6	20.790787
2748.764733	-3.014000	2.637900	-7.948600	29.805216	6.914009E-6	20.786051
2749.764778	-3.001500	2.633600	-7.903300	29.716658	5.956939E-6	20.780687
2750.766493	-3.015300	2.627700	-7.922400	29.703342	4.372822E-6	20.765366
2751.765753	-2.987600	2.623600	-7.836600	29.653367	5.989941E-6	20.801752
2752.763778	-2.993600	2.618900	-7.839100	29.661020	4.801853E-6	20.787656
2753.764257	-3.006800	2.613200	-7.856500	29.739692	5.989941E-6	20.780203
2754.767705	-2.986900	2.608700	-7.790800	29.838276	5.659917E-6	20.767702
2755.765258	-3.008000	2.601300	-7.823800	29.887081	6.352968E-6	20.778035
2756.766838	-2.974600	2.596700	-7.723400	29.830928	6.220958E-6	20.768828
2757.765086	-2.999900	2.592200	-7.775500	29.749431	4.306817E-6	20.773901
2758.764960	-3.002600	2.587400	-7.767500	29.719480	5.725922E-6	20.764092
2759.765522	-2.986800	2.582200	-7.711400	29.773371	5.164880E-6	20.780021
2760.765303	-3.013300	2.574200	-7.755500	29.867646	4.768851E-6	20.762704
2761.768984	-3.030900	2.568100	-7.781400	29.882943	5.461902E-6	20.760111
2762.769850	-2.967600	2.564500	-7.609800	29.876610	4.669844E-6	20.772217
2763.766566	-3.022800	2.556200	-7.724600	29.849959	6.121951E-6	20.754826
2764.767276	-2.985100	2.550800	-7.613600	29.882385	7.178028E-6	20.761445
2765.767903	-2.974000	2.544500	-7.566300	29.966624	8.234106E-6	20.754406
2766.769722	-2.997000	2.538600	-7.607400	29.982664	7.871079E-6	20.768686
2767.784534	-3.020900	2.532300	-7.648800	29.861455	5.494905E-6	20.765471
2768.772533	-2.992500	2.526700	-7.560000	29.886553	8.168101E-6	20.761855
2769.769795	-3.044900	2.518100	-7.666300	29.815671	6.517980E-6	20.782368
2770.772781	-3.015100	2.514700	-7.581200	29.844179	5.560909E-6	20.752792
2771.771310	-2.988800	2.509400	-7.499800	29.786343	5.461902E-6	20.777927
2772.776554	-2.982900	2.502400	-7.463500	29.720377	6.583985E-6	20.772583
2773.771562	-3.019300	2.496300	-7.536100	29.748820	4.438827E-6	20.755740
