LabVIEW Measurement	
Writer_Version	2
Reader_Version	2
Separator	Tab
Decimal_Separator	.
Multi_Headings	No
X_Columns	One
Time_Pref	Absolute
Operator	admin
Description	Clolumns are: time, Current, Voltage, Power, Battery Temp, and Chamber Temp
Date	2024/08/16
Time	13:07:17.8513970375061035156
***End_of_Header***	
	
Channels	6						
Samples	1	1	1	1	1	1	
Date	2024/09/15	2024/09/15	2024/09/15	2024/09/15	2024/09/15	2024/09/15	
Time	10:11:17.194416046142578125	10:11:17.2006735801696777344	10:11:17.2088136672973632813	10:11:17.1701936721801757812	10:11:17.1701936721801757812	10:11:17.1701936721801757812	
X_Dimension	Time	Time	Time	Time	Time	Time	
X0	0.0000000000000000E+0	0.0000000000000000E+0	0.0000000000000000E+0	0.0000000000000000E+0	0.0000000000000000E+0	0.0000000000000000E+0	
Delta_X	1.000000	1.000000	1.000000	1.000000	1.000000	1.000000	
***End_of_Header***							
X_Value	Untitled	Untitled 1	Untitled 2	Untitled 3	Untitled 4	Untitled 5	Comment
0.000000	-0.005825	4.089100	-0.023763	20.815104	0.000478	20.800405
0.994339	-3.004300	3.916500	-11.765000	20.823533	0.000478	20.794135
1.993781	-3.015500	3.910300	-11.789000	20.804793	0.000476	20.804793
2.994121	-2.983400	3.906900	-11.655000	20.839430	0.000477	20.801025
3.993018	-3.012000	3.903600	-11.756000	20.818367	0.000475	20.807461
5.003941	-2.997000	3.900700	-11.689000	20.848510	0.000477	20.784026
5.994588	-3.012600	3.897300	-11.739000	20.819337	0.000475	20.804638
6.996194	-3.005300	3.894400	-11.702000	20.842346	0.000473	20.818165
7.998523	-3.013000	3.892900	-11.729000	20.828943	0.000474	20.799546
9.001320	-2.994800	3.891500	-11.653000	20.845011	0.000473	20.782898
9.995026	-3.007600	3.890600	-11.700000	20.843115	0.000472	20.804709
10.997319	-2.989100	3.888300	-11.621000	20.874906	0.000472	20.814217
12.003452	-2.997000	3.886400	-11.646000	20.874330	0.000471	20.788510
13.000175	-2.996900	3.885600	-11.644000	20.865046	0.000468	20.808149
13.996176	-2.991300	3.884600	-11.619000	20.889099	0.000469	20.806125
14.995612	-2.981300	3.883500	-11.576000	20.903570	0.000468	20.803528
15.996192	-3.001200	3.882700	-11.652000	20.920808	0.000469	20.801328
16.997989	-2.994400	3.881000	-11.621000	20.903468	0.000469	20.813857
18.014482	-2.979100	3.880100	-11.558000	20.938619	0.000467	20.813925
18.996620	-3.006900	3.880200	-11.666000	20.926342	0.000466	20.817768
19.998654	-2.985700	3.878700	-11.580000	20.936773	0.000467	20.818242
20.997911	-2.972000	3.878300	-11.526000	20.959749	0.000467	20.807557
22.003242	-3.021100	3.876100	-11.709000	20.944253	0.000468	20.819085
22.998402	-2.995800	3.875200	-11.608000	20.966656	0.000465	20.820154
24.000168	-3.011700	3.876100	-11.672000	20.968450	0.000462	20.822897
25.006264	-2.986200	3.875000	-11.570000	20.997164	0.000465	20.821744
25.997399	-3.000700	3.874100	-11.624000	20.979697	0.000466	20.824189
27.000414	-3.010000	3.872600	-11.656000	21.008117	0.000465	20.814682
27.998210	-3.024000	3.873000	-11.711000	21.014277	0.000463	20.827480
29.001086	-2.990700	3.872100	-11.579000	21.038575	0.000462	20.838506
29.998139	-3.015400	3.871500	-11.673000	21.043312	0.000462	20.799623
30.998874	-2.985200	3.872100	-11.558000	21.053441	0.000461	20.832987
32.002153	-3.006900	3.871800	-11.640000	21.063693	0.000461	20.844664
32.998085	-3.006800	3.871200	-11.638000	21.074791	0.000462	20.830635
34.003546	-2.997000	3.869900	-11.597000	21.089140	0.000460	20.804684
35.001572	-2.986400	3.871300	-11.560000	21.085044	0.000461	20.833303
36.005414	-3.003000	3.868600	-11.617000	21.097790	0.000459	20.825190
37.002285	-3.013800	3.869200	-11.660000	21.102632	0.000460	20.818180
38.002392	-3.015400	3.867600	-11.662000	21.094348	0.000458	20.818902
39.004792	-2.988000	3.869000	-11.559000	21.136111	0.000457	20.824642
40.002464	-2.992500	3.868900	-11.577000	21.125107	0.000458	20.834022
41.003574	-3.001500	3.869000	-11.612000	21.140124	0.000459	20.848095
42.009100	-2.993100	3.866900	-11.573000	21.134810	0.000457	20.865064
43.022310	-3.000200	3.868800	-11.606000	21.163725	0.000457	20.852263
44.006293	-3.005300	3.866400	-11.618000	21.137803	0.000458	20.850515
45.004853	-2.999200	3.867200	-11.597000	21.152597	0.000455	20.830226
46.016826	-2.998300	3.866100	-11.591000	21.195854	0.000457	20.839359
47.010238	-3.028400	3.865500	-11.706000	21.187223	0.000456	20.832147
48.013299	-3.005100	3.864700	-11.613000	21.200793	0.000458	20.838135
49.003154	-3.013600	3.865100	-11.647000	21.228909	0.000456	20.850140
50.003559	-3.004100	3.866200	-11.613000	21.221648	0.000458	20.853307
51.009008	-2.989900	3.865200	-11.555000	21.255675	0.000457	20.837561
52.005096	-2.998300	3.863900	-11.584000	21.221800	0.000455	20.822640
53.010303	-2.998500	3.863700	-11.585000	21.240582	0.000458	20.852808
54.018418	-3.023000	3.863000	-11.677000	21.250086	0.000456	20.842402
55.007031	-3.006100	3.864600	-11.617000	21.249712	0.000457	20.844398
56.005545	-3.005400	3.862600	-11.608000	21.266273	0.000456	20.862387
57.006040	-2.991600	3.865000	-11.562000	21.284512	0.000457	20.853133
58.006814	-3.010700	3.862900	-11.629000	21.303991	0.000456	20.852232
59.010002	-2.998100	3.863200	-11.581000	21.308603	0.000458	20.850682
60.009994	-3.010400	3.863900	-11.630000	21.318429	0.000456	20.859090
61.012106	-3.011700	3.863000	-11.633000	21.313739	0.000457	20.862932
62.012907	-3.012900	3.862800	-11.637000	21.301940	0.000458	20.851603
63.013348	-2.985000	3.862200	-11.528000	21.355643	0.000457	20.851751
64.012849	-2.983600	3.862900	-11.524000	21.344117	0.000457	20.836901
65.017945	-2.991700	3.861800	-11.553000	21.356365	0.000458	20.848206
66.008190	-2.988600	3.862300	-11.541000	21.362300	0.000454	20.860782
67.020863	-2.983900	3.860900	-11.519000	21.379761	0.000457	20.852173
68.010606	-3.002500	3.861000	-11.591000	21.373052	0.000456	20.864426
69.013995	-3.001700	3.861600	-11.590000	21.381328	0.000455	20.853267
70.018422	-3.003000	3.860300	-11.591000	21.402310	0.000453	20.849130
71.012474	-2.997900	3.860500	-11.573000	21.409815	0.000456	20.847156
72.012083	-3.024100	3.860400	-11.672000	21.402679	0.000458	20.865145
73.013702	-3.009200	3.860300	-11.615000	21.435381	0.000456	20.849502
74.012842	-2.989800	3.859600	-11.538000	21.455857	0.000456	20.879945
75.011377	-2.989400	3.861100	-11.541000	21.448099	0.000456	20.861752
76.014852	-2.975700	3.861300	-11.489000	21.469172	0.000455	20.862923
77.015563	-3.015600	3.858300	-11.634000	21.476033	0.000457	20.870735
78.015060	-3.006400	3.860000	-11.604000	21.484485	0.000455	20.853115
79.015699	-2.996600	3.859900	-11.566000	21.480545	0.000455	20.864820
80.016974	-3.002900	3.859100	-11.587000	21.500671	0.000456	20.861250
81.021038	-3.004200	3.858700	-11.592000	21.520149	0.000455	20.855136
82.017582	-3.029800	3.857600	-11.687000	21.531500	0.000456	20.871234
83.018826	-3.006700	3.858400	-11.601000	21.545111	0.000459	20.882483
84.019423	-3.005500	3.858300	-11.596000	21.536480	0.000457	20.871476
85.018998	-3.026200	3.857700	-11.673000	21.535483	0.000456	20.880435
86.020177	-3.005300	3.857300	-11.591000	21.551866	0.000456	20.873122
87.019083	-3.031300	3.856100	-11.689000	21.551590	0.000457	20.889440
88.016754	-3.007100	3.858100	-11.600000	21.546003	0.000457	20.886220
89.018489	-2.980000	3.859200	-11.499000	21.595654	0.000459	20.877584
90.020340	-2.984000	3.858600	-11.513000	21.576175	0.000456	20.895548
91.020007	-2.992200	3.857200	-11.540000	21.601836	0.000459	20.874761
92.031378	-2.996800	3.856200	-11.555000	21.601885	0.000458	20.884767
93.020298	-2.974100	3.857000	-11.469000	21.605149	0.000459	20.870491
94.020579	-3.002100	3.856500	-11.576000	21.641008	0.000457	20.879822
95.033120	-3.002800	3.855900	-11.578000	21.635297	0.000458	20.877426
96.023512	-3.017200	3.856900	-11.636000	21.637663	0.000459	20.876475
97.022652	-3.002900	3.855900	-11.578000	21.635220	0.000459	20.889202
98.022357	-2.996300	3.855300	-11.550000	21.673520	0.000458	20.890073
99.027683	-2.998800	3.855900	-11.562000	21.685542	0.000458	20.893568
100.022450	-3.000300	3.854600	-11.564000	21.686362	0.000460	20.881114
101.027442	-3.007300	3.854500	-11.590000	21.702620	0.000459	20.897383
102.028194	-2.984000	3.856300	-11.507000	21.702273	0.000458	20.876174
103.031164	-2.988100	3.856800	-11.524000	21.699207	0.000462	20.883537
104.029671	-2.998900	3.855600	-11.562000	21.698257	0.000460	20.897283
105.027363	-2.991500	3.854600	-11.530000	21.712470	0.000460	20.890172
106.033909	-3.022000	3.854000	-11.646000	21.720227	0.000459	20.902675
107.025147	-3.008000	3.854500	-11.593000	21.756679	0.000459	20.879890
108.026850	-3.020400	3.853900	-11.639000	21.769424	0.000458	20.895963
109.028563	-2.974900	3.855700	-11.469000	21.769424	0.000461	20.920143
110.026941	-2.995300	3.854300	-11.545000	21.780422	0.000459	20.894643
111.029303	-3.018300	3.853000	-11.628000	21.777106	0.000458	20.873308
112.029546	-3.017600	3.853400	-11.627000	21.803088	0.000461	20.895517
113.027556	-3.018600	3.854900	-11.635000	21.806107	0.000460	20.899961
114.033154	-3.014000	3.853100	-11.612000	21.807825	0.000461	20.885086
115.029760	-2.991700	3.853400	-11.526000	21.831416	0.000460	20.890206
116.028739	-3.009600	3.852800	-11.594000	21.828375	0.000460	20.881947
117.030038	-2.993000	3.852500	-11.530000	21.839026	0.000462	20.879806
118.031338	-3.012700	3.852300	-11.604000	21.844587	0.000460	20.881578
119.037910	-2.989900	3.853400	-11.520000	21.866901	0.000461	20.907704
120.037353	-2.989500	3.852500	-11.515000	21.858278	0.000461	20.896703
121.032309	-2.991900	3.852700	-11.525000	21.867681	0.000461	20.894736
122.032834	-2.996800	3.851700	-11.542000	21.872564	0.000461	20.898200
123.034058	-3.011900	3.851400	-11.599000	21.903562	0.000460	20.914053
124.032931	-2.980400	3.852800	-11.482000	21.889973	0.000460	20.908513
125.032257	-3.007400	3.850500	-11.579000	21.891023	0.000460	20.910037
126.032769	-2.997400	3.850100	-11.540000	21.899553	0.000463	20.894395
127.032844	-3.000300	3.851800	-11.554000	21.915983	0.000462	20.915107
128.035832	-2.997800	3.849100	-11.538000	21.905615	0.000462	20.874386
129.034024	-2.995600	3.851100	-11.536000	21.950417	0.000462	20.910694
130.032751	-3.010000	3.850700	-11.590000	21.939398	0.000462	20.910096
131.032793	-3.004100	3.850400	-11.566000	21.952064	0.000464	20.908076
132.035685	-3.007400	3.850100	-11.578000	21.973308	0.000466	20.881928
133.032932	-2.991800	3.851400	-11.522000	21.967200	0.000463	20.909476
134.035382	-2.999100	3.850100	-11.546000	21.968550	0.000463	20.902293
135.039929	-2.989900	3.849200	-11.507000	21.972840	0.000466	20.898054
136.042830	-2.976000	3.849600	-11.456000	21.986400	0.000465	20.904515
137.036134	-3.019900	3.848000	-11.619000	21.973512	0.000464	20.913424
138.036216	-2.996300	3.848300	-11.531000	21.987478	0.000462	20.916024
139.038832	-3.008500	3.848500	-11.578000	22.006297	0.000465	20.930120
140.035802	-2.997700	3.849400	-11.539000	22.004254	0.000462	20.908162
141.037025	-2.998100	3.848600	-11.538000	22.023154	0.000465	20.901952
142.039862	-3.004800	3.848400	-11.562000	22.039084	0.000466	20.916002
143.038853	-2.986900	3.848100	-11.493000	22.037691	0.000466	20.918400
144.039053	-3.002800	3.848000	-11.554000	22.059676	0.000466	20.915754
145.038231	-2.993000	3.848500	-11.517000	22.055113	0.000465	20.911661
146.041245	-3.025600	3.847400	-11.640000	22.088645	0.000467	20.915357
147.040073	-3.002400	3.847600	-11.551000	22.089472	0.000468	20.901487
148.044315	-3.005300	3.847600	-11.562000	22.084039	0.000467	20.894153
149.040328	-2.985900	3.847700	-11.488000	22.090818	0.000467	20.919429
150.038774	-2.996300	3.848300	-11.530000	22.108648	0.000468	20.912150
151.042232	-2.998200	3.847400	-11.534000	22.115929	0.000468	20.894785
152.041967	-2.997500	3.847100	-11.531000	22.135372	0.000468	20.887698
153.044268	-2.994800	3.846900	-11.520000	22.145292	0.000470	20.897155
154.041309	-2.996500	3.846400	-11.525000	22.146320	0.000469	20.900555
155.042554	-3.002500	3.847000	-11.548000	22.149685	0.000471	20.898234
156.044315	-2.998500	3.847400	-11.536000	22.170028	0.000469	20.904850
157.040553	-3.000200	3.845300	-11.534000	22.173665	0.000469	20.901853
158.038839	-2.993300	3.846600	-11.512000	22.176961	0.000469	20.870543
159.042056	-2.994000	3.846700	-11.516000	22.172501	0.000470	20.888361
160.045573	-3.019700	3.845700	-11.611000	22.166895	0.000470	20.869948
161.041220	-3.002200	3.844900	-11.541000	22.176664	0.000471	20.905804
162.046693	-3.004600	3.845000	-11.552000	22.183223	0.000472	20.884872
163.045105	-3.024200	3.845000	-11.627000	22.201996	0.000473	20.876167
164.042706	-2.991200	3.845900	-11.503000	22.190206	0.000472	20.881432
165.044122	-2.988100	3.844000	-11.485000	22.218200	0.000474	20.871054
166.045175	-3.001800	3.845200	-11.542000	22.235449	0.000473	20.894962
167.044016	-2.992300	3.845800	-11.507000	22.228299	0.000472	20.900130
168.044757	-2.963800	3.845800	-11.398000	22.242432	0.000474	20.867342
169.050210	-2.976900	3.844100	-11.443000	22.222196	0.000474	20.877425
170.055143	-2.980100	3.843900	-11.454000	22.245100	0.000474	20.894193
171.046825	-2.996000	3.842900	-11.513000	22.240618	0.000475	20.874060
172.043848	-2.998100	3.843400	-11.523000	22.251835	0.000475	20.897617
173.047525	-2.994200	3.842900	-11.505000	22.263850	0.000475	20.866502
174.050622	-3.021500	3.843800	-11.613000	22.279103	0.000475	20.863757
175.049755	-2.985200	3.843900	-11.474000	22.290743	0.000473	20.882049
176.047981	-3.010200	3.842000	-11.565000	22.292736	0.000476	20.851804
177.049517	-2.996000	3.842300	-11.511000	22.343403	0.000475	20.882622
178.046143	-2.989900	3.842600	-11.488000	22.313971	0.000477	20.855049
179.046036	-2.972000	3.842900	-11.420000	22.338520	0.000477	20.881525
180.052414	-2.990500	3.842400	-11.489000	22.339792	0.000476	20.876161
181.048950	-3.007300	3.843100	-11.555000	22.340343	0.000479	20.874342
182.047093	-3.004000	3.840700	-11.537000	22.329774	0.000479	20.853803
183.048101	-2.981600	3.842300	-11.455000	22.373361	0.000479	20.867578
184.054911	-3.013300	3.840900	-11.573000	22.364591	0.000480	20.871597
185.049459	-3.002900	3.842800	-11.538000	22.385796	0.000479	20.862012
186.049489	-2.976000	3.842100	-11.433000	22.385224	0.000482	20.851482
187.054611	-3.003300	3.841500	-11.536000	22.380241	0.000480	20.864036
188.057244	-2.987700	3.841000	-11.475000	22.387368	0.000483	20.846992
189.052781	-2.961700	3.842000	-11.378000	22.404361	0.000482	20.843146
190.052158	-2.980100	3.840700	-11.445000	22.408997	0.000482	20.849685
191.054824	-3.027700	3.840200	-11.625000	22.416570	0.000480	20.857742
192.050069	-2.994100	3.840300	-11.497000	22.413457	0.000483	20.862210
193.052987	-3.026100	3.838400	-11.614000	22.431350	0.000482	20.843620
194.057132	-3.009200	3.841600	-11.560000	22.450487	0.000483	20.851879
195.054505	-3.003100	3.839400	-11.529000	22.467606	0.000484	20.841996
196.054069	-3.002600	3.839500	-11.527000	22.474507	0.000484	20.856493
197.057876	-3.017000	3.838500	-11.580000	22.503338	0.000483	20.845064
198.061069	-3.042000	3.837800	-11.674000	22.490555	0.000484	20.846961
199.055584	-3.009900	3.838700	-11.553000	22.480489	0.000483	20.851104
200.055219	-3.013000	3.838400	-11.564000	22.482976	0.000484	20.862604
201.055202	-2.993600	3.838500	-11.491000	22.500547	0.000483	20.839898
202.064406	-2.991200	3.838800	-11.482000	22.519983	0.000485	20.849880
203.073808	-3.003100	3.837000	-11.522000	22.539616	0.000484	20.827344
204.056120	-2.983600	3.839000	-11.453000	22.521626	0.000485	20.831137
205.058097	-3.022500	3.837700	-11.598000	22.515969	0.000484	20.842541
206.058282	-3.004500	3.836100	-11.524000	22.523195	0.000486	20.845036
207.062936	-2.999100	3.836300	-11.504000	22.504907	0.000485	20.855644
208.059391	-3.010900	3.836200	-11.550000	22.506327	0.000488	20.862281
209.058755	-3.002600	3.837200	-11.520000	22.532914	0.000489	20.853822
210.060642	-2.975700	3.837900	-11.420000	22.550109	0.000487	20.846387
211.060327	-3.008500	3.836700	-11.542000	22.559599	0.000489	20.874857
212.062355	-2.999600	3.835400	-11.504000	22.580359	0.000486	20.847760
213.063344	-2.995000	3.834800	-11.484000	22.550035	0.000488	20.841572
214.061907	-3.001700	3.836200	-11.513000	22.569622	0.000488	20.851705
215.061644	-2.983200	3.836300	-11.443000	22.592618	0.000490	20.864305
216.072343	-2.990300	3.835600	-11.469000	22.579065	0.000489	20.840775
217.065456	-3.004400	3.835300	-11.522000	22.584446	0.000490	20.863233
218.078050	-3.003300	3.834800	-11.517000	22.605499	0.000487	20.849232
219.063274	-2.980500	3.834900	-11.430000	22.608739	0.000488	20.866226
220.063417	-2.994100	3.834700	-11.481000	22.621199	0.000489	20.848835
221.066494	-2.987900	3.835000	-11.458000	22.631168	0.000490	20.838432
222.066074	-2.998400	3.834200	-11.495000	22.649157	0.000492	20.858820
223.066940	-2.995400	3.834200	-11.484000	22.641134	0.000489	20.845095
224.069568	-3.004600	3.832700	-11.514000	22.664379	0.000492	20.840878
225.069814	-2.991200	3.833100	-11.465000	22.667291	0.000491	20.856121
226.067046	-3.023900	3.832600	-11.589000	22.685802	0.000493	20.833412
227.068381	-2.995500	3.834100	-11.484000	22.705757	0.000492	20.839650
228.069777	-3.028500	3.832600	-11.606000	22.679775	0.000493	20.838281
229.067706	-3.011600	3.832600	-11.541000	22.687194	0.000492	20.833384
230.070693	-2.999000	3.832800	-11.494000	22.705856	0.000493	20.838327
231.066726	-3.010700	3.832100	-11.536000	22.710961	0.000492	20.838225
232.068852	-3.005100	3.831200	-11.512000	22.716419	0.000493	20.845588
233.069486	-3.012100	3.831100	-11.538000	22.718489	0.000492	20.825377
234.068197	-3.001000	3.832700	-11.501000	22.732138	0.000494	20.825773
235.069429	-2.997300	3.831500	-11.483000	22.724964	0.000492	20.841345
236.069798	-3.004500	3.831600	-11.511000	22.724364	0.000493	20.833158
237.068774	-3.003800	3.830900	-11.507000	22.753937	0.000494	20.821531
238.068340	-3.007900	3.830600	-11.521000	22.768759	0.000494	20.813145
239.069474	-2.989300	3.830500	-11.450000	22.775961	0.000494	20.828420
240.071042	-2.995800	3.831700	-11.479000	22.779225	0.000494	20.813197
241.080262	-3.013400	3.831000	-11.543000	22.781465	0.000496	20.831088
242.073532	-3.012300	3.831000	-11.539000	22.783983	0.000498	20.836455
243.070222	-3.009600	3.829800	-11.525000	22.780617	0.000496	20.836403
244.073555	-3.012500	3.829900	-11.537000	22.776159	0.000496	20.838101
245.074670	-3.021500	3.829400	-11.569000	22.768935	0.000498	20.825649
246.072691	-3.007600	3.828000	-11.511000	22.774616	0.000498	20.820908
247.074184	-3.005900	3.827300	-11.504000	22.801372	0.000499	20.838228
248.074490	-2.989200	3.828600	-11.444000	22.805632	0.000497	20.818314
249.071280	-3.014800	3.828700	-11.541000	22.835801	0.000499	20.824828
250.071980	-2.992700	3.828000	-11.456000	22.840682	0.000498	20.838253
251.077220	-2.980900	3.829900	-11.416000	22.874982	0.000499	20.802441
252.075340	-3.013600	3.828400	-11.536000	22.871768	0.000498	20.811549
253.079073	-2.987800	3.827100	-11.434000	22.912669	0.000498	20.828342
254.075088	-2.996600	3.828300	-11.470000	22.879044	0.000499	20.812200
255.076394	-2.985600	3.826700	-11.424000	22.894465	0.000498	20.817691
256.075604	-2.971800	3.828400	-11.376000	22.882382	0.000499	20.815069
257.078586	-2.971700	3.827700	-11.373000	22.887835	0.000500	20.801567
258.082286	-2.981100	3.827000	-11.407000	22.876576	0.000499	20.823003
259.075970	-2.984000	3.826400	-11.417000	22.879814	0.000500	20.831463
260.077377	-2.992000	3.827000	-11.450000	22.894860	0.000500	20.821407
261.078841	-2.980200	3.826700	-11.402000	22.898993	0.000501	20.811323
262.076775	-3.019800	3.825900	-11.552000	22.886091	0.000500	20.848182
263.084949	-3.000900	3.826000	-11.481000	22.906940	0.000499	20.811698
264.077034	-2.979000	3.825600	-11.395000	22.921191	0.000503	20.829294
265.078977	-3.001100	3.824900	-11.477000	22.958504	0.000502	20.826849
266.078830	-3.007700	3.825500	-11.506000	22.949633	0.000504	20.818435
267.078918	-3.002900	3.825400	-11.486000	22.994793	0.000503	20.805834
268.078961	-2.979300	3.826400	-11.399000	22.980543	0.000502	20.816213
269.084911	-2.992700	3.825000	-11.445000	23.012946	0.000503	20.835876
270.079433	-2.999600	3.825600	-11.475000	22.975037	0.000504	20.800739
271.086869	-2.985100	3.824900	-11.417000	22.970778	0.000505	20.821128
272.079390	-3.015600	3.824700	-11.533000	22.983481	0.000504	20.812519
273.078066	-2.992900	3.825100	-11.447000	23.002111	0.000502	20.834977
274.079731	-2.992300	3.824200	-11.442000	23.033168	0.000506	20.800662
275.086432	-2.998100	3.824200	-11.465000	23.025324	0.000504	20.792803
276.081313	-2.985200	3.824000	-11.414000	23.035410	0.000506	20.821400
277.084321	-2.985200	3.823900	-11.414000	23.036208	0.000507	20.809872
278.080478	-3.003000	3.823300	-11.481000	23.053393	0.000508	20.829935
279.080838	-2.990100	3.824500	-11.435000	23.066943	0.000507	20.817908
280.084249	-2.990000	3.823100	-11.431000	23.055953	0.000507	20.806897
281.087563	-3.003900	3.821100	-11.477000	23.065068	0.000506	20.795641
282.080787	-3.015200	3.822500	-11.524000	23.051642	0.000509	20.823914
283.087292	-3.009300	3.822000	-11.501000	23.069998	0.000511	20.804849
284.079523	-3.012600	3.821500	-11.512000	23.074953	0.000508	20.811236
285.095183	-2.983100	3.822400	-11.401000	23.084315	0.000508	20.819668
286.087134	-2.996600	3.821300	-11.450000	23.080851	0.000509	20.791541
287.079376	-2.996700	3.820500	-11.447000	23.095171	0.000507	20.813476
288.080465	-3.020100	3.820600	-11.538000	23.094871	0.000508	20.788520
289.084325	-3.021100	3.821300	-11.543000	23.116239	0.000510	20.797603
290.080173	-2.990900	3.820500	-11.425000	23.111253	0.000509	20.806832
291.081759	-2.995100	3.820600	-11.443000	23.083783	0.000512	20.800643
292.087687	-2.988200	3.819600	-11.412000	23.095560	0.000511	20.809125
293.083111	-2.994800	3.819600	-11.438000	23.103580	0.000510	20.794402
294.084789	-2.995300	3.819800	-11.441000	23.118150	0.000511	20.823225
295.083222	-3.009800	3.818300	-11.491000	23.128557	0.000512	20.797618
296.084074	-3.019500	3.817700	-11.527000	23.111946	0.000514	20.801362
297.086874	-3.005000	3.819200	-11.476000	23.127586	0.000512	20.804706
298.086717	-2.996300	3.818900	-11.442000	23.168304	0.000513	20.794773
299.086899	-2.996700	3.817500	-11.439000	23.177170	0.000514	20.799865
300.089740	-3.019400	3.818500	-11.529000	23.161927	0.000515	20.799763
301.087414	-2.986200	3.818300	-11.401000	23.165560	0.000514	20.791076
302.085073	-3.024900	3.816100	-11.542000	23.142078	0.000514	20.781296
303.084860	-3.015100	3.817800	-11.511000	23.161076	0.000516	20.800333
304.088090	-2.985300	3.819500	-11.401000	23.156143	0.000514	20.798235
305.085994	-3.002400	3.816900	-11.459000	23.182489	0.000514	20.813256
306.082988	-3.007400	3.817200	-11.479000	23.195462	0.000515	20.810609
307.087332	-3.016800	3.815500	-11.510000	23.191006	0.000516	20.781962
308.086330	-3.006200	3.816200	-11.472000	23.206867	0.000515	20.786951
309.083744	-2.998100	3.816100	-11.440000	23.198821	0.000515	20.795009
310.086589	-3.026400	3.815500	-11.546000	23.209880	0.000519	20.804669
311.097936	-2.992500	3.816000	-11.418000	23.253956	0.000514	20.791941
312.096114	-2.997000	3.816900	-11.438000	23.268125	0.000514	20.810408
313.088255	-3.003400	3.814000	-11.454000	23.276888	0.000518	20.802595
314.090464	-3.003500	3.816000	-11.461000	23.262719	0.000515	20.795034
315.096350	-3.003000	3.813300	-11.450000	23.232139	0.000516	20.816070
316.092830	-3.008700	3.813500	-11.472000	23.236175	0.000517	20.786449
317.087838	-3.007900	3.813800	-11.471000	23.248798	0.000519	20.796255
318.087710	-2.997700	3.815000	-11.436000	23.258835	0.000517	20.767433
319.084630	-2.981600	3.814700	-11.373000	23.259333	0.000517	20.801597
320.090847	-3.002300	3.814000	-11.450000	23.273778	0.000517	20.813702
321.087068	-2.969200	3.814700	-11.325000	23.278234	0.000518	20.800150
322.088674	-2.988800	3.813500	-11.397000	23.305971	0.000521	20.804715
323.091835	-2.998300	3.813600	-11.432000	23.321287	0.000520	20.789245
324.090686	-3.010400	3.812400	-11.475000	23.346583	0.000520	20.776666
325.087965	-2.994900	3.811200	-11.413000	23.340331	0.000520	20.785098
326.092136	-2.987600	3.813100	-11.391000	23.349641	0.000520	20.765506
327.100678	-3.001300	3.812600	-11.442000	23.345362	0.000523	20.781605
328.087240	-2.995800	3.810900	-11.416000	23.325538	0.000520	20.770746
329.089086	-3.011600	3.811400	-11.477000	23.349592	0.000521	20.774465
330.087064	-3.013800	3.811300	-11.486000	23.327755	0.000521	20.785771
331.094026	-3.012400	3.809900	-11.476000	23.355940	0.000522	20.784621
332.089972	-3.020600	3.809000	-11.505000	23.376007	0.000521	20.786716
333.087583	-2.998500	3.811200	-11.427000	23.407873	0.000523	20.780248
334.107674	-3.008500	3.809600	-11.460000	23.422785	0.000525	20.782393
335.087781	-2.990300	3.810500	-11.394000	23.383870	0.000524	20.811192
336.093551	-3.017800	3.809800	-11.496000	23.386805	0.000524	20.780468
337.099629	-3.014500	3.809400	-11.482000	23.422581	0.000523	20.785982
338.089691	-2.983800	3.808600	-11.363000	23.426916	0.000526	20.772782
339.093808	-2.999600	3.809500	-11.426000	23.447950	0.000525	20.774425
340.089434	-2.978400	3.810100	-11.348000	23.482581	0.000525	20.776895
341.088940	-2.997800	3.808200	-11.415000	23.481137	0.000525	20.772603
342.089556	-2.997900	3.809000	-11.418000	23.474487	0.000527	20.774472
343.088072	-3.002700	3.806500	-11.429000	23.452900	0.000524	20.785077
344.089553	-2.995700	3.807400	-11.405000	23.468384	0.000525	20.772147
345.098609	-2.999500	3.807100	-11.418000	23.485837	0.000526	20.779684
346.103394	-3.023400	3.805900	-11.506000	23.490465	0.000525	20.779582
347.092370	-3.009400	3.806600	-11.455000	23.503883	0.000525	20.763634
348.092302	-2.987900	3.805900	-11.371000	23.491807	0.000526	20.774289
349.103814	-3.012400	3.805900	-11.464000	23.488369	0.000525	20.786016
350.095275	-3.010500	3.805500	-11.456000	23.507986	0.000525	20.783868
351.099118	-3.009700	3.805200	-11.451000	23.518241	0.000530	20.775656
352.094646	-2.985000	3.806900	-11.362000	23.510994	0.000526	20.779771
353.101271	-2.998900	3.804900	-11.409000	23.544179	0.000526	20.787432
354.105294	-3.006800	3.806200	-11.443000	23.546321	0.000526	20.785787
355.097343	-2.994600	3.804600	-11.392000	23.542609	0.000526	20.778271
356.095377	-2.986900	3.804700	-11.364000	23.540342	0.000528	20.788328
357.099171	-3.005400	3.806100	-11.438000	23.499861	0.000528	20.749645
358.097852	-3.018800	3.804600	-11.485000	23.514871	0.000527	20.785554
359.096210	-2.980900	3.805100	-11.341000	23.491146	0.000528	20.775048
360.093781	-2.978700	3.805300	-11.333000	23.508821	0.000527	20.750565
361.097549	-2.964500	3.805100	-11.279000	23.535656	0.000528	20.765612
362.098909	-2.976400	3.804700	-11.323000	23.544244	0.000528	20.774695
363.099400	-3.000300	3.801500	-11.404000	23.557813	0.000528	20.769805
364.103395	-3.000100	3.803000	-11.408000	23.554375	0.000530	20.787222
365.097009	-3.002100	3.803300	-11.417000	23.552557	0.000529	20.780184
366.103667	-2.986200	3.804300	-11.360000	23.554820	0.000531	20.777237
367.113854	-3.007500	3.802000	-11.434000	23.571950	0.000528	20.782080
368.098463	-3.008000	3.802800	-11.437000	23.610111	0.000531	20.757746
369.098505	-3.010200	3.801200	-11.442000	23.629027	0.000529	20.786667
370.101977	-2.981700	3.801000	-11.333000	23.619818	0.000532	20.772693
371.104688	-3.001700	3.801600	-11.411000	23.587479	0.000531	20.777258
372.107359	-3.005800	3.800400	-11.422000	23.550381	0.000530	20.774683
373.109330	-2.998000	3.800200	-11.392000	23.547893	0.000530	20.770766
374.102320	-2.998900	3.800600	-11.397000	23.537811	0.000532	20.771091
375.116810	-3.012400	3.800100	-11.446000	23.554338	0.000533	20.762054
376.120065	-2.998100	3.799200	-11.390000	23.572312	0.000534	20.763951
377.102729	-2.997600	3.799800	-11.389000	23.572736	0.000533	20.776704
378.104055	-2.998200	3.800300	-11.393000	23.562927	0.000533	20.780621
379.103935	-2.991400	3.799200	-11.364000	23.563350	0.000532	20.760657
380.103146	-3.003500	3.798500	-11.408000	23.572535	0.000531	20.781244
381.107585	-3.000300	3.798000	-11.395000	23.577562	0.000535	20.782964
382.105031	-2.999800	3.798300	-11.394000	23.625831	0.000533	20.763548
383.104029	-3.006100	3.798300	-11.417000	23.641714	0.000532	20.759557
384.102754	-3.005500	3.798300	-11.415000	23.629788	0.000533	20.753290
385.106973	-2.999900	3.798000	-11.392000	23.631404	0.000534	20.755385
386.106951	-3.002400	3.797600	-11.401000	23.657294	0.000535	20.775176
387.108081	-2.995200	3.796000	-11.369000	23.626900	0.000533	20.769362
388.121852	-3.007300	3.796100	-11.415000	23.665260	0.000535	20.760403
389.106673	-3.005400	3.795400	-11.406000	23.701380	0.000535	20.779072
390.108333	-2.989400	3.798500	-11.354000	23.738216	0.000535	20.775700
391.107640	-3.009300	3.795500	-11.420000	23.699983	0.000536	20.762024
392.125404	-3.002800	3.796100	-11.397000	23.707949	0.000535	20.774277
393.113471	-2.997500	3.795300	-11.375000	23.700406	0.000534	20.748697
394.108758	-3.010800	3.795300	-11.426000	23.694530	0.000537	20.754660
395.113747	-3.003200	3.795700	-11.398000	23.651241	0.000535	20.754883
396.105803	-3.014200	3.795900	-11.440000	23.660005	0.000535	20.775998
397.113772	-3.014800	3.793200	-11.436000	23.636480	0.000534	20.773277
398.111268	-2.995200	3.794000	-11.363000	23.650892	0.000535	20.781561
399.108219	-2.998700	3.794400	-11.378000	23.694499	0.000536	20.767432
400.122336	-2.990200	3.793800	-11.344000	23.748961	0.000535	20.773196
401.113632	-2.968700	3.795000	-11.265000	23.731685	0.000535	20.751134
402.109358	-3.022300	3.793900	-11.465000	23.738532	0.000536	20.767956
403.117765	-3.001800	3.792100	-11.383000	23.705946	0.000536	20.780805
404.112297	-2.988000	3.794000	-11.336000	23.748210	0.000536	20.763908
405.120394	-2.998800	3.793100	-11.374000	23.740269	0.000538	20.776336
406.112122	-3.003200	3.792200	-11.388000	23.742853	0.000535	20.776082
407.115139	-2.999800	3.792800	-11.377000	23.764583	0.000537	20.766574
408.125246	-2.996900	3.792700	-11.366000	23.753978	0.000539	20.779175
409.112594	-3.001500	3.791900	-11.381000	23.762215	0.000537	20.754717
410.116317	-2.987900	3.792000	-11.329000	23.792302	0.000537	20.771133
411.119741	-2.985300	3.791800	-11.318000	23.810071	0.000537	20.771880
412.122420	-3.000300	3.791800	-11.375000	23.821693	0.000538	20.769308
413.126109	-2.984600	3.790500	-11.312000	23.883714	0.000538	20.794987
414.115660	-2.998700	3.791200	-11.367000	23.898443	0.000537	20.763290
415.117713	-2.996200	3.790300	-11.356000	23.902674	0.000538	20.780809
416.117511	-2.996500	3.790000	-11.355000	23.930174	0.000538	20.797953
417.116199	-2.997100	3.790300	-11.358000	23.925544	0.000538	20.789991
418.125220	-2.995400	3.789800	-11.351000	23.936068	0.000538	20.788690
419.116675	-3.005900	3.787700	-11.384000	23.932035	0.000539	20.788913
420.117838	-3.001300	3.788000	-11.368000	23.873447	0.000539	20.787063
421.119362	-3.000600	3.788700	-11.368000	23.853463	0.000541	20.791207
422.121865	-3.020000	3.787200	-11.437000	23.881186	0.000540	20.771115
423.120093	-3.010900	3.788500	-11.406000	23.853633	0.000541	20.767195
424.120672	-3.020700	3.787800	-11.441000	23.897384	0.000539	20.768866
425.122024	-3.007900	3.787300	-11.391000	23.911792	0.000540	20.781891
426.125556	-3.014200	3.788100	-11.418000	23.929384	0.000542	20.783410
427.119798	-3.003500	3.787400	-11.375000	23.944116	0.000540	20.778743
428.134086	-3.024800	3.786900	-11.454000	23.931594	0.000541	20.781359
429.122526	-2.998200	3.786700	-11.353000	23.943962	0.000540	20.770528
430.119990	-3.005300	3.785300	-11.375000	23.943288	0.000543	20.769378
431.122015	-3.003900	3.787100	-11.375000	23.934848	0.000541	20.792683
432.127907	-3.002700	3.785200	-11.365000	23.903817	0.000541	20.797601
433.132332	-2.986400	3.786100	-11.306000	23.895003	0.000544	20.789711
434.125046	-2.990400	3.786100	-11.321000	23.883725	0.000544	20.781722
435.141816	-2.993100	3.785400	-11.329000	23.886934	0.000544	20.804380
436.123314	-3.007000	3.785100	-11.379000	23.880910	0.000545	20.782218
437.127320	-3.006800	3.785500	-11.382000	23.895195	0.000542	20.814086
438.123584	-3.017100	3.784700	-11.418000	23.920228	0.000543	20.792721
439.122439	-3.016400	3.785200	-11.417000	23.898326	0.000543	20.795415
440.123161	-3.004900	3.783600	-11.368000	23.946281	0.000541	20.794665
441.139349	-3.013100	3.783600	-11.400000	23.914428	0.000543	20.786430
442.133333	-3.007000	3.783300	-11.376000	23.921616	0.000542	20.796484
443.133785	-3.005600	3.782900	-11.369000	23.915615	0.000543	20.780035
444.128407	-2.973300	3.785100	-11.253000	23.971882	0.000544	20.791889
445.127567	-2.987800	3.782500	-11.301000	23.961205	0.000543	20.788768
446.129286	-2.997900	3.782000	-11.338000	23.936692	0.000544	20.799748
447.129658	-2.996100	3.782300	-11.332000	23.961725	0.000544	20.776961
448.128071	-2.996800	3.782100	-11.334000	23.966502	0.000541	20.815891
449.135544	-3.018400	3.780100	-11.409000	23.996661	0.000545	20.811996
450.125778	-3.006600	3.781600	-11.368000	23.993651	0.000544	20.793330
451.130635	-2.992100	3.780800	-11.311000	23.992252	0.000544	20.819427
452.133533	-3.029600	3.780000	-11.451000	24.011436	0.000545	20.788406
453.128186	-3.004600	3.781300	-11.360000	24.010491	0.000545	20.800260
454.132038	-2.999200	3.780400	-11.338000	24.005386	0.000546	20.792296
455.129603	-3.019200	3.778400	-11.407000	23.994137	0.000545	20.797611
456.130088	-3.021100	3.779400	-11.417000	23.992694	0.000546	20.809914
457.137417	-3.013600	3.778500	-11.386000	24.016728	0.000546	20.799877
458.131885	-2.982500	3.780700	-11.276000	24.048776	0.000544	20.823956
459.133310	-2.983100	3.780700	-11.278000	24.034991	0.000544	20.823882
460.132411	-2.987600	3.778600	-11.287000	24.060744	0.000546	20.819364
461.132977	-2.987900	3.778800	-11.290000	24.083635	0.000547	20.784001
462.132647	-2.985900	3.778700	-11.281000	24.056038	0.000545	20.825075
463.142524	-3.003700	3.778400	-11.347000	24.062308	0.000545	20.798173
464.134183	-3.029400	3.777100	-11.442000	24.083608	0.000548	20.811948
465.134342	-3.005400	3.777500	-11.351000	24.103462	0.000545	20.817635
466.144094	-2.998200	3.778900	-11.330000	24.097640	0.000546	20.826021
467.135738	-2.988100	3.777800	-11.288000	24.078976	0.000546	20.798294
468.136106	-2.988200	3.777600	-11.288000	24.128991	0.000548	20.808626
469.136122	-3.012200	3.775800	-11.373000	24.121226	0.000545	20.807003
470.138762	-3.009700	3.777100	-11.366000	24.097884	0.000545	20.809671
471.136742	-3.000100	3.775500	-11.326000	24.091516	0.000545	20.806603
472.137893	-3.037400	3.774200	-11.462000	24.104531	0.000547	20.810647
473.137568	-3.006100	3.775700	-11.349000	24.139911	0.000546	20.816260
474.137993	-2.992400	3.775800	-11.297000	24.150558	0.000546	20.816982
475.139893	-2.978400	3.775900	-11.245000	24.155805	0.000548	20.820348
476.138929	-2.989800	3.774300	-11.283000	24.160409	0.000547	20.818801
477.142735	-2.994800	3.774500	-11.302000	24.224450	0.000547	20.829456
478.142732	-2.991400	3.774100	-11.288000	24.179591	0.000549	20.802953
479.141338	-2.995700	3.773900	-11.305000	24.185711	0.000548	20.804825
480.140525	-2.998300	3.775100	-11.317000	24.189317	0.000547	20.833097
481.141606	-3.008400	3.772300	-11.347000	24.149605	0.000547	20.824086
482.141776	-3.002600	3.774200	-11.331000	24.152691	0.000546	20.806319
483.140781	-2.996300	3.773500	-11.306000	24.125145	0.000546	20.834641
484.143910	-2.991900	3.774100	-11.290000	24.152914	0.000547	20.794214
485.140814	-2.984700	3.772300	-11.258000	24.165576	0.000549	20.830622
486.141973	-3.009700	3.772200	-11.352000	24.203246	0.000548	20.836637
487.143534	-2.992800	3.772800	-11.290000	24.180654	0.000546	20.832469
488.149341	-2.990900	3.772400	-11.282000	24.226956	0.000548	20.837659
489.145725	-2.999600	3.771100	-11.311000	24.204662	0.000546	20.827151
490.143275	-2.988000	3.772300	-11.271000	24.205635	0.000546	20.822437
491.146667	-3.010300	3.770200	-11.349000	24.178417	0.000548	20.818371
492.149630	-2.995900	3.770900	-11.297000	24.152862	0.000546	20.821188
493.145038	-2.996600	3.771100	-11.299000	24.195707	0.000547	20.835713
494.151206	-2.989500	3.771200	-11.273000	24.224395	0.000546	20.825133
495.152371	-2.999200	3.770700	-11.308000	24.246090	0.000548	20.818920
496.147774	-2.994400	3.770500	-11.289000	24.275796	0.000548	20.824535
497.145706	-2.973500	3.771400	-11.213000	24.291274	0.000546	20.841009
498.156310	-2.994200	3.768600	-11.283000	24.330902	0.000545	20.830975
499.146554	-3.001700	3.769600	-11.315000	24.274087	0.000545	20.823295
500.145719	-2.991800	3.769300	-11.277000	24.279014	0.000546	20.838194
501.148160	-3.000100	3.767700	-11.303000	24.261948	0.000546	20.815860
502.146746	-2.994700	3.768500	-11.285000	24.245453	0.000547	20.824918
503.149562	-2.994100	3.768600	-11.282000	24.273070	0.000547	20.830809
504.150054	-2.984500	3.768600	-11.247000	24.235853	0.000545	20.833307
505.149495	-2.971600	3.767400	-11.195000	24.238788	0.000546	20.837673
506.148501	-2.997800	3.766900	-11.291000	24.229262	0.000548	20.829067
507.151465	-2.991800	3.766300	-11.268000	24.225354	0.000546	20.854544
508.148315	-2.986800	3.765400	-11.245000	24.286685	0.000549	20.838776
509.151309	-2.980000	3.766600	-11.224000	24.281015	0.000548	20.841624
510.149441	-2.948300	3.766800	-11.104000	24.296215	0.000546	20.829845
511.159220	-2.973700	3.766300	-11.199000	24.305273	0.000547	20.818068
512.150295	-2.990800	3.766100	-11.262000	24.271515	0.000547	20.850585
513.151699	-2.994100	3.765400	-11.273000	24.271462	0.000549	20.831093
514.149178	-3.006300	3.764000	-11.314000	24.310846	0.000549	20.835512
515.149564	-3.006500	3.764300	-11.316000	24.311492	0.000548	20.833789
516.151302	-3.007700	3.764800	-11.322000	24.299502	0.000548	20.841202
517.149594	-3.002400	3.765000	-11.302000	24.294031	0.000548	20.855627
518.157008	-2.985700	3.764500	-11.239000	24.286242	0.000549	20.855401
519.148248	-2.995100	3.763400	-11.271000	24.340053	0.000546	20.844422
520.149579	-2.978800	3.763000	-11.209000	24.377569	0.000550	20.853606
521.149726	-2.979300	3.764200	-11.214000	24.309623	0.000547	20.843294
522.156345	-3.005600	3.761100	-11.303000	24.332139	0.000548	20.857818
523.149896	-3.008100	3.761900	-11.315000	24.343359	0.000550	20.853427
524.152372	-3.001900	3.761600	-11.291000	24.364381	0.000548	20.838007
525.150949	-2.980000	3.763100	-11.213000	24.337860	0.000548	20.839377
526.151496	-2.994200	3.761800	-11.262000	24.318255	0.000547	20.871866
527.153647	-2.995200	3.762300	-11.268000	24.338552	0.000547	20.839597
528.151292	-3.006000	3.761000	-11.303000	24.307106	0.000549	20.852148
529.155392	-2.991300	3.761700	-11.252000	24.303476	0.000549	20.878377
530.166096	-2.999200	3.760800	-11.278000	24.346511	0.000550	20.856115
531.151906	-3.007900	3.760000	-11.309000	24.380270	0.000547	20.843040
532.157403	-3.000000	3.759400	-11.277000	24.390863	0.000549	20.846081
533.155214	-2.990400	3.759900	-11.243000	24.429795	0.000552	20.860481
534.163921	-3.019200	3.758700	-11.347000	24.437159	0.000549	20.860757
535.151795	-3.019400	3.759700	-11.350000	24.461186	0.000551	20.863524
536.156361	-2.999200	3.759400	-11.274000	24.489270	0.000550	20.850924
537.151657	-3.001300	3.758500	-11.280000	24.470168	0.000547	20.854519
538.152845	-2.979700	3.760300	-11.204000	24.423678	0.000550	20.847707
539.151897	-2.975900	3.758600	-11.184000	24.417111	0.000550	20.843016
540.156472	-2.981900	3.758600	-11.206000	24.416289	0.000547	20.862579
541.156434	-2.997900	3.757900	-11.264000	24.397758	0.000551	20.863428
542.163894	-3.014800	3.757200	-11.327000	24.368803	0.000552	20.854295
543.169458	-2.997800	3.758700	-11.266000	24.416314	0.000550	20.864974
544.155240	-3.009200	3.755500	-11.299000	24.438827	0.000552	20.851051
545.156343	-3.000500	3.756700	-11.272000	24.478455	0.000549	20.840074
546.156046	-3.007500	3.757500	-11.300000	24.505341	0.000551	20.852349
547.161591	-3.008400	3.756700	-11.300000	24.523077	0.000551	20.838376
548.155393	-3.000900	3.754800	-11.266000	24.518774	0.000551	20.857292
549.159401	-3.005300	3.756400	-11.288000	24.528597	0.000550	20.864302
550.160602	-2.991700	3.754400	-11.231000	24.518947	0.000552	20.852724
551.158916	-3.006700	3.755400	-11.289000	24.508476	0.000549	20.851227
552.171544	-2.991700	3.755900	-11.235000	24.506138	0.000550	20.853623
553.161787	-2.982900	3.755100	-11.199000	24.492757	0.000552	20.864853
554.161332	-2.989700	3.754500	-11.224000	24.482483	0.000551	20.876830
555.169523	-3.022100	3.753800	-11.343000	24.457932	0.000551	20.879700
556.159678	-2.989800	3.755500	-11.227000	24.458004	0.000550	20.859858
557.163227	-2.997700	3.754200	-11.254000	24.471710	0.000550	20.864125
558.164988	-3.022500	3.752900	-11.343000	24.510663	0.000552	20.885188
559.165866	-3.013500	3.753300	-11.309000	24.504915	0.000550	20.864723
560.160104	-3.012500	3.753200	-11.305000	24.511806	0.000550	20.868318
561.170574	-2.961900	3.754300	-11.119000	24.522129	0.000550	20.866821
562.161591	-2.989700	3.752000	-11.217000	24.526805	0.000553	20.872461
563.159034	-2.987600	3.753100	-11.211000	24.522552	0.000553	20.886211
564.161559	-3.005100	3.752100	-11.274000	24.487207	0.000551	20.860233
565.175991	-2.979600	3.751400	-11.176000	24.511880	0.000551	20.860806
566.163688	-3.004100	3.751000	-11.268000	24.491485	0.000551	20.870689
567.160643	-2.998500	3.753300	-11.254000	24.517255	0.000550	20.871888
568.175963	-3.006900	3.750000	-11.274000	24.552726	0.000550	20.868597
569.164557	-2.987300	3.752100	-11.207000	24.561504	0.000550	20.870292
570.163898	-2.972700	3.751100	-11.150000	24.586130	0.000548	20.859439
571.165580	-2.998400	3.750700	-11.246000	24.560985	0.000550	20.869771
572.167186	-3.011800	3.750300	-11.294000	24.561902	0.000550	20.886337
573.166742	-2.992100	3.749800	-11.219000	24.564290	0.000551	20.894896
574.173005	-3.003700	3.748400	-11.258000	24.569862	0.000548	20.876781
575.167312	-2.984800	3.749000	-11.189000	24.577797	0.000552	20.874311
576.167540	-2.998300	3.747400	-11.234000	24.562400	0.000550	20.877828
577.167980	-3.000600	3.748000	-11.246000	24.532180	0.000548	20.885913
578.169428	-3.008000	3.748000	-11.273000	24.554391	0.000548	20.874534
579.169376	-2.985200	3.748400	-11.189000	24.577843	0.000550	20.914183
580.167942	-2.982900	3.749000	-11.183000	24.574736	0.000548	20.896842
581.168477	-3.018800	3.747400	-11.312000	24.583116	0.000549	20.882966
582.180063	-2.993000	3.747500	-11.216000	24.600628	0.000551	20.892002
583.174048	-3.015100	3.747500	-11.298000	24.632038	0.000549	20.890803
584.169912	-3.029500	3.747300	-11.351000	24.635516	0.000549	20.904249
585.175618	-2.973400	3.747900	-11.144000	24.625318	0.000549	20.885483
586.172462	-3.018800	3.747000	-11.309000	24.621711	0.000549	20.883760
587.176594	-3.003100	3.746200	-11.250000	24.600595	0.000548	20.894814
588.174203	-2.974900	3.746300	-11.144000	24.604672	0.000550	20.905068
589.172351	-2.978600	3.746600	-11.159000	24.594226	0.000551	20.888898
590.172876	-2.974900	3.746400	-11.145000	24.571491	0.000550	20.893587
591.175610	-2.977700	3.745600	-11.153000	24.584401	0.000550	20.891368
592.172615	-3.004300	3.745700	-11.252000	24.576516	0.000549	20.891043
593.172262	-2.987200	3.744900	-11.185000	24.566265	0.000549	20.899249
594.172637	-3.018800	3.743600	-11.301000	24.585217	0.000550	20.903565
595.179936	-3.010700	3.742500	-11.266000	24.616653	0.000548	20.917088
596.172234	-2.994700	3.744200	-11.212000	24.634609	0.000550	20.909503
597.173635	-3.020700	3.742700	-11.304000	24.627571	0.000550	20.915241
598.172574	-3.006000	3.743200	-11.251000	24.661544	0.000550	20.920407
599.173342	-3.009400	3.744000	-11.265000	24.680843	0.000551	20.889990
600.172274	-3.008300	3.742200	-11.256000	24.694469	0.000547	20.915514
601.179639	-3.004700	3.742800	-11.245000	24.667489	0.000548	20.916416
602.176088	-2.980800	3.744100	-11.160000	24.657016	0.000551	20.901641
603.174366	-2.999400	3.742700	-11.225000	24.658758	0.000548	20.902915
604.188772	-3.012500	3.741700	-11.271000	24.665972	0.000549	20.915368
605.175717	-3.002200	3.741500	-11.232000	24.632024	0.000547	20.907383
606.177611	-3.001200	3.741700	-11.227000	24.641997	0.000548	20.902691
607.180245	-3.017300	3.740600	-11.285000	24.675296	0.000548	20.923301
608.177882	-2.984100	3.742000	-11.165000	24.642522	0.000547	20.908433
609.177153	-3.011200	3.740800	-11.264000	24.673755	0.000548	20.918436
610.178019	-2.999900	3.740600	-11.220000	24.702727	0.000549	20.946083
611.177511	-2.993100	3.740900	-11.196000	24.701559	0.000549	20.895605
612.183234	-3.023100	3.740100	-11.306000	24.706532	0.000547	20.914817
613.185606	-2.985500	3.741000	-11.168000	24.713045	0.000548	20.910448
614.177483	-2.995200	3.739700	-11.200000	24.760544	0.000546	20.900268
615.181721	-2.999200	3.739800	-11.216000	24.808116	0.000549	20.926195
616.179871	-3.004500	3.740400	-11.236000	24.765838	0.000549	20.938293
617.179386	-3.006000	3.739800	-11.241000	24.771733	0.000548	20.903436
618.184191	-3.010400	3.738600	-11.253000	24.768947	0.000548	20.918183
619.180890	-2.998300	3.738200	-11.207000	24.700735	0.000546	20.933654
620.180397	-3.007100	3.738400	-11.240000	24.668252	0.000547	20.916708
621.179708	-2.982500	3.739400	-11.152000	24.706526	0.000546	20.928086
622.186358	-2.982700	3.738500	-11.149000	24.714037	0.000549	20.914288
623.180786	-2.988400	3.736500	-11.166000	24.723039	0.000546	20.928536
624.183376	-2.993600	3.737200	-11.187000	24.697749	0.000547	20.922124
625.183340	-2.988700	3.737800	-11.170000	24.727415	0.000548	20.940038
626.180872	-3.007500	3.737000	-11.238000	24.704136	0.000547	20.912887
627.183482	-3.007600	3.735600	-11.234000	24.740345	0.000549	20.920299
628.183086	-3.006200	3.736200	-11.230000	24.793390	0.000547	20.941287
629.182331	-2.984900	3.736100	-11.152000	24.813727	0.000547	20.926612
630.182505	-2.991000	3.735400	-11.172000	24.800548	0.000546	20.928084
631.188014	-3.003500	3.735100	-11.217000	24.806119	0.000547	20.938415
632.185297	-2.983500	3.735600	-11.144000	24.836433	0.000545	20.902934
633.184327	-2.984900	3.736200	-11.150000	24.814378	0.000547	20.941014
634.184876	-2.998400	3.734700	-11.198000	24.796051	0.000545	20.921201
635.187677	-2.990700	3.733600	-11.166000	24.777996	0.000545	20.935322
636.184539	-2.999300	3.734000	-11.198000	24.798485	0.000546	20.929332
637.198339	-2.986600	3.734000	-11.150000	24.814975	0.000547	20.927863
638.186445	-3.017200	3.732400	-11.261000	24.839891	0.000549	20.890759
639.185525	-2.994000	3.733500	-11.178000	24.814876	0.000547	20.914015
640.189003	-2.988500	3.732600	-11.154000	24.791357	0.000545	20.939247
641.189680	-2.995600	3.733100	-11.182000	24.794565	0.000545	20.928243
642.187327	-3.017400	3.732200	-11.260000	24.817664	0.000544	20.927717
643.194461	-3.010000	3.731800	-11.232000	24.820699	0.000544	20.917962
644.187546	-2.991100	3.733300	-11.166000	24.820702	0.000546	20.913698
645.194737	-2.978800	3.732100	-11.116000	24.847505	0.000544	20.920683
646.188208	-3.015700	3.730800	-11.250000	24.813044	0.000546	20.912176
647.187667	-3.017000	3.732300	-11.259000	24.812747	0.000546	20.900026
648.191138	-2.997000	3.731200	-11.182000	24.824932	0.000545	20.900401
649.185727	-2.999000	3.732100	-11.192000	24.809517	0.000545	20.909585
650.191899	-3.012500	3.730500	-11.237000	24.766519	0.000545	20.907212
651.191923	-2.998400	3.730100	-11.182000	24.758715	0.000544	20.895588
652.187204	-3.000300	3.730500	-11.191000	24.799771	0.000545	20.920192
653.189841	-2.981900	3.730200	-11.122000	24.723751	0.000545	20.910760
654.187573	-2.988000	3.729900	-11.144000	24.725891	0.000545	20.913855
655.190093	-2.988700	3.730700	-11.149000	24.771225	0.000544	20.905296
656.189502	-3.015300	3.729200	-11.244000	24.780402	0.000544	20.913557
657.191506	-2.985700	3.729400	-11.134000	24.769186	0.000544	20.896614
658.191973	-2.971800	3.729600	-11.083000	24.776101	0.000542	20.899285
659.192398	-3.013100	3.728200	-11.233000	24.746881	0.000542	20.911212
660.190776	-3.005100	3.727600	-11.200000	24.763195	0.000543	20.893920
661.191643	-2.968200	3.729200	-11.068000	24.775230	0.000541	20.911686
662.203195	-3.018500	3.727000	-11.248000	24.787640	0.000543	20.892374
663.189523	-2.986000	3.726900	-11.128000	24.844437	0.000541	20.903855
664.194011	-3.003900	3.727300	-11.196000	24.849881	0.000543	20.884664
665.192242	-2.978800	3.728600	-11.106000	24.869726	0.000541	20.901261
666.192531	-2.988400	3.726200	-11.134000	24.874478	0.000543	20.887065
667.190515	-2.991400	3.726600	-11.147000	24.909515	0.000543	20.900418
668.190429	-2.973600	3.726600	-11.080000	24.924283	0.000542	20.900542
669.190405	-2.994000	3.725900	-11.154000	24.882191	0.000539	20.883901
670.190378	-2.983800	3.726000	-11.117000	24.844149	0.000541	20.877963
671.191536	-3.009100	3.725400	-11.209000	24.831025	0.000541	20.890395
672.191994	-2.974900	3.726900	-11.086000	24.841391	0.000540	20.887523
673.193018	-2.983000	3.725300	-11.111000	24.850096	0.000541	20.875397
674.194678	-2.972700	3.725200	-11.073000	24.833038	0.000542	20.891468
675.192912	-2.995900	3.724700	-11.158000	24.831102	0.000538	20.896636
676.191782	-3.005900	3.724900	-11.196000	24.804845	0.000541	20.863175
677.192889	-3.012500	3.724100	-11.218000	24.810740	0.000541	20.875728
678.192122	-2.991000	3.724000	-11.138000	24.820562	0.000539	20.877999
679.201514	-2.997100	3.722900	-11.157000	24.829316	0.000542	20.877302
680.196231	-2.988700	3.724400	-11.130000	24.807086	0.000540	20.865898
681.195824	-3.021400	3.721900	-11.244000	24.796071	0.000537	20.866698
682.192910	-3.011600	3.722000	-11.208000	24.793116	0.000541	20.893127
683.199160	-3.005900	3.723400	-11.191000	24.768124	0.000539	20.875635
684.195520	-2.989400	3.723000	-11.128000	24.782449	0.000540	20.869623
685.194074	-3.005200	3.722000	-11.184000	24.828081	0.000538	20.867528
686.194922	-2.990300	3.722500	-11.130000	24.888133	0.000538	20.868528
687.193153	-3.011200	3.722000	-11.206000	24.901210	0.000540	20.883549
688.196901	-2.998100	3.722100	-11.157000	24.913619	0.000541	20.861866
689.195291	-2.994400	3.721500	-11.143000	24.944699	0.000541	20.857025
690.196961	-2.979100	3.720600	-11.083000	24.959967	0.000540	20.863815
691.194596	-2.973500	3.722000	-11.066000	24.933960	0.000540	20.868057
692.197865	-2.959900	3.721800	-11.014000	24.951238	0.000538	20.883028
693.195200	-2.990900	3.719500	-11.124000	24.959646	0.000539	20.869182
694.210616	-2.987700	3.719400	-11.112000	24.955218	0.000539	20.853359
695.195346	-2.981900	3.720300	-11.092000	24.909768	0.000539	20.846148
696.196647	-2.990200	3.720100	-11.122000	24.875578	0.000539	20.862092
697.213106	-2.986200	3.719200	-11.106000	24.893233	0.000538	20.866061
698.199223	-2.978700	3.718800	-11.076000	24.902633	0.000540	20.862219
699.195144	-2.989200	3.720000	-11.119000	24.910463	0.000539	20.858224
700.202216	-2.968400	3.719600	-11.041000	24.900045	0.000539	20.851562
701.209819	-2.990400	3.719200	-11.120000	24.921353	0.000540	20.861568
702.201845	-2.993500	3.718200	-11.129000	24.918294	0.000539	20.855178
703.202730	-2.985500	3.718100	-11.099000	24.965062	0.000538	20.851860
704.199375	-3.003300	3.717900	-11.164000	24.921529	0.000538	20.868857
705.212866	-2.998100	3.717700	-11.146000	24.872221	0.000538	20.846870
706.199553	-2.994300	3.717900	-11.132000	24.861578	0.000538	20.847568
707.211327	-3.013400	3.716000	-11.197000	24.871675	0.000537	20.862442
708.200355	-3.007300	3.716500	-11.175000	24.897211	0.000537	20.857726
709.213976	-3.019900	3.716800	-11.223000	24.925330	0.000538	20.852284
710.199346	-3.013200	3.717500	-11.201000	24.973886	0.000538	20.869251
711.201266	-3.011400	3.715600	-11.188000	25.000537	0.000536	20.854277
712.209057	-3.010500	3.713800	-11.179000	25.018660	0.000536	20.857769
713.199964	-3.006200	3.714800	-11.167000	24.974281	0.000538	20.850208
714.203267	-3.012400	3.715000	-11.190000	24.951208	0.000536	20.846964
715.215806	-2.978900	3.716400	-11.070000	24.957748	0.000535	20.865380
716.202322	-3.008200	3.714700	-11.173000	24.958640	0.000537	20.853001
717.203516	-3.002500	3.714200	-11.151000	24.982707	0.000533	20.861510
718.202557	-3.025400	3.713500	-11.234000	25.010380	0.000535	20.844717
719.206932	-2.982200	3.714400	-11.076000	24.999787	0.000534	20.874386
720.204113	-3.019600	3.714100	-11.214000	24.989444	0.000534	20.855470
721.204412	-3.010600	3.713200	-11.177000	24.957223	0.000534	20.854897
722.221530	-2.979600	3.714200	-11.066000	24.971669	0.000536	20.851380
723.204783	-2.998400	3.713900	-11.135000	24.938774	0.000534	20.834010
724.200940	-2.995700	3.713100	-11.122000	24.937431	0.000535	20.827921
725.205711	-2.981500	3.712800	-11.069000	24.949837	0.000536	20.846536
726.203164	-2.984800	3.711700	-11.077000	24.968063	0.000535	20.850131
727.217084	-2.995800	3.712600	-11.121000	24.945163	0.000533	20.837103
728.204319	-3.000100	3.711600	-11.134000	24.979376	0.000535	20.853425
729.204537	-3.016600	3.710700	-11.193000	24.981068	0.000533	20.838528
730.213049	-3.016100	3.711000	-11.191000	25.017812	0.000532	20.835582
731.207263	-2.996100	3.709500	-11.113000	25.036533	0.000533	20.831141
732.213352	-2.987300	3.711300	-11.086000	25.014057	0.000535	20.827072
733.208927	-2.992500	3.709700	-11.099000	25.060873	0.000533	20.855098
734.204928	-2.982500	3.710000	-11.064000	25.078375	0.000534	20.839951
735.219670	-3.001900	3.711000	-11.139000	25.091428	0.000533	20.834088
736.206090	-3.003000	3.711000	-11.143000	25.082080	0.000534	20.826126
737.209612	-2.996700	3.711000	-11.119000	25.115269	0.000533	20.828624
738.206320	-3.006100	3.709000	-11.148000	25.104282	0.000533	20.822810
739.208315	-2.994600	3.709500	-11.108000	25.083598	0.000532	20.841875
740.218365	-2.995900	3.709600	-11.112000	25.053643	0.000532	20.814176
741.211609	-2.995100	3.708400	-11.106000	25.008320	0.000531	20.831745
742.210881	-2.990900	3.709400	-11.094000	25.031096	0.000530	20.829950
743.222413	-3.008500	3.709100	-11.158000	25.077961	0.000531	20.846647
744.209490	-2.990600	3.707700	-11.088000	25.099219	0.000532	20.812038
745.218966	-2.995900	3.709700	-11.113000	25.096484	0.000530	20.828732
746.206968	-3.015600	3.706600	-11.177000	25.106356	0.000529	20.834375
747.218005	-3.000600	3.708100	-11.125000	25.066756	0.000533	20.840142
748.213727	-3.005300	3.706200	-11.137000	25.066210	0.000529	20.833429
749.227921	-3.003100	3.705500	-11.127000	25.051493	0.000528	20.831933
750.213356	-2.986100	3.707300	-11.069000	25.018603	0.000529	20.821204
751.212892	-3.010700	3.707000	-11.160000	25.021863	0.000531	20.849605
752.221875	-3.012100	3.706300	-11.163000	25.038992	0.000531	20.821755
753.212440	-2.995100	3.706500	-11.100000	24.979003	0.000530	20.824603
754.213562	-2.994300	3.705100	-11.093000	24.982532	0.000531	20.833835
755.217073	-2.987200	3.705200	-11.067000	24.945713	0.000529	20.823431
756.215142	-2.995900	3.705200	-11.099000	24.973214	0.000529	20.817370
757.214279	-2.992200	3.705500	-11.087000	24.988154	0.000529	20.835685
758.211759	-3.007400	3.705500	-11.143000	25.021474	0.000529	20.818395
759.213308	-2.991500	3.704600	-11.081000	25.043922	0.000529	20.822436
760.212749	-3.012000	3.704900	-11.158000	25.033931	0.000529	20.830425
761.213749	-3.010200	3.704200	-11.149000	25.044397	0.000527	20.815801
762.222495	-3.009900	3.705000	-11.150000	25.027670	0.000528	20.812287
763.214389	-3.001200	3.703200	-11.113000	25.022474	0.000527	20.832675
764.214719	-2.998900	3.703900	-11.106000	25.057728	0.000526	20.817329
765.222971	-3.016100	3.702600	-11.166000	25.041890	0.000527	20.807595
766.215262	-2.994400	3.703800	-11.089000	25.056558	0.000527	20.809042
767.217135	-2.996700	3.702200	-11.093000	25.050145	0.000525	20.835321
768.214902	-2.993400	3.702300	-11.081000	25.046691	0.000525	20.819526
769.216234	-2.989600	3.701600	-11.065000	25.061985	0.000526	20.817809
770.218123	-3.003700	3.701500	-11.117000	25.063874	0.000525	20.821128
771.226722	-2.996000	3.703100	-11.093000	25.049876	0.000526	20.833629
772.214861	-2.989300	3.701500	-11.064000	25.043615	0.000525	20.805059
773.215842	-2.993500	3.702000	-11.081000	25.003837	0.000526	20.812546
774.233578	-2.991300	3.701100	-11.070000	24.973555	0.000524	20.812971
775.216277	-3.003500	3.701400	-11.117000	24.992652	0.000523	20.815069
776.221219	-2.980300	3.700800	-11.029000	25.005680	0.000523	20.815819
777.216601	-2.987300	3.701000	-11.055000	25.013837	0.000525	20.807411
778.225937	-3.016000	3.698700	-11.154000	25.019311	0.000524	20.814328
779.216753	-3.020100	3.700100	-11.174000	25.053945	0.000525	20.819221
780.217203	-3.011400	3.699600	-11.140000	25.070526	0.000525	20.816900
781.221307	-2.999300	3.699000	-11.094000	25.108462	0.000524	20.810411
782.218321	-2.980800	3.698700	-11.024000	25.150801	0.000522	20.804076
783.223729	-2.997400	3.700500	-11.091000	25.169594	0.000524	20.804451
784.222889	-2.993300	3.700500	-11.075000	25.171088	0.000524	20.792200
785.229424	-3.001200	3.698700	-11.099000	25.187051	0.000521	20.786888
786.220410	-2.985600	3.698500	-11.041000	25.137931	0.000523	20.804432
787.222808	-2.989300	3.697600	-11.052000	25.125971	0.000524	20.800487
788.219831	-2.990100	3.699700	-11.060000	25.128685	0.000521	20.794202
789.227379	-3.008300	3.697700	-11.123000	25.089009	0.000522	20.804633
790.224857	-3.010300	3.698400	-11.132000	25.039415	0.000522	20.810326
791.220277	-3.007000	3.696000	-11.112000	25.030462	0.000521	20.795649
792.218660	-3.022300	3.695800	-11.169000	25.033296	0.000521	20.809400
793.220816	-2.996600	3.696200	-11.075000	25.013358	0.000521	20.803611
794.219555	-2.987600	3.696700	-11.043000	25.005152	0.000522	20.799641
795.221039	-3.015200	3.695500	-11.142000	25.012092	0.000520	20.808504
796.228567	-2.994100	3.695800	-11.064000	25.033120	0.000521	20.790257
797.222214	-2.995800	3.695200	-11.069000	25.059328	0.000524	20.793331
798.222358	-2.991000	3.696900	-11.056000	25.043444	0.000520	20.802042
799.220920	-2.996500	3.696300	-11.075000	25.085283	0.000520	20.794255
800.230540	-3.001400	3.694700	-11.087000	25.101512	0.000521	20.809598
801.224825	-2.977400	3.695300	-11.002000	25.136118	0.000521	20.808777
802.227330	-2.999200	3.693900	-11.077000	25.127539	0.000520	20.787363
803.223637	-2.993300	3.693800	-11.056000	25.174595	0.000520	20.785289
804.223473	-3.010600	3.694500	-11.122000	25.164504	0.000518	20.810246
805.220585	-2.997700	3.693500	-11.071000	25.149316	0.000520	20.806852
806.221478	-3.013000	3.694100	-11.130000	25.132661	0.000521	20.821901
807.222429	-2.999800	3.692500	-11.076000	25.100493	0.000516	20.781549
808.238704	-2.977800	3.693900	-10.998000	25.113370	0.000517	20.794475
809.221922	-2.997100	3.692600	-11.066000	25.110557	0.000517	20.792600
810.231387	-3.020600	3.691800	-11.151000	25.134525	0.000518	20.785367
811.224439	-2.994800	3.693100	-11.059000	25.172258	0.000517	20.789107
812.221948	-3.012700	3.692600	-11.123000	25.150686	0.000515	20.772192
813.223324	-3.002700	3.693000	-11.089000	25.155758	0.000517	20.789138
814.220645	-2.997500	3.692000	-11.066000	25.149445	0.000517	20.774266
815.233009	-2.996800	3.691900	-11.064000	25.169208	0.000515	20.806434
816.230099	-3.031500	3.689600	-11.184000	25.183673	0.000516	20.780179
817.228120	-2.999500	3.690300	-11.069000	25.190656	0.000515	20.778180
818.224386	-2.985100	3.691100	-11.017000	25.160385	0.000515	20.783352
819.236740	-2.993400	3.690700	-11.047000	25.128243	0.000514	20.789965
820.225165	-2.993800	3.689600	-11.044000	25.130530	0.000515	20.792262
821.230552	-3.004700	3.690200	-11.087000	25.136745	0.000514	20.784276
822.223368	-3.001700	3.691200	-11.079000	25.162247	0.000516	20.782850
823.228673	-2.987100	3.688800	-11.018000	25.127298	0.000515	20.780956
824.227518	-2.984200	3.690400	-11.011000	25.116135	0.000513	20.774492
825.233918	-3.005600	3.689500	-11.087000	25.164515	0.000514	20.785128
826.231674	-3.001200	3.689100	-11.070000	25.155168	0.000513	20.780011
827.239113	-3.011900	3.688500	-11.108000	25.180574	0.000513	20.775644
828.227005	-3.024100	3.687800	-11.151000	25.196308	0.000513	20.794760
829.240749	-3.009900	3.689300	-11.102000	25.195984	0.000512	20.789693
830.227050	-3.012600	3.688800	-11.112000	25.197052	0.000512	20.779385
831.231347	-2.997700	3.687400	-11.053000	25.158919	0.000512	20.776664
832.231356	-2.987600	3.687500	-11.016000	25.155665	0.000510	20.774346
833.231001	-2.997600	3.686400	-11.050000	25.126903	0.000511	20.788620
834.229957	-2.998100	3.686900	-11.053000	25.140505	0.000513	20.770506
835.242111	-3.008100	3.686800	-11.089000	25.151590	0.000512	20.779264
836.234444	-2.998400	3.687400	-11.054000	25.140677	0.000512	20.763567
837.229977	-3.016900	3.686300	-11.121000	25.161731	0.000510	20.765737
838.242738	-2.998900	3.687000	-11.057000	25.174483	0.000511	20.779013
839.236134	-3.008900	3.686000	-11.089000	25.181447	0.000510	20.764193
840.232013	-3.005500	3.685300	-11.075000	25.193054	0.000509	20.767785
841.232336	-2.992900	3.685500	-11.030000	25.173467	0.000507	20.761398
842.239877	-3.002100	3.685700	-11.064000	25.134170	0.000509	20.748973
843.236516	-2.997200	3.685300	-11.044000	25.129172	0.000507	20.755336
844.232813	-3.010200	3.684700	-11.090000	25.130811	0.000505	20.752240
845.245632	-2.981200	3.685100	-10.985000	25.174566	0.000505	20.749224
846.247925	-3.013600	3.684900	-11.104000	25.223583	0.000508	20.753864
847.233202	-3.010200	3.683400	-11.087000	25.182496	0.000509	20.749125
848.234160	-3.008300	3.684100	-11.082000	25.178795	0.000509	20.757737
849.234481	-2.997700	3.683300	-11.041000	25.205543	0.000510	20.766099
850.234307	-2.975000	3.684200	-10.960000	25.182422	0.000507	20.741938
851.235697	-2.999100	3.682300	-11.043000	25.212526	0.000508	20.764100
852.244402	-2.992800	3.682900	-11.022000	25.191248	0.000511	20.763127
853.240450	-2.984600	3.682300	-10.990000	25.180734	0.000507	20.750674
854.246243	-3.002700	3.682900	-11.058000	25.159184	0.000506	20.763653
855.243133	-3.005500	3.683400	-11.070000	25.175566	0.000507	20.771565
856.238545	-2.999000	3.681700	-11.040000	25.219366	0.000508	20.750578
857.250211	-2.991600	3.682500	-11.015000	25.226049	0.000505	20.753495
858.245179	-3.005800	3.681300	-11.064000	25.246134	0.000506	20.767022
859.243763	-3.001000	3.681100	-11.047000	25.285709	0.000506	20.754123
860.240179	-3.022200	3.680100	-11.121000	25.261648	0.000503	20.766002
861.236850	-3.007700	3.679700	-11.067000	25.241091	0.000506	20.756268
862.240332	-3.013700	3.681300	-11.094000	25.231942	0.000506	20.768420
863.242771	-2.984300	3.680000	-10.982000	25.225830	0.000502	20.767499
864.236544	-2.997600	3.680600	-11.032000	25.201944	0.000504	20.760588
865.245228	-2.999600	3.678700	-11.034000	25.218421	0.000502	20.760536
866.235673	-3.001300	3.678800	-11.040000	25.189713	0.000501	20.770595
867.242417	-2.996500	3.679800	-11.026000	25.224765	0.000500	20.740825
868.240439	-3.016000	3.680100	-11.098000	25.240075	0.000503	20.760464
869.241934	-2.985600	3.680500	-10.987000	25.272414	0.000504	20.757371
870.239529	-2.973100	3.679500	-10.938000	25.269309	0.000502	20.749986
871.247974	-2.999900	3.678900	-11.035000	25.248205	0.000499	20.764360
872.245791	-3.005000	3.677600	-11.051000	25.243038	0.000501	20.777664
873.242097	-3.012800	3.677600	-11.079000	25.259395	0.000499	20.752360
874.253851	-2.998400	3.677800	-11.026000	25.242544	0.000500	20.734493
875.256820	-2.997000	3.678400	-11.023000	25.205481	0.000499	20.771252
876.256639	-2.982900	3.678200	-10.971000	25.235512	0.000499	20.746874
877.244217	-2.988700	3.676900	-10.988000	25.217340	0.000498	20.753286
878.254693	-3.015300	3.677000	-11.087000	25.244810	0.000498	20.748148
879.241998	-3.001000	3.676700	-11.033000	25.250255	0.000497	20.745554
880.240967	-3.015000	3.674600	-11.078000	25.286051	0.000497	20.782917
881.241079	-2.972100	3.678200	-10.931000	25.321892	0.000496	20.755840
882.243123	-2.992100	3.675800	-10.998000	25.279269	0.000496	20.751451
883.244029	-3.003200	3.675900	-11.037000	25.238608	0.000497	20.767052
884.243568	-2.999700	3.675400	-11.024000	25.231999	0.000496	20.747615
885.245822	-3.011000	3.674800	-11.064000	25.240846	0.000495	20.756971
886.252146	-2.985500	3.675500	-10.972000	25.235654	0.000496	20.753655
887.244096	-2.990900	3.674400	-10.989000	25.218482	0.000494	20.762493
888.243328	-2.987600	3.675000	-10.978000	25.216747	0.000495	20.743682
889.241784	-2.985200	3.675700	-10.972000	25.189104	0.000496	20.760501
890.248618	-2.985700	3.672600	-10.964000	25.185033	0.000495	20.752145
891.245757	-2.980600	3.673800	-10.949000	25.163656	0.000495	20.756289
892.244321	-2.981300	3.674800	-10.955000	25.189364	0.000496	20.757442
893.242613	-3.013300	3.672400	-11.066000	25.167962	0.000496	20.737852
894.246741	-2.984500	3.673400	-10.963000	25.197819	0.000493	20.736057
895.250213	-3.009100	3.672100	-11.049000	25.233468	0.000493	20.738183
896.241786	-2.988300	3.673100	-10.976000	25.279031	0.000496	20.772550
897.253170	-2.981300	3.672400	-10.948000	25.269611	0.000494	20.737486
898.247502	-2.980000	3.672300	-10.943000	25.257437	0.000495	20.736643
899.257872	-2.997100	3.671500	-11.003000	25.240389	0.000495	20.754615
900.248383	-3.002700	3.671300	-11.023000	25.245139	0.000492	20.737099
901.250679	-2.996800	3.670800	-11.000000	25.256999	0.000491	20.755644
902.262610	-3.004800	3.669800	-11.026000	25.281630	0.000494	20.752874
903.257768	-2.982400	3.671100	-10.947000	25.249072	0.000493	20.737728
904.245983	-2.984600	3.670800	-10.955000	25.244127	0.000493	20.745092
905.251010	-3.011900	3.670100	-11.053000	25.253625	0.000492	20.744196
906.252141	-3.011000	3.669000	-11.046000	25.248161	0.000493	20.749142
907.254711	-2.995500	3.669300	-10.990000	25.300709	0.000492	20.768236
908.247064	-3.015300	3.668700	-11.062000	25.323747	0.000493	20.746322
909.248137	-3.010800	3.668400	-11.044000	25.316592	0.000494	20.752889
910.262817	-3.017800	3.668300	-11.069000	25.341222	0.000491	20.763395
911.248371	-2.999700	3.668100	-11.002000	25.294844	0.000491	20.755235
912.255975	-2.999200	3.668100	-11.000000	25.293181	0.000491	20.751668
913.251006	-3.018100	3.667400	-11.068000	25.266685	0.000491	20.758257
914.258010	-3.003200	3.667500	-11.014000	25.271982	0.000488	20.743186
915.258562	-3.009300	3.667200	-11.034000	25.288239	0.000489	20.748603
916.266454	-2.998000	3.666100	-10.990000	25.308718	0.000489	20.763002
917.258610	-3.013400	3.666900	-11.048000	25.307357	0.000488	20.757842
918.253544	-2.985200	3.667000	-10.946000	25.282677	0.000489	20.748234
919.262599	-3.005900	3.665500	-11.017000	25.235750	0.000489	20.742845
920.251977	-3.003700	3.664700	-11.007000	25.243458	0.000487	20.736358
921.252509	-2.992400	3.666300	-10.970000	25.231182	0.000490	20.753906
922.264618	-2.994400	3.666300	-10.978000	25.263669	0.000488	20.752384
923.260085	-2.990600	3.665600	-10.962000	25.297051	0.000490	20.748916
924.257654	-2.999500	3.665400	-10.993000	25.326556	0.000486	20.722589
925.260349	-3.017700	3.665200	-11.060000	25.354121	0.000488	20.758803
926.256631	-2.980700	3.665200	-10.923000	25.379948	0.000488	20.755338
927.259745	-3.017300	3.664600	-11.057000	25.363618	0.000488	20.739414
928.264111	-3.004900	3.663500	-11.007000	25.361183	0.000487	20.752143
929.265485	-3.002000	3.664600	-11.000000	25.371251	0.000487	20.759407
930.257499	-3.026300	3.664000	-11.087000	25.403611	0.000486	20.752072
931.257379	-3.006700	3.663300	-11.013000	25.400158	0.000487	20.760458
932.257427	-3.007300	3.662300	-11.013000	25.333973	0.000486	20.770341
933.265095	-3.038700	3.663000	-11.130000	25.338899	0.000484	20.753476
934.258830	-2.994000	3.663100	-10.967000	25.372300	0.000483	20.760935
935.262700	-3.001100	3.661700	-10.988000	25.346131	0.000484	20.733709
936.260087	-3.008300	3.662600	-11.018000	25.291805	0.000485	20.719465
937.259757	-3.007500	3.661100	-11.009000	25.264287	0.000482	20.755850
938.263465	-3.009300	3.661700	-11.017000	25.243835	0.000484	20.748117
939.268128	-2.997900	3.661700	-10.977000	25.283554	0.000483	20.760021
940.263122	-2.965800	3.661000	-10.857000	25.262232	0.000485	20.765166
941.265325	-2.982200	3.661100	-10.917000	25.318134	0.000483	20.738315
942.262461	-3.008900	3.661200	-11.015000	25.334838	0.000482	20.759829
943.260608	-3.002500	3.660000	-10.988000	25.383353	0.000481	20.776775
944.264954	-2.991100	3.661700	-10.952000	25.375502	0.000480	20.766046
945.261830	-3.004500	3.658700	-10.992000	25.340388	0.000481	20.752599
946.261013	-2.998600	3.659900	-10.974000	25.357388	0.000481	20.767299
947.265517	-3.003300	3.660000	-10.990000	25.344838	0.000481	20.741895
948.262114	-2.995100	3.659400	-10.959000	25.338949	0.000479	20.752104
949.262711	-2.990300	3.659000	-10.940000	25.316187	0.000481	20.765759
950.266832	-2.986800	3.658800	-10.927000	25.262205	0.000480	20.758027
951.263979	-3.020200	3.657200	-11.045000	25.257059	0.000479	20.769930
952.263277	-3.001100	3.658000	-10.977000	25.306125	0.000480	20.765139
953.270395	-3.001000	3.657400	-10.975000	25.371046	0.000480	20.764417
954.264929	-2.983900	3.658300	-10.915000	25.410862	0.000479	20.763621
955.264813	-2.990300	3.656900	-10.934000	25.401767	0.000478	20.759229
956.274591	-2.994600	3.656600	-10.950000	25.360139	0.000478	20.755362
957.270908	-3.015200	3.656400	-11.023000	25.384447	0.000478	20.785460
958.266953	-2.993900	3.657300	-10.949000	25.393796	0.000478	20.749328
959.267389	-3.014300	3.655500	-11.018000	25.359796	0.000479	20.750750
960.278030	-2.988200	3.656100	-10.925000	25.368990	0.000479	20.771837
961.270304	-2.994000	3.654600	-10.941000	25.382833	0.000478	20.766770
962.266851	-2.983500	3.655400	-10.905000	25.365068	0.000477	20.778330
963.269758	-2.980900	3.656900	-10.900000	25.334521	0.000477	20.755244
964.275183	-2.998100	3.655100	-10.958000	25.304622	0.000479	20.757940
965.268097	-3.004700	3.654800	-10.980000	25.291551	0.000476	20.765679
966.274569	-2.999100	3.654300	-10.959000	25.306786	0.000475	20.761535
967.282293	-2.992600	3.653200	-10.931000	25.308798	0.000475	20.756918
968.268232	-2.988100	3.653600	-10.917000	25.310913	0.000475	20.774688
969.271971	-2.995900	3.652900	-10.943000	25.269901	0.000475	20.779030
970.273331	-2.984900	3.654000	-10.906000	25.265873	0.000474	20.783995
971.267882	-3.004700	3.652600	-10.974000	25.288594	0.000473	20.769823
972.273885	-3.023800	3.652500	-11.044000	25.262743	0.000472	20.777533
973.269166	-2.994200	3.652400	-10.935000	25.294035	0.000473	20.778131
974.281345	-2.998900	3.651800	-10.951000	25.301242	0.000474	20.777307
975.269925	-2.984100	3.652700	-10.900000	25.318543	0.000473	20.780927
976.275672	-3.014000	3.652400	-11.007000	25.326070	0.000473	20.772364
977.285131	-3.007900	3.651600	-10.983000	25.363997	0.000472	20.785789
978.289912	-2.986500	3.652000	-10.906000	25.404261	0.000473	20.782123
979.281838	-3.007400	3.650600	-10.978000	25.424192	0.000474	20.793128
980.285369	-3.020400	3.649900	-11.023000	25.465942	0.000473	20.788584
981.274446	-2.986900	3.651400	-10.905000	25.454212	0.000472	20.807151
982.276230	-3.018500	3.649900	-11.016000	25.457563	0.000472	20.794869
983.275487	-3.015800	3.649300	-11.005000	25.455054	0.000471	20.794246
984.276310	-2.990400	3.649700	-10.913000	25.449385	0.000473	20.775751
985.275246	-2.984000	3.650800	-10.893000	25.486708	0.000473	20.778617
986.276307	-3.016500	3.647700	-11.002000	25.497716	0.000470	20.779714
987.283673	-2.996400	3.647900	-10.929000	25.518068	0.000471	20.782609
988.276595	-2.995900	3.648700	-10.930000	25.467969	0.000471	20.794887
989.277939	-2.983600	3.649000	-10.887000	25.431907	0.000469	20.789495
990.281373	-3.005600	3.647500	-10.962000	25.435160	0.000470	20.798925
991.279315	-2.991400	3.648800	-10.914000	25.398304	0.000467	20.784201
992.283860	-2.991000	3.647700	-10.909000	25.425942	0.000467	20.780659
993.281673	-2.988400	3.647900	-10.900000	25.415525	0.000466	20.798175
994.281467	-3.012300	3.646400	-10.983000	25.419775	0.000468	20.799597
995.281734	-3.014700	3.646100	-10.991000	25.472684	0.000469	20.789191
996.284773	-3.012600	3.645000	-10.979000	25.462790	0.000465	20.799644
997.281743	-3.012200	3.645100	-10.979000	25.462716	0.000466	20.785345
998.282842	-3.012300	3.645200	-10.980000	25.482745	0.000468	20.793604
999.286391	-3.009700	3.646300	-10.974000	25.492858	0.000466	20.788112
1000.285027	-2.975500	3.645300	-10.845000	25.458143	0.000467	20.800192
1001.285158	-3.010900	3.644600	-10.971000	25.457920	0.000466	20.792857
1002.286693	-2.999700	3.643900	-10.929000	25.441341	0.000464	20.806080
1003.284996	-2.995500	3.643500	-10.913000	25.450291	0.000465	20.822654
1004.283877	-2.992000	3.644800	-10.903000	25.450291	0.000461	20.803688
1005.297482	-3.024900	3.644300	-11.023000	25.462191	0.000463	20.788611
1006.285738	-3.001500	3.643900	-10.936000	25.462392	0.000464	20.802563
1007.284752	-3.003600	3.643600	-10.943000	25.452452	0.000463	20.801116
1008.286572	-2.994900	3.642900	-10.909000	25.412467	0.000463	20.794630
1009.285818	-2.994600	3.642800	-10.907000	25.343524	0.000462	20.797000
1010.286791	-2.960300	3.644400	-10.788000	25.345733	0.000463	20.807754
1011.287307	-2.990300	3.642100	-10.890000	25.360548	0.000462	20.800818
1012.295935	-3.012200	3.642400	-10.971000	25.406328	0.000462	20.808380
1013.285911	-3.013200	3.641300	-10.970000	25.459288	0.000462	20.819834
1014.288082	-2.981700	3.643100	-10.861000	25.503622	0.000462	20.832586
1015.286129	-2.996600	3.640800	-10.909000	25.558095	0.000464	20.809530
1016.286942	-3.002100	3.639800	-10.926000	25.557203	0.000461	20.798203
1017.294618	-3.000900	3.640200	-10.923000	25.533071	0.000459	20.808107
1018.285993	-2.995100	3.638900	-10.897000	25.521314	0.000460	20.813844
1019.285534	-2.981000	3.641200	-10.854000	25.505588	0.000460	20.807060
1020.296252	-2.996200	3.638800	-10.902000	25.484168	0.000460	20.806412
1021.296875	-2.988800	3.640300	-10.879000	25.502561	0.000459	20.818719
1022.288379	-3.014900	3.637800	-10.966000	25.490704	0.000460	20.810131
1023.290258	-3.006500	3.639700	-10.942000	25.520524	0.000460	20.805464
1024.290239	-3.000200	3.638600	-10.916000	25.549004	0.000458	20.845918
1025.289263	-2.978800	3.640200	-10.843000	25.567692	0.000458	20.838608
1026.294233	-2.970100	3.638700	-10.806000	25.577381	0.000456	20.824631
1027.291885	-3.006000	3.637300	-10.933000	25.606977	0.000456	20.818319
1028.290137	-3.002500	3.636400	-10.917000	25.599673	0.000456	20.833268
1029.292269	-3.018300	3.638600	-10.982000	25.560138	0.000454	20.822487
1030.292896	-3.027000	3.636700	-11.008000	25.571099	0.000455	20.848193
1031.290300	-3.011200	3.635700	-10.947000	25.573583	0.000455	20.828877
1032.297197	-2.988600	3.637400	-10.870000	25.589410	0.000456	20.837659
1033.292966	-3.016100	3.635900	-10.966000	25.577110	0.000455	20.843324
1034.291717	-2.993100	3.635800	-10.882000	25.510517	0.000458	20.835242
1035.294963	-2.990300	3.636100	-10.871000	25.492994	0.000455	20.822388
1036.296865	-2.996200	3.635300	-10.892000	25.476246	0.000454	20.837811
1037.293763	-3.003800	3.633700	-10.914000	25.468790	0.000453	20.820841
1038.293127	-3.011300	3.633600	-10.941000	25.475971	0.000455	20.849389
1039.297289	-2.994100	3.634200	-10.880000	25.508424	0.000452	20.842624
1040.297073	-3.012500	3.633400	-10.945000	25.516574	0.000455	20.841325
1041.293846	-3.027000	3.633600	-10.998000	25.548930	0.000453	20.823559
1042.300687	-3.005900	3.633100	-10.920000	25.547288	0.000453	20.839928
1043.294037	-2.983800	3.633300	-10.841000	25.540580	0.000451	20.861165
1044.294403	-3.000100	3.633900	-10.901000	25.565776	0.000453	20.828149
1045.295574	-3.015400	3.631500	-10.949000	25.522039	0.000452	20.829745
1046.298725	-2.988300	3.632900	-10.856000	25.514633	0.000451	20.819462
1047.295835	-2.984100	3.631600	-10.836000	25.531278	0.000452	20.834755
1048.295679	-3.002300	3.632100	-10.904000	25.551309	0.000452	20.834009
1049.299737	-3.008200	3.630400	-10.920000	25.557838	0.000451	20.851945
1050.304629	-3.015900	3.630600	-10.948000	25.547103	0.000450	20.848750
1051.297901	-3.011900	3.629900	-10.932000	25.538953	0.000450	20.861902
1052.302986	-3.005500	3.628800	-10.905000	25.518524	0.000450	20.839490
1053.296746	-3.002700	3.631800	-10.904000	25.572595	0.000450	20.847324
1054.299796	-3.012900	3.630300	-10.937000	25.594933	0.000451	20.829456
1055.300593	-2.999600	3.629200	-10.886000	25.643779	0.000448	20.846745
1056.298647	-2.985900	3.630200	-10.838000	25.607723	0.000450	20.848464
1057.297246	-2.994800	3.628500	-10.866000	25.576760	0.000448	20.847714
1058.297975	-2.997100	3.628000	-10.873000	25.571341	0.000448	20.847014
1059.300511	-2.989100	3.627700	-10.843000	25.556156	0.000447	20.840773
1060.298135	-2.994900	3.629200	-10.868000	25.562639	0.000448	20.865300
1061.300305	-2.992700	3.627900	-10.857000	25.538659	0.000447	20.872985
1062.304565	-3.021800	3.627200	-10.959000	25.565892	0.000446	20.844860
1063.299297	-2.984600	3.627600	-10.826000	25.571181	0.000446	20.897584
1064.298907	-3.014300	3.626600	-10.931000	25.541183	0.000447	20.862719
1065.307211	-3.014500	3.627100	-10.933000	25.543917	0.000444	20.862145
1066.300066	-2.991800	3.625500	-10.846000	25.534372	0.000443	20.861569
1067.314759	-2.973700	3.626400	-10.782000	25.588563	0.000444	20.866679
1068.305418	-2.993300	3.626600	-10.853000	25.619895	0.000443	20.855473
1069.301686	-3.004000	3.623900	-10.885000	25.620515	0.000444	20.870794
1070.302342	-3.017400	3.624400	-10.935000	25.592114	0.000444	20.871194
1071.307491	-2.987400	3.624800	-10.827000	25.576429	0.000445	20.867295
1072.303062	-2.986800	3.624400	-10.825000	25.579857	0.000444	20.865049
1073.305358	-2.997700	3.625500	-10.866000	25.568826	0.000442	20.884314
1074.307787	-3.010900	3.623100	-10.908000	25.544744	0.000445	20.889526
1075.306822	-2.996200	3.622900	-10.854000	25.561413	0.000441	20.883508
1076.305707	-2.986300	3.623900	-10.822000	25.563725	0.000442	20.868761
1077.308863	-3.006200	3.622300	-10.888000	25.533807	0.000440	20.892293
1078.307077	-2.981400	3.623800	-10.803000	25.537831	0.000441	20.872628
1079.304322	-3.030700	3.621200	-10.972000	25.569613	0.000441	20.878941
1080.308670	-2.965100	3.623600	-10.742000	25.627310	0.000441	20.888048
1081.308302	-2.988300	3.621700	-10.822000	25.584224	0.000440	20.885079
1082.314035	-2.990500	3.621500	-10.829000	25.580545	0.000442	20.894661
1083.305456	-2.973500	3.622300	-10.770000	25.600748	0.000439	20.871804
1084.308097	-2.999700	3.621100	-10.861000	25.616500	0.000437	20.881934
1085.305461	-2.987700	3.621900	-10.820000	25.625896	0.000440	20.887103
1086.306087	-2.988400	3.621100	-10.821000	25.635610	0.000438	20.881212
1087.308623	-3.009700	3.620600	-10.896000	25.622240	0.000439	20.866837
1088.305909	-3.010100	3.618300	-10.890000	25.605744	0.000437	20.878718
1089.306218	-3.035100	3.618100	-10.981000	25.585964	0.000437	20.888724
1090.308110	-2.977200	3.620600	-10.779000	25.607185	0.000436	20.899129
1091.308165	-3.014900	3.618400	-10.908000	25.547573	0.000436	20.886204
1092.309968	-3.010200	3.619000	-10.893000	25.538973	0.000434	20.872827
1093.311657	-2.981200	3.619100	-10.788000	25.583230	0.000435	20.888823
1094.310901	-3.015400	3.618300	-10.910000	25.564743	0.000433	20.899179
1095.310252	-3.004000	3.617100	-10.865000	25.633302	0.000434	20.892644
1096.309731	-2.972400	3.618700	-10.755000	25.612579	0.000437	20.887478
1097.310701	-2.983800	3.616600	-10.790000	25.593867	0.000433	20.906616
1098.309778	-2.982700	3.617900	-10.790000	25.589170	0.000432	20.909485
1099.311952	-2.976400	3.617500	-10.766000	25.596354	0.000433	20.892520
1100.314008	-2.983800	3.616300	-10.789000	25.626446	0.000433	20.891448
1101.314313	-3.006000	3.615800	-10.869000	25.665929	0.000434	20.911187
1102.313680	-2.998500	3.615100	-10.839000	25.672017	0.000432	20.910663
1103.314266	-3.001000	3.615200	-10.849000	25.677358	0.000433	20.910338
1104.315909	-2.992400	3.614100	-10.813000	25.669480	0.000432	20.891522
1105.315027	-2.989800	3.613900	-10.804000	25.682403	0.000430	20.902603
1106.315734	-2.999900	3.614600	-10.842000	25.654130	0.000430	20.902656
1107.329625	-3.005400	3.614000	-10.861000	25.563654	0.000431	20.914205
1108.315636	-3.001300	3.614800	-10.848000	25.555085	0.000430	20.920771
1109.315647	-3.006800	3.613800	-10.865000	25.557297	0.000430	20.895969
1110.319685	-3.000700	3.613400	-10.842000	25.549496	0.000431	20.914211
1111.317105	-3.014300	3.612800	-10.889000	25.530610	0.000429	20.903781
1112.317263	-2.994900	3.612200	-10.817000	25.542087	0.000428	20.915305
1113.321533	-2.989700	3.612800	-10.800000	25.533567	0.000427	20.905327
1114.321438	-2.989200	3.612500	-10.797000	25.561994	0.000427	20.913012
1115.321167	-2.996000	3.611600	-10.819000	25.529469	0.000428	20.900738
1116.321579	-3.007200	3.610400	-10.856000	25.548428	0.000426	20.940637
1117.319625	-2.997500	3.611600	-10.824000	25.604414	0.000425	20.906777
1118.322331	-2.994000	3.610900	-10.810000	25.596089	0.000426	20.909795
1119.320215	-3.012800	3.610000	-10.875000	25.618602	0.000426	20.913440
1120.321349	-3.009800	3.610200	-10.865000	25.599693	0.000426	20.916259
1121.323706	-3.009500	3.608600	-10.858000	25.585603	0.000423	20.912541
1122.322481	-3.001700	3.610200	-10.834000	25.605080	0.000424	20.916455
1123.321171	-2.994100	3.609200	-10.805000	25.657286	0.000421	20.921471
1124.322672	-2.991500	3.609200	-10.796000	25.680869	0.000424	20.927139
1125.321979	-3.002300	3.608600	-10.834000	25.641312	0.000424	20.884094
1126.326021	-3.001700	3.608800	-10.832000	25.674158	0.000423	20.901909
1127.322980	-2.981600	3.608200	-10.758000	25.681264	0.000423	20.899563
1128.323815	-2.990300	3.607400	-10.787000	25.665611	0.000423	20.891903
1129.328616	-3.025300	3.606900	-10.911000	25.665266	0.000422	20.902935
1130.324478	-3.010500	3.608400	-10.861000	25.663525	0.000420	20.896920
1131.324358	-2.997300	3.606900	-10.810000	25.703282	0.000421	20.901289
1132.326858	-2.990800	3.607300	-10.788000	25.729144	0.000420	20.901187
1133.325162	-2.993900	3.606200	-10.795000	25.709768	0.000419	20.915389
1134.324377	-2.998900	3.606600	-10.815000	25.682687	0.000420	20.897199
1135.328773	-2.997100	3.606600	-10.809000	25.672822	0.000418	20.882077
1136.324702	-2.999700	3.604800	-10.813000	25.616100	0.000419	20.883902
1137.330563	-3.000600	3.605200	-10.817000	25.622484	0.000417	20.881780
1138.328467	-3.006400	3.605900	-10.840000	25.628075	0.000416	20.886921
1139.325210	-2.997900	3.606000	-10.809000	25.645049	0.000414	20.867460
1140.333772	-2.981600	3.605700	-10.750000	25.685525	0.000416	20.870181
1141.328131	-2.996300	3.605100	-10.801000	25.637496	0.000415	20.894959
1142.327154	-3.021900	3.603500	-10.889000	25.624354	0.000416	20.886976
1143.330295	-2.990300	3.604000	-10.776000	25.668111	0.000414	20.880664
1144.326927	-3.009800	3.602900	-10.843000	25.647564	0.000416	20.870934
1145.326329	-3.009500	3.602000	-10.839000	25.612804	0.000415	20.886757
1146.331778	-2.993800	3.603000	-10.786000	25.623240	0.000415	20.874005
1147.330570	-2.998500	3.603400	-10.804000	25.570292	0.000417	20.882942
1148.336938	-2.986300	3.603300	-10.760000	25.555286	0.000415	20.876407
1149.331121	-2.993000	3.602300	-10.780000	25.524621	0.000412	20.849880
1150.330378	-2.998800	3.600600	-10.796000	25.550966	0.000414	20.865431
1151.328896	-3.010100	3.601200	-10.839000	25.653912	0.000414	20.874938
1152.335701	-3.035700	3.599000	-10.925000	25.649663	0.000411	20.881102
1153.334628	-3.003500	3.600600	-10.812000	25.666707	0.000412	20.883996
1154.336857	-3.017100	3.599100	-10.858000	25.685375	0.000409	20.860547
1155.329569	-3.027200	3.598600	-10.893000	25.650441	0.000411	20.865763
1156.331316	-3.016300	3.600100	-10.858000	25.675042	0.000410	20.856333
1157.331355	-3.009200	3.599700	-10.832000	25.704212	0.000411	20.878043
1158.330040	-3.013400	3.597600	-10.840000	25.714304	0.000408	20.870163
1159.329077	-3.007500	3.597400	-10.819000	25.759551	0.000411	20.876256
1160.329033	-2.997300	3.598700	-10.786000	25.723104	0.000410	20.870467
1161.329493	-3.022800	3.596600	-10.871000	25.725394	0.000410	20.872292
1162.331171	-2.998900	3.597900	-10.789000	25.698063	0.000410	20.846265
1163.335747	-2.995800	3.597900	-10.778000	25.690936	0.000406	20.854753
1164.329441	-2.997500	3.596600	-10.780000	25.690192	0.000407	20.866808
1165.331622	-2.987800	3.597000	-10.747000	25.658566	0.000407	20.857328
1166.333261	-2.999300	3.596800	-10.787000	25.702173	0.000406	20.844704
1167.337142	-2.994500	3.595600	-10.766000	25.751348	0.000408	20.869913
1168.330126	-2.984800	3.595600	-10.732000	25.778082	0.000406	20.853145
1169.330302	-2.987500	3.597300	-10.746000	25.750932	0.000405	20.860487
1170.335221	-3.006900	3.596100	-10.811000	25.756125	0.000404	20.869969
1171.337577	-3.010300	3.594700	-10.820000	25.725969	0.000405	20.829724
1172.331074	-3.000400	3.594900	-10.785000	25.731510	0.000403	20.835290
1173.334420	-2.989400	3.596100	-10.748000	25.752809	0.000405	20.858105
1174.331203	-3.014100	3.593900	-10.832000	25.718299	0.000404	20.843357
1175.331199	-3.015500	3.593600	-10.835000	25.664190	0.000405	20.855390
1176.336334	-2.996800	3.593200	-10.768000	25.622176	0.000403	20.849704
1177.333123	-2.970700	3.593100	-10.673000	25.599416	0.000403	20.853872
1178.334025	-3.000800	3.592300	-10.779000	25.620989	0.000405	20.836184
1179.337299	-2.992600	3.593600	-10.753000	25.629116	0.000404	20.841976
1180.335681	-3.018200	3.590400	-10.836000	25.621415	0.000406	20.843250
1181.336301	-2.994900	3.592800	-10.760000	25.660225	0.000404	20.832918
1182.341205	-2.986600	3.592900	-10.730000	25.706891	0.000404	20.832847
1183.337649	-2.992800	3.591900	-10.749000	25.765154	0.000404	20.828307
1184.342488	-2.998200	3.590700	-10.765000	25.697403	0.000404	20.840387
1185.340878	-3.006500	3.590500	-10.794000	25.679115	0.000404	20.827709
1186.340926	-3.001100	3.589500	-10.772000	25.654468	0.000403	20.835670
1187.341221	-3.013300	3.588800	-10.814000	25.669578	0.000403	20.831406
1188.341009	-2.984700	3.590700	-10.716000	25.680137	0.000402	20.824468
1189.342961	-2.986200	3.589700	-10.718000	25.666594	0.000404	20.821771
1190.343158	-2.990000	3.589000	-10.731000	25.672858	0.000403	20.841338
1191.342635	-2.992400	3.588300	-10.737000	25.687119	0.000402	20.819153
1192.347583	-2.999400	3.587800	-10.760000	25.713055	0.000403	20.819599
1193.355443	-3.004500	3.588100	-10.780000	25.733579	0.000401	20.827886
1194.344141	-3.002200	3.588500	-10.772000	25.738497	0.000401	20.813860
1195.346728	-2.971400	3.589100	-10.664000	25.694074	0.000401	20.812388
1196.343045	-3.001800	3.587600	-10.768000	25.677551	0.000400	20.833724
1197.344163	-2.969600	3.587700	-10.653000	25.680877	0.000399	20.800555
1198.350120	-2.986400	3.586800	-10.711000	25.690646	0.000396	20.817479
1199.346036	-2.998500	3.586200	-10.752000	25.727686	0.000398	20.810587
1200.344466	-2.996500	3.586600	-10.747000	25.701296	0.000396	20.829125
1201.346201	-3.013500	3.586100	-10.806000	25.692182	0.000400	20.819971
1202.345862	-3.015400	3.585900	-10.813000	25.717304	0.000395	20.835720
1203.345870	-3.013000	3.586500	-10.806000	25.715934	0.000397	20.824861
1204.345071	-3.019100	3.584400	-10.821000	25.700359	0.000396	20.819174
1205.345687	-2.992000	3.585700	-10.728000	25.702445	0.000397	20.822217
1206.345870	-2.999900	3.584700	-10.752000	25.740407	0.000397	20.816726
1207.347133	-3.002200	3.584500	-10.760000	25.769501	0.000396	20.832673
1208.350724	-2.992500	3.583900	-10.724000	25.786667	0.000395	20.839959
1209.348281	-3.006000	3.583600	-10.771000	25.784388	0.000392	20.825341
1210.350450	-2.990600	3.583100	-10.715000	25.726101	0.000392	20.833175
1211.349661	-2.992500	3.582100	-10.718000	25.718699	0.000392	20.835224
1212.349870	-2.981800	3.584500	-10.687000	25.727147	0.000393	20.798665
1213.354123	-2.997700	3.583100	-10.740000	25.763893	0.000390	20.813764
1214.351553	-3.002900	3.581300	-10.753000	25.738211	0.000390	20.823055
1215.350192	-2.992800	3.581800	-10.719000	25.719699	0.000391	20.816315
1216.351042	-2.979000	3.583000	-10.673000	25.695127	0.000389	20.818186
1217.355108	-2.999300	3.580700	-10.738000	25.709542	0.000389	20.819389
1218.352741	-3.010400	3.580700	-10.779000	25.742216	0.000388	20.826130
1219.353169	-2.993700	3.579600	-10.716000	25.737475	0.000390	20.805246
1220.353867	-3.011000	3.579900	-10.779000	25.694045	0.000387	20.811410
1221.353498	-3.007300	3.580100	-10.766000	25.696979	0.000390	20.794443
1222.354500	-3.013700	3.578500	-10.783000	25.702845	0.000389	20.813610
1223.361695	-2.992900	3.579600	-10.713000	25.722033	0.000388	20.799219
1224.356053	-3.007700	3.578000	-10.761000	25.738179	0.000387	20.795996
1225.357764	-3.006300	3.578500	-10.757000	25.770380	0.000388	20.795624
1226.356999	-3.007600	3.578100	-10.761000	25.769813	0.000386	20.796003
1227.358770	-3.012000	3.577200	-10.774000	25.755461	0.000385	20.803872
1228.359756	-2.996600	3.578700	-10.723000	25.700029	0.000385	20.790868
1229.360533	-2.997600	3.577800	-10.724000	25.711883	0.000386	20.792343
1230.359538	-3.014100	3.578000	-10.784000	25.707465	0.000385	20.796441
1231.360187	-3.018900	3.575700	-10.794000	25.735043	0.000386	20.813708
1232.362853	-2.976700	3.576400	-10.645000	25.732513	0.000383	20.795521
1233.360887	-3.009300	3.576000	-10.760000	25.724467	0.000385	20.799292
1234.363150	-3.005000	3.576200	-10.746000	25.720246	0.000382	20.800743
1235.363782	-2.999000	3.575000	-10.721000	25.705714	0.000385	20.798475
1236.363291	-2.998000	3.574800	-10.716000	25.699852	0.000383	20.805389
1237.363198	-2.988500	3.575000	-10.682000	25.744131	0.000384	20.814302
1238.366538	-2.983100	3.575000	-10.664000	25.780975	0.000385	20.780188
1239.363404	-2.974100	3.575600	-10.633000	25.808353	0.000383	20.796309
1240.365170	-3.005000	3.575000	-10.741000	25.841595	0.000384	20.794614
1241.366118	-2.996200	3.574200	-10.708000	25.855533	0.000382	20.804348
1242.366230	-3.003900	3.573400	-10.733000	25.863236	0.000382	20.811613
1243.366968	-3.000800	3.574000	-10.724000	25.843190	0.000383	20.818502
1244.367102	-3.007400	3.573900	-10.746000	25.791514	0.000383	20.797887
1245.366904	-3.004000	3.572200	-10.730000	25.753554	0.000381	20.806224
1246.367118	-3.005900	3.572400	-10.738000	25.732410	0.000382	20.794943
1247.367919	-3.014100	3.571700	-10.765000	25.700982	0.000380	20.810318
1248.371030	-3.020000	3.571000	-10.783000	25.673626	0.000380	20.777626
1249.366918	-2.999100	3.572200	-10.712000	25.682945	0.000379	20.799787
1250.367595	-3.008300	3.569500	-10.737000	25.660232	0.000381	20.791674
1251.369999	-3.005400	3.571300	-10.732000	25.695120	0.000380	20.774084
1252.367829	-3.008400	3.570400	-10.740000	25.729800	0.000380	20.784735
1253.370737	-2.993500	3.570400	-10.687000	25.741206	0.000380	20.789554
1254.371974	-2.997900	3.570000	-10.702000	25.751990	0.000380	20.801808
1255.367894	-2.997500	3.569100	-10.698000	25.756960	0.000376	20.783093
1256.369781	-2.990600	3.568700	-10.672000	25.755019	0.000380	20.783040
1257.370443	-2.987800	3.569200	-10.663000	25.767391	0.000378	20.790725
1258.368858	-2.987800	3.570300	-10.666000	25.772978	0.000378	20.774526
1259.372447	-2.996300	3.568000	-10.690000	25.793448	0.000376	20.800304
1260.372231	-3.022200	3.567100	-10.780000	25.742418	0.000377	20.794090
1261.369630	-3.010500	3.567600	-10.739000	25.745744	0.000375	20.797431
1262.370267	-2.996700	3.567500	-10.689000	25.744226	0.000375	20.795906
1263.373264	-3.023700	3.566600	-10.784000	25.736747	0.000376	20.781281
1264.368862	-3.005300	3.565000	-10.713000	25.731854	0.000372	20.803867
1265.372647	-3.013300	3.565600	-10.743000	25.747428	0.000374	20.794381
1266.372614	-3.000800	3.564700	-10.696000	25.772739	0.000375	20.794675
1267.368869	-2.994700	3.565900	-10.677000	25.774877	0.000374	20.801090
1268.369885	-3.011800	3.564000	-10.733000	25.794897	0.000375	20.771413
1269.369497	-2.984000	3.564900	-10.637000	25.811291	0.000374	20.791674
1270.373829	-2.988300	3.565300	-10.653000	25.828030	0.000373	20.798532
1271.370783	-3.024600	3.563500	-10.777000	25.853226	0.000374	20.794919
1272.372242	-3.001600	3.563600	-10.696000	25.833047	0.000372	20.801674
1273.373231	-2.999700	3.563400	-10.687000	25.782092	0.000373	20.784155
1274.370471	-3.003800	3.563500	-10.704000	25.742536	0.000372	20.780932
1275.372529	-2.993500	3.563200	-10.666000	25.778929	0.000372	20.780504
1276.372610	-2.970600	3.564700	-10.589000	25.734307	0.000370	20.771718
1277.371166	-2.968400	3.563700	-10.577000	25.758653	0.000370	20.779577
1278.373076	-2.994600	3.562900	-10.668000	25.729284	0.000372	20.796070
1279.373463	-3.002900	3.562300	-10.696000	25.704137	0.000370	20.788356
1280.371253	-2.988900	3.561500	-10.644000	25.692558	0.000372	20.792373
1281.370408	-3.026700	3.561700	-10.779000	25.711814	0.000372	20.789903
1282.374186	-3.008000	3.561400	-10.712000	25.744481	0.000370	20.793792
1283.377080	-2.995800	3.561300	-10.668000	25.785398	0.000368	20.792217
1284.382784	-3.002800	3.560800	-10.691000	25.836623	0.000368	20.781559
1285.373246	-3.001500	3.560200	-10.686000	25.803054	0.000368	20.770598
1286.381768	-3.003500	3.559600	-10.690000	25.740945	0.000367	20.788817
1287.374266	-3.005200	3.558700	-10.693000	25.736397	0.000367	20.799422
1288.375765	-3.005700	3.558600	-10.695000	25.739127	0.000366	20.778457
1289.380887	-3.013100	3.557400	-10.718000	25.714651	0.000365	20.769519
1290.375730	-3.006800	3.558500	-10.699000	25.730056	0.000365	20.759388
1291.375296	-3.000500	3.558600	-10.677000	25.782028	0.000364	20.767969
1292.380240	-3.005300	3.557500	-10.690000	25.778153	0.000365	20.781620
1293.375285	-3.016600	3.556700	-10.728000	25.812509	0.000365	20.772509
1294.376003	-2.998800	3.557300	-10.666000	25.821421	0.000365	20.772453
1295.375274	-2.979000	3.556200	-10.593000	25.840996	0.000365	20.803022
1296.377119	-3.011900	3.556100	-10.709000	25.846639	0.000364	20.779293
1297.377645	-3.004300	3.555500	-10.681000	25.867228	0.000363	20.781483
1298.382004	-2.999600	3.556500	-10.667000	25.914371	0.000362	20.772418
1299.377916	-3.002100	3.556000	-10.675000	25.957844	0.000364	20.780532
1300.377446	-2.977900	3.556500	-10.590000	25.922098	0.000361	20.770224
1301.380060	-2.993200	3.555600	-10.642000	25.835991	0.000363	20.781873
1302.382639	-2.973400	3.555500	-10.571000	25.770429	0.000364	20.772439
1303.378011	-2.992800	3.554100	-10.636000	25.716463	0.000360	20.790306
1304.380745	-2.982500	3.553700	-10.597000	25.745657	0.000362	20.791654
1305.385335	-2.996800	3.554000	-10.650000	25.757082	0.000360	20.792698
1306.380229	-3.012900	3.552900	-10.704000	25.825875	0.000362	20.774556
1307.379150	-2.993500	3.553200	-10.636000	25.836753	0.000360	20.766042
1308.380740	-2.997600	3.553400	-10.651000	25.809178	0.000361	20.761577
1309.380849	-3.015400	3.552500	-10.711000	25.796631	0.000360	20.782164
1310.381098	-3.009600	3.551900	-10.689000	25.818214	0.000358	20.761644
1311.381806	-2.984800	3.550500	-10.596000	25.805346	0.000358	20.771004
1312.380962	-2.997100	3.551800	-10.644000	25.846261	0.000357	20.774171
1313.381769	-3.020200	3.549900	-10.720000	25.744771	0.000357	20.791237
1314.381829	-2.976600	3.552900	-10.574000	25.738511	0.000359	20.776889
1315.381824	-2.993100	3.550900	-10.627000	25.770113	0.000356	20.765484
1316.381651	-3.025900	3.549700	-10.740000	25.797735	0.000353	20.787540
1317.381611	-2.992800	3.551100	-10.626000	25.833432	0.000355	20.794476
1318.384580	-2.984600	3.550200	-10.595000	25.765936	0.000356	20.757968
1319.384309	-2.994200	3.550200	-10.629000	25.761511	0.000356	20.780077
1320.383307	-3.015400	3.548800	-10.699000	25.760638	0.000355	20.787735
1321.384537	-2.995700	3.549600	-10.632000	25.808835	0.000354	20.786836
1322.382186	-2.994500	3.547100	-10.621000	25.839936	0.000355	20.774930
1323.383653	-3.010900	3.547000	-10.679000	25.860225	0.000353	20.762595
1324.386581	-3.006700	3.546600	-10.663000	25.881641	0.000353	20.786480
1325.384984	-3.000800	3.546900	-10.642000	25.883251	0.000355	20.756328
1326.384404	-3.018500	3.547400	-10.707000	25.893311	0.000352	20.756477
1327.384374	-3.009100	3.546400	-10.671000	25.887027	0.000355	20.788097
1328.384791	-2.998000	3.546700	-10.632000	25.863548	0.000353	20.781105
1329.383630	-2.994100	3.546000	-10.616000	25.820197	0.000351	20.784499
1330.384954	-2.987100	3.546600	-10.593000	25.787725	0.000350	20.760890
1331.384758	-3.010200	3.544900	-10.670000	25.785834	0.000355	20.772741
1332.384021	-2.994200	3.545300	-10.614000	25.801408	0.000351	20.786014
1333.383833	-2.990700	3.545200	-10.602000	25.812835	0.000350	20.768095
1334.385757	-2.979000	3.545800	-10.562000	25.807066	0.000351	20.782214
1335.386094	-2.996000	3.544000	-10.616000	25.819412	0.000347	20.798884
1336.386751	-3.009400	3.543000	-10.661000	25.852629	0.000350	20.784836
1337.387299	-3.006800	3.542200	-10.650000	25.863954	0.000348	20.767289
1338.389177	-2.988700	3.542700	-10.587000	25.850460	0.000349	20.775071
1339.390856	-2.993400	3.543300	-10.606000	25.832175	0.000344	20.788471
1340.391548	-3.006300	3.542700	-10.650000	25.834733	0.000347	20.764961
1341.389460	-2.994800	3.542300	-10.607000	25.851105	0.000346	20.784727
1342.392045	-2.989000	3.541900	-10.586000	25.806606	0.000345	20.791235
1343.390884	-2.995400	3.542900	-10.612000	25.794657	0.000349	20.774491
1344.390278	-2.991400	3.541700	-10.594000	25.770108	0.000346	20.773065
1345.390005	-3.019100	3.540800	-10.689000	25.799571	0.000346	20.769470
1346.395038	-3.010700	3.540200	-10.657000	25.833356	0.000344	20.769269
1347.391911	-2.996700	3.540000	-10.608000	25.877750	0.000344	20.773087
1348.390793	-3.033400	3.540000	-10.736000	25.888130	0.000345	20.790153
1349.390672	-3.008200	3.539100	-10.645000	25.851413	0.000345	20.775080
1350.392444	-2.995300	3.538200	-10.597000	25.849374	0.000344	20.789152
1351.391362	-3.006900	3.539500	-10.642000	25.842766	0.000345	20.801955
1352.390861	-3.023800	3.538300	-10.698000	25.841498	0.000343	20.781715
1353.391629	-2.996100	3.538400	-10.600000	25.859980	0.000343	20.786056
1354.390340	-2.992400	3.538400	-10.587000	25.898335	0.000341	20.790448
1355.391005	-3.001300	3.538000	-10.618000	25.917461	0.000344	20.773626
1356.393047	-3.016400	3.537300	-10.669000	25.874112	0.000342	20.775597
1357.391673	-3.019500	3.536600	-10.677000	25.837246	0.000342	20.782660
1358.395113	-3.025500	3.536000	-10.697000	25.835084	0.000340	20.781436
1359.403790	-2.991800	3.537200	-10.581000	25.842115	0.000343	20.789447
1360.394321	-2.985800	3.535600	-10.556000	25.867405	0.000339	20.785929
1361.396003	-3.014400	3.535800	-10.657000	25.901586	0.000342	20.788973
1362.396921	-3.001100	3.533900	-10.604000	25.892196	0.000340	20.766737
1363.396554	-2.989300	3.535100	-10.567000	25.892295	0.000339	20.788173
1364.397780	-2.979300	3.535500	-10.533000	25.906605	0.000339	20.777893
1365.397029	-3.021100	3.533500	-10.675000	25.880498	0.000337	20.767787
1366.401013	-3.002200	3.534100	-10.609000	25.835139	0.000338	20.781017
1367.397158	-3.018000	3.533400	-10.663000	25.790840	0.000336	20.782985
1368.397467	-2.995200	3.533400	-10.582000	25.807340	0.000337	20.796240
1369.397362	-3.009000	3.532500	-10.628000	25.812233	0.000336	20.798784
1370.397965	-2.999700	3.532900	-10.597000	25.833452	0.000336	20.773632
1371.400990	-2.987400	3.533000	-10.553000	25.865502	0.000336	20.789233
1372.401269	-3.001400	3.531400	-10.598000	25.886594	0.000337	20.784817
1373.399470	-2.983600	3.532700	-10.539000	25.920330	0.000335	20.785517
1374.403672	-3.028000	3.531600	-10.693000	25.866971	0.000334	20.782648
1375.401899	-2.978300	3.532300	-10.519000	25.877034	0.000334	20.788964
1376.402114	-3.004200	3.530700	-10.606000	25.884737	0.000336	20.798599
1377.405184	-3.008900	3.530300	-10.621000	25.819752	0.000332	20.784526
1378.403787	-3.000900	3.530800	-10.594000	25.840921	0.000332	20.788248
1379.401838	-3.004800	3.530300	-10.606000	25.826962	0.000333	20.794614
1380.402064	-3.025900	3.528000	-10.675000	25.838290	0.000332	20.778966
1381.403885	-2.991200	3.529000	-10.555000	25.843411	0.000332	20.785059
1382.402238	-2.992300	3.529700	-10.561000	25.846172	0.000332	20.803480
1383.404304	-3.002900	3.527700	-10.592000	25.857180	0.000332	20.779924
1384.404133	-2.991900	3.526900	-10.551000	25.908923	0.000332	20.793972
1385.405752	-2.979900	3.528400	-10.513000	25.859046	0.000331	20.778006
1386.405413	-2.997100	3.526700	-10.569000	25.835276	0.000331	20.771198
1387.405011	-2.998700	3.528000	-10.579000	25.805663	0.000329	20.804038
1388.406580	-2.986400	3.527800	-10.535000	25.759082	0.000330	20.780483
1389.406536	-2.998800	3.526800	-10.575000	25.783012	0.000327	20.777018
1390.406795	-2.999100	3.525400	-10.572000	25.796654	0.000327	20.794990
1391.410073	-3.033900	3.524000	-10.691000	25.831513	0.000329	20.792548
1392.406300	-2.992100	3.525400	-10.546000	25.854050	0.000327	20.778202
1393.411195	-2.992800	3.524200	-10.546000	25.919061	0.000327	20.786613
1394.408762	-3.004800	3.524900	-10.590000	25.918765	0.000327	20.766401
1395.407698	-3.003400	3.524300	-10.584000	25.863820	0.000326	20.789914
1396.408073	-3.004100	3.524200	-10.586000	25.828595	0.000326	20.794358
1397.409747	-2.985100	3.524800	-10.521000	25.813914	0.000326	20.787196
1398.408497	-2.990600	3.523500	-10.536000	25.786588	0.000327	20.782033
1399.408685	-2.996000	3.523100	-10.554000	25.824773	0.000328	20.777716
1400.412119	-3.030500	3.521900	-10.672000	25.830367	0.000326	20.779542
1401.408870	-2.999900	3.522700	-10.566000	25.822018	0.000327	20.801502
1402.410185	-3.001000	3.522400	-10.569000	25.850543	0.000327	20.795543
1403.411017	-2.989000	3.522200	-10.526000	25.862319	0.000326	20.795044
1404.415014	-2.990000	3.521700	-10.529000	25.840437	0.000325	20.806727
1405.410570	-3.007300	3.520000	-10.585000	25.873949	0.000325	20.789658
1406.411015	-3.013600	3.520800	-10.610000	25.907383	0.000325	20.805227
1407.414007	-3.005600	3.519400	-10.577000	25.933000	0.000325	20.775486
1408.413312	-3.001300	3.520000	-10.564000	25.945317	0.000326	20.809197
1409.413158	-2.973200	3.521000	-10.467000	25.891691	0.000325	20.790885
1410.413425	-2.993100	3.519800	-10.534000	25.834628	0.000322	20.791883
1411.412395	-3.006400	3.519900	-10.581000	25.862677	0.000323	20.781653
1412.414285	-3.005900	3.519500	-10.578000	25.882332	0.000323	20.827950
1413.416955	-3.015200	3.517500	-10.605000	25.937205	0.000323	20.812901
1414.414643	-2.992500	3.518400	-10.527000	25.954917	0.000321	20.805092
1415.415021	-2.978100	3.518300	-10.476000	25.888545	0.000323	20.802898
1416.415738	-2.993000	3.516400	-10.523000	25.886012	0.000322	20.809837
1417.414778	-3.008700	3.516600	-10.580000	25.844849	0.000321	20.802151
1418.414251	-3.009200	3.517100	-10.583000	25.821925	0.000321	20.800934
1419.415885	-2.993300	3.517500	-10.527000	25.828558	0.000319	20.791001
1420.415019	-3.012600	3.516200	-10.592000	25.787047	0.000317	20.792926
1421.416458	-3.006300	3.517200	-10.573000	25.771671	0.000320	20.799291
1422.416709	-3.006500	3.515300	-10.568000	25.802652	0.000318	20.801963
1423.419536	-3.004800	3.516100	-10.564000	25.828818	0.000317	20.787469
1424.416184	-3.010400	3.515300	-10.582000	25.828768	0.000318	20.808756
1425.415134	-2.984300	3.515600	-10.490000	25.836898	0.000318	20.793689
1426.417031	-3.024500	3.514300	-10.628000	25.851431	0.000317	20.808763
1427.417536	-3.015000	3.513400	-10.591000	25.866292	0.000317	20.820372
1428.417613	-3.008700	3.513800	-10.571000	25.869124	0.000318	20.799510
1429.417077	-3.010300	3.512200	-10.572000	25.863615	0.000317	20.811993
1430.416688	-3.011900	3.512600	-10.579000	25.838503	0.000318	20.797199
1431.418157	-3.022100	3.510600	-10.608000	25.833188	0.000316	20.812248
1432.418016	-3.021800	3.511800	-10.611000	25.825164	0.000316	20.804661
1433.418717	-3.002300	3.511500	-10.542000	25.881410	0.000315	20.803316
1434.418272	-2.999400	3.511900	-10.533000	25.898849	0.000317	20.816568
1435.417675	-2.995800	3.511600	-10.519000	25.863326	0.000316	20.803642
1436.420513	-2.985000	3.511300	-10.480000	25.844421	0.000314	20.811204
1437.419394	-2.989300	3.510200	-10.492000	25.793199	0.000314	20.817597
1438.418654	-3.010800	3.509200	-10.564000	25.819583	0.000315	20.803797
1439.420127	-2.990300	3.509900	-10.495000	25.828731	0.000314	20.819625
1440.420016	-3.013900	3.509800	-10.577000	25.880997	0.000315	20.831351
1441.420915	-2.984200	3.509800	-10.473000	25.880997	0.000315	20.808118
1442.421194	-3.013900	3.508900	-10.574000	25.865865	0.000311	20.797184
1443.420430	-3.017600	3.508100	-10.585000	25.870789	0.000313	20.801182
1444.421249	-2.993500	3.508400	-10.501000	25.877295	0.000312	20.797761
1445.421482	-3.007100	3.508500	-10.549000	25.894885	0.000313	20.801207
1446.420741	-3.006700	3.507600	-10.545000	25.926258	0.000311	20.823241
1447.424073	-3.003000	3.505500	-10.526000	25.968464	0.000313	20.811115
1448.424553	-3.019500	3.505600	-10.584000	25.972063	0.000312	20.817576
1449.421594	-2.981400	3.507400	-10.456000	25.923803	0.000311	20.811291
1450.425862	-3.012700	3.506000	-10.561000	25.941984	0.000310	20.801582
1451.427458	-2.991700	3.505800	-10.487000	25.892997	0.000307	20.828233
1452.421725	-2.993500	3.504200	-10.489000	25.912173	0.000308	20.809565
1453.423302	-3.001300	3.504400	-10.517000	25.915899	0.000309	20.808093
1454.425763	-3.006700	3.504100	-10.535000	25.908277	0.000307	20.807074
1455.422781	-2.973000	3.504600	-10.418000	25.879183	0.000306	20.813408
1456.423165	-3.014100	3.504800	-10.564000	25.901046	0.000308	20.830629
1457.425893	-2.986600	3.503600	-10.464000	25.874614	0.000305	20.796016
1458.422864	-2.992200	3.503100	-10.481000	25.895879	0.000305	20.824490
1459.424332	-2.981000	3.503700	-10.444000	25.887608	0.000307	20.820923
1460.425630	-2.974300	3.503400	-10.419000	25.928319	0.000304	20.826733
1461.426919	-3.014500	3.502300	-10.557000	25.915579	0.000303	20.831004
1462.425201	-3.003500	3.502200	-10.517000	25.855660	0.000305	20.817279
1463.425126	-3.005300	3.501200	-10.521000	25.829651	0.000305	20.821496
1464.427687	-2.976500	3.501600	-10.421000	25.842716	0.000304	20.806646
1465.427486	-3.002600	3.501800	-10.513000	25.858144	0.000303	20.824515
1466.427116	-3.009100	3.501100	-10.534000	25.860676	0.000302	20.826110
1467.427865	-2.978500	3.501400	-10.428000	25.896798	0.000301	20.821620
1468.424968	-3.005400	3.500800	-10.521000	25.959672	0.000302	20.811766
1469.428741	-2.985500	3.501100	-10.451000	25.937536	0.000301	20.823665
1470.426593	-2.987800	3.498400	-10.451000	25.943154	0.000302	20.835947
1471.429012	-2.983200	3.499600	-10.439000	25.960268	0.000303	20.827062
1472.427306	-2.999100	3.498800	-10.492000	25.977853	0.000303	20.831453
1473.433875	-3.019400	3.497700	-10.560000	25.989751	0.000299	20.828233
1474.431137	-2.986500	3.498800	-10.448000	25.927899	0.000301	20.819200
1475.428401	-2.995000	3.498200	-10.477000	25.899531	0.000300	20.855185
1476.430301	-3.026500	3.496400	-10.580000	25.926434	0.000301	20.816305
1477.432077	-3.017300	3.497200	-10.551000	25.914357	0.000300	20.827880
1478.431055	-2.976800	3.496400	-10.407000	25.878489	0.000301	20.836892
1479.432290	-2.973400	3.496300	-10.394000	25.893487	0.000299	20.826829
1480.431121	-3.003200	3.495800	-10.497000	25.896369	0.000300	20.834465
1481.432387	-2.988200	3.496000	-10.446000	25.883178	0.000298	20.849188
1482.433306	-3.002100	3.494200	-10.489000	25.846038	0.000301	20.842699
1483.434490	-3.008200	3.494200	-10.510000	25.834234	0.000299	20.828945
1484.435384	-2.986100	3.495000	-10.435000	25.863301	0.000298	20.831118
1485.434155	-3.024600	3.494300	-10.568000	25.895992	0.000298	20.862534
1486.432653	-2.984300	3.494100	-10.427000	25.855270	0.000298	20.843438
1487.433731	-2.994300	3.494400	-10.463000	25.837556	0.000297	20.850299
1488.431737	-3.003100	3.491200	-10.484000	25.851494	0.000297	20.861930
1489.433808	-2.999900	3.492500	-10.476000	25.883583	0.000297	20.826837
1490.435022	-3.013100	3.491800	-10.520000	25.915358	0.000296	20.837420
1491.435627	-2.987500	3.491900	-10.431000	25.901294	0.000297	20.852214
1492.435966	-2.972100	3.492500	-10.378000	25.930877	0.000298	20.837838
1493.435560	-3.010900	3.491500	-10.511000	25.887899	0.000296	20.841603
1494.438285	-3.018500	3.489900	-10.534000	25.887353	0.000296	20.864761
1495.435810	-2.999700	3.490700	-10.470000	25.915693	0.000294	20.838231
1496.435686	-2.995300	3.490300	-10.454000	25.863478	0.000296	20.844097
1497.437443	-3.006400	3.489000	-10.489000	25.836617	0.000294	20.840821
1498.437434	-2.998400	3.489400	-10.462000	25.834781	0.000295	20.838029
1499.436965	-2.989700	3.488900	-10.429000	25.869632	0.000294	20.835581
1500.438502	-2.980600	3.489300	-10.399000	25.898047	0.000293	20.857487
1501.436797	-2.970900	3.490900	-10.369000	25.868910	0.000296	20.874683
1502.436928	-2.985200	3.488400	-10.412000	25.876882	0.000293	20.847130
1503.439384	-3.027100	3.486700	-10.554000	25.863218	0.000293	20.861853
1504.445713	-2.994500	3.488000	-10.444000	25.913073	0.000295	20.870685
1505.434977	-2.997200	3.487600	-10.452000	25.947601	0.000294	20.859854
1506.437093	-3.019600	3.486900	-10.528000	25.954628	0.000294	20.863120
1507.440329	-3.003400	3.486800	-10.472000	25.975715	0.000293	20.865813
1508.436765	-3.009600	3.486900	-10.493000	25.946105	0.000292	20.870204
1509.439781	-3.004500	3.486100	-10.472000	25.975511	0.000294	20.873668
1510.437648	-3.014500	3.485600	-10.506000	25.986440	0.000293	20.870424
1511.436262	-3.008500	3.484600	-10.482000	25.975902	0.000293	20.864579
1512.436768	-2.982200	3.485700	-10.394000	25.963508	0.000292	20.873463
1513.436616	-3.007900	3.485900	-10.485000	25.982386	0.000291	20.882472
1514.437514	-3.006700	3.485300	-10.478000	25.959926	0.000290	20.881244
1515.436636	-2.993700	3.485300	-10.433000	25.985659	0.000289	20.884811
1516.439891	-3.010600	3.483700	-10.487000	26.033296	0.000289	20.864870
1517.441430	-2.991900	3.483400	-10.420000	25.944444	0.000288	20.871380
1518.437734	-2.972100	3.483900	-10.354000	25.959272	0.000288	20.855458
1519.441013	-2.999600	3.481700	-10.443000	25.963168	0.000289	20.869328
1520.439242	-3.002100	3.482100	-10.453000	26.003111	0.000288	20.869155
1521.439261	-2.991300	3.482800	-10.417000	25.957649	0.000289	20.883697
1522.442238	-3.009900	3.481800	-10.478000	25.929109	0.000288	20.865932
1523.440757	-3.009700	3.481900	-10.479000	25.884218	0.000288	20.883422
1524.441078	-3.007800	3.480700	-10.469000	25.928186	0.000289	20.900564
1525.439286	-3.013600	3.481800	-10.491000	25.958784	0.000287	20.884837
1526.441090	-3.005400	3.482400	-10.465000	25.974457	0.000289	20.897738
1527.439579	-2.996300	3.480000	-10.426000	25.957192	0.000287	20.878497
1528.442469	-2.984300	3.479100	-10.382000	25.992832	0.000287	20.872104
1529.439604	-3.007000	3.478300	-10.458000	26.053535	0.000287	20.880936
1530.439619	-2.971100	3.479500	-10.337000	26.016848	0.000284	20.897653
1531.440400	-3.023000	3.478600	-10.515000	26.030333	0.000288	20.896504
1532.440855	-3.022100	3.478500	-10.511000	26.043893	0.000283	20.894480
1533.440294	-3.006800	3.477400	-10.455000	25.987927	0.000285	20.893253
1534.439643	-2.995500	3.478100	-10.417000	26.021804	0.000287	20.898840
1535.443629	-2.989400	3.477500	-10.394000	26.016243	0.000286	20.892779
1536.440918	-3.005700	3.476500	-10.448000	26.006699	0.000285	20.909741
1537.441989	-3.011400	3.477000	-10.470000	25.984117	0.000283	20.900330
1538.441418	-3.003200	3.476600	-10.439000	25.956447	0.000284	20.891499
1539.443799	-3.019900	3.476500	-10.497000	26.009003	0.000282	20.911582
1540.443650	-3.012000	3.475900	-10.469000	26.025795	0.000282	20.903323
1541.446684	-2.996400	3.475800	-10.414000	26.085479	0.000282	20.909710
1542.442422	-3.013200	3.475600	-10.472000	26.083613	0.000280	20.904042
1543.443772	-2.996600	3.476400	-10.416000	26.091589	0.000283	20.903048
1544.447125	-3.027500	3.473700	-10.515000	26.076065	0.000282	20.903571
1545.444238	-2.994800	3.474700	-10.405000	26.088258	0.000278	20.902071
1546.444489	-3.023900	3.472700	-10.500000	26.036175	0.000278	20.902372
1547.446120	-3.000000	3.474400	-10.422000	25.994148	0.000279	20.896658
1548.444608	-2.974200	3.474400	-10.333000	25.970075	0.000276	20.913723
1549.445869	-2.976500	3.472900	-10.336000	25.974523	0.000275	20.909183
1550.445604	-2.994000	3.473000	-10.398000	25.992482	0.000277	20.916793
1551.446042	-2.986900	3.472500	-10.371000	26.003685	0.000278	20.910032
1552.448106	-3.003100	3.472000	-10.426000	25.965211	0.000278	20.912155
1553.451026	-2.979500	3.473100	-10.347000	25.963422	0.000276	20.909883
1554.449784	-3.032300	3.471500	-10.526000	25.922780	0.000276	20.901771
1555.455366	-3.021900	3.469400	-10.484000	25.917468	0.000275	20.931519
1556.455594	-2.995100	3.471600	-10.396000	25.963672	0.000273	20.899704
1557.450535	-2.985500	3.471800	-10.364000	25.973086	0.000273	20.915325
1558.453239	-2.990000	3.470800	-10.377000	25.943726	0.000274	20.902425
1559.453780	-3.005300	3.469200	-10.425000	25.937417	0.000274	20.913156
1560.451497	-2.977200	3.470700	-10.332000	25.969563	0.000273	20.915579
1561.457422	-2.996400	3.469300	-10.395000	25.960896	0.000273	20.913983
1562.457418	-3.025300	3.467200	-10.489000	25.971899	0.000273	20.912710
1563.453676	-3.001300	3.468500	-10.409000	25.945497	0.000274	20.931702
1564.454895	-2.982800	3.468600	-10.345000	25.959535	0.000274	20.910721
1565.454426	-2.967900	3.468900	-10.294000	25.950395	0.000274	20.903435
1566.451861	-2.987800	3.467600	-10.360000	26.008371	0.000275	20.902413
1567.452918	-3.023900	3.466800	-10.481000	26.009787	0.000274	20.928963
1568.454588	-2.973700	3.468000	-10.312000	26.023874	0.000273	20.919410
1569.454399	-2.998300	3.466200	-10.392000	25.992378	0.000274	20.920482
1570.455099	-2.975400	3.466500	-10.313000	26.045333	0.000272	20.926744
1571.457032	-2.995900	3.466500	-10.383000	25.995284	0.000273	20.898273
1572.457109	-3.015300	3.466100	-10.450000	26.003384	0.000273	20.934857
1573.455347	-2.989200	3.465300	-10.357000	26.016697	0.000272	20.937800
1574.457692	-2.972300	3.466800	-10.303000	25.968534	0.000272	20.927345
1575.455059	-3.008800	3.464300	-10.423000	25.968731	0.000271	20.914743
1576.455947	-3.007400	3.464000	-10.416000	26.005941	0.000273	20.919410
1577.454904	-2.995100	3.464400	-10.375000	25.998140	0.000271	20.909202
1578.460438	-2.953400	3.465500	-10.234000	25.955717	0.000270	20.919685
1579.458736	-3.006400	3.463000	-10.410000	25.960335	0.000270	20.908205
1580.459828	-2.999000	3.462500	-10.383000	26.010780	0.000270	20.924745
1581.461044	-3.020400	3.461700	-10.455000	26.018655	0.000269	20.912270
1582.457659	-2.997600	3.462400	-10.378000	26.013735	0.000273	20.910172
1583.461328	-2.991800	3.462700	-10.359000	26.038100	0.000270	20.923270
1584.461819	-3.002500	3.462700	-10.396000	26.019941	0.000269	20.898865
1585.457902	-3.013000	3.461500	-10.429000	25.986637	0.000267	20.907129
1586.459219	-2.989000	3.462200	-10.347000	26.007100	0.000267	20.912989
1587.461267	-3.008700	3.460300	-10.411000	26.029503	0.000267	20.909419
1588.461365	-3.011300	3.459800	-10.418000	26.028781	0.000268	20.911538
1589.463747	-2.996600	3.460600	-10.369000	26.039759	0.000268	20.896017
1590.461893	-2.990300	3.459700	-10.345000	26.028479	0.000265	20.908390
1591.461987	-2.982700	3.459600	-10.318000	26.033198	0.000267	20.891322
1592.464161	-2.996400	3.459100	-10.364000	26.010817	0.000264	20.894913
1593.463021	-3.010100	3.459200	-10.412000	26.017822	0.000264	20.916648
1594.461298	-3.002300	3.458700	-10.383000	26.006245	0.000264	20.898855
1595.462397	-2.993900	3.458900	-10.354000	25.998050	0.000262	20.896785
1596.462665	-2.990900	3.458800	-10.343000	25.975196	0.000263	20.895635
1597.463043	-3.011900	3.458000	-10.415000	25.959174	0.000261	20.905142
1598.462188	-3.011600	3.457900	-10.413000	26.001051	0.000263	20.886525
1599.474647	-3.024500	3.457200	-10.455000	26.032300	0.000261	20.885205
1600.464293	-3.000500	3.457400	-10.373000	26.091586	0.000262	20.884554
1601.464550	-3.000000	3.455900	-10.367000	26.087237	0.000264	20.894882
1602.466842	-2.967500	3.457300	-10.258000	26.103608	0.000262	20.896633
1603.463278	-3.008200	3.456300	-10.396000	26.096949	0.000260	20.914122
1604.462984	-3.010800	3.454900	-10.401000	26.137035	0.000260	20.886125
1605.465954	-3.003700	3.453600	-10.372000	26.113712	0.000262	20.901095
1606.465155	-2.987400	3.455200	-10.320000	26.098516	0.000259	20.901947
1607.465482	-2.983800	3.454700	-10.308000	26.102862	0.000261	20.887823
1608.465925	-2.975600	3.453700	-10.276000	26.099161	0.000259	20.874148
1609.465358	-2.997300	3.454100	-10.352000	26.107606	0.000259	20.890693
1610.464661	-2.996500	3.452700	-10.345000	26.078450	0.000260	20.884631
1611.465422	-2.998700	3.451900	-10.349000	26.080883	0.000260	20.872853
1612.464792	-2.973500	3.452800	-10.265000	26.096879	0.000259	20.886553
1613.465704	-2.988400	3.453600	-10.320000	26.035005	0.000259	20.891241
1614.468307	-3.003100	3.451600	-10.364000	26.040098	0.000256	20.901572
1615.467482	-3.001400	3.453100	-10.363000	26.026567	0.000257	20.872806
1616.467386	-3.011300	3.451600	-10.393000	25.950034	0.000257	20.885056
1617.468975	-3.013500	3.450600	-10.398000	25.960864	0.000257	20.882187
1618.467927	-3.007600	3.452000	-10.381000	25.933466	0.000257	20.904445
1619.469043	-2.999300	3.451900	-10.352000	25.991813	0.000256	20.887200
1620.470621	-2.999200	3.450200	-10.346000	26.020256	0.000256	20.886379
1621.468096	-3.006900	3.449100	-10.370000	26.029595	0.000257	20.877272
1622.469995	-3.001600	3.449700	-10.354000	26.057686	0.000256	20.892217
1623.470417	-2.996300	3.448700	-10.331000	26.108950	0.000253	20.886829
1624.469801	-3.008900	3.448000	-10.373000	25.999666	0.000254	20.880867
1625.469670	-3.011300	3.448200	-10.382000	25.977361	0.000253	20.874105
1626.472759	-3.009700	3.447100	-10.373000	25.983299	0.000253	20.871062
1627.471622	-3.004000	3.447100	-10.354000	25.964147	0.000254	20.847554
1628.470305	-2.982300	3.447800	-10.282000	26.028877	0.000253	20.894566
1629.473505	-2.997500	3.448000	-10.334000	26.030348	0.000254	20.874709
1630.471379	-3.001500	3.446100	-10.342000	26.085834	0.000252	20.865974
1631.471036	-2.999600	3.447200	-10.339000	26.133073	0.000254	20.866497
1632.473330	-3.011300	3.446100	-10.377000	26.141021	0.000254	20.864527
1633.472307	-3.006200	3.445600	-10.358000	26.148324	0.000254	20.860960
1634.470427	-2.996400	3.445400	-10.323000	26.116113	0.000252	20.864155
1635.472363	-3.022100	3.445100	-10.411000	26.152697	0.000252	20.845915
1636.471666	-3.014000	3.445100	-10.383000	26.166480	0.000253	20.880151
1637.473101	-3.006400	3.445200	-10.357000	26.156969	0.000252	20.862060
1638.477386	-2.990300	3.444500	-10.299000	26.092472	0.000249	20.853203
1639.471828	-2.982800	3.443900	-10.271000	26.111221	0.000252	20.864455
1640.471829	-2.989900	3.442700	-10.292000	26.113207	0.000251	20.859339
1641.475833	-3.006400	3.444000	-10.353000	26.081766	0.000250	20.871843
1642.473839	-2.959400	3.442900	-10.188000	26.054096	0.000251	20.851155
1643.473704	-3.011800	3.442400	-10.367000	26.031567	0.000250	20.861710
1644.475568	-2.985200	3.443800	-10.279000	26.078885	0.000247	20.840501
1645.472263	-3.003300	3.442700	-10.338000	26.118697	0.000249	20.866278
1646.473330	-3.004700	3.442300	-10.342000	26.201324	0.000250	20.856370
1647.474974	-2.973800	3.442900	-10.237000	26.206863	0.000249	20.850083
1648.474933	-2.967600	3.442100	-10.213000	26.248483	0.000250	20.871518
1649.476066	-2.992200	3.440300	-10.293000	26.216349	0.000247	20.855348
1650.475685	-2.977100	3.442200	-10.247000	26.158261	0.000248	20.852928
1651.477078	-2.981100	3.440600	-10.255000	26.134118	0.000247	20.859014
1652.475135	-2.993700	3.440900	-10.300000	26.112661	0.000248	20.842196
1653.476591	-3.008100	3.439000	-10.344000	26.140133	0.000247	20.865531
1654.476295	-2.986700	3.439000	-10.270000	26.193127	0.000247	20.858564
1655.476876	-3.004200	3.439500	-10.332000	26.199387	0.000246	20.870071
1656.477923	-2.980100	3.438900	-10.247000	26.191964	0.000248	20.867827
1657.476812	-3.007800	3.438900	-10.343000	26.227821	0.000246	20.863557
1658.478199	-2.986700	3.440000	-10.273000	26.233008	0.000245	20.842692
1659.479022	-2.993600	3.437700	-10.290000	26.211279	0.000244	20.870641
1660.478836	-3.007000	3.435900	-10.331000	26.121448	0.000244	20.827318
1661.478047	-3.001500	3.435200	-10.310000	26.093134	0.000245	20.857188
1662.479758	-2.987300	3.437100	-10.267000	26.075847	0.000244	20.849776
1663.477505	-3.006900	3.436300	-10.332000	26.038090	0.000242	20.843609
1664.478097	-2.992500	3.436300	-10.283000	26.022171	0.000242	20.849900
1665.478199	-3.013300	3.435800	-10.353000	26.018294	0.000245	20.839840
1666.479004	-3.011700	3.433600	-10.340000	26.047106	0.000245	20.870684
1667.478257	-2.993500	3.435400	-10.282000	26.055749	0.000243	20.842859
1668.484293	-3.000500	3.434700	-10.305000	26.127823	0.000244	20.873076
1669.480995	-2.998800	3.434500	-10.298000	26.157298	0.000245	20.851012
1670.481944	-3.001400	3.434400	-10.307000	26.102387	0.000243	20.846097
1671.484720	-3.010700	3.433300	-10.335000	26.141504	0.000245	20.854108
1672.493572	-2.998800	3.434100	-10.298000	26.092076	0.000242	20.834789
1673.481873	-3.010000	3.432700	-10.332000	26.064480	0.000243	20.856373
1674.484743	-2.980400	3.433300	-10.231000	26.085713	0.000243	20.832189
1675.481627	-3.005400	3.431900	-10.314000	26.092643	0.000243	20.842945
1676.481503	-3.003200	3.433500	-10.311000	26.090626	0.000241	20.838073
1677.486157	-3.010600	3.429800	-10.325000	26.113200	0.000240	20.829936
1678.481111	-3.009300	3.431100	-10.324000	26.155888	0.000243	20.838690
1679.482266	-2.985200	3.431800	-10.242000	26.178858	0.000241	20.843279
1680.485019	-3.038700	3.430200	-10.422000	26.212261	0.000241	20.832749
1681.481047	-3.004000	3.430200	-10.304000	26.259069	0.000238	20.839957
1682.482145	-3.018200	3.429400	-10.350000	26.226805	0.000240	20.844993
1683.488479	-2.980200	3.430000	-10.221000	26.181131	0.000238	20.853623
1684.484609	-2.985400	3.430800	-10.242000	26.166084	0.000239	20.841349
1685.485457	-2.988900	3.428600	-10.247000	26.195487	0.000239	20.851928
1686.488875	-2.979400	3.430100	-10.218000	26.194590	0.000237	20.842966
1687.482225	-2.979400	3.428700	-10.215000	26.256077	0.000236	20.843115
1688.485523	-3.001900	3.427600	-10.287000	26.223074	0.000239	20.835079
1689.488475	-3.018600	3.426700	-10.343000	26.213260	0.000236	20.848925
1690.487062	-2.995800	3.426900	-10.265000	26.172011	0.000235	20.840192
1691.490048	-3.012700	3.426800	-10.323000	26.213929	0.000235	20.836322
1692.488835	-2.991300	3.427200	-10.251000	26.280011	0.000233	20.848200
1693.486580	-3.016100	3.426900	-10.335000	26.280831	0.000233	20.850447
1694.490441	-2.995600	3.426500	-10.264000	26.303429	0.000233	20.832854
1695.494246	-3.010900	3.426900	-10.317000	26.307003	0.000234	20.837394
1696.488065	-2.996600	3.425000	-10.263000	26.249839	0.000233	20.827837
1697.489768	-2.987500	3.425800	-10.233000	26.163712	0.000233	20.829482
1698.493928	-3.013600	3.424100	-10.318000	26.174364	0.000233	20.853936
1699.488102	-2.995500	3.424100	-10.256000	26.193193	0.000232	20.831131
1700.491208	-3.016300	3.424500	-10.328000	26.153282	0.000234	20.831329
1701.493230	-2.995800	3.424600	-10.259000	26.137756	0.000232	20.854608
1702.489641	-3.032100	3.422700	-10.376000	26.141263	0.000231	20.831106
1703.493789	-3.004600	3.422800	-10.283000	26.105991	0.000231	20.824589
1704.492064	-2.996400	3.423700	-10.257000	26.095212	0.000230	20.841733
1705.489878	-2.980500	3.423200	-10.202000	26.113292	0.000231	20.845674
1706.493255	-3.013200	3.421300	-10.309000	26.157920	0.000230	20.844999
1707.493657	-3.000100	3.422200	-10.266000	26.200835	0.000230	20.824586
1708.490174	-3.004800	3.419700	-10.274000	26.211438	0.000228	20.822913
1709.492668	-3.003300	3.421900	-10.275000	26.222315	0.000228	20.841903
1710.495352	-2.976300	3.420900	-10.181000	26.196166	0.000228	20.810885
1711.491071	-2.992800	3.421000	-10.238000	26.208881	0.000227	20.834094
1712.492169	-3.006200	3.419300	-10.277000	26.241315	0.000227	20.841082
1713.496165	-2.987100	3.420800	-10.218000	26.231132	0.000227	20.837961
1714.492146	-2.980600	3.420300	-10.194000	26.240146	0.000226	20.834692
1715.492188	-2.966000	3.420600	-10.144000	26.199021	0.000227	20.836988
1716.494611	-2.969300	3.420400	-10.155000	26.144288	0.000224	20.837465
1717.491302	-2.974200	3.419000	-10.167000	26.185612	0.000226	20.819721
1718.492785	-3.008400	3.418600	-10.283000	26.167734	0.000223	20.823566
1719.495694	-3.013800	3.417900	-10.300000	26.175981	0.000225	20.829482
1720.492564	-2.999600	3.417400	-10.249000	26.189840	0.000224	20.824444
1721.494289	-3.009700	3.417300	-10.284000	26.155616	0.000223	20.837943
1722.498659	-2.992000	3.417900	-10.226000	26.183456	0.000225	20.805227
1723.494616	-3.022200	3.416500	-10.325000	26.211024	0.000222	20.815385
1724.493104	-2.997600	3.418400	-10.245000	26.226497	0.000225	20.820502
1725.497661	-3.007800	3.416700	-10.275000	26.220958	0.000221	20.818729
1726.492973	-3.000200	3.416100	-10.248000	26.229729	0.000221	20.833232
1727.495533	-2.974300	3.416200	-10.159000	26.154876	0.000222	20.820130
1728.498394	-2.988100	3.414600	-10.202000	26.154583	0.000220	20.827896
1729.494089	-3.001800	3.415000	-10.250000	26.180086	0.000222	20.835978
1730.497943	-2.987100	3.414600	-10.199000	26.204502	0.000223	20.828271
1731.498403	-3.008500	3.414800	-10.272000	26.189304	0.000219	20.819163
1732.497172	-3.006300	3.414000	-10.263000	26.190078	0.000222	20.820889
1733.496733	-2.981900	3.414100	-10.179000	26.157988	0.000220	20.827524
1734.502669	-3.005800	3.412500	-10.257000	26.195367	0.000220	20.811506
1735.496521	-3.021700	3.411300	-10.308000	26.231527	0.000219	20.805642
1736.496116	-2.999000	3.411800	-10.231000	26.245707	0.000219	20.812305
1737.505378	-2.987900	3.411800	-10.194000	26.287551	0.000219	20.813579
1738.496718	-2.973100	3.412200	-10.144000	26.255769	0.000218	20.805348
1739.497705	-3.021300	3.412400	-10.309000	26.252960	0.000217	20.796361
1740.500653	-3.009200	3.410500	-10.262000	26.247252	0.000215	20.809591
1741.507379	-2.996800	3.410500	-10.220000	26.255597	0.000218	20.821770
1742.498229	-3.020100	3.409900	-10.296000	26.235632	0.000215	20.792224
1743.500646	-2.988600	3.409800	-10.189000	26.247554	0.000215	20.802308
1744.497881	-2.984400	3.410200	-10.176000	26.223092	0.000217	20.788632
1745.499013	-3.001200	3.408700	-10.229000	26.197412	0.000214	20.804077
1746.501654	-2.993600	3.409500	-10.205000	26.194831	0.000213	20.807173
1747.500120	-3.005600	3.409200	-10.246000	26.210504	0.000215	20.802060
1748.499189	-2.991500	3.409800	-10.199000	26.194510	0.000214	20.808274
1749.507301	-3.004300	3.407500	-10.237000	26.255776	0.000214	20.781172
1750.509680	-3.013000	3.408000	-10.268000	26.234765	0.000213	20.797991
1751.502859	-3.009800	3.408500	-10.258000	26.194464	0.000212	20.812969
1752.507021	-3.003000	3.407200	-10.230000	26.163170	0.000213	20.795747
1753.500865	-3.000000	3.408700	-10.225000	26.170177	0.000216	20.771020
1754.502967	-3.010700	3.406500	-10.255000	26.181378	0.000213	20.800768
1755.506476	-2.998000	3.408000	-10.216000	26.128553	0.000212	20.774240
1756.501584	-3.005700	3.405400	-10.234000	26.204475	0.000211	20.796950
1757.500304	-2.991400	3.406300	-10.189000	26.196207	0.000211	20.798599
1758.505907	-2.998500	3.406600	-10.213000	26.190868	0.000209	20.784699
1759.504487	-3.005600	3.405200	-10.234000	26.215256	0.000210	20.789766
1760.505038	-3.002500	3.406100	-10.224000	26.215654	0.000212	20.808658
1761.506817	-3.001700	3.403300	-10.214000	26.211411	0.000208	20.799178
1762.502997	-2.992900	3.404700	-10.189000	26.181607	0.000210	20.786773
1763.505887	-3.005800	3.404100	-10.230000	26.196059	0.000210	20.793708
1764.511118	-2.995700	3.402500	-10.192000	26.245630	0.000210	20.791366
1765.506985	-2.990200	3.403800	-10.177000	26.247391	0.000210	20.786497
1766.509248	-2.997800	3.403500	-10.202000	26.222609	0.000210	20.773921
1767.512797	-3.004700	3.403800	-10.225000	26.237954	0.000209	20.785549
1768.508456	-3.012200	3.402700	-10.249000	26.215010	0.000209	20.782880
1769.510107	-2.993300	3.402100	-10.183000	26.254468	0.000211	20.785549
1770.515300	-3.024200	3.401500	-10.285000	26.274609	0.000208	20.776391
1771.511419	-2.984800	3.400700	-10.149000	26.242574	0.000208	20.783553
1772.514831	-2.991400	3.400700	-10.172000	26.206439	0.000210	20.773794
1773.514584	-2.974100	3.400800	-10.113000	26.133769	0.000209	20.797498
1774.514289	-3.006000	3.400900	-10.221000	26.201348	0.000209	20.771996
1775.524758	-2.995700	3.400500	-10.186000	26.202637	0.000209	20.788939
1776.518082	-2.998400	3.399700	-10.193000	26.213761	0.000210	20.792531
1777.517684	-3.007800	3.400600	-10.227000	26.262162	0.000209	20.780953
1778.518312	-2.998600	3.399900	-10.194000	26.198140	0.000209	20.780153
1779.520119	-2.996100	3.399600	-10.185000	26.214103	0.000208	20.797616
1780.517539	-2.995700	3.399900	-10.184000	26.141534	0.000206	20.757886
1781.521866	-2.977400	3.399100	-10.120000	26.094916	0.000205	20.767468
1782.521296	-2.977200	3.398700	-10.117000	26.142204	0.000207	20.787008
1783.521539	-3.020900	3.397700	-10.263000	26.161202	0.000208	20.766269
1784.521188	-3.007600	3.395900	-10.212000	26.237738	0.000204	20.771106
1785.522171	-2.993700	3.397600	-10.171000	26.267139	0.000205	20.783109
1786.526230	-2.987300	3.396200	-10.145000	26.322517	0.000204	20.770483
1787.522958	-3.007400	3.396700	-10.215000	26.292093	0.000205	20.771903
1788.524122	-3.010600	3.395800	-10.223000	26.276449	0.000205	20.783930
1789.520575	-3.006400	3.395900	-10.209000	26.264453	0.000201	20.747692
1790.521085	-2.994000	3.395100	-10.164000	26.274932	0.000201	20.756326
1791.522866	-2.990600	3.394400	-10.149000	26.313321	0.000201	20.763138
1792.521179	-2.997800	3.394900	-10.177000	26.334873	0.000201	20.747339
1793.522854	-2.998200	3.395300	-10.180000	26.314934	0.000201	20.752905
1794.526731	-3.023600	3.393100	-10.258000	26.270257	0.000201	20.783397
1795.528338	-3.002300	3.393500	-10.187000	26.293697	0.000203	20.785142
1796.526832	-2.981300	3.394400	-10.119000	26.217806	0.000199	20.782371
1797.525738	-2.995900	3.394100	-10.168000	26.220862	0.000200	20.750354
1798.524985	-2.991500	3.392100	-10.147000	26.212591	0.000199	20.761009
1799.524919	-2.995100	3.394300	-10.166000	26.234416	0.000199	20.751646
1800.527220	-2.984000	3.391400	-10.119000	26.228902	0.000197	20.778349
1801.524469	-3.018800	3.390900	-10.236000	26.243180	0.000198	20.751445
1802.523335	-2.992500	3.391400	-10.148000	26.209578	0.000198	20.780267
1803.528018	-3.003300	3.391600	-10.185000	26.209479	0.000196	20.763098
1804.522049	-2.996200	3.391400	-10.160000	26.226709	0.000196	20.759549
1805.526334	-3.016200	3.389400	-10.222000	26.220403	0.000196	20.777394
1806.526670	-2.994900	3.390500	-10.153000	26.236565	0.000195	20.774670
1807.523376	-2.992300	3.389700	-10.142000	26.271805	0.000194	20.768831
1808.527577	-2.988500	3.389400	-10.129000	26.243467	0.000194	20.753630
1809.525063	-3.023300	3.387800	-10.241000	26.238823	0.000194	20.766033
1810.525918	-2.991300	3.388700	-10.136000	26.170081	0.000195	20.750534
1811.528022	-2.990900	3.388200	-10.132000	26.204921	0.000193	20.757569
1812.526441	-2.976800	3.389900	-10.089000	26.211231	0.000195	20.760590
1813.525203	-2.992900	3.387700	-10.138000	26.159672	0.000193	20.776585
1814.529849	-3.003100	3.388400	-10.174000	26.194093	0.000193	20.782724
1815.532067	-2.982600	3.388600	-10.107000	26.232482	0.000193	20.776256
1816.527820	-2.989900	3.386800	-10.125000	26.264021	0.000194	20.751051
1817.533082	-3.017800	3.387000	-10.221000	26.265483	0.000194	20.757262
1818.531580	-3.011600	3.387000	-10.200000	26.308964	0.000191	20.765871
1819.529928	-2.998200	3.385500	-10.150000	26.267472	0.000194	20.771115
1820.532419	-2.995600	3.386000	-10.143000	26.291584	0.000194	20.765475
1821.532310	-2.998300	3.385700	-10.151000	26.301239	0.000194	20.768066
1822.530009	-3.003300	3.384600	-10.164000	26.304070	0.000189	20.762376
1823.534623	-2.997800	3.384200	-10.144000	26.308612	0.000191	20.785433
1824.532311	-3.004100	3.384300	-10.166000	26.309728	0.000192	20.764743
1825.529971	-3.001400	3.384800	-10.158000	26.329914	0.000190	20.767960
1826.530404	-2.971400	3.384800	-10.056000	26.337984	0.000191	20.755681
1827.531698	-2.993000	3.383100	-10.125000	26.309602	0.000193	20.762245
1828.530415	-2.988200	3.383300	-10.109000	26.290202	0.000192	20.755551
1829.530270	-2.992700	3.383500	-10.125000	26.304727	0.000190	20.759716
1830.532861	-3.006500	3.383800	-10.172000	26.315603	0.000188	20.785346
1831.529604	-2.983600	3.382700	-10.091000	26.256179	0.000190	20.744593
1832.530564	-3.000600	3.381500	-10.146000	26.289475	0.000189	20.753397
1833.530282	-2.997500	3.380400	-10.132000	26.256743	0.000189	20.772187
1834.531333	-3.004900	3.381300	-10.159000	26.258535	0.000189	20.766875
1835.531266	-2.996500	3.380300	-10.128000	26.315967	0.000187	20.776229
1836.530523	-3.005400	3.380900	-10.161000	26.346334	0.000188	20.765971
1837.531528	-2.997200	3.380700	-10.132000	26.260589	0.000188	20.766569
1838.531437	-2.997500	3.379900	-10.130000	26.237765	0.000189	20.787729
1839.531580	-3.010200	3.379100	-10.171000	26.267737	0.000191	20.760002
1840.531500	-3.001800	3.379400	-10.143000	26.324524	0.000188	20.764440
1841.532331	-3.010700	3.378900	-10.173000	26.297132	0.000188	20.765834
1842.531645	-3.046900	3.376400	-10.286000	26.262615	0.000188	20.759596
1843.532783	-3.018700	3.378000	-10.196000	26.288537	0.000188	20.750085
1844.533483	-3.016700	3.377200	-10.187000	26.265838	0.000187	20.772792
1845.532558	-3.015200	3.377700	-10.183000	26.280162	0.000187	20.767747
1846.532910	-3.001000	3.376900	-10.133000	26.273008	0.000185	20.786636
1847.535650	-2.998000	3.376900	-10.122000	26.231635	0.000184	20.782991
1848.532621	-2.976400	3.377000	-10.050000	26.260117	0.000185	20.780320
1849.535300	-2.985800	3.375900	-10.079000	26.222244	0.000183	20.771184
1850.533551	-3.004900	3.376100	-10.145000	26.224403	0.000185	20.759128
1851.533877	-3.014600	3.374700	-10.173000	26.289639	0.000185	20.776796
1852.536722	-3.001800	3.376100	-10.133000	26.387691	0.000182	20.799475
1853.534006	-2.999600	3.375800	-10.125000	26.448200	0.000182	20.778737
1854.533332	-2.994400	3.375000	-10.106000	26.479929	0.000183	20.782180
1855.539650	-3.001700	3.375800	-10.132000	26.487872	0.000181	20.783051
1856.532993	-3.000800	3.375900	-10.130000	26.492537	0.000182	20.772566
1857.540145	-2.995500	3.375300	-10.109000	26.489330	0.000181	20.788310
1858.539322	-3.012100	3.373900	-10.161000	26.476544	0.000182	20.775932
1859.536980	-2.998700	3.374000	-10.117000	26.455239	0.000181	20.782967
1860.538049	-2.973100	3.374500	-10.031000	26.369626	0.000179	20.772784
1861.539535	-2.996000	3.373100	-10.105000	26.337344	0.000180	20.774005
1862.536255	-3.006400	3.373100	-10.140000	26.373866	0.000178	20.794115
1863.536238	-3.011000	3.373400	-10.156000	26.393134	0.000179	20.778867
1864.541774	-3.004400	3.371100	-10.128000	26.363533	0.000178	20.778514
1865.538561	-3.012400	3.370600	-10.153000	26.388732	0.000180	20.775390
1866.538435	-2.996700	3.370900	-10.101000	26.432676	0.000180	20.779255
1867.543868	-3.025800	3.369300	-10.194000	26.439753	0.000182	20.796325
1868.542323	-2.999500	3.369500	-10.106000	26.432103	0.000178	20.780576
1869.540820	-3.005800	3.371800	-10.134000	26.384628	0.000180	20.764153
1870.539750	-3.012200	3.369800	-10.149000	26.388698	0.000178	20.764925
1871.541396	-2.994300	3.369200	-10.088000	26.328384	0.000179	20.797242
1872.541351	-2.989200	3.369300	-10.071000	26.376028	0.000179	20.799133
1873.542277	-3.012200	3.368400	-10.146000	26.404258	0.000178	20.766339
1874.541547	-2.983600	3.368300	-10.048000	26.416175	0.000177	20.790171
1875.544422	-2.999800	3.367900	-10.102000	26.435465	0.000176	20.802921
1876.541059	-3.002800	3.368900	-10.115000	26.472806	0.000179	20.793512
1877.541662	-3.009100	3.368100	-10.133000	26.457905	0.000175	20.805087
1878.542616	-3.018200	3.367100	-10.162000	26.423668	0.000174	20.791064
1879.544855	-3.009900	3.366100	-10.131000	26.383469	0.000175	20.811827
1880.541963	-3.005800	3.366900	-10.120000	26.412864	0.000173	20.802964
1881.541850	-3.018300	3.366300	-10.159000	26.456018	0.000175	20.810303
1882.544083	-2.973100	3.366200	-10.008000	26.516967	0.000174	20.780527
1883.541807	-2.988900	3.366500	-10.062000	26.507310	0.000178	20.791210
1884.544734	-2.985600	3.366200	-10.048000	26.478211	0.000175	20.813644
1885.544415	-2.988900	3.365500	-10.058000	26.506216	0.000173	20.784894
1886.543988	-2.988300	3.366500	-10.058000	26.498668	0.000173	20.795799
1887.550177	-3.014900	3.363600	-10.140000	26.509940	0.000175	20.800491
1888.546191	-2.998800	3.364200	-10.088000	26.494716	0.000174	20.790404
1889.553500	-3.000600	3.363300	-10.091000	26.479050	0.000173	20.812116
1890.549242	-2.992900	3.363000	-10.065000	26.517180	0.000174	20.793070
1891.547257	-2.997000	3.362900	-10.077000	26.532278	0.000171	20.799711
1892.543965	-3.012600	3.362900	-10.129000	26.572098	0.000172	20.793271
1893.548492	-2.989200	3.362500	-10.051000	26.586023	0.000170	20.792571
1894.546818	-3.005600	3.361500	-10.103000	26.533046	0.000169	20.798112
1895.546694	-3.006200	3.361100	-10.103000	26.470452	0.000168	20.802525
1896.547525	-3.003000	3.361200	-10.092000	26.519859	0.000168	20.813781
1897.545861	-3.004000	3.361000	-10.096000	26.446467	0.000167	20.810186
1898.545358	-2.992900	3.361200	-10.059000	26.412350	0.000169	20.804819
1899.546555	-2.998600	3.360100	-10.074000	26.422729	0.000170	20.819517
1900.545243	-3.002700	3.361200	-10.091000	26.493539	0.000166	20.807713
1901.544352	-3.008800	3.360700	-10.110000	26.533635	0.000167	20.811506
1902.546685	-2.985900	3.360300	-10.033000	26.497982	0.000164	20.807437
1903.546669	-3.013800	3.357400	-10.118000	26.514764	0.000165	20.808658
1904.548944	-3.016200	3.357800	-10.126000	26.522536	0.000166	20.804617
1905.546488	-3.013000	3.357800	-10.116000	26.495626	0.000166	20.803647
1906.550239	-2.998600	3.357700	-10.067000	26.545474	0.000168	20.810131
1907.550069	-3.008400	3.357600	-10.100000	26.577450	0.000163	20.813825
1908.549740	-3.007700	3.356500	-10.095000	26.584871	0.000166	20.808008
1909.551128	-3.005900	3.357100	-10.090000	26.607068	0.000165	20.823208
1910.548931	-2.987200	3.357300	-10.027000	26.645966	0.000163	20.831966
1911.548329	-3.019000	3.356300	-10.132000	26.591126	0.000164	20.843218
1912.549071	-3.006900	3.356000	-10.091000	26.528665	0.000165	20.806511
1913.549817	-3.000000	3.356700	-10.070000	26.466817	0.000163	20.826847
1914.549917	-2.995100	3.357400	-10.055000	26.462470	0.000162	20.810150
1915.551220	-3.001600	3.355700	-10.072000	26.492014	0.000161	20.812818
1916.553673	-3.004100	3.356100	-10.081000	26.483819	0.000164	20.829236
1917.553186	-2.974200	3.354800	-9.976300	26.534863	0.000161	20.811318
1918.551591	-2.986600	3.354400	-10.017000	26.526545	0.000161	20.814811
1919.552421	-2.975000	3.354300	-9.978200	26.493451	0.000163	20.813788
1920.552059	-2.966900	3.353500	-9.948700	26.522000	0.000160	20.820674
1921.552379	-2.982900	3.354000	-10.003000	26.451288	0.000161	20.809341
1922.553668	-2.984900	3.354500	-10.012000	26.501091	0.000161	20.802028
1923.552106	-3.002100	3.354100	-10.069000	26.563677	0.000161	20.820842
1924.553251	-2.995700	3.353500	-10.046000	26.582397	0.000159	20.822590
1925.554307	-2.996100	3.353900	-10.047000	26.617049	0.000160	20.832767
1926.556256	-2.997000	3.352800	-10.047000	26.627795	0.000157	20.826975
1927.555853	-3.009800	3.353200	-10.092000	26.615708	0.000159	20.822885
1928.556379	-3.008100	3.351100	-10.079000	26.618883	0.000156	20.821810
1929.556264	-3.007900	3.351600	-10.081000	26.587429	0.000158	20.834286
1930.559190	-3.020900	3.350500	-10.121000	26.547711	0.000156	20.823759
1931.559304	-3.009300	3.350800	-10.083000	26.538200	0.000155	20.836009
1932.558040	-3.008200	3.349300	-10.075000	26.502547	0.000155	20.832414
1933.558102	-3.003500	3.350000	-10.061000	26.500112	0.000155	20.829018
1934.560224	-3.019400	3.349600	-10.113000	26.458254	0.000154	20.847162
1935.561365	-3.008200	3.349300	-10.075000	26.463643	0.000154	20.818915
1936.565954	-3.003800	3.349900	-10.062000	26.519578	0.000154	20.808283
1937.562585	-2.980800	3.349500	-9.983400	26.544135	0.000154	20.819690
1938.560117	-3.021800	3.348100	-10.116000	26.619006	0.000154	20.819089
1939.560302	-3.001600	3.349300	-10.052000	26.630776	0.000151	20.825705
1940.572502	-3.017000	3.348700	-10.102000	26.665185	0.000153	20.824735
1941.560418	-3.010000	3.346900	-10.073000	26.642543	0.000152	20.841327
1942.563448	-3.005400	3.346900	-10.057000	26.601061	0.000154	20.840403
1943.564843	-3.001000	3.347700	-10.046000	26.588773	0.000151	20.844171
1944.560725	-2.986700	3.348100	-9.998800	26.588748	0.000149	20.829922
1945.559099	-2.994600	3.347500	-10.024000	26.647114	0.000151	20.835965
1946.563914	-3.010900	3.345000	-10.071000	26.661683	0.000152	20.841128
1947.562010	-2.995400	3.345800	-10.021000	26.695941	0.000151	20.833368
1948.562681	-2.993000	3.345400	-10.012000	26.687901	0.000150	20.823864
1949.564685	-2.999700	3.346400	-10.036000	26.656942	0.000152	20.833991
1950.570440	-2.999900	3.345300	-10.035000	26.661409	0.000152	20.816671
1951.564545	-3.035600	3.344900	-10.153000	26.653665	0.000150	20.834490
1952.566041	-2.998300	3.344900	-10.028000	26.620674	0.000153	20.843524
1953.562161	-2.994100	3.344400	-10.013000	26.590662	0.000151	20.836588
1954.563608	-2.998600	3.344400	-10.027000	26.590262	0.000151	20.836660
1955.565782	-3.005200	3.342800	-10.045000	26.634478	0.000149	20.861193
1956.565585	-3.024800	3.342700	-10.110000	26.637530	0.000150	20.839606
1957.565825	-3.021700	3.342200	-10.098000	26.633754	0.000150	20.830121
1958.570673	-2.987300	3.342600	-9.984900	26.643163	0.000149	20.833889
1959.566073	-3.014100	3.340500	-10.068000	26.629013	0.000151	20.856648
1960.567053	-3.012000	3.341400	-10.063000	26.669178	0.000150	20.834912
1961.570526	-2.980900	3.341700	-9.960600	26.697399	0.000147	20.846214
1962.567210	-3.003100	3.340300	-10.030000	26.666619	0.000146	20.834711
1963.567994	-3.012600	3.341000	-10.064000	26.652195	0.000147	20.835383
1964.572901	-3.001700	3.339000	-10.022000	26.678706	0.000147	20.844017
1965.571023	-3.025300	3.340700	-10.106000	26.646736	0.000147	20.840326
1966.570356	-2.990400	3.339700	-9.986000	26.609049	0.000147	20.840847
1967.573607	-3.017600	3.338200	-10.072000	26.598549	0.000145	20.833611
1968.570915	-3.011900	3.339100	-10.057000	26.656586	0.000145	20.847383
1969.577153	-3.016900	3.339000	-10.072000	26.666019	0.000146	20.864451
1970.579309	-2.991800	3.337400	-9.983900	26.662319	0.000145	20.850302
1971.574335	-2.994800	3.338300	-9.996400	26.661524	0.000145	20.852821
1972.579785	-2.993900	3.337600	-9.991300	26.653130	0.000143	20.851969
1973.580709	-3.003700	3.337700	-10.024000	26.618998	0.000146	20.850373
1974.576181	-2.998400	3.338100	-10.009000	26.629150	0.000142	20.843983
1975.578078	-2.992000	3.336400	-9.981500	26.694163	0.000145	20.852918
1976.581186	-3.004900	3.336400	-10.024000	26.730750	0.000145	20.857458
1977.577486	-2.996100	3.335700	-9.993700	26.688276	0.000143	20.845577
1978.579499	-2.986600	3.334600	-9.958500	26.669185	0.000143	20.849618
1979.582150	-2.987100	3.335500	-9.962900	26.650766	0.000144	20.831102
1980.578142	-3.001900	3.335200	-10.011000	26.686409	0.000143	20.845122
1981.580896	-2.984600	3.336000	-9.954400	26.680453	0.000139	20.847195
1982.583744	-3.012900	3.334900	-10.048000	26.692638	0.000144	20.841902
1983.580868	-2.993100	3.334200	-9.978300	26.742878	0.000141	20.867753
1984.582630	-3.009700	3.333500	-10.032000	26.745655	0.000141	20.849684
1985.580845	-2.994700	3.333800	-9.982600	26.756450	0.000142	20.853899
1986.580886	-3.013500	3.333500	-10.045000	26.722444	0.000139	20.856694
1987.581866	-2.982900	3.334900	-9.946700	26.702559	0.000138	20.883642
1988.581420	-3.027400	3.332200	-10.086000	26.706702	0.000141	20.872161
1989.581505	-3.039400	3.331300	-10.124000	26.684755	0.000137	20.859580
1990.583115	-3.004900	3.333000	-10.015000	26.682819	0.000138	20.867590
1991.580917	-3.001400	3.331600	-9.998500	26.705405	0.000138	20.840038
1992.581738	-2.982700	3.330300	-9.932700	26.732063	0.000139	20.874424
1993.581998	-3.009800	3.331000	-10.025000	26.758646	0.000137	20.867011
1994.583283	-2.977400	3.331100	-9.917200	26.771352	0.000136	20.850389
1995.582497	-2.981300	3.330800	-9.929300	26.744791	0.000136	20.863513
1996.580994	-3.009100	3.330400	-10.021000	26.704204	0.000135	20.875339
1997.583147	-3.014900	3.330000	-10.039000	26.720958	0.000133	20.862786
1998.580970	-2.986600	3.329800	-9.944200	26.736667	0.000136	20.868147
1999.583344	-2.977100	3.330000	-9.912500	26.748057	0.000135	20.858262
2000.581486	-2.983200	3.328400	-9.928700	26.767840	0.000135	20.856815
2001.581983	-3.006800	3.328000	-10.006000	26.726461	0.000133	20.871163
2002.580934	-2.982000	3.328300	-9.924000	26.704665	0.000132	20.872957
2003.581401	-2.980700	3.328200	-9.919200	26.661842	0.000132	20.869261
2004.582033	-2.999700	3.327000	-9.978900	26.674006	0.000131	20.886704
2005.582250	-3.000500	3.327900	-9.984600	26.668765	0.000133	20.879066
2006.582153	-2.987000	3.326500	-9.935400	26.671595	0.000129	20.864368
2007.581389	-2.992400	3.326700	-9.952800	26.754503	0.000131	20.870906
2008.584311	-2.990500	3.325600	-9.944900	26.777516	0.000130	20.882189
2009.583469	-3.007900	3.326000	-10.003000	26.744769	0.000129	20.898102
2010.582638	-3.000300	3.325100	-9.975300	26.730275	0.000128	20.869782
2011.581981	-2.976700	3.325000	-9.895400	26.775078	0.000126	20.890643
2012.581441	-2.990400	3.324800	-9.941700	26.786520	0.000128	20.889819
2013.586352	-3.001700	3.325200	-9.980200	26.859541	0.000129	20.880262
2014.583370	-3.002600	3.324500	-9.981100	26.838567	0.000131	20.884777
2015.583739	-2.993600	3.323200	-9.947200	26.810916	0.000129	20.903915
2016.583323	-2.997000	3.323100	-9.958100	26.733475	0.000126	20.897179
2017.582645	-3.021300	3.323000	-10.039000	26.739384	0.000126	20.878465
2018.583043	-2.991700	3.322400	-9.938600	26.729008	0.000126	20.894585
2019.588995	-3.010200	3.321200	-9.995800	26.720048	0.000127	20.914497
2020.585232	-3.003900	3.321600	-9.976900	26.675911	0.000127	20.900947
2021.582704	-3.003000	3.321800	-9.973300	26.687085	0.000128	20.906490
2022.587190	-3.000400	3.321600	-9.964900	26.704358	0.000127	20.890191
2023.584850	-2.992700	3.321100	-9.938400	26.708877	0.000127	20.883355
2024.584768	-3.003200	3.321400	-9.973700	26.733500	0.000127	20.882980
2025.586902	-2.996700	3.320600	-9.950000	26.790290	0.000126	20.902143
2026.584159	-2.996600	3.320200	-9.947800	26.851768	0.000126	20.883826
2027.583449	-2.998700	3.320400	-9.955600	26.838465	0.000128	20.900795
2028.588268	-3.013400	3.319200	-10.001000	26.842235	0.000126	20.886095
2029.584739	-3.003300	3.318500	-9.965900	26.849259	0.000126	20.893157
2030.586074	-2.994900	3.319200	-9.939700	26.799445	0.000127	20.892382
2031.587267	-2.988500	3.319100	-9.917900	26.837791	0.000124	20.905806
2032.585765	-2.986400	3.318700	-9.910000	26.856404	0.000124	20.896547
2033.587538	-3.009500	3.317800	-9.983900	26.858362	0.000125	20.904679
2034.589788	-2.984900	3.317700	-9.902200	26.884221	0.000125	20.913610
2035.586253	-3.014700	3.316800	-9.997400	26.864415	0.000124	20.908395
2036.586053	-3.013600	3.316800	-9.995000	26.888089	0.000123	20.900431
2037.594118	-2.980000	3.315500	-9.878400	26.903697	0.000121	20.927502
2038.588821	-2.973600	3.315600	-9.858800	26.956207	0.000124	20.887848
2039.588322	-3.003100	3.315300	-9.955200	27.009139	0.000123	20.919738
2040.589463	-2.993000	3.315800	-9.923000	26.971589	0.000123	20.899996
2041.588461	-3.018100	3.314800	-10.004000	26.956799	0.000122	20.906934
2042.588493	-2.998900	3.314800	-9.940300	26.970791	0.000123	20.920055
2043.592088	-3.006900	3.314900	-9.966900	26.903881	0.000122	20.930058
2044.589337	-3.006700	3.313000	-9.959800	26.866774	0.000121	20.926885
2045.591347	-3.002900	3.313700	-9.949600	26.875385	0.000119	20.905675
2046.593883	-3.003900	3.313600	-9.953100	26.899333	0.000119	20.906047
2047.591626	-3.001800	3.314400	-9.948200	26.925216	0.000121	20.908839
2048.591509	-3.000400	3.312400	-9.937500	26.987503	0.000119	20.925006
2049.593975	-3.004300	3.311500	-9.947800	27.025220	0.000119	20.915047
2050.593755	-3.000700	3.312900	-9.939900	26.988539	0.000115	20.923203
2051.593634	-2.994300	3.312000	-9.916400	26.957368	0.000117	20.916988
2052.594769	-3.012800	3.310900	-9.974500	26.965904	0.000116	20.937898
2053.594772	-3.016900	3.309800	-9.984600	26.994014	0.000115	20.916382
2054.595571	-3.011200	3.312200	-9.973100	27.022233	0.000117	20.927214
2055.596746	-3.008300	3.310700	-9.958300	27.025580	0.000115	20.918253
2056.594887	-2.994000	3.310300	-9.910000	27.053989	0.000114	20.937813
2057.594952	-3.006900	3.310100	-9.951400	27.072202	0.000115	20.921043
2058.600305	-2.983300	3.308500	-9.869900	27.088999	0.000112	20.940305
2059.595119	-2.995300	3.309000	-9.910700	26.999714	0.000115	20.941551
2060.598188	-3.004600	3.309200	-9.941400	27.017381	0.000113	20.922810
2061.603323	-2.973200	3.309100	-9.837500	27.032691	0.000110	20.937731
2062.596214	-2.997700	3.307800	-9.915000	27.034476	0.000111	20.930043
2063.596896	-2.987800	3.309400	-9.886700	27.051972	0.000110	20.938155
2064.599719	-2.994600	3.308400	-9.906200	27.038692	0.000110	20.917689
2065.597442	-3.034300	3.306700	-10.032000	27.046734	0.000109	20.935258
2066.602937	-2.987900	3.306000	-9.876700	27.055196	0.000109	20.934285
2067.603693	-2.987900	3.305900	-9.876400	27.034898	0.000109	20.934734
2068.600713	-2.982700	3.307300	-9.863400	27.007702	0.000108	20.940575
2069.598858	-2.991500	3.307100	-9.892000	27.015517	0.000108	20.917143
2070.603890	-2.989400	3.306000	-9.881600	27.006584	0.000106	20.937080
2071.599706	-3.007900	3.305300	-9.941400	26.979612	0.000105	20.952154
2072.599325	-3.008400	3.305100	-9.941400	27.012888	0.000106	20.917344
2073.602658	-3.009300	3.305300	-9.945500	27.031973	0.000109	20.934638
2074.599925	-3.015900	3.303200	-9.961000	27.091304	0.000106	20.926504
2075.601871	-3.015300	3.302900	-9.957900	27.072424	0.000105	20.926007
2076.603576	-3.023800	3.303200	-9.987300	27.074408	0.000104	20.928477
2077.601555	-2.990600	3.303100	-9.877300	27.084931	0.000105	20.939533
2078.602121	-3.004800	3.301000	-9.917700	27.094138	0.000106	20.920820
2079.604956	-3.002100	3.301800	-9.911600	27.113095	0.000105	20.946046
2080.601599	-2.991800	3.301900	-9.877900	27.111730	0.000106	20.939458
2081.602028	-2.999800	3.300800	-9.901400	27.068306	0.000102	20.916178
2082.606720	-3.001700	3.300200	-9.905900	27.050242	0.000104	20.917925
2083.601583	-2.969600	3.301900	-9.804600	27.074710	0.000103	20.929728
2084.601709	-3.006500	3.300400	-9.920600	27.108008	0.000103	20.909166
2085.606309	-2.999400	3.298800	-9.893500	27.117886	0.000103	20.920996
2086.603849	-3.027500	3.299700	-9.988700	27.129700	0.000102	20.901585
2087.605825	-3.003300	3.299100	-9.907600	27.068882	0.000101	20.898740
2088.608720	-3.030300	3.298200	-9.993200	27.076475	0.000101	20.904953
2089.603129	-2.997500	3.299300	-9.887900	27.114490	0.000102	20.891031
2090.604445	-3.000600	3.298700	-9.897900	27.141064	0.000101	20.906376
2091.608332	-2.967700	3.298100	-9.786600	27.109973	0.000100	20.917305
2092.603988	-2.978100	3.298900	-9.823300	27.131336	0.000101	20.909868
2093.609008	-3.010000	3.297100	-9.922900	27.080794	9.753865E-5	20.903608
2094.609526	-3.009200	3.297900	-9.923100	27.043548	0.000100	20.910720
2095.609215	-3.007000	3.297600	-9.915400	27.051363	0.000100	20.919527
2096.608212	-2.999100	3.296200	-9.885100	27.043123	9.971681E-5	20.911241
2097.608428	-3.017300	3.295400	-9.942000	27.050047	9.875974E-5	20.903980
2098.607860	-3.016800	3.295400	-9.940900	27.112380	9.826471E-5	20.888908
2099.608299	-2.993100	3.296000	-9.864900	27.101711	0.000101	20.879602
2100.607613	-2.994800	3.295500	-9.868300	27.090967	9.918877E-5	20.891080
2101.607469	-2.985000	3.295400	-9.836200	27.100072	9.978282E-5	20.903082
2102.608842	-2.975500	3.294700	-9.802400	27.094264	9.922178E-5	20.886336
2103.608768	-2.999300	3.294000	-9.878900	27.122305	9.829771E-5	20.880873
2104.608585	-2.993000	3.293200	-9.855900	27.153318	9.879274E-5	20.894995
2105.610043	-2.991500	3.293600	-9.851300	27.208623	9.635057E-5	20.893721
2106.608592	-3.058700	3.290700	-10.064000	27.263727	9.734064E-5	20.884189
2107.610588	-3.020800	3.291400	-9.941500	27.301212	9.740664E-5	20.896764
2108.611630	-3.016000	3.292400	-9.928900	27.279279	9.730764E-5	20.886557
2109.609025	-3.012100	3.292200	-9.915700	27.240626	9.757165E-5	20.901255
2110.607591	-3.002600	3.290900	-9.880700	27.214151	9.654858E-5	20.906393
2111.610400	-2.999300	3.290500	-9.868400	27.215491	9.404040E-5	20.889724
2112.609149	-2.992500	3.290100	-9.845300	27.213230	9.575652E-5	20.883658
2113.610078	-2.968300	3.291200	-9.768500	27.216527	9.344635E-5	20.886025
2114.610590	-2.991800	3.290300	-9.841900	27.213576	9.298432E-5	20.884953
2115.612520	-2.998400	3.288900	-9.860400	27.189580	9.512948E-5	20.885000
2116.611160	-3.006100	3.289000	-9.886000	27.211189	9.202725E-5	20.886346
2117.609663	-2.988200	3.288200	-9.825100	27.240191	9.460144E-5	20.878060
2118.611355	-3.021700	3.288500	-9.936000	27.235477	9.232427E-5	20.887068
2119.610807	-3.009600	3.288000	-9.895000	27.263289	9.255529E-5	20.880904
2120.610742	-3.026500	3.288400	-9.951500	27.275444	8.994810E-5	20.878906
2121.614533	-2.996900	3.286600	-9.848100	27.325707	9.001410E-5	20.873517
2122.612197	-2.992800	3.285900	-9.832700	27.306601	9.054214E-5	20.907400
2123.614565	-2.978100	3.287400	-9.789100	27.272514	9.163122E-5	20.891605
2124.612118	-2.989100	3.286400	-9.821200	27.188060	9.116919E-5	20.888686
2125.615064	-2.985300	3.286100	-9.808700	27.262464	9.149921E-5	20.864429
2126.614970	-3.005300	3.285200	-9.871100	27.273380	9.050914E-5	20.873986
2127.614311	-2.981700	3.285500	-9.795400	27.283082	8.951907E-5	20.873787
2128.615189	-2.986600	3.285800	-9.812100	27.300742	8.816597E-5	20.882542
2129.617005	-2.967000	3.284700	-9.744600	27.326642	8.951907E-5	20.873035
2130.614677	-3.018300	3.283900	-9.909800	27.351350	8.948606E-5	20.874182
2131.615916	-2.993400	3.286400	-9.836500	27.336711	8.978309E-5	20.880318
2132.613719	-3.042100	3.282000	-9.983100	27.305228	8.674686E-5	20.876624
2133.618162	-2.999200	3.282500	-9.844100	27.316517	8.942006E-5	20.878496
2134.619365	-2.986700	3.283400	-9.805700	27.267565	8.687887E-5	20.893740
2135.615094	-2.980000	3.281000	-9.776400	27.283938	8.922204E-5	20.865640
2136.625974	-2.989100	3.281600	-9.807700	27.282370	9.080616E-5	20.871175
2137.619475	-2.985600	3.282900	-9.800600	27.302467	8.796795E-5	20.877639
2138.619112	-3.003000	3.281900	-9.854400	27.213449	8.773694E-5	20.868231
2139.621215	-2.986900	3.280600	-9.797900	27.198383	8.846299E-5	20.863036
2140.620996	-2.990900	3.280400	-9.810700	27.272842	8.476672E-5	20.872022
2141.617555	-3.003300	3.278600	-9.845700	27.341831	8.308360E-5	20.870296
2142.621399	-2.995300	3.279400	-9.821400	27.352672	8.793495E-5	20.867452
2143.619901	-3.003600	3.280000	-9.850200	27.306257	8.367764E-5	20.892357
2144.619957	-2.988500	3.279700	-9.800500	27.270754	8.592180E-5	20.863758
2145.621016	-3.017600	3.278600	-9.892600	27.291070	8.460171E-5	20.870917
2146.621215	-2.984500	3.278600	-9.784200	27.274670	8.625183E-5	20.858215
2147.621711	-2.994200	3.278700	-9.816000	27.263034	8.423868E-5	20.870217
2148.622585	-3.003200	3.277800	-9.842900	27.267720	8.460171E-5	20.864026
2149.624257	-3.022100	3.276500	-9.901000	27.284789	8.321561E-5	20.856539
2150.621884	-2.985400	3.278100	-9.785100	27.303567	8.496473E-5	20.875427
2151.624011	-2.969300	3.276200	-9.727600	27.303814	8.202752E-5	20.866667
2152.625962	-2.992100	3.275300	-9.799700	27.258959	8.357863E-5	20.859007
2153.623591	-2.991500	3.274600	-9.794700	27.338791	8.229154E-5	20.843532
2154.626323	-2.990600	3.274900	-9.792000	27.373149	8.232454E-5	20.863869
2155.626920	-3.031100	3.275000	-9.926200	27.351665	7.994837E-5	20.874973
2156.626223	-3.006100	3.274300	-9.842000	27.247145	8.011338E-5	20.872252
2157.625996	-2.994800	3.275100	-9.806600	27.240096	8.176350E-5	20.857577
2158.626451	-3.002800	3.274200	-9.830600	27.288945	7.971735E-5	20.858349
2159.625968	-3.014000	3.272000	-9.861400	27.277829	7.836425E-5	20.859021
2160.626649	-2.992400	3.272900	-9.793000	27.294078	7.899130E-5	20.862564
2161.627565	-3.029400	3.272000	-9.911000	27.325857	7.988236E-5	20.870348
2162.627139	-2.992600	3.271200	-9.788800	27.290899	7.737418E-5	20.863634
2163.627474	-3.016400	3.271400	-9.865800	27.320422	7.526202E-5	20.867253
2164.629252	-2.982700	3.272200	-9.758300	27.382467	7.562505E-5	20.869924
2165.627243	-2.975100	3.271500	-9.731700	27.393606	7.486600E-5	20.851259
2166.627043	-2.965300	3.272000	-9.701300	27.339225	7.651612E-5	20.849184
2167.627254	-2.998100	3.270300	-9.803200	27.358969	7.803423E-5	20.844864
2168.627194	-2.993300	3.270300	-9.787500	27.422325	7.539403E-5	20.864976
2169.627146	-2.999800	3.269200	-9.805800	27.400173	7.555905E-5	20.877778
2170.628292	-3.001300	3.270200	-9.813700	27.384520	7.291885E-5	20.844964
2171.628638	-3.023900	3.269000	-9.883800	27.333440	7.308386E-5	20.852848
2172.630290	-2.979500	3.268200	-9.736800	27.317389	7.384292E-5	20.858512
2173.628630	-3.022300	3.268000	-9.876000	27.325553	7.380992E-5	20.862931
2174.626627	-2.995800	3.267900	-9.789400	27.316200	7.470098E-5	20.831239
2175.627688	-3.015500	3.267100	-9.850800	27.374995	7.222580E-5	20.854347
2176.628425	-3.012300	3.267900	-9.843500	27.460996	7.367791E-5	20.853622
2177.629857	-2.996300	3.267700	-9.790500	27.487712	7.209379E-5	20.857740
2178.628425	-2.990900	3.267200	-9.771100	27.522562	7.235781E-5	20.856767
2179.628354	-3.002900	3.265700	-9.805400	27.538883	7.034466E-5	20.859438
2180.631392	-2.995000	3.265000	-9.776900	27.570134	7.057568E-5	20.854846
2181.634397	-3.008300	3.263700	-9.816000	27.568896	7.380992E-5	20.845540
2182.633277	-3.009800	3.263300	-9.820900	27.536204	7.384292E-5	20.859587
2183.631817	-3.007600	3.262900	-9.812500	27.534469	7.077370E-5	20.853101
2184.631543	-3.001000	3.263100	-9.791100	27.530003	6.922258E-5	20.857616
2185.635845	-2.999500	3.263800	-9.788900	27.515643	7.021265E-5	20.851703
2186.631836	-3.031600	3.262900	-9.890300	27.514328	6.905757E-5	20.848010
2187.632018	-2.991200	3.262000	-9.756400	27.474368	6.852953E-5	20.832462
2188.633669	-3.028900	3.261200	-9.876800	27.487070	6.895856E-5	20.825328
2189.634063	-2.999800	3.262300	-9.785200	27.535338	7.199478E-5	20.842596
2190.634371	-2.998300	3.259800	-9.773000	27.512591	6.895856E-5	20.848633
2191.634458	-2.988900	3.261700	-9.748400	27.512199	6.866154E-5	20.828798
2192.634962	-2.998900	3.261300	-9.779300	27.522937	6.704442E-5	20.836283
2193.634659	-2.996300	3.259500	-9.765700	27.510985	6.661539E-5	20.832793
2194.639130	-2.986100	3.259800	-9.733100	27.454902	6.493227E-5	20.829474
2195.633647	-2.994900	3.260000	-9.762000	27.458127	6.625236E-5	20.832718
2196.634078	-3.003500	3.258600	-9.786900	27.512399	6.483326E-5	20.839905
2197.634542	-2.997900	3.258700	-9.768800	27.465843	6.602135E-5	20.841903
2198.634300	-2.990700	3.258200	-9.743900	27.513122	6.621936E-5	20.840158
2199.632910	-3.002500	3.257200	-9.779200	27.532123	6.621936E-5	20.827508
2200.635791	-2.998100	3.258500	-9.769100	27.540852	6.592234E-5	20.811161
2201.634860	-3.008100	3.257000	-9.796400	27.547576	6.674740E-5	20.829779
2202.635086	-2.985900	3.257700	-9.726500	27.527262	6.433822E-5	20.826885
2203.636692	-3.032800	3.255400	-9.872200	27.477156	6.486626E-5	20.828630
2204.636056	-3.014000	3.254300	-9.807600	27.468029	6.522929E-5	20.848370
2205.635339	-2.991000	3.255700	-9.736600	27.492267	6.473425E-5	20.820599
2206.635670	-3.003800	3.255100	-9.776900	27.499558	6.338115E-5	20.839788
2207.638062	-2.995800	3.256000	-9.753200	27.495591	6.546031E-5	20.829633
2208.635875	-2.990700	3.254000	-9.731300	27.476468	6.493227E-5	20.834101
2209.637050	-3.016400	3.253100	-9.811800	27.443304	6.192905E-5	20.830608
2210.634473	-3.001200	3.253600	-9.764000	27.405103	6.074096E-5	20.818256
2211.635170	-3.024400	3.252300	-9.834700	27.389125	6.381019E-5	20.823044
2212.636437	-2.991700	3.252000	-9.728100	27.382951	6.176404E-5	20.816833
2213.636277	-2.976900	3.253800	-9.685000	27.356953	6.268810E-5	20.821026
2214.636995	-3.003500	3.250500	-9.761600	27.399077	6.344716E-5	20.827366
2215.638722	-2.988600	3.252000	-9.717000	27.408797	6.216006E-5	20.831455
2216.637708	-2.969900	3.253000	-9.660500	27.425247	6.255609E-5	20.811968
2217.636625	-3.000300	3.250300	-9.750700	27.465505	6.318314E-5	20.827339
2218.640290	-2.980100	3.252200	-9.690200	27.461090	6.176404E-5	20.811518
2219.643571	-2.984100	3.250400	-9.698200	27.442833	6.179704E-5	20.827763
2220.637677	-2.980500	3.249500	-9.683700	27.451837	6.143401E-5	20.819753
2221.641590	-3.002200	3.249300	-9.754700	27.448735	6.123600E-5	20.820899
2222.638154	-2.992900	3.249400	-9.724100	27.514294	6.008091E-5	20.827587
2223.638371	-2.994600	3.247400	-9.723600	27.546710	6.116999E-5	20.820373
2224.642763	-2.995200	3.248200	-9.727800	27.588010	6.093898E-5	20.826840
2225.639055	-3.001400	3.246400	-9.742500	27.621489	6.143401E-5	20.824492
2226.637961	-3.015400	3.245700	-9.786100	27.655291	5.843079E-5	20.810141
2227.641914	-3.003600	3.246000	-9.748900	27.632599	5.823278E-5	20.823342
2228.640043	-2.992200	3.247500	-9.715500	27.584856	6.054295E-5	20.811814
2229.642203	-3.013900	3.244100	-9.775800	27.613824	5.836479E-5	20.813934
2230.643445	-2.984500	3.247200	-9.690900	27.651248	5.876082E-5	20.804649
2231.649315	-2.978900	3.245200	-9.666200	27.643634	5.945387E-5	20.795092
2232.642673	-3.009100	3.243200	-9.758300	27.672400	5.615362E-5	20.818822
2233.644405	-2.996900	3.241900	-9.715300	27.713690	5.925585E-5	20.799679
2234.644678	-3.004200	3.244000	-9.744000	27.782458	5.744072E-5	20.794441
2235.642754	-2.991900	3.243900	-9.704000	27.789647	5.730871E-5	20.829650
2236.646729	-2.992000	3.241900	-9.699000	27.744240	5.823278E-5	20.792964
2237.646501	-3.017500	3.240400	-9.776900	27.702774	5.734171E-5	20.810505
2238.646041	-2.992700	3.242100	-9.701200	27.689208	5.757273E-5	20.797803
2239.649860	-3.016400	3.241100	-9.775900	27.740542	5.813377E-5	20.821485
2240.645665	-3.009100	3.241100	-9.751100	27.711726	5.470152E-5	20.804341
2241.647468	-2.996800	3.240200	-9.709400	27.690421	5.612062E-5	20.799024
2242.649328	-3.026500	3.238200	-9.799400	27.639208	5.704469E-5	20.804389
2243.645787	-3.009200	3.238700	-9.745400	27.534242	5.760573E-5	20.814467
2244.648688	-2.979000	3.240100	-9.651200	27.555224	5.453651E-5	20.792431
2245.647856	-2.988800	3.238600	-9.678900	27.609568	5.450350E-5	20.799694
2246.650164	-3.011900	3.237700	-9.750800	27.649718	5.539457E-5	20.803584
2247.648590	-3.014100	3.236700	-9.755600	27.665216	5.331542E-5	20.795946
2248.648273	-3.001500	3.237600	-9.717200	27.644063	5.394246E-5	20.782247
2249.648600	-3.001300	3.236700	-9.713100	27.695050	5.407447E-5	20.808897
2250.646972	-2.991200	3.235800	-9.678500	27.632428	5.602162E-5	20.793299
2251.648273	-2.979500	3.236400	-9.642200	27.669950	5.516355E-5	20.812563
2252.647509	-3.017700	3.233800	-9.758000	27.666403	5.443750E-5	20.791924
2253.647099	-2.996300	3.234600	-9.690900	27.728005	5.367844E-5	20.804602
2254.649478	-3.006900	3.234100	-9.723800	27.704594	5.064222E-5	20.801906
2255.647533	-3.020600	3.233300	-9.764900	27.736408	5.255636E-5	20.793143
2256.650621	-2.996200	3.234100	-9.689300	27.637901	5.305140E-5	20.800702
2257.651402	-3.008900	3.236000	-9.736000	27.606726	5.255636E-5	20.805843
2258.660595	-2.989800	3.233800	-9.666300	27.595687	5.308440E-5	20.796159
2259.648911	-2.976400	3.232400	-9.620000	27.606055	5.143428E-5	20.815125
2260.648861	-3.017400	3.232500	-9.753000	27.627331	5.285338E-5	20.783903
2261.649862	-2.997600	3.231100	-9.684400	27.635044	5.239135E-5	20.788344
2262.659091	-2.993000	3.231500	-9.670500	27.672987	5.341442E-5	20.801869
2263.654003	-3.031000	3.229500	-9.787900	27.688090	5.143428E-5	20.801894
2264.652302	-2.995600	3.230200	-9.675600	27.747802	5.245735E-5	20.784695
2265.652123	-2.980600	3.229500	-9.625100	27.785769	5.008118E-5	20.799670
2266.654808	-3.004900	3.227900	-9.699100	27.743759	4.915711E-5	20.797696
2267.652006	-3.009300	3.228700	-9.715500	27.714373	4.998217E-5	20.774289
2268.654287	-3.014600	3.228200	-9.731300	27.713851	4.909111E-5	20.776607
2269.653861	-3.004700	3.227900	-9.697600	27.736664	4.886009E-5	20.780599
2270.653312	-3.016500	3.227200	-9.734000	27.668616	5.014718E-5	20.779452
2271.652829	-3.001500	3.227400	-9.686600	27.700879	5.064222E-5	20.789159
2272.657398	-2.985700	3.229100	-9.639500	27.713601	4.763900E-5	20.773037
2273.658058	-2.988000	3.227100	-9.641500	27.732520	4.955314E-5	20.784015
2274.657517	-3.017100	3.224900	-9.729000	27.664025	4.925612E-5	20.791428
2275.656527	-2.981100	3.226200	-9.616800	27.647977	4.862907E-5	20.781443
2276.657755	-2.982800	3.225300	-9.619500	27.666082	4.714396E-5	20.784964
2277.657842	-3.004500	3.225800	-9.691400	27.694505	4.681394E-5	20.782270
2278.659845	-3.008400	3.224500	-9.699900	27.671515	4.737498E-5	20.784740
2279.656597	-2.992600	3.224500	-9.649400	27.669852	4.697895E-5	20.784964
2280.656789	-2.998600	3.225500	-9.671300	27.677443	4.608789E-5	20.785016
2281.661357	-3.030300	3.223900	-9.768500	27.625632	4.720997E-5	20.774607
2282.659162	-3.005500	3.222300	-9.683300	27.671983	4.895910E-5	20.773832
2283.658817	-2.979500	3.222900	-9.600900	27.722228	4.760600E-5	20.799263
2284.663868	-3.001500	3.221400	-9.668100	27.754613	4.645091E-5	20.776851
2285.659161	-3.000900	3.221900	-9.667700	27.790123	4.691295E-5	20.782240
2286.662809	-3.000100	3.221800	-9.665000	27.841551	4.701195E-5	20.772357
2287.663211	-3.004500	3.219900	-9.673400	27.773929	4.744099E-5	20.784435
2288.659837	-3.027300	3.218900	-9.743800	27.728376	4.480079E-5	20.785060
2289.662582	-2.996400	3.220200	-9.648700	27.777251	4.687994E-5	20.789201
2290.665629	-3.013100	3.219400	-9.699800	27.766588	4.552685E-5	20.769935
2291.668330	-2.981600	3.219100	-9.595800	27.816083	4.661593E-5	20.771382
2292.662030	-2.985900	3.220000	-9.614000	27.882361	4.473479E-5	20.788300
2293.665937	-3.033200	3.217800	-9.759700	27.829598	4.658292E-5	20.783087
2294.661247	-2.978800	3.218200	-9.585700	27.785357	4.344769E-5	20.781712
2295.664942	-2.991000	3.216000	-9.618200	27.823049	4.526283E-5	20.793566
2296.663694	-3.011700	3.216900	-9.687200	27.752749	4.348070E-5	20.756007
2297.661486	-3.020000	3.214700	-9.707200	27.714135	4.427275E-5	20.774048
2298.666698	-2.995500	3.216200	-9.632300	27.750539	4.579087E-5	20.783656
2299.665381	-3.012400	3.213900	-9.680800	27.802837	4.595588E-5	20.781759
2300.663280	-2.998000	3.213800	-9.634300	27.855330	4.414074E-5	20.756353
2301.665222	-2.987300	3.213800	-9.599500	27.854511	4.377772E-5	20.772124
2302.665963	-2.993900	3.213600	-9.620800	27.837894	4.183057E-5	20.770573
2303.663445	-3.016200	3.212900	-9.689900	27.847639	4.242462E-5	20.771372
2304.667705	-3.002300	3.211800	-9.641400	27.873474	4.288665E-5	20.780779
2305.671324	-2.986400	3.212500	-9.592900	27.905534	4.344769E-5	20.785071
2306.666079	-3.013600	3.212100	-9.679400	27.865340	4.235861E-5	20.803886
2307.669169	-3.020300	3.212300	-9.701000	27.886885	4.159956E-5	20.759188
2308.667703	-2.994600	3.211700	-9.616400	27.838062	4.008145E-5	20.786863
2309.666975	-3.004700	3.210000	-9.644300	27.808230	4.044447E-5	20.773910
2310.666589	-3.005500	3.209000	-9.644100	27.787620	3.843133E-5	20.781618
2311.667311	-3.000200	3.210300	-9.630500	27.845647	4.027946E-5	20.765099
2312.669092	-2.992800	3.209300	-9.604500	27.906171	4.136854E-5	20.762478
2313.666552	-3.011200	3.207900	-9.659000	27.904136	3.991643E-5	20.777500
2314.667177	-3.022100	3.206600	-9.689600	27.882465	3.955341E-5	20.787931
2315.666314	-2.995900	3.206700	-9.605900	27.927242	3.945440E-5	20.776574
2316.665779	-3.022600	3.206200	-9.690200	27.934780	3.859634E-5	20.750969
2317.665281	-3.010300	3.205900	-9.649600	27.913008	3.932239E-5	20.763196
2318.668965	-3.010000	3.204900	-9.645400	27.968471	3.932239E-5	20.774923
2319.667747	-3.042000	3.204400	-9.746900	28.025469	3.803530E-5	20.782510
2320.667886	-2.991800	3.205000	-9.588100	28.043788	3.777128E-5	20.780087
2321.667689	-2.994900	3.204600	-9.597000	28.087421	3.839832E-5	20.766162
2322.668908	-2.989600	3.205000	-9.581100	28.085657	3.711123E-5	20.790941
2323.670266	-3.011000	3.202900	-9.642800	28.075196	3.846433E-5	20.788945
2324.669197	-2.996700	3.203100	-9.598200	28.080079	3.777128E-5	20.787222
2325.669644	-2.976400	3.204600	-9.537100	28.093167	3.546111E-5	20.780956
2326.669132	-2.987600	3.202700	-9.567500	28.081019	3.935539E-5	20.761615
2327.669907	-2.985900	3.201900	-9.559900	28.005207	3.625317E-5	20.784873
2328.670462	-2.993800	3.201300	-9.583000	28.056052	3.582413E-5	20.775363
2329.670808	-2.986600	3.200100	-9.556700	27.995684	3.767227E-5	20.778134
2330.672681	-2.989600	3.201000	-9.568400	28.021168	3.483406E-5	20.775810
2331.674843	-3.001500	3.202600	-9.611600	28.033539	3.387699E-5	20.763606
2332.673081	-3.000500	3.198100	-9.594900	28.029248	3.377798E-5	20.791055
2333.672781	-2.975900	3.199900	-9.521700	27.989258	3.384399E-5	20.767871
2334.671335	-2.984700	3.198600	-9.546300	27.896600	3.285392E-5	20.787458
2335.671854	-2.984900	3.198200	-9.545400	27.920207	3.288692E-5	20.775656
2336.672073	-2.997300	3.196500	-9.580600	27.927221	3.235888E-5	20.779398
2337.671981	-2.964100	3.196300	-9.473200	27.887947	3.113779E-5	20.783017
2338.677983	-3.003500	3.195000	-9.595600	27.892286	3.110479E-5	20.786910
2339.676043	-3.025300	3.194700	-9.663900	27.895036	3.110479E-5	20.785885
2340.675947	-3.000600	3.194600	-9.585300	27.975765	3.123680E-5	20.773730
2341.675570	-3.017300	3.195000	-9.639500	28.044958	3.100578E-5	20.792171
2342.674685	-2.995300	3.192700	-9.561700	28.025820	3.100578E-5	20.779544
2343.674912	-3.013300	3.192700	-9.620000	27.992052	3.070876E-5	20.780168
2344.676077	-2.997600	3.192900	-9.570300	28.047735	3.018072E-5	20.790224
2345.676165	-3.001500	3.192100	-9.580000	28.082963	3.186384E-5	20.769736
2346.675246	-3.030600	3.191400	-9.670900	28.015753	3.153382E-5	20.769411
2347.676990	-3.026000	3.190000	-9.651000	28.020042	3.526309E-5	20.786056
2348.676595	-2.997200	3.190800	-9.562200	28.078150	3.100578E-5	20.784805
2349.676594	-2.989200	3.190000	-9.535100	28.001494	3.298593E-5	20.783981
2350.678339	-2.990300	3.188400	-9.533200	27.958701	3.034573E-5	20.783107
2351.679317	-2.997800	3.187500	-9.555000	27.992319	3.093978E-5	20.787074
2352.684315	-3.021300	3.186600	-9.627400	28.027549	3.443803E-5	20.779863
2353.680130	-3.019300	3.188400	-9.625600	28.104894	3.206186E-5	20.812676
2354.680003	-2.977900	3.188700	-9.495000	28.046263	3.084077E-5	20.770251
2355.681781	-2.994500	3.186700	-9.542100	28.002952	2.981769E-5	20.797303
2356.678474	-3.007300	3.186900	-9.582700	28.024297	3.133580E-5	20.812150
2357.678469	-3.002000	3.185600	-9.561800	28.041797	3.031273E-5	20.785670
2358.681329	-3.031500	3.182800	-9.647600	28.054441	3.054375E-5	20.786544
2359.681153	-2.994300	3.183500	-9.531300	28.056251	2.971869E-5	20.789314
2360.682069	-3.023200	3.185000	-9.627200	28.044897	2.952067E-5	20.776462
2361.680768	-2.999300	3.181600	-9.541600	28.041773	2.810157E-5	20.790861
2362.681011	-3.015500	3.182400	-9.595300	28.003021	3.001571E-5	20.788838
2363.680938	-2.997300	3.181600	-9.535700	28.024985	2.899263E-5	20.780601
2364.689669	-3.006100	3.180400	-9.559900	27.995931	2.859660E-5	20.780278
2365.680267	-3.011500	3.181200	-9.579600	27.924946	2.691348E-5	20.808402
2366.682219	-3.020300	3.179400	-9.602000	27.966229	2.780454E-5	20.803487
2367.681089	-2.984200	3.178600	-9.484700	27.988739	2.872861E-5	20.802911
2368.683522	-2.997200	3.178800	-9.526600	28.065098	2.668246E-5	20.804857
2369.682779	-2.993800	3.178900	-9.515400	28.042934	2.651745E-5	20.780651
2370.684199	-2.978200	3.178700	-9.466100	28.126231	2.648445E-5	20.780102
2371.683013	-3.002300	3.177900	-9.539700	28.174792	2.724350E-5	20.790109
2372.687523	-2.975800	3.177000	-9.453400	28.220055	2.826658E-5	20.808176
2373.686729	-3.009500	3.175100	-9.554600	28.220676	2.780454E-5	20.813543
2374.686647	-2.998000	3.175300	-9.519100	28.162349	2.796956E-5	20.803661
2375.686591	-3.015000	3.174400	-9.570300	28.028083	2.915764E-5	20.775658
2376.684399	-2.991700	3.174900	-9.497900	27.941878	2.750752E-5	20.794625
2377.684308	-3.000800	3.174100	-9.524100	28.002498	2.572539E-5	20.804433
2378.682860	-3.009400	3.172400	-9.546200	28.012465	2.763953E-5	20.796447
2379.683678	-3.031200	3.170600	-9.609500	28.046380	2.648445E-5	20.803559
2380.682790	-3.005800	3.172500	-9.534600	28.047519	2.539537E-5	20.794749
2381.683753	-3.011000	3.170500	-9.545600	28.035618	2.668246E-5	20.790829
2382.682770	-2.996600	3.169800	-9.497700	28.043675	2.417428E-5	20.788034
2383.687487	-3.015900	3.169600	-9.558200	28.056393	2.565939E-5	20.807000
2384.684545	-3.014300	3.168200	-9.549400	28.051285	2.668246E-5	20.794272
2385.684871	-3.011000	3.168300	-9.538500	28.138075	2.691348E-5	20.805776
2386.684640	-3.021600	3.165900	-9.564700	28.225080	2.717750E-5	20.791425
2387.684528	-2.990100	3.167000	-9.469200	28.273536	2.823358E-5	20.781416
2388.684721	-2.985800	3.165200	-9.448500	28.217742	2.740852E-5	20.827659
2389.684897	-2.979600	3.165800	-9.431400	28.216897	2.783755E-5	20.810687
2390.687091	-2.991000	3.163700	-9.461800	28.104679	2.542837E-5	20.816727
2391.685498	-3.003500	3.163800	-9.501700	28.130358	2.334922E-5	20.821240
2392.686255	-2.980200	3.163500	-9.427200	28.155890	2.546137E-5	20.800477
2393.685123	-3.003500	3.162700	-9.497900	28.192205	2.460331E-5	20.820915
2394.685947	-3.010800	3.161900	-9.519400	28.229608	2.400927E-5	20.811157
2395.685185	-3.019400	3.160300	-9.540500	28.190940	2.532936E-5	20.814900
2396.685328	-2.977600	3.160000	-9.407900	28.157101	2.549438E-5	20.807860
2397.686871	-3.011100	3.160400	-9.514500	28.155883	2.424028E-5	20.811850
2398.688072	-3.000100	3.158500	-9.474600	28.141729	2.199612E-5	20.808980
2399.687260	-3.016900	3.157600	-9.525500	28.147033	2.103905E-5	20.819061
2400.687575	-3.007100	3.157000	-9.492800	28.117854	2.325021E-5	20.832360
2401.687015	-3.011200	3.157700	-9.507300	28.131513	2.226014E-5	20.793954
2402.688802	-3.006800	3.156800	-9.491300	28.186145	2.292019E-5	20.814340
2403.686680	-3.026700	3.156100	-9.551400	28.276667	2.245815E-5	20.832931
2404.689086	-2.997300	3.153400	-9.450500	28.308242	2.344822E-5	20.807350
2405.689784	-2.977600	3.155100	-9.393300	28.336050	2.070902E-5	20.809746
2406.690433	-3.019800	3.152600	-9.518500	28.293865	1.935592E-5	20.805203
2407.690162	-3.004400	3.152400	-9.469800	28.244787	2.232614E-5	20.812214
2408.692168	-3.004500	3.151800	-9.468800	28.201483	2.176510E-5	20.810342
2409.691438	-3.009500	3.151700	-9.484000	28.214271	2.024699E-5	20.813259
2410.692017	-2.992200	3.151500	-9.429100	28.250212	1.902590E-5	20.816253
2411.692234	-3.020000	3.149000	-9.509200	28.265901	2.127006E-5	20.842006
2412.692707	-2.987300	3.149000	-9.406200	28.318793	2.027999E-5	20.816551
2413.691832	-2.999700	3.148200	-9.442100	28.351382	1.859687E-5	20.825183
2414.691478	-3.000700	3.147900	-9.444800	28.396489	1.902590E-5	20.829825
2415.693417	-2.991400	3.146100	-9.410000	28.290385	1.843186E-5	20.823510
2416.692711	-3.005300	3.145000	-9.450400	28.270357	1.922391E-5	20.823733
2417.692154	-2.969500	3.145100	-9.338500	28.249189	1.661672E-5	20.825181
2418.690031	-3.005400	3.143200	-9.445600	28.289811	1.664973E-5	20.828147
2419.692307	-2.976600	3.144100	-9.357300	28.239420	1.711176E-5	20.816768
2420.694572	-3.000600	3.142500	-9.427900	28.182234	1.717776E-5	20.812774
2421.695507	-3.011700	3.142000	-9.462700	28.162823	1.648471E-5	20.839224
2422.693439	-2.997100	3.141300	-9.414000	28.167757	1.935592E-5	20.825700
2423.693173	-3.020600	3.138900	-9.480300	28.232080	1.879488E-5	20.831663
2424.695627	-3.003900	3.138800	-9.427700	28.237532	2.027999E-5	20.825298
2425.700322	-3.003300	3.138600	-9.425100	28.218766	1.655072E-5	20.834853
2426.695791	-2.989700	3.139400	-9.384700	28.226750	1.965295E-5	20.829141
2427.697173	-3.001100	3.136700	-9.412300	28.205429	1.846486E-5	20.816685
2428.697710	-3.002300	3.136100	-9.414400	28.135549	1.846486E-5	20.834052
2429.701046	-2.991400	3.135800	-9.379800	28.187927	1.631970E-5	20.828936
2430.700366	-2.985800	3.134600	-9.357700	28.259165	1.595667E-5	20.833327
2431.699099	-2.995400	3.134100	-9.387300	28.321498	1.668273E-5	20.845827
2432.699696	-2.995000	3.132800	-9.380900	28.259755	1.668273E-5	20.830602
2433.699156	-2.986100	3.133400	-9.355400	28.211000	1.820084E-5	20.833199
2434.700886	-3.005700	3.131900	-9.412900	28.199047	1.539563E-5	20.851510
2435.699927	-3.001400	3.128800	-9.389800	28.234023	1.648471E-5	20.821291
2436.700959	-2.999900	3.130400	-9.390200	28.251197	1.671573E-5	20.837633
2437.700887	-2.996300	3.128800	-9.373100	28.268598	1.763980E-5	20.860841
2438.702080	-3.018500	3.126800	-9.437200	28.230796	1.615469E-5	20.844120
2439.705032	-3.006200	3.127400	-9.401000	28.276774	1.730977E-5	20.848211
2440.703535	-2.975500	3.126600	-9.302500	28.347087	1.658372E-5	20.841720
2441.704699	-3.009200	3.124600	-9.401400	28.413605	1.384452E-5	20.832836
2442.703416	-2.994900	3.123700	-9.353700	28.453304	1.730977E-5	20.866646
2443.703151	-2.988700	3.123600	-9.334600	28.412758	1.470258E-5	20.852371
2444.704845	-2.980700	3.122500	-9.306200	28.416772	1.503261E-5	20.845981
2445.704815	-2.982000	3.121600	-9.307300	28.416102	1.516462E-5	20.849573
2446.704178	-2.966100	3.120700	-9.254900	28.441625	1.391052E-5	20.841136
2447.706354	-2.977200	3.120600	-9.289400	28.452950	1.460357E-5	20.834049
2448.703623	-3.002200	3.117900	-9.359300	28.443780	1.496660E-5	20.848522
2449.705197	-2.983900	3.118500	-9.304600	28.440730	1.602268E-5	20.857779
2450.704586	-3.000200	3.117900	-9.353600	28.519310	1.565965E-5	20.853460
2451.704263	-2.984800	3.117300	-9.304100	28.486746	1.532963E-5	20.851012
2452.704714	-3.003600	3.114900	-9.354300	28.487314	1.476859E-5	20.853954
2453.705840	-3.012600	3.113700	-9.380000	28.439534	1.437256E-5	20.886443
2454.704137	-3.004800	3.113700	-9.355300	28.489168	1.483459E-5	20.858667
2455.705993	-2.956800	3.112500	-9.201500	28.494818	1.391052E-5	20.862460
2456.708289	-3.002500	3.113200	-9.346400	28.440915	1.311847E-5	20.843741
2457.707650	-3.011400	3.109900	-9.364000	28.418265	1.424055E-5	20.856493
2458.708435	-2.995300	3.110500	-9.315700	28.505567	1.285445E-5	20.864750
2459.710382	-2.955300	3.109600	-9.189500	28.499841	1.671573E-5	20.864199
2460.707856	-2.998800	3.108000	-9.319400	28.462396	1.193038E-5	20.853518
2461.707777	-3.001200	3.107900	-9.327200	28.512328	1.532963E-5	20.845954
2462.710195	-2.982900	3.108500	-9.270500	28.510494	1.470258E-5	20.856435
2463.708246	-2.988700	3.105800	-9.281800	28.507667	1.282144E-5	20.859752
2464.711854	-2.993700	3.104500	-9.292300	28.518245	1.354750E-5	20.870878
2465.709831	-2.976700	3.104400	-9.239700	28.572660	1.437256E-5	20.865462
2466.709165	-3.002500	3.102300	-9.314300	28.540645	1.450457E-5	20.857876
2467.712742	-3.013600	3.102200	-9.348200	28.500672	1.523062E-5	20.880207
2468.714958	-2.985900	3.100100	-9.255700	28.457996	1.318447E-5	20.864259
2469.711937	-3.005200	3.098800	-9.311500	28.467092	1.239241E-5	20.869626
2470.714625	-2.966100	3.099900	-9.193400	28.390761	1.407554E-5	20.878582
2471.716769	-3.000400	3.097300	-9.292300	28.390857	1.348149E-5	20.885791
2472.713969	-2.975000	3.097700	-9.214900	28.449393	1.239241E-5	20.878355
2473.714380	-2.984300	3.095300	-9.236300	28.446344	1.252442E-5	20.865802
2474.716207	-2.996000	3.095300	-9.272800	28.515679	1.163336E-5	20.854545
2475.714779	-2.986600	3.092900	-9.236200	28.611352	1.400953E-5	20.894471
2476.718032	-3.004100	3.091500	-9.286400	28.635806	1.259043E-5	20.874531
2477.718006	-2.998000	3.091100	-9.266400	28.626563	1.103931E-5	20.902203
2478.716773	-3.001200	3.090300	-9.273900	28.596455	1.146834E-5	20.872831
2479.717407	-3.015200	3.089100	-9.313800	28.607308	1.163336E-5	20.887554
2480.719116	-3.002100	3.087900	-9.269300	28.630749	1.344849E-5	20.878446
2481.719838	-2.973200	3.088100	-9.180800	28.594572	1.278844E-5	20.873305
2482.719381	-2.998500	3.086500	-9.252400	28.537576	1.259043E-5	20.880388
2483.721215	-2.966400	3.086500	-9.154900	28.541193	1.387752E-5	20.879763
2484.718774	-2.981600	3.084700	-9.196400	28.599918	1.275544E-5	20.856405
2485.722897	-3.001700	3.081400	-9.248600	28.642165	1.239241E-5	20.889943
2486.722918	-3.011300	3.081900	-9.280000	28.667559	1.384452E-5	20.887072
2487.720366	-2.991400	3.081400	-9.217000	28.741588	1.193038E-5	20.876289
2488.720718	-3.006100	3.078700	-9.253800	28.742256	1.041227E-5	20.888341
2489.724967	-2.982100	3.078600	-9.179600	28.740073	9.620208E-6	20.880453
2490.721880	-2.986300	3.078100	-9.191900	28.743095	1.094031E-5	20.886815
2491.725504	-3.000800	3.075600	-9.228700	28.740764	1.041227E-5	20.874037
2492.724277	-2.988500	3.075400	-9.190400	28.764175	1.166636E-5	20.891927
2493.723771	-2.974200	3.075300	-9.145300	28.734669	9.653210E-6	20.899664
2494.723956	-3.013000	3.074000	-9.260800	28.699088	1.047827E-5	20.890853
2495.724267	-2.985900	3.073000	-9.175200	28.751141	1.156735E-5	20.914358
2496.725206	-2.996100	3.070500	-9.198200	28.776360	1.037926E-5	20.889503
2497.724656	-2.996600	3.070400	-9.200000	28.759412	9.785220E-6	20.892820
2498.722440	-2.997800	3.068100	-9.197000	28.715507	8.300111E-6	20.907389
2499.725086	-3.005600	3.067500	-9.218500	28.650741	9.092169E-6	20.900002
2500.726048	-2.995600	3.066900	-9.186600	28.574895	9.125172E-6	20.898056
2501.725443	-2.989200	3.065700	-9.163400	28.650515	8.762145E-6	20.904990
2502.726740	-2.984000	3.064700	-9.144600	28.710101	8.795147E-6	20.899100
2503.725774	-3.040600	3.061000	-9.305300	28.673332	8.960159E-6	20.907108
2504.726840	-3.004100	3.062200	-9.198000	28.583635	8.564130E-6	20.904487
2505.727926	-3.028800	3.059300	-9.265300	28.546538	7.343041E-6	20.908378
2506.726859	-3.008000	3.058800	-9.199700	28.611459	7.607060E-6	20.884148
2507.726998	-2.982400	3.057900	-9.119300	28.689356	9.257181E-6	20.889111
2508.731356	-2.996900	3.057600	-9.162100	28.721640	7.211031E-6	20.912144
2509.729233	-3.012000	3.056500	-9.204400	28.768688	6.319965E-6	20.901214
2510.729187	-3.021000	3.053200	-9.222200	28.737172	6.980014E-6	20.902186
2511.728713	-2.988600	3.053800	-9.125800	28.806143	7.673065E-6	20.903856
2512.727846	-2.983800	3.053100	-9.107800	28.848779	7.673065E-6	20.896546
2513.728651	-3.003500	3.051500	-9.163500	28.853311	5.923936E-6	20.913438
2514.726913	-3.001000	3.050700	-9.153700	28.902682	8.993162E-6	20.906751
2515.729693	-3.011600	3.048400	-9.179700	28.847340	5.461902E-6	20.896993
2516.727578	-3.013300	3.046800	-9.180600	28.830046	6.781999E-6	20.927459
2517.727750	-2.993300	3.045500	-9.115400	28.826404	8.201104E-6	20.915256
2518.729270	-2.965800	3.045800	-9.032200	28.754411	5.758924E-6	20.911962
2519.730319	-3.000000	3.042600	-9.126300	28.759562	3.382749E-6	20.927107
2520.729359	-2.993300	3.041000	-9.102000	28.861605	5.461902E-6	20.901880
2521.729095	-3.000300	3.040900	-9.123000	28.826080	4.471829E-6	20.912559
2522.730197	-2.988700	3.040500	-9.085900	28.827517	5.923936E-6	20.917325
2523.729353	-2.994800	3.038600	-9.099300	28.792336	4.768851E-6	20.924085
2524.729939	-3.023600	3.035800	-9.178500	28.766397	4.768851E-6	20.910286
2525.735091	-2.996300	3.034900	-9.092500	28.772071	5.494905E-6	20.921215
2526.730440	-3.024300	3.034800	-9.177400	28.818845	4.306817E-6	20.930873
2527.730187	-2.995100	3.034200	-9.086400	28.766817	5.395897E-6	20.921139
2528.729665	-2.988400	3.032400	-9.061200	28.823821	7.244033E-6	20.917396
2529.735969	-2.996600	3.031300	-9.082100	28.867720	6.451975E-6	20.944545
2530.731939	-2.983000	3.030900	-9.040600	28.871111	4.537834E-6	20.938954
2531.731931	-2.984300	3.029700	-9.040800	28.863108	5.065873E-6	20.923781
2532.734040	-2.982900	3.026600	-9.027500	28.858773	4.570836E-6	20.928422
2533.731533	-2.973400	3.027000	-8.999800	28.889020	7.244033E-6	20.930917
2534.731304	-2.998300	3.025500	-9.071100	28.931403	6.682992E-6	20.939002
2535.734403	-2.988300	3.022700	-9.032300	28.978713	5.725922E-6	20.918864
2536.732672	-3.019600	3.022200	-9.123700	28.955256	6.451975E-6	20.928895
2537.736189	-2.990300	3.022000	-9.035100	28.936405	9.521201E-6	20.931240
2538.735994	-3.021300	3.018500	-9.118300	28.982996	5.230885E-6	20.947358
2539.733643	-3.017700	3.017500	-9.104700	28.980493	3.547761E-6	20.944362
2540.734109	-3.004300	3.016900	-9.062100	28.987355	4.075800E-6	20.922355
2541.735124	-2.995300	3.015900	-9.032300	28.949729	4.240812E-6	20.934232
2542.735669	-2.964400	3.015300	-8.937500	28.965509	7.970087E-6	20.932112
2543.735350	-2.983900	3.013800	-8.991800	28.937491	8.960159E-6	20.935178
2544.737792	-2.987600	3.012900	-9.000800	28.908979	6.055946E-6	20.938696
2545.732681	-2.992100	3.010900	-9.007600	28.924981	7.244033E-6	20.918310
2546.738363	-2.989600	3.008800	-8.994300	28.915988	7.541055E-6	20.946704
2547.737905	-3.020400	3.006400	-9.079800	28.898403	4.735849E-6	20.943687
2548.735085	-3.012200	3.005500	-9.052400	28.816678	6.319965E-6	20.946706
2549.740384	-2.985400	3.006000	-8.973200	28.764826	5.164880E-6	20.941416
2550.736898	-2.991800	3.003800	-8.985800	28.814398	7.739070E-6	20.928291
2551.737694	-3.010100	3.001100	-9.032400	28.899317	4.999868E-6	20.931808
2552.739771	-2.996100	3.001000	-8.990800	28.896865	7.244033E-6	20.934079
2553.742694	-3.014000	2.998500	-9.036400	28.891639	5.989941E-6	20.917910
2554.738428	-2.987100	2.997500	-8.952800	28.895527	7.310038E-6	20.926094
2555.745046	-2.992800	2.996100	-8.965900	28.834786	5.131878E-6	20.925121
2556.742209	-3.000500	2.994400	-8.983500	28.747679	6.220958E-6	20.937421
2557.739173	-2.995900	2.994100	-8.969000	28.846405	7.013016E-6	20.922127
2558.744860	-2.987800	2.992300	-8.939200	28.873456	7.937084E-6	20.933729
2559.742007	-2.984200	2.990200	-8.922600	28.906550	5.296890E-6	20.942886
2560.744807	-2.983500	2.989400	-8.917900	28.927902	5.230885E-6	20.919355
2561.743688	-3.015400	2.987400	-9.007400	28.968625	3.811781E-6	20.917235
2562.745887	-3.003000	2.985300	-8.964100	29.008825	5.725922E-6	20.927390
2563.742757	-3.001800	2.984400	-8.957800	29.043799	5.362895E-6	20.933230
2564.742499	-3.017200	2.983400	-9.000500	29.027750	2.458681E-6	20.927492
2565.744970	-3.015300	2.981300	-8.988700	28.919853	4.042798E-6	20.909351
2566.743701	-3.024100	2.979400	-9.008900	28.905041	2.821708E-6	20.911498
2567.741999	-3.001700	2.977600	-8.937000	28.852326	3.382749E-6	20.918610
2568.744758	-3.000300	2.977600	-8.933200	28.840362	3.745776E-6	20.916040
2569.743969	-3.037900	2.974800	-9.036400	28.825573	3.184734E-6	20.910152
2570.746643	-2.982000	2.973900	-8.867200	28.895903	1.633620E-6	20.916990
2571.750113	-3.007200	2.974000	-8.942600	28.885795	5.758924E-6	20.902542
2572.743249	-2.993100	2.971700	-8.893800	28.908660	4.735849E-6	20.917514
2573.744096	-2.997100	2.969800	-8.899500	28.969077	4.108802E-6	20.916742
2574.748816	-3.021900	2.966400	-8.963000	29.036820	2.689698E-6	20.890641
2575.744982	-3.018300	2.966400	-8.952900	29.099756	2.458681E-6	20.898104
2576.747757	-3.017300	2.965100	-8.946300	29.100675	2.557688E-6	20.887177
2577.751275	-3.009700	2.965700	-8.924800	29.117391	2.392676E-6	20.884581
2578.748899	-3.010600	2.962800	-8.919500	29.034025	3.943790E-6	20.882135
2579.747569	-3.033600	2.960600	-8.980200	28.971608	3.316744E-6	20.889897
2580.750062	-3.015200	2.960700	-8.925800	28.912383	2.854710E-6	20.900878
2581.748449	-2.999100	2.958100	-8.870900	28.853328	1.930642E-6	20.892120
2582.747578	-3.007200	2.956200	-8.889500	28.891898	3.646768E-6	20.875027
2583.748724	-3.038600	2.953700	-8.974200	29.002872	2.194662E-6	20.896739
2584.746863	-3.018000	2.954200	-8.914400	29.060681	3.679771E-6	20.887182
2585.750750	-3.014800	2.951500	-8.897200	28.983428	5.593912E-6	20.911287
2586.751638	-2.980100	2.950600	-8.791700	28.933221	3.415751E-6	20.889155
2587.749292	-2.982600	2.950500	-8.799500	28.871863	4.306817E-6	20.896567
2588.749763	-2.975000	2.948300	-8.770400	28.920045	3.811781E-6	20.888209
2589.752486	-2.993900	2.946300	-8.819400	28.991307	3.151732E-6	20.890304
2590.749594	-2.994900	2.945200	-8.819300	29.009563	4.174807E-6	20.864602
2591.749617	-2.999700	2.942100	-8.825200	29.010306	5.197883E-6	20.880998
2592.750331	-2.966800	2.942600	-8.729000	28.994850	2.656696E-6	20.885813
2593.750621	-2.995300	2.940400	-8.806800	28.953733	3.019722E-6	20.902708
2594.751305	-3.011400	2.937300	-8.844200	29.013278	5.362895E-6	20.888259
2595.752857	-3.006100	2.936000	-8.824600	29.013899	3.250739E-6	20.881298
2596.752144	-3.031400	2.932800	-8.889200	29.038444	4.735849E-6	20.868571
2597.751224	-3.026700	2.931300	-8.870900	29.034730	1.831635E-6	20.875260
2598.753899	-3.006400	2.930900	-8.810200	29.053776	1.501611E-6	20.884492
2599.749961	-2.995100	2.929900	-8.774500	28.976621	6.286963E-6	20.885465
2600.753911	-3.006400	2.927400	-8.800400	28.987620	3.514759E-6	20.892279
2601.756006	-2.993700	2.928800	-8.765500	29.056328	2.128657E-6	20.870944
2602.751539	-3.004200	2.925500	-8.787700	29.079537	4.108802E-6	20.866828
2603.754570	-2.992300	2.922700	-8.744700	29.057171	1.930642E-6	20.882697
2604.752752	-3.005300	2.921000	-8.777600	29.039810	5.560909E-6	20.873266
2605.756772	-3.000000	2.920200	-8.760100	29.056429	3.976793E-6	20.886217
2606.754294	-3.011300	2.917700	-8.784900	29.123821	4.867858E-6	20.856922
2607.754741	-2.998100	2.916400	-8.743100	29.058412	6.105450E-7	20.894852
2608.757744	-2.987700	2.916200	-8.711800	29.092838	2.359674E-6	20.854626
2609.752618	-2.978800	2.912400	-8.673800	29.052049	3.547761E-6	20.859046
2610.753155	-3.003800	2.910400	-8.740800	29.000084	2.491683E-6	20.852682
2611.756272	-3.000800	2.909100	-8.728600	29.079516	2.788705E-6	20.843100
2612.757562	-3.035800	2.906300	-8.822000	29.178256	5.593912E-6	20.862937
2613.760099	-3.045200	2.904000	-8.841900	29.160824	3.910788E-6	20.858647
2614.756519	-2.988700	2.904300	-8.678900	29.088999	4.570836E-6	20.859767
2615.753015	-3.010000	2.900700	-8.730000	29.133853	4.405824E-6	20.880780
2616.754342	-3.000000	2.899700	-8.698100	29.151536	5.395897E-6	20.863512
2617.756269	-2.952000	2.898000	-8.554500	29.120453	4.669844E-6	20.849262
2618.754158	-2.994900	2.897600	-8.676600	29.077853	4.207810E-6	20.864183
2619.754480	-2.981600	2.895700	-8.633000	29.017271	5.362895E-6	20.839653
2620.754357	-3.024000	2.891800	-8.743800	28.988787	3.514759E-6	20.857896
2621.754866	-2.973300	2.892700	-8.600200	29.083350	2.062652E-6	20.885368
2622.753873	-3.012500	2.888900	-8.702000	29.119066	3.382749E-6	20.864933
2623.754330	-2.993000	2.887200	-8.640500	29.135881	4.471829E-6	20.834462
2624.754143	-2.991900	2.886700	-8.636100	29.109234	5.395897E-6	20.860715
2625.754274	-3.020800	2.883600	-8.710500	29.201014	6.022943E-6	20.841775
2626.761229	-2.994000	2.882300	-8.628900	29.280182	5.659917E-6	20.844744
2627.754985	-3.003100	2.880900	-8.650800	29.211415	4.339819E-6	20.858419
2628.755271	-3.003600	2.878400	-8.645200	29.198388	3.712773E-6	20.836758
2629.757274	-3.033100	2.876400	-8.724000	29.174242	4.603839E-6	20.839926
2630.758167	-2.968900	2.875200	-8.535500	29.176644	3.976793E-6	20.862734
2631.755264	-3.009900	2.873200	-8.647700	29.176668	5.560909E-6	20.858492
2632.759504	-2.996300	2.871700	-8.603900	29.204181	4.108802E-6	20.832164
2633.756810	-2.969800	2.869100	-8.520100	29.229985	5.197883E-6	20.846788
2634.755586	-2.978100	2.867400	-8.538400	29.282681	4.174807E-6	20.835409
2635.766418	-3.006700	2.864900	-8.613100	29.207696	4.537834E-6	20.851827
2636.758800	-3.001400	2.863200	-8.592600	29.191103	4.438827E-6	20.833210
2637.761718	-2.974600	2.861900	-8.512400	29.207769	2.821708E-6	20.853323
2638.762230	-3.010000	2.858800	-8.604100	29.324106	2.887713E-6	20.860087
2639.761123	-2.986000	2.857600	-8.532000	29.373179	4.537834E-6	20.857389
2640.760208	-2.994500	2.855200	-8.549100	29.438399	4.042798E-6	20.859113
2641.765206	-3.027500	2.852000	-8.633500	29.475212	3.481756E-6	20.832684
2642.760398	-3.015200	2.851300	-8.596800	29.477243	3.250739E-6	20.857964
2643.771086	-3.005400	2.848100	-8.559100	29.509653	2.128657E-6	20.845115
2644.767365	-2.993800	2.847400	-8.523700	29.510816	2.689698E-6	20.841546
2645.761968	-2.997800	2.844800	-8.527300	29.521263	2.425679E-6	20.850180
2646.764048	-2.994100	2.842700	-8.510900	29.527106	1.798632E-6	20.838053
2647.766017	-3.029300	2.840100	-8.603200	29.487446	1.501611E-6	20.824154
2648.761497	-2.966100	2.838800	-8.419300	29.495022	3.217737E-6	20.835109
2649.766730	-2.970200	2.837100	-8.425800	29.479698	4.075800E-6	20.826301
2650.767646	-2.985100	2.835500	-8.462200	29.395197	3.184734E-6	20.848287
2651.762221	-2.989300	2.833100	-8.467500	29.424859	1.006574E-6	20.860639
2652.768723	-3.007400	2.829500	-8.508900	29.399556	6.105450E-7	20.820439
2653.766173	-3.004900	2.827000	-8.494400	29.373980	9.405693E-7	20.818842
2654.763750	-2.996100	2.825400	-8.463600	29.425035	2.590691E-6	20.848964
2655.770025	-3.007700	2.823400	-8.490900	29.429170	6.765498E-7	20.843175
2656.769408	-3.006900	2.820600	-8.479800	29.490026	1.468608E-6	20.837659
2657.766127	-2.992800	2.817600	-8.431700	29.465542	3.514759E-6	20.830998
2658.770086	-2.988700	2.816200	-8.415600	29.417560	1.006574E-6	20.814403
2659.771748	-2.995600	2.813400	-8.427500	29.411545	3.877785E-6	20.831573
2660.766754	-2.997900	2.810300	-8.423800	29.418749	3.580764E-6	20.817498
2661.770380	-3.001500	2.808500	-8.428900	29.487381	2.029649E-6	20.827882
2662.775274	-2.989700	2.805300	-8.386000	29.523848	3.382749E-6	20.847096
2663.768044	-3.012000	2.803600	-8.444000	29.547444	2.458681E-6	20.833424
2664.771421	-3.015500	2.800400	-8.442900	29.509118	2.755703E-6	20.849317
2665.774374	-3.011400	2.798000	-8.425300	29.559152	1.600618E-6	20.839536
2666.767752	-2.998100	2.795800	-8.382200	29.544474	2.689698E-6	20.838965
2667.770178	-2.991700	2.792000	-8.352100	29.519766	2.227664E-6	20.833499
2668.770018	-3.003100	2.789200	-8.375200	29.500135	2.194662E-6	20.829832
2669.773832	-3.000200	2.787400	-8.362000	29.517465	3.151732E-6	20.819800
2670.770885	-2.975800	2.784000	-8.283200	29.474685	2.491683E-6	20.829782
2671.776405	-2.993600	2.781100	-8.324700	29.437894	-5.445401E-7	20.850070
2672.771166	-2.996500	2.778600	-8.325500	29.414276	1.155085E-7	20.834327
2673.771800	-3.014300	2.775600	-8.366100	29.425196	1.650122E-8	20.824471
2674.776274	-3.010500	2.770800	-8.340500	29.485236	2.475182E-7	20.825719
2675.775020	-2.954200	2.771300	-8.186200	29.455305	3.465255E-7	20.801240
2676.772872	-2.996700	2.767400	-8.292400	29.462139	-6.435474E-7	20.816189
2677.777925	-3.000000	2.762400	-8.286300	29.496651	1.006574E-6	20.823949
2678.777192	-2.997200	2.761400	-8.275000	29.556664	9.735717E-7	20.819011
2679.776877	-3.012900	2.757500	-8.306900	29.569240	8.085595E-7	20.816516
2680.777825	-2.988000	2.754300	-8.228500	29.557136	1.006574E-6	20.800521
2681.783581	-3.013000	2.749500	-8.283700	29.480862	2.805207E-7	20.819414
2682.775793	-3.004500	2.747800	-8.254600	29.424463	1.039577E-6	20.793386
2683.777724	-3.022500	2.743800	-8.292300	29.423869	2.128657E-6	20.813176
2684.776210	-3.001700	2.741500	-8.228200	29.513767	2.293669E-6	20.804693
2685.774247	-3.005500	2.738100	-8.228600	29.590314	2.656696E-6	20.814526
2686.782206	-3.001500	2.735800	-8.210000	29.633708	2.821708E-6	20.825081
2687.777106	-2.978500	2.733100	-8.139800	29.674156	2.722700E-6	20.800900
2688.778930	-2.981700	2.728800	-8.135600	29.612073	3.217737E-6	20.809434
2689.779772	-2.962100	2.724600	-8.069400	29.623188	2.656696E-6	20.819217
2690.779048	-2.970400	2.720300	-8.079300	29.620120	1.633620E-6	20.813279
2691.777516	-2.972700	2.717700	-8.078100	29.619499	2.128657E-6	20.810757
2692.782390	-2.989000	2.713400	-8.109100	29.642348	2.491683E-6	20.823360
2693.778189	-2.997200	2.709600	-8.120400	29.732401	1.171586E-6	20.822164
2694.777945	-3.003700	2.706600	-8.128900	29.794824	6.105450E-7	20.784107
2695.780844	-2.970700	2.702200	-8.027200	29.730296	3.811781E-6	20.797282
2696.777937	-2.999600	2.697700	-8.091100	29.692773	4.785352E-7	20.815875
2697.778847	-2.997400	2.694300	-8.075000	29.688464	-2.145158E-7	20.813428
2698.780291	-3.021800	2.690300	-8.128500	29.667894	2.128657E-6	20.818294
2699.780947	-3.013200	2.687400	-8.096700	29.636655	1.864637E-6	20.815250
2700.780924	-2.991500	2.682700	-8.024500	29.646433	1.534613E-6	20.806616
2701.780135	-3.012700	2.677000	-8.063900	29.608484	1.732628E-6	20.802972
2702.782536	-3.028500	2.672100	-8.091400	29.603510	3.184734E-6	20.807914
2703.779856	-3.017500	2.670000	-8.056000	29.647025	3.135231E-7	20.797255
2704.784721	-2.981400	2.665500	-7.945800	29.682820	1.699625E-6	20.805368
2705.783417	-3.008800	2.660000	-8.002200	29.699603	3.316744E-6	20.788149
2706.784332	-2.980700	2.655800	-7.915200	29.762794	-3.795279E-7	20.807289
2707.783533	-2.988800	2.651000	-7.920900	29.789649	2.953717E-6	20.803546
2708.785862	-2.990800	2.645100	-7.910300	29.747179	7.095522E-7	20.800554
2709.787906	-3.012700	2.640500	-7.954700	29.765419	2.805207E-7	20.800926
2710.783321	-3.010600	2.636300	-7.935500	29.699877	2.227664E-6	20.806916
2711.785449	-3.004500	2.632600	-7.908600	29.754455	9.075668E-7	20.794139
2712.784740	-2.979300	2.626800	-7.824700	29.842740	2.689698E-6	20.789747
2713.786730	-2.992000	2.621700	-7.843600	29.810638	2.986720E-6	20.801001
2714.787223	-3.005400	2.616000	-7.859900	29.806728	2.689698E-6	20.812231
2715.785813	-3.009900	2.610600	-7.856100	29.900080	4.306817E-6	20.792091
2716.787766	-3.003600	2.606200	-7.827100	29.933590	4.702846E-6	20.803597
2717.785599	-2.992500	2.599900	-7.779400	29.958436	4.834856E-6	20.788824
2718.785585	-2.994600	2.595700	-7.772100	29.923270	6.220958E-6	20.796036
2719.784091	-3.011100	2.589700	-7.796700	29.879194	4.801853E-6	20.790944
2720.785997	-3.032900	2.583500	-7.834100	29.926711	3.481756E-6	20.795713
2721.787155	-3.013300	2.577200	-7.765100	29.873007	5.857931E-6	20.806991
2722.785456	-3.006700	2.571700	-7.731800	29.891471	4.240812E-6	20.773926
2723.786825	-2.996300	2.566800	-7.690200	29.909981	4.042798E-6	20.775048
2724.788952	-2.989000	2.559800	-7.650800	29.865038	3.415751E-6	20.780937
2725.790206	-3.001500	2.553200	-7.662700	29.841206	4.372822E-6	20.764018
2726.792139	-2.991500	2.548600	-7.623200	29.841403	5.626914E-6	20.787925
2727.787795	-2.980900	2.543400	-7.580600	29.905080	4.537834E-6	20.781486
2728.786272	-3.014200	2.536700	-7.645500	29.871276	3.811781E-6	20.795288
2729.795120	-3.041700	2.528700	-7.690700	29.901719	3.382749E-6	20.774303
2730.789654	-3.019300	2.524100	-7.619300	29.899686	5.857931E-6	20.788849
2731.790892	-2.970300	2.517200	-7.476100	29.928492	3.745776E-6	20.783757
2732.798009	-2.994200	2.510400	-7.516300	29.994592	4.042798E-6	20.794940
2733.789324	-2.990900	2.505100	-7.492000	30.027231	2.854710E-6	20.768586
2734.791299	-2.991800	2.499000	-7.475600	30.098891	3.184734E-6	20.771158
