LabVIEW Measurement	
Writer_Version	2
Reader_Version	2
Separator	Tab
Decimal_Separator	.
Multi_Headings	No
X_Columns	One
Time_Pref	Absolute
Operator	admin
Description	Clolumns are: time, Current, Voltage, Power, Battery Temp, and Chamber Temp
Date	2024/08/16
Time	13:07:17.8513970375061035156
***End_of_Header***	
	
Channels	6						
Samples	1	1	1	1	1	1	
Date	2024/09/18	2024/09/18	2024/09/18	2024/09/18	2024/09/18	2024/09/18	
Time	05:02:10.4570255279541015625	05:02:10.465023040771484375	05:02:10.469676971435546875	05:02:10.4254407882690429688	05:02:10.4254407882690429688	05:02:10.4254407882690429688	
X_Dimension	Time	Time	Time	Time	Time	Time	
X0	0.0000000000000000E+0	0.0000000000000000E+0	0.0000000000000000E+0	0.0000000000000000E+0	0.0000000000000000E+0	0.0000000000000000E+0	
Delta_X	1.000000	1.000000	1.000000	1.000000	1.000000	1.000000	
***End_of_Header***							
X_Value	Untitled	Untitled 1	Untitled 2	Untitled 3	Untitled 4	Untitled 5	Comment
0.000000	0.018455	4.088300	0.075471	20.913906	0.000469	20.799166
0.991381	-2.995700	3.914500	-11.726000	20.905198	0.000468	20.790457
1.999063	-2.995700	3.909400	-11.710000	20.937611	0.000465	20.815762
2.999568	-3.000800	3.904900	-11.718000	20.942202	0.000467	20.807552
3.997695	-3.015700	3.901900	-11.765000	20.918547	0.000466	20.788635
5.003658	-2.988800	3.899000	-11.653000	20.941231	0.000466	20.784295
5.991057	-2.998200	3.894700	-11.676000	20.944899	0.000465	20.810723
6.999515	-3.001300	3.893400	-11.683000	20.918224	0.000465	20.805856
8.010096	-3.003500	3.891600	-11.688000	20.942202	0.000465	20.809448
8.994215	-3.013600	3.890300	-11.722000	20.955578	0.000462	20.792954
10.003723	-3.005500	3.888900	-11.687000	20.957773	0.000463	20.796098
11.003610	-3.011300	3.886300	-11.702000	20.986942	0.000463	20.794451
11.998724	-2.999800	3.883800	-11.650000	20.977461	0.000462	20.818633
13.000535	-2.996000	3.882800	-11.632000	20.992706	0.000461	20.785043
14.000497	-3.004700	3.882600	-11.665000	20.991159	0.000461	20.807204
15.002385	-3.004600	3.881100	-11.660000	20.994003	0.000459	20.809574
16.009771	-2.992000	3.881700	-11.613000	21.025141	0.000460	20.783345
16.995653	-2.999700	3.880200	-11.638000	20.993030	0.000460	20.803860
18.005652	-2.988600	3.879200	-11.591000	21.033001	0.000458	20.796897
19.009128	-3.007100	3.878900	-11.663000	21.041285	0.000457	20.785268
20.002887	-3.019100	3.878000	-11.707000	21.027985	0.000458	20.808949
21.004769	-3.000800	3.876300	-11.631000	21.043029	0.000458	20.766623
21.999682	-3.015700	3.875400	-11.686000	21.048668	0.000458	20.815412
22.997894	-2.989000	3.875800	-11.584000	21.064562	0.000456	20.798593
24.002538	-2.986900	3.874400	-11.572000	21.066407	0.000455	20.816085
25.006299	-2.989200	3.874500	-11.581000	21.068678	0.000454	20.810770
26.003509	-2.980000	3.874700	-11.545000	21.067154	0.000457	20.804979
27.014250	-3.001300	3.871800	-11.620000	21.102409	0.000454	20.777179
28.001480	-2.994300	3.872800	-11.595000	21.109542	0.000454	20.818454
29.009301	-2.995500	3.870900	-11.594000	21.101484	0.000455	20.785738
30.001042	-2.999900	3.871400	-11.613000	21.124111	0.000453	20.792250
31.010023	-3.021200	3.868500	-11.686000	21.124264	0.000452	20.796195
32.008548	-2.988300	3.870400	-11.565000	21.137687	0.000452	20.778328
33.005890	-3.023400	3.869700	-11.699000	21.154501	0.000451	20.776181
34.008466	-2.999700	3.868800	-11.604000	21.147391	0.000451	20.785190
35.014374	-3.027500	3.867900	-11.709000	21.142699	0.000453	20.783816
36.007113	-3.001300	3.867800	-11.607000	21.168446	0.000450	20.776855
37.001408	-3.000700	3.869200	-11.609000	21.187131	0.000450	20.778476
38.005799	-3.007700	3.867400	-11.631000	21.184937	0.000448	20.777703
39.016745	-2.990300	3.867600	-11.564000	21.212975	0.000450	20.794846
40.010025	-2.998200	3.866400	-11.591000	21.219863	0.000449	20.794150
41.011839	-3.000500	3.865800	-11.598000	21.222682	0.000449	20.784167
42.013660	-2.996400	3.866500	-11.585000	21.228469	0.000448	20.773835
43.011680	-3.013700	3.865200	-11.648000	21.247477	0.000451	20.790955
44.010032	-2.985700	3.867000	-11.545000	21.231236	0.000450	20.768069
45.008682	-2.985200	3.864600	-11.534000	21.256059	0.000449	20.777728
46.013710	-3.001300	3.863900	-11.596000	21.262394	0.000449	20.768893
47.013807	-2.967600	3.865200	-11.469000	21.272922	0.000449	20.778952
48.015228	-3.005100	3.864800	-11.614000	21.279430	0.000448	20.764125
49.012822	-2.986800	3.865600	-11.544000	21.272821	0.000447	20.769367
50.010043	-3.012800	3.862900	-11.637000	21.297440	0.000450	20.785462
51.015275	-3.004700	3.862800	-11.606000	21.304550	0.000446	20.769815
52.014950	-3.006900	3.863900	-11.617000	21.310211	0.000447	20.756512
53.016461	-2.965600	3.865100	-11.462000	21.336428	0.000447	20.763301
54.014569	-3.010600	3.862400	-11.627000	21.348250	0.000447	20.773232
55.015574	-2.980800	3.862800	-11.514000	21.360621	0.000448	20.766169
56.012227	-3.002400	3.861400	-11.592000	21.355060	0.000447	20.771985
57.013452	-3.026100	3.861400	-11.684000	21.379254	0.000446	20.772483
58.021642	-2.995300	3.862200	-11.567000	21.369252	0.000447	20.773381
59.017973	-3.004000	3.861600	-11.598000	21.393696	0.000448	20.781243
60.017052	-2.993000	3.862500	-11.560000	21.382571	0.000448	20.761577
61.022562	-3.028000	3.859500	-11.685000	21.397985	0.000448	20.773206
62.025445	-2.980600	3.862900	-11.513000	21.404420	0.000449	20.768739
63.022361	-3.012100	3.860800	-11.628000	21.400106	0.000449	20.767267
64.024599	-2.987300	3.861600	-11.534000	21.424947	0.000448	20.769363
65.021696	-3.013800	3.861000	-11.635000	21.412551	0.000447	20.773081
66.020294	-2.995800	3.860600	-11.565000	21.454204	0.000446	20.768290
67.022553	-2.985500	3.861500	-11.527000	21.441060	0.000447	20.770311
68.031714	-2.997600	3.860100	-11.570000	21.479769	0.000446	20.786757
69.018559	-2.971300	3.861000	-11.471000	21.459367	0.000449	20.748325
70.025178	-3.014900	3.858000	-11.630000	21.472536	0.000447	20.764822
71.022552	-3.024800	3.858800	-11.671000	21.477225	0.000446	20.774255
72.023844	-3.006000	3.859800	-11.602000	21.501418	0.000448	20.763374
73.023069	-3.005900	3.858100	-11.597000	21.507454	0.000446	20.749973
74.033186	-2.966200	3.859400	-11.447000	21.514061	0.000448	20.770336
75.025555	-3.005000	3.858100	-11.593000	21.526058	0.000445	20.752942
76.027480	-2.998600	3.858700	-11.570000	21.521694	0.000447	20.772758
77.020916	-3.014000	3.857300	-11.625000	21.535237	0.000448	20.764498
78.020658	-3.026900	3.858200	-11.677000	21.541296	0.000450	20.779096
79.025150	-2.996900	3.856900	-11.558000	21.572096	0.000448	20.768665
80.016914	-2.987100	3.858600	-11.525000	21.560374	0.000446	20.750771
81.025776	-3.023700	3.857600	-11.663000	21.576361	0.000450	20.751120
82.024552	-3.016700	3.858200	-11.637000	21.575014	0.000446	20.759730
83.025170	-3.012300	3.855900	-11.614000	21.584141	0.000447	20.762699
84.024639	-3.010600	3.856100	-11.608000	21.598082	0.000449	20.748201
85.021997	-2.988200	3.857900	-11.527000	21.602795	0.000448	20.752918
86.024464	-3.018200	3.856700	-11.639000	21.616309	0.000447	20.753639
87.025766	-3.013100	3.855700	-11.617000	21.605837	0.000449	20.766393
88.037543	-3.007000	3.856100	-11.595000	21.631049	0.000449	20.758906
89.018426	-3.015100	3.855900	-11.624000	21.651696	0.000449	20.729307
90.021899	-2.991600	3.855600	-11.533000	21.655263	0.000451	20.754214
91.023110	-3.001900	3.856300	-11.576000	21.662068	0.000449	20.742058
92.022016	-3.002700	3.855500	-11.575000	21.657330	0.000448	20.744429
93.025970	-2.995500	3.856400	-11.551000	21.668627	0.000450	20.750519
94.024276	-2.999800	3.854200	-11.561000	21.674087	0.000450	20.763570
95.036733	-3.004700	3.854100	-11.579000	21.696579	0.000452	20.759052
96.025580	-3.008800	3.854300	-11.596000	21.705707	0.000450	20.756807
97.015131	-3.002200	3.853200	-11.567000	21.717251	0.000449	20.736118
98.009855	-2.995700	3.854700	-11.546000	21.717773	0.000449	20.759875
99.007728	-3.015200	3.853700	-11.618000	21.734256	0.000450	20.751714
100.034471	-3.017000	3.852900	-11.623000	21.719344	0.000450	20.741531
101.038464	-2.992700	3.854500	-11.534000	21.754103	0.000452	20.745973
102.011266	-2.997700	3.852900	-11.549000	21.753604	0.000452	20.751638
103.011103	-2.998600	3.853200	-11.553000	21.774872	0.000450	20.766286
104.015254	-3.007500	3.852400	-11.584000	21.768738	0.000452	20.748767
105.038763	-3.017400	3.853200	-11.626000	21.763078	0.000451	20.741205
106.024079	-2.995700	3.852800	-11.540000	21.795666	0.000454	20.752010
107.034000	-3.007700	3.852700	-11.587000	21.778934	0.000452	20.759446
108.011361	-3.006700	3.851400	-11.580000	21.820872	0.000453	20.728399
109.011801	-3.001300	3.852600	-11.562000	21.804541	0.000449	20.750461
110.011360	-3.009400	3.851700	-11.591000	21.801149	0.000453	20.756075
111.026947	-2.988300	3.852100	-11.510000	21.826606	0.000453	20.746941
112.034317	-3.002000	3.852800	-11.566000	21.854703	0.000454	20.742822
113.032798	-2.988900	3.851900	-11.512000	21.853831	0.000452	20.737680
114.012802	-2.995400	3.851700	-11.536000	21.880034	0.000452	20.743046
115.012778	-2.981800	3.851900	-11.485000	21.853829	0.000453	20.753327
116.011795	-2.983500	3.852200	-11.492000	21.899255	0.000454	20.758493
117.017839	-2.979400	3.851600	-11.475000	21.911196	0.000452	20.743891
118.014977	-2.995900	3.850500	-11.534000	21.897435	0.000454	20.744816
119.011247	-2.992400	3.850400	-11.521000	21.908753	0.000454	20.748084
120.011798	-2.961700	3.850900	-11.404000	21.931142	0.000453	20.725924
121.016998	-2.974300	3.849000	-11.447000	21.927076	0.000455	20.732760
122.010703	-2.996400	3.850300	-11.536000	21.918424	0.000455	20.745911
123.020515	-2.988900	3.850900	-11.509000	21.927899	0.000454	20.745912
124.019155	-3.019800	3.848700	-11.622000	21.946373	0.000455	20.754447
125.017557	-2.993500	3.849200	-11.522000	21.956594	0.000455	20.755669
126.016122	-2.995200	3.849100	-11.527000	21.979404	0.000456	20.745312
127.014916	-2.981600	3.849100	-11.475000	21.980651	0.000454	20.738974
128.015854	-3.017900	3.848400	-11.613000	21.975989	0.000455	20.749006
129.015723	-3.002500	3.848500	-11.555000	21.999598	0.000456	20.719058
130.014064	-2.994900	3.850300	-11.530000	21.998001	0.000458	20.747808
131.013710	-3.011700	3.848600	-11.589000	21.988702	0.000458	20.751775
132.026771	-3.005900	3.849800	-11.571000	22.006776	0.000455	20.741418
133.017779	-2.989500	3.849100	-11.506000	21.995232	0.000458	20.754045
134.045086	-2.997200	3.849000	-11.535000	22.004457	0.000458	20.754744
135.017323	-2.955000	3.848900	-11.372000	22.018839	0.000457	20.749701
136.017484	-2.992300	3.847700	-11.513000	22.028885	0.000460	20.741740
137.017854	-3.010700	3.847100	-11.581000	22.050348	0.000457	20.752321
138.016764	-2.982800	3.848500	-11.478000	22.061492	0.000459	20.749252
139.041055	-3.020800	3.847000	-11.620000	22.058276	0.000458	20.738445
140.014723	-3.001500	3.847700	-11.548000	22.060145	0.000459	20.748378
141.035180	-3.012400	3.846300	-11.586000	22.068247	0.000459	20.743212
142.029330	-3.012100	3.846700	-11.585000	22.092225	0.000459	20.755838
143.015826	-2.999400	3.846000	-11.535000	22.099531	0.000459	20.770265
144.033666	-3.004900	3.846100	-11.557000	22.115382	0.000459	20.764323
145.033151	-3.001300	3.845900	-11.542000	22.116179	0.000459	20.766069
146.040658	-2.984900	3.847300	-11.483000	22.125803	0.000459	20.733977
147.040081	-3.006800	3.845100	-11.561000	22.115806	0.000461	20.735349
148.039497	-2.986400	3.846300	-11.485000	22.145294	0.000460	20.762975
149.022540	-2.992800	3.845500	-11.508000	22.143896	0.000461	20.742609
150.018786	-2.994200	3.844400	-11.509000	22.149031	0.000462	20.750121
151.024059	-2.981300	3.846200	-11.464000	22.151350	0.000461	20.756236
152.030951	-3.004000	3.843800	-11.545000	22.160449	0.000462	20.735473
153.056691	-3.025400	3.844900	-11.631000	22.197912	0.000463	20.747851
154.021282	-3.016300	3.843900	-11.593000	22.206785	0.000464	20.775703
155.028867	-2.968700	3.846300	-11.418000	22.196715	0.000463	20.756610
156.024590	-3.006700	3.844900	-11.560000	22.195045	0.000464	20.764897
157.022027	-3.006600	3.844200	-11.558000	22.209426	0.000463	20.740888
158.023417	-2.992600	3.843100	-11.500000	22.242550	0.000465	20.764096
159.045287	-2.989800	3.843800	-11.490000	22.228192	0.000464	20.752091
160.046062	-2.984600	3.845000	-11.475000	22.238413	0.000464	20.764696
161.021786	-3.012200	3.843900	-11.578000	22.264033	0.000462	20.745303
162.058272	-2.990900	3.844200	-11.496000	22.272357	0.000466	20.765966
163.049254	-2.988900	3.842600	-11.485000	22.282076	0.000465	20.756732
164.024889	-2.985800	3.843300	-11.474000	22.279060	0.000466	20.767462
165.051706	-3.005500	3.842800	-11.548000	22.293267	0.000466	20.760351
166.054747	-2.983800	3.843100	-11.466000	22.276593	0.000464	20.769259
167.039491	-2.978700	3.843300	-11.447000	22.266848	0.000468	20.774201
168.053471	-2.982800	3.843100	-11.462000	22.271707	0.000466	20.784281
169.029006	-2.987700	3.842300	-11.479000	22.289627	0.000465	20.769508
170.045690	-3.018000	3.841600	-11.592000	22.298548	0.000468	20.775122
171.057338	-3.016700	3.841500	-11.588000	22.330998	0.000468	20.763044
172.042779	-3.015000	3.841900	-11.583000	22.326786	0.000469	20.764516
173.041533	-3.000700	3.841600	-11.526000	22.334809	0.000467	20.761645
174.047029	-2.984000	3.842000	-11.463000	22.348740	0.000468	20.760421
175.026214	-2.991700	3.840700	-11.489000	22.344753	0.000468	20.768283
176.031147	-2.994700	3.841500	-11.504000	22.370197	0.000470	20.752984
177.034973	-2.997900	3.840600	-11.513000	22.380489	0.000468	20.766136
178.052530	-2.992800	3.840000	-11.492000	22.389511	0.000470	20.761419
179.031109	-3.005600	3.840500	-11.541000	22.388413	0.000471	20.759846
180.038048	-2.989900	3.840200	-11.482000	22.413856	0.000470	20.784377
181.028911	-2.970700	3.841100	-11.410000	22.425021	0.000471	20.766634
182.033550	-2.991200	3.839900	-11.485000	22.402866	0.000471	20.769104
183.028466	-3.015300	3.838200	-11.573000	22.439724	0.000472	20.768555
184.050735	-3.016200	3.838300	-11.577000	22.444809	0.000472	20.795933
185.063089	-3.004000	3.840400	-11.535000	22.444010	0.000471	20.770002
186.053564	-2.991600	3.840100	-11.488000	22.448521	0.000471	20.764089
187.036574	-2.979500	3.839900	-11.440000	22.452459	0.000472	20.749540
188.033347	-3.015000	3.839000	-11.574000	22.450241	0.000472	20.743999
189.032765	-3.008600	3.837600	-11.545000	22.478273	0.000471	20.781082
190.050991	-3.024200	3.838000	-11.606000	22.516099	0.000473	20.763014
191.032534	-2.978500	3.838600	-11.432000	22.500201	0.000473	20.778861
192.030137	-3.007900	3.836500	-11.539000	22.504488	0.000473	20.793112
193.036539	-3.003500	3.836300	-11.522000	22.510269	0.000475	20.760494
194.059443	-3.029500	3.836400	-11.621000	22.522628	0.000476	20.769553
195.063088	-3.009700	3.835300	-11.543000	22.515128	0.000475	20.770576
196.053904	-2.998300	3.838100	-11.506000	22.513159	0.000476	20.780459
197.056553	-3.006400	3.835300	-11.530000	22.542537	0.000474	20.765785
198.057387	-2.997800	3.835800	-11.498000	22.543185	0.000473	20.776865
199.055651	-3.002200	3.837600	-11.520000	22.549116	0.000476	20.783753
200.037127	-2.997100	3.836300	-11.497000	22.563517	0.000476	20.791065
201.032397	-3.012100	3.836100	-11.554000	22.547619	0.000476	20.777039
202.031063	-3.011200	3.835100	-11.547000	22.580234	0.000476	20.775565
203.035079	-2.999800	3.835800	-11.506000	22.601316	0.000478	20.794783
204.034257	-3.012000	3.835200	-11.550000	22.594288	0.000477	20.789641
205.032556	-3.011400	3.834700	-11.547000	22.617336	0.000476	20.781431
206.032795	-2.991300	3.836100	-11.472000	22.616938	0.000479	20.784352
207.035976	-3.007600	3.835100	-11.534000	22.633780	0.000477	20.772771
208.036363	-3.009600	3.835000	-11.541000	22.656902	0.000477	20.803991
209.034046	-3.000200	3.834400	-11.503000	22.642425	0.000479	20.809406
210.036986	-3.003700	3.834100	-11.515000	22.645739	0.000480	20.806087
211.032073	-3.009100	3.835000	-11.539000	22.655131	0.000480	20.773294
212.049888	-2.985700	3.834700	-11.449000	22.669158	0.000481	20.779758
213.033884	-3.003500	3.834500	-11.516000	22.655505	0.000479	20.813972
214.061814	-3.019300	3.832800	-11.571000	22.668561	0.000483	20.787694
215.036181	-2.985000	3.834400	-11.444000	22.687944	0.000480	20.801894
216.036767	-3.000800	3.832600	-11.501000	22.681043	0.000482	20.803041
217.037910	-2.992000	3.833500	-11.469000	22.683507	0.000481	20.790811
218.039145	-2.996700	3.832500	-11.483000	22.703117	0.000480	20.784849
219.040883	-2.999200	3.832700	-11.494000	22.725936	0.000484	20.794905
220.040912	-2.983600	3.832000	-11.432000	22.733286	0.000483	20.816017
221.043821	-2.990900	3.831800	-11.460000	22.746316	0.000483	20.780706
222.035002	-3.003400	3.830700	-11.504000	22.764702	0.000482	20.802443
223.035781	-3.012800	3.830800	-11.540000	22.770356	0.000484	20.783450
224.034885	-3.004000	3.830900	-11.508000	22.760914	0.000483	20.797700
225.063208	-3.008100	3.832800	-11.529000	22.771850	0.000483	20.806284
226.038054	-3.011000	3.831400	-11.535000	22.767167	0.000483	20.802067
227.039182	-3.012900	3.830300	-11.539000	22.770280	0.000483	20.798547
228.051221	-3.004400	3.831100	-11.509000	22.773744	0.000484	20.808655
229.071690	-2.984300	3.830900	-11.432000	22.791182	0.000482	20.799572
230.039834	-3.000200	3.830500	-11.492000	22.796015	0.000485	20.811051
231.038965	-3.003500	3.831000	-11.506000	22.808396	0.000486	20.818237
232.040612	-2.993900	3.829800	-11.464000	22.779247	0.000485	20.797098
233.046300	-2.999500	3.830400	-11.487000	22.804384	0.000486	20.828443
234.040322	-3.022700	3.829100	-11.573000	22.806301	0.000488	20.803811
235.041258	-3.003700	3.828700	-11.499000	22.804807	0.000487	20.798047
236.043573	-3.009700	3.829700	-11.525000	22.824885	0.000489	20.826695
237.041443	-3.006600	3.830400	-11.516000	22.857868	0.000487	20.814219
238.061728	-3.004400	3.828300	-11.500000	22.846134	0.000489	20.811946
239.071416	-3.000500	3.828100	-11.485000	22.880386	0.000487	20.791733
240.043058	-3.007500	3.828500	-11.512000	22.859039	0.000491	20.817288
241.047109	-3.012700	3.828200	-11.533000	22.866113	0.000488	20.841444
242.066172	-2.996000	3.827800	-11.467000	22.905321	0.000488	20.828094
243.041649	-3.014800	3.827100	-11.537000	22.877621	0.000490	20.817412
244.041260	-2.999100	3.827400	-11.478000	22.889779	0.000488	20.819635
245.060514	-3.015600	3.826000	-11.537000	22.880512	0.000490	20.816041
246.064312	-2.988200	3.827100	-11.435000	22.876800	0.000491	20.818012
247.050029	-2.983100	3.827400	-11.416000	22.899196	0.000489	20.826699
248.046430	-2.997600	3.826000	-11.467000	22.910703	0.000492	20.816416
249.047323	-2.991700	3.826500	-11.447000	22.928588	0.000491	20.800195
250.045796	-2.975200	3.826000	-11.382000	22.938553	0.000491	20.806859
251.051083	-3.003900	3.825600	-11.491000	22.968591	0.000491	20.821308
252.051157	-2.987500	3.825600	-11.427000	22.962538	0.000494	20.810976
253.050568	-2.997700	3.825100	-11.466000	22.967421	0.000492	20.823455
254.045030	-3.017100	3.825400	-11.541000	22.987422	0.000493	20.835907
255.045473	-3.032500	3.824500	-11.597000	22.967670	0.000495	20.827022
256.065314	-3.006600	3.826400	-11.503000	22.995866	0.000494	20.835832
257.071738	-3.000200	3.824800	-11.474000	22.990013	0.000495	20.816692
258.050766	-2.987100	3.825300	-11.425000	23.005853	0.000495	20.817390
259.053356	-2.997900	3.824300	-11.465000	23.020697	0.000493	20.823728
260.073317	-2.997600	3.824100	-11.462000	23.045181	0.000496	20.825026
261.081557	-2.996000	3.823800	-11.455000	23.048993	0.000495	20.824578
262.050603	-2.993300	3.823800	-11.445000	23.031707	0.000498	20.809630
263.054130	-2.988700	3.824000	-11.428000	23.023638	0.000495	20.830467
264.049690	-2.984300	3.822900	-11.408000	23.040947	0.000497	20.834534
265.049912	-2.962200	3.824900	-11.329000	23.056415	0.000496	20.811627
266.058514	-2.996200	3.822300	-11.451000	23.076338	0.000496	20.821633
267.064947	-3.014000	3.822100	-11.519000	23.063562	0.000496	20.819736
268.069877	-2.975400	3.823800	-11.376000	23.060224	0.000498	20.820185
269.069365	-2.996000	3.822600	-11.450000	23.067846	0.000496	20.840623
270.069693	-3.003200	3.821400	-11.475000	23.094768	0.000496	20.817340
271.066383	-3.000700	3.821900	-11.467000	23.094844	0.000497	20.827374
272.086079	-3.019600	3.820500	-11.535000	23.122937	0.000499	20.841772
273.073553	-2.984200	3.822000	-11.405000	23.123559	0.000498	20.841921
274.078549	-3.008000	3.819700	-11.489000	23.129386	0.000498	20.823579
275.067983	-3.009200	3.821500	-11.499000	23.128291	0.000498	20.851404
276.052039	-2.996200	3.822000	-11.450000	23.147790	0.000500	20.847236
277.056445	-3.014800	3.820100	-11.516000	23.146320	0.000501	20.825849
278.051483	-3.007300	3.819800	-11.486000	23.157004	0.000500	20.826598
279.058959	-2.979800	3.819300	-11.380000	23.144054	0.000498	20.855346
280.052285	-2.993000	3.819300	-11.429000	23.160068	0.000500	20.825875
281.055244	-3.007800	3.819100	-11.486000	23.145100	0.000501	20.849756
282.055675	-3.000600	3.818600	-11.456000	23.136110	0.000501	20.836954
283.078541	-3.018000	3.818700	-11.523000	23.152596	0.000500	20.839725
284.075275	-2.985900	3.818700	-11.401000	23.156307	0.000501	20.857667
285.076251	-3.009000	3.819200	-11.492000	23.149931	0.000502	20.828045
286.079079	-2.983100	3.818100	-11.388000	23.157452	0.000503	20.875409
287.052905	-3.007000	3.817600	-11.478000	23.170876	0.000503	20.861835
288.054174	-2.986300	3.817700	-11.399000	23.193538	0.000502	20.857992
289.069308	-2.987100	3.818000	-11.404000	23.206760	0.000503	20.860810
290.075890	-2.995200	3.817800	-11.433000	23.241773	0.000503	20.845164
291.055657	-3.014800	3.818000	-11.510000	23.265155	0.000503	20.847734
292.056790	-2.984300	3.815900	-11.387000	23.256165	0.000502	20.853897
293.071078	-3.001300	3.816500	-11.454000	23.301037	0.000504	20.846237
294.069747	-2.999100	3.815400	-11.442000	23.295062	0.000505	20.856369
295.077429	-2.987100	3.816600	-11.400000	23.286222	0.000506	20.838975
296.079600	-3.001400	3.816500	-11.455000	23.300715	0.000504	20.857292
297.075989	-2.992300	3.815700	-11.416000	23.250862	0.000504	20.860436
298.053951	-3.001300	3.815200	-11.450000	23.295211	0.000504	20.851303
299.056808	-3.002300	3.815600	-11.455000	23.280569	0.000505	20.864129
300.059630	-2.984400	3.815800	-11.387000	23.313811	0.000505	20.843866
301.078752	-2.997200	3.815000	-11.433000	23.324544	0.000506	20.838027
302.055924	-2.999700	3.815100	-11.443000	23.325665	0.000505	20.856220
303.057167	-3.014800	3.814000	-11.497000	23.322428	0.000508	20.876682
304.070666	-3.004000	3.813700	-11.456000	23.318941	0.000507	20.865601
305.061312	-2.993300	3.815800	-11.421000	23.299494	0.000506	20.850379
306.057247	-3.030300	3.814500	-11.558000	23.329648	0.000507	20.856893
307.054469	-2.970700	3.814100	-11.330000	23.325415	0.000508	20.864504
308.059642	-2.992600	3.813900	-11.413000	23.333906	0.000510	20.860686
309.060106	-2.983000	3.814200	-11.377000	23.310251	0.000505	20.844091
310.072336	-2.983500	3.813300	-11.375000	23.311520	0.000509	20.856268
311.088675	-3.002100	3.811500	-11.442000	23.339732	0.000509	20.866999
312.061502	-2.973200	3.814400	-11.340000	23.378303	0.000509	20.867250
313.059353	-3.002500	3.812900	-11.447000	23.396353	0.000510	20.873961
314.059740	-3.003100	3.812100	-11.447000	23.412264	0.000510	20.868098
315.059439	-3.002600	3.811300	-11.443000	23.433727	0.000509	20.873963
316.061069	-2.991700	3.812500	-11.406000	23.448614	0.000510	20.864230
317.063048	-3.037000	3.810100	-11.570000	23.442688	0.000510	20.869669
318.058219	-3.004400	3.811100	-11.449000	23.451453	0.000509	20.862334
319.064461	-3.003200	3.812500	-11.449000	23.472963	0.000511	20.872514
320.066814	-2.997700	3.810400	-11.421000	23.471868	0.000511	20.890381
321.061489	-2.984800	3.810400	-11.372000	23.487951	0.000511	20.866675
322.065419	-3.011100	3.810600	-11.474000	23.467162	0.000511	20.867174
323.062511	-3.001300	3.810000	-11.434000	23.472913	0.000511	20.879576
324.059321	-2.990300	3.809600	-11.390000	23.487253	0.000511	20.871191
325.063743	-2.991900	3.809800	-11.398000	23.483544	0.000515	20.860835
326.081065	-2.993500	3.810400	-11.406000	23.490216	0.000514	20.862307
327.062264	-3.012100	3.808500	-11.471000	23.477171	0.000513	20.890955
328.062783	-2.969600	3.810100	-11.314000	23.501244	0.000514	20.856293
329.060590	-3.024600	3.807100	-11.514000	23.508563	0.000513	20.899662
330.077350	-2.995900	3.808900	-11.410000	23.495793	0.000515	20.890181
331.078726	-2.995400	3.809000	-11.409000	23.494572	0.000515	20.875682
332.087450	-2.977100	3.809100	-11.339000	23.500298	0.000512	20.895171
333.080947	-3.000500	3.807900	-11.425000	23.476622	0.000512	20.876655
334.095891	-3.000800	3.806900	-11.423000	23.511750	0.000516	20.889581
335.084755	-3.002000	3.807200	-11.428000	23.509684	0.000515	20.886088
336.099563	-2.974700	3.808100	-11.326000	23.503709	0.000516	20.900011
337.063674	-3.015800	3.805600	-11.476000	23.545134	0.000515	20.905026
338.091629	-2.997300	3.807100	-11.410000	23.550486	0.000516	20.888107
339.065247	-3.002800	3.806500	-11.429000	23.525615	0.000514	20.898737
340.064666	-3.001700	3.805700	-11.423000	23.579886	0.000517	20.905250
341.072151	-3.011700	3.805300	-11.459000	23.579612	0.000518	20.877950
342.064765	-3.002100	3.804600	-11.421000	23.574434	0.000518	20.894095
343.068776	-3.009700	3.803800	-11.448000	23.594073	0.000516	20.897661
344.069510	-2.998900	3.803600	-11.406000	23.579734	0.000520	20.912210
345.071512	-2.994100	3.805500	-11.393000	23.579385	0.000517	20.902852
346.066044	-3.016600	3.804900	-11.477000	23.604204	0.000518	20.897386
347.069512	-3.022800	3.803900	-11.498000	23.567434	0.000521	20.927852
348.092027	-2.995400	3.805400	-11.398000	23.583466	0.000519	20.915950
349.069275	-3.018800	3.804000	-11.483000	23.607610	0.000520	20.906964
350.083793	-3.021700	3.803700	-11.493000	23.587422	0.000520	20.898580
351.081886	-2.998100	3.803400	-11.402000	23.597253	0.000520	20.907960
352.089478	-3.007400	3.803800	-11.439000	23.593618	0.000523	20.909532
353.073707	-3.013700	3.803800	-11.463000	23.615673	0.000521	20.907460
354.077305	-2.987100	3.802500	-11.357000	23.610445	0.000520	20.920710
355.074283	-2.983800	3.803900	-11.349000	23.611117	0.000521	20.901945
356.070127	-3.012900	3.803300	-11.457000	23.638248	0.000524	20.910177
357.068243	-3.014100	3.801500	-11.458000	23.676930	0.000523	20.914818
358.076137	-3.014800	3.802400	-11.462000	23.713147	0.000523	20.916514
359.070192	-3.010600	3.802000	-11.446000	23.708517	0.000521	20.919458
360.068736	-2.994500	3.802700	-11.385000	23.707569	0.000523	20.917560
361.070445	-3.012100	3.801000	-11.448000	23.684968	0.000524	20.920030
362.072645	-2.994100	3.801700	-11.382000	23.684022	0.000524	20.925719
363.091340	-3.022400	3.799900	-11.484000	23.685165	0.000524	20.919753
364.091687	-2.996000	3.800600	-11.385000	23.677025	0.000523	20.936247
365.090554	-3.011100	3.798700	-11.436000	23.694275	0.000524	20.931256
366.087354	-2.983300	3.801400	-11.340000	23.696765	0.000525	20.911470
367.097350	-2.991300	3.797800	-11.359000	23.672195	0.000525	20.923820
368.068884	-2.998100	3.799100	-11.389000	23.701392	0.000526	20.932702
369.072576	-2.987100	3.800100	-11.351000	23.712146	0.000526	20.908398
370.076886	-3.014900	3.797200	-11.447000	23.730192	0.000526	20.902784
371.072068	-3.005300	3.798500	-11.414000	23.706644	0.000527	20.916632
372.071507	-2.998500	3.798100	-11.388000	23.706770	0.000525	20.913439
373.101248	-3.003600	3.798300	-11.407000	23.729271	0.000529	20.904231
374.075416	-2.990100	3.798900	-11.358000	23.753565	0.000530	20.927164
375.093554	-3.003700	3.797200	-11.405000	23.782138	0.000526	20.911243
376.096339	-2.990200	3.798400	-11.357000	23.793139	0.000527	20.923220
377.071128	-2.988400	3.797000	-11.346000	23.775741	0.000530	20.917630
378.073175	-2.993500	3.797200	-11.366000	23.787862	0.000527	20.910345
379.073189	-2.992000	3.796100	-11.356000	23.778505	0.000529	20.896222
380.074701	-2.999600	3.795900	-11.384000	23.799461	0.000529	20.921025
381.078226	-2.988600	3.795000	-11.341000	23.809070	0.000527	20.883247
382.070844	-2.998500	3.796000	-11.381000	23.813724	0.000528	20.919205
383.074231	-2.990600	3.794100	-11.345000	23.812878	0.000529	20.905081
384.085328	-3.015200	3.795000	-11.442000	23.852699	0.000526	20.891431
385.078015	-2.990500	3.795300	-11.349000	23.837891	0.000529	20.902187
386.071874	-2.995900	3.793600	-11.363000	23.857328	0.000530	20.891332
387.074821	-2.986500	3.795000	-11.332000	23.859969	0.000530	20.897772
388.100533	-2.996800	3.795100	-11.372000	23.878359	0.000532	20.899617
389.082163	-2.983800	3.795300	-11.323000	23.841153	0.000529	20.894552
390.082562	-3.000000	3.793800	-11.381000	23.836873	0.000530	20.897848
391.091117	-3.005500	3.793100	-11.398000	23.815594	0.000527	20.883150
392.091978	-3.014700	3.793800	-11.435000	23.813826	0.000531	20.877111
393.073709	-3.006200	3.791500	-11.397000	23.834408	0.000530	20.884472
394.073092	-2.991500	3.792400	-11.343000	23.827492	0.000530	20.889390
395.074094	-3.000400	3.793300	-11.381000	23.821966	0.000531	20.888117
396.073623	-3.018700	3.790100	-11.440000	23.856686	0.000531	20.894006
397.077255	-3.015600	3.792100	-11.434000	23.879357	0.000532	20.891136
398.079405	-2.996600	3.791300	-11.360000	23.918183	0.000530	20.899247
399.076335	-3.031300	3.790600	-11.489000	23.917486	0.000532	20.875317
400.081373	-3.026100	3.791500	-11.473000	23.911812	0.000531	20.895230
401.080087	-3.017600	3.790300	-11.436000	23.917437	0.000532	20.861517
402.091528	-3.022700	3.790900	-11.458000	23.887622	0.000533	20.887095
403.100018	-3.005800	3.790100	-11.391000	23.886379	0.000532	20.879211
404.083731	-2.986400	3.790400	-11.319000	23.885881	0.000532	20.877764
405.080323	-2.991600	3.790300	-11.339000	23.884686	0.000534	20.871824
406.080571	-2.992300	3.790800	-11.341000	23.901485	0.000532	20.885824
407.081290	-2.978500	3.791700	-11.292000	23.910992	0.000534	20.873072
408.078391	-2.992600	3.789900	-11.340000	23.886056	0.000534	20.876991
409.103728	-3.017800	3.788800	-11.433000	23.885607	0.000534	20.854256
410.080914	-2.988700	3.788600	-11.323000	23.889665	0.000532	20.834619
411.078107	-2.982400	3.788800	-11.299000	23.921793	0.000533	20.837912
412.080139	-2.995600	3.788500	-11.349000	23.928912	0.000531	20.855481
413.077712	-2.996500	3.788500	-11.352000	23.918559	0.000536	20.858376
414.083548	-3.014000	3.787200	-11.414000	23.943199	0.000533	20.886401
415.103659	-3.008400	3.788100	-11.395000	23.926624	0.000534	20.874048
416.079475	-2.961800	3.788200	-11.219000	23.961937	0.000534	20.857778
417.081217	-3.012200	3.786900	-11.406000	23.972364	0.000535	20.848795
418.077988	-3.028100	3.785200	-11.461000	23.955468	0.000537	20.866463
419.080038	-3.006300	3.786400	-11.383000	23.979880	0.000537	20.878141
420.100102	-2.979900	3.785600	-11.280000	23.975227	0.000537	20.840761
421.080617	-2.991000	3.787200	-11.327000	24.034725	0.000536	20.852538
422.081794	-2.983000	3.785800	-11.292000	24.029328	0.000536	20.876047
423.084713	-2.983300	3.786400	-11.295000	24.023107	0.000536	20.868860
424.080591	-2.996100	3.784500	-11.338000	24.049881	0.000536	20.862995
425.085693	-3.006800	3.785900	-11.382000	24.033907	0.000536	20.855510
426.083783	-2.991300	3.784900	-11.321000	24.014499	0.000535	20.852168
427.080667	-2.979600	3.785600	-11.278000	23.984662	0.000536	20.857808
428.082424	-2.991300	3.784600	-11.320000	24.005092	0.000537	20.847950
429.098969	-3.010100	3.783700	-11.388000	24.039681	0.000537	20.841861
430.114947	-2.995000	3.784800	-11.335000	24.047444	0.000538	20.863396
431.105135	-2.991000	3.784000	-11.317000	24.048343	0.000535	20.855289
432.086120	-2.992300	3.782800	-11.318000	24.053691	0.000537	20.856385
433.082020	-2.976500	3.783900	-11.262000	24.076062	0.000538	20.845631
434.082829	-2.994700	3.782700	-11.327000	24.092285	0.000535	20.842461
435.082141	-2.990500	3.782400	-11.311000	24.076138	0.000535	20.849500
436.084547	-2.994000	3.782600	-11.324000	24.077009	0.000537	20.845158
437.084017	-3.004300	3.782500	-11.362000	24.057276	0.000537	20.862825
438.088762	-2.979100	3.782800	-11.269000	24.065216	0.000535	20.846133
439.105649	-3.000100	3.781800	-11.345000	24.090023	0.000537	20.845408
440.108637	-3.002800	3.781100	-11.354000	24.087835	0.000536	20.856963
441.126855	-2.993600	3.781300	-11.318000	24.084924	0.000536	20.864475
442.112584	-3.000900	3.781600	-11.348000	24.102616	0.000535	20.845710
443.107198	-3.001500	3.780800	-11.347000	24.104631	0.000539	20.862429
444.103475	-3.006800	3.778900	-11.361000	24.119735	0.000537	20.821628
445.085875	-3.002100	3.779800	-11.346000	24.114536	0.000538	20.835854
446.088941	-3.001300	3.779400	-11.342000	24.104459	0.000536	20.830015
447.086480	-2.997400	3.779400	-11.327000	24.116228	0.000538	20.854146
448.086168	-2.986700	3.779500	-11.287000	24.114461	0.000540	20.832460
449.089696	-2.990000	3.780000	-11.302000	24.142379	0.000540	20.831537
450.089952	-3.001300	3.779400	-11.343000	24.174153	0.000539	20.846336
451.109601	-2.995500	3.779400	-11.320000	24.173978	0.000538	20.833359
452.090908	-2.986100	3.777700	-11.280000	24.184130	0.000541	20.819360
453.088213	-3.006200	3.777900	-11.355000	24.175224	0.000540	20.834609
454.087983	-3.005700	3.778300	-11.356000	24.144894	0.000538	20.840698
455.093465	-3.003400	3.777100	-11.343000	24.149174	0.000538	20.815593
456.089499	-3.012100	3.776300	-11.374000	24.149944	0.000539	20.839125
457.103636	-2.998500	3.777000	-11.325000	24.156962	0.000539	20.834784
458.120586	-2.991300	3.776900	-11.296000	24.148230	0.000539	20.850207
459.104275	-3.012100	3.776400	-11.374000	24.160247	0.000539	20.853250
460.090714	-3.009300	3.777200	-11.365000	24.151365	0.000542	20.834860
461.093112	-3.023400	3.775100	-11.413000	24.154402	0.000541	20.840276
462.096036	-2.978100	3.775900	-11.244000	24.153954	0.000541	20.829396
463.093742	-2.993200	3.776000	-11.301000	24.127456	0.000541	20.831269
464.095943	-3.013800	3.774900	-11.375000	24.176647	0.000540	20.811854
465.095760	-3.009800	3.773500	-11.357000	24.158162	0.000541	20.844996
466.094391	-3.014100	3.774100	-11.374000	24.191329	0.000538	20.818520
467.095239	-2.978100	3.774100	-11.239000	24.220636	0.000542	20.816622
468.091292	-3.007600	3.774300	-11.350000	24.238277	0.000541	20.836212
469.096152	-2.990100	3.773500	-11.281000	24.236785	0.000540	20.816224
470.117743	-2.997700	3.773400	-11.310000	24.249797	0.000540	20.823112
471.098420	-3.019500	3.772900	-11.391000	24.232804	0.000541	20.826930
472.124307	-2.999700	3.772300	-11.315000	24.240943	0.000541	20.815653
473.114778	-2.995600	3.772400	-11.300000	24.225368	0.000541	20.818049
474.096663	-3.000600	3.772300	-11.319000	24.223104	0.000540	20.826209
475.092557	-3.006300	3.772600	-11.341000	24.240668	0.000541	20.836240
476.095173	-3.001000	3.772600	-11.321000	24.221041	0.000543	20.797113
477.094071	-2.982200	3.770900	-11.245000	24.248805	0.000542	20.838712
478.120096	-3.016200	3.771200	-11.374000	24.241418	0.000542	20.827984
479.101138	-2.996100	3.771600	-11.299000	24.231713	0.000542	20.816353
480.096271	-3.004200	3.771500	-11.329000	24.259008	0.000541	20.830928
481.099943	-3.009800	3.769600	-11.343000	24.252439	0.000541	20.827185
482.100606	-3.008700	3.768700	-11.337000	24.221664	0.000541	20.826187
483.101248	-2.990100	3.770200	-11.272000	24.258485	0.000543	20.827559
484.105536	-3.002500	3.770300	-11.319000	24.254208	0.000539	20.833226
485.102337	-3.001200	3.770100	-11.314000	24.239779	0.000543	20.841511
486.098674	-2.993000	3.769400	-11.281000	24.229129	0.000541	20.836046
487.101807	-3.006900	3.768900	-11.331000	24.219153	0.000539	20.833625
488.098449	-3.008700	3.769200	-11.339000	24.244828	0.000540	20.835197
489.106050	-2.995900	3.770000	-11.294000	24.297099	0.000543	20.836894
490.100826	-2.990100	3.768500	-11.266000	24.295806	0.000541	20.813787
491.103446	-3.004300	3.768100	-11.319000	24.279685	0.000542	20.813264
492.102538	-3.000700	3.768200	-11.307000	24.314837	0.000542	20.811067
493.107384	-3.006000	3.768100	-11.325000	24.310981	0.000539	20.828061
494.111445	-2.976000	3.767900	-11.211000	24.346009	0.000541	20.813887
495.108927	-3.006800	3.766900	-11.325000	24.377430	0.000543	20.807476
496.104371	-3.025300	3.765400	-11.390000	24.373748	0.000540	20.809946
497.118508	-2.999900	3.767100	-11.300000	24.333149	0.000541	20.808573
498.124781	-2.979100	3.767600	-11.223000	24.309292	0.000539	20.830634
499.127439	-3.001800	3.766000	-11.305000	24.341731	0.000541	20.803432
500.110743	-3.020900	3.766000	-11.375000	24.359795	0.000541	20.803535
501.104989	-3.010000	3.764800	-11.331000	24.350414	0.000541	20.811668
502.123475	-3.006000	3.765300	-11.318000	24.388899	0.000543	20.812343
503.104578	-3.012100	3.765400	-11.340000	24.392333	0.000539	20.807253
504.104890	-3.032900	3.765600	-11.419000	24.369920	0.000540	20.816537
505.107906	-2.992500	3.763700	-11.262000	24.388254	0.000539	20.804110
506.103051	-3.019700	3.764500	-11.367000	24.409872	0.000544	20.794503
507.105442	-3.006200	3.763400	-11.313000	24.434002	0.000540	20.795477
508.105430	-3.017100	3.763500	-11.353000	24.426713	0.000540	20.804760
509.123579	-2.992200	3.763300	-11.259000	24.427136	0.000541	20.809452
510.106131	-3.006400	3.763400	-11.314000	24.442808	0.000540	20.802890
511.106757	-3.000400	3.762300	-11.288000	24.424300	0.000541	20.800443
512.130112	-3.008100	3.761800	-11.314000	24.397461	0.000540	20.780155
513.119600	-2.999300	3.761700	-11.281000	24.370495	0.000540	20.793407
514.119829	-3.018500	3.761600	-11.353000	24.384425	0.000542	20.790785
515.130256	-2.987100	3.761600	-11.235000	24.424201	0.000541	20.799395
516.140866	-2.959400	3.763100	-11.136000	24.453380	0.000540	20.803538
517.106374	-2.992400	3.761600	-11.255000	24.480766	0.000544	20.790237
518.105270	-2.992400	3.762000	-11.257000	24.471663	0.000540	20.789164
519.122076	-3.010500	3.761500	-11.323000	24.465965	0.000542	20.799569
520.104027	-3.004200	3.760600	-11.297000	24.460370	0.000542	20.796326
521.104473	-2.999600	3.760100	-11.277000	24.494521	0.000541	20.784122
522.105413	-2.976000	3.761500	-11.192000	24.494348	0.000543	20.783474
523.105200	-3.017000	3.759100	-11.340000	24.479897	0.000544	20.792684
524.113899	-2.999500	3.758800	-11.273000	24.500591	0.000543	20.783574
525.108105	-3.002800	3.760100	-11.290000	24.470146	0.000543	20.790487
526.123323	-3.004700	3.757900	-11.291000	24.479697	0.000543	20.789638
527.110755	-3.007800	3.759000	-11.306000	24.436640	0.000544	20.795752
528.121692	-3.000500	3.758900	-11.278000	24.460692	0.000545	20.795701
529.130040	-2.996800	3.758900	-11.264000	24.475320	0.000542	20.789040
530.110279	-2.996900	3.758200	-11.262000	24.476514	0.000543	20.793083
531.143515	-3.018500	3.757200	-11.341000	24.463157	0.000543	20.792959
532.110271	-2.992900	3.757100	-11.243000	24.459748	0.000544	20.790487
533.134087	-3.017800	3.757800	-11.339000	24.424176	0.000543	20.790361
534.140195	-2.996000	3.756900	-11.255000	24.429525	0.000542	20.785770
535.133616	-2.979200	3.757700	-11.195000	24.473231	0.000542	20.790263
536.120199	-2.988800	3.757400	-11.229000	24.450346	0.000541	20.776312
537.111522	-3.000100	3.756300	-11.268000	24.455893	0.000543	20.769549
538.114874	-2.982800	3.757600	-11.208000	24.448257	0.000542	20.788441
539.120242	-3.002700	3.755600	-11.276000	24.460769	0.000541	20.779183
540.115582	-2.995300	3.756500	-11.251000	24.491563	0.000543	20.788741
541.115362	-3.004200	3.755700	-11.282000	24.490220	0.000541	20.785497
542.116226	-3.002500	3.755700	-11.275000	24.516462	0.000542	20.790963
543.124466	-2.988200	3.754900	-11.219000	24.562203	0.000543	20.786122
544.113871	-3.016700	3.754800	-11.326000	24.506463	0.000541	20.782827
545.115057	-3.015000	3.753900	-11.317000	24.512159	0.000541	20.765782
546.114654	-3.033000	3.752700	-11.380000	24.507532	0.000539	20.782478
547.117080	-2.999500	3.753000	-11.256000	24.508203	0.000541	20.785521
548.117426	-2.999500	3.753300	-11.257000	24.534992	0.000542	20.787743
549.121964	-3.002300	3.753300	-11.267000	24.548001	0.000541	20.783252
550.119057	-3.000600	3.752500	-11.259000	24.571828	0.000541	20.777761
551.145174	-3.012600	3.753200	-11.307000	24.543101	0.000540	20.761740
552.153511	-3.012400	3.752000	-11.301000	24.517656	0.000540	20.784101
553.121765	-3.012800	3.753000	-11.305000	24.503803	0.000543	20.781106
554.125389	-3.005900	3.751000	-11.274000	24.476093	0.000542	20.791238
555.122506	-3.001800	3.752100	-11.262000	24.456344	0.000540	20.768579
556.124240	-3.008700	3.750800	-11.284000	24.504873	0.000540	20.776016
557.121034	-2.999400	3.751000	-11.250000	24.515819	0.000539	20.757126
558.121984	-2.983700	3.751600	-11.193000	24.512882	0.000540	20.784052
559.143296	-2.999200	3.750200	-11.247000	24.504923	0.000541	20.774170
560.120322	-2.986000	3.751400	-11.201000	24.516888	0.000541	20.775743
561.143506	-2.995300	3.750400	-11.232000	24.549845	0.000541	20.775618
562.120582	-2.983500	3.749900	-11.187000	24.567703	0.000541	20.768881
563.123415	-3.007800	3.750400	-11.279000	24.576558	0.000540	20.750264
564.122201	-3.015600	3.749000	-11.304000	24.600908	0.000540	20.771377
565.120549	-3.012700	3.747600	-11.290000	24.581036	0.000541	20.777517
566.128931	-2.973300	3.748700	-11.145000	24.586011	0.000538	20.766387
567.125730	-2.978500	3.749400	-11.166000	24.595437	0.000540	20.768259
568.122632	-3.005900	3.748700	-11.267000	24.572282	0.000539	20.774897
569.125546	-3.007200	3.748400	-11.271000	24.590511	0.000538	20.750988
570.126259	-2.992100	3.748800	-11.216000	24.582876	0.000539	20.751388
571.125907	-3.010700	3.748100	-11.282000	24.579545	0.000541	20.771280
572.128838	-3.006900	3.747200	-11.266000	24.596955	0.000538	20.774524
573.125157	-3.001300	3.747200	-11.246000	24.573377	0.000537	20.776470
574.125803	-3.003600	3.746100	-11.251000	24.576460	0.000541	20.746847
575.125287	-3.020900	3.746400	-11.317000	24.580191	0.000539	20.751064
576.130301	-2.969500	3.747400	-11.127000	24.594568	0.000540	20.764068
577.136676	-3.020700	3.746600	-11.316000	24.582678	0.000539	20.773475
578.123125	-2.994200	3.746600	-11.218000	24.605932	0.000538	20.756978
579.122879	-2.993500	3.746500	-11.214000	24.646123	0.000539	20.739933
580.125433	-2.997900	3.743700	-11.222000	24.634708	0.000538	20.739858
581.130533	-3.021100	3.744000	-11.310000	24.602451	0.000539	20.751114
582.145784	-3.013200	3.744000	-11.280000	24.613766	0.000540	20.734017
583.146372	-2.998600	3.744900	-11.229000	24.654977	0.000539	20.748818
584.140652	-2.986100	3.744400	-11.180000	24.635179	0.000538	20.751237
585.144575	-3.019700	3.742800	-11.301000	24.679176	0.000538	20.741806
586.143032	-2.999100	3.743500	-11.226000	24.666417	0.000539	20.761720
587.144347	-3.014500	3.742500	-11.282000	24.661070	0.000539	20.755407
588.149265	-2.993300	3.742900	-11.203000	24.711953	0.000539	20.762844
589.127498	-2.986600	3.743700	-11.180000	24.695962	0.000540	20.756754
590.132944	-3.017100	3.742000	-11.289000	24.698201	0.000539	20.736715
591.126434	-2.978300	3.743700	-11.149000	24.700264	0.000540	20.750640
592.133323	-3.021600	3.741200	-11.304000	24.736449	0.000539	20.740009
593.154465	-3.004700	3.741600	-11.242000	24.721354	0.000539	20.733396
594.145586	-2.992500	3.742600	-11.198000	24.716480	0.000538	20.759326
595.128442	-3.012700	3.741200	-11.270000	24.696012	0.000539	20.727405
596.146608	-2.994900	3.741700	-11.205000	24.703921	0.000538	20.738661
597.131706	-3.007100	3.741200	-11.249000	24.707701	0.000538	20.756680
598.129382	-2.989300	3.741700	-11.185000	24.737719	0.000539	20.748397
599.144823	-3.001600	3.741400	-11.230000	24.723690	0.000537	20.765613
600.147278	-2.992600	3.740400	-11.192000	24.742394	0.000537	20.739338
601.148293	-3.004700	3.741200	-11.240000	24.734734	0.000540	20.741607
602.129755	-3.006400	3.740200	-11.243000	24.722472	0.000537	20.743527
603.133062	-2.983900	3.739700	-11.159000	24.718743	0.000540	20.743579
604.128081	-3.015200	3.738600	-11.271000	24.663881	0.000537	20.752063
605.153042	-2.979200	3.739700	-11.140000	24.721651	0.000537	20.734168
606.132612	-2.998100	3.738000	-11.206000	24.736622	0.000536	20.755831
607.131773	-2.976600	3.739100	-11.128000	24.729859	0.000537	20.731499
608.146511	-3.024500	3.738700	-11.306000	24.724362	0.000539	20.725034
609.152658	-2.989400	3.736800	-11.170000	24.709914	0.000537	20.749892
610.152025	-3.009600	3.738600	-11.251000	24.725656	0.000538	20.738187
611.153856	-2.995400	3.736100	-11.190000	24.686588	0.000538	20.739760
612.138235	-3.013600	3.736700	-11.259000	24.718841	0.000538	20.726132
613.134586	-2.995200	3.737700	-11.194000	24.715086	0.000538	20.722363
614.135382	-3.019500	3.736400	-11.281000	24.734134	0.000537	20.725832
615.134888	-3.012100	3.737000	-11.255000	24.767159	0.000538	20.744749
616.137903	-2.991700	3.737200	-11.180000	24.812864	0.000536	20.737987
617.137115	-2.991100	3.736200	-11.174000	24.802992	0.000537	20.739459
618.135951	-2.976500	3.736300	-11.120000	24.793518	0.000536	20.750814
619.137741	-3.004200	3.735600	-11.221000	24.763977	0.000535	20.726857
620.161179	-2.993500	3.734300	-11.178000	24.789141	0.000538	20.718918
621.138782	-2.993600	3.733700	-11.177000	24.813211	0.000537	20.730748
622.141593	-2.987200	3.734300	-11.154000	24.768254	0.000537	20.733520
623.136659	-2.999300	3.734500	-11.200000	24.748755	0.000535	20.747618
624.143553	-2.990200	3.734200	-11.165000	24.741222	0.000536	20.726780
625.157463	-3.017800	3.733200	-11.266000	24.745672	0.000534	20.734566
626.166110	-3.026100	3.733700	-11.298000	24.769969	0.000533	20.724335
627.154500	-3.011900	3.732800	-11.242000	24.809359	0.000536	20.731149
628.156982	-2.993000	3.733200	-11.172000	24.824876	0.000537	20.737713
629.141467	-2.994500	3.733700	-11.180000	24.865032	0.000536	20.712105
630.142592	-2.972000	3.734600	-11.099000	24.809035	0.000537	20.741730
631.139109	-3.000800	3.733200	-11.201000	24.782278	0.000534	20.717721
632.138453	-2.977700	3.733400	-11.116000	24.781209	0.000537	20.721390
633.145093	-3.003300	3.731900	-11.207000	24.779892	0.000536	20.745674
634.138698	-3.004900	3.731700	-11.212000	24.794115	0.000535	20.720117
635.161746	-3.005700	3.732600	-11.218000	24.770689	0.000536	20.727429
636.139063	-3.008500	3.731500	-11.225000	24.808612	0.000534	20.710010
637.140710	-3.000300	3.732000	-11.196000	24.806126	0.000534	20.709885
638.138099	-2.976000	3.730800	-11.102000	24.796353	0.000535	20.744650
639.139955	-2.999600	3.731800	-11.193000	24.846037	0.000535	20.721491
640.137667	-2.971400	3.730900	-11.085000	24.866748	0.000534	20.738486
641.143456	-3.016500	3.729000	-11.247000	24.855383	0.000536	20.741304
642.141570	-2.985100	3.730500	-11.135000	24.900093	0.000536	20.698929
643.140274	-2.999200	3.731100	-11.190000	24.842279	0.000534	20.730048
644.141612	-3.000600	3.730200	-11.192000	24.843721	0.000535	20.739557
645.140471	-3.007000	3.730000	-11.215000	24.835838	0.000536	20.718842
646.142551	-2.989800	3.728200	-11.146000	24.852075	0.000535	20.710007
647.143404	-2.994800	3.728900	-11.166000	24.841384	0.000536	20.733891
648.141777	-2.997300	3.728800	-11.175000	24.857447	0.000533	20.748591
649.143536	-3.008600	3.728000	-11.215000	24.852076	0.000534	20.727079
650.163519	-3.006700	3.727800	-11.208000	24.874602	0.000533	20.733091
651.169714	-2.999800	3.727100	-11.179000	24.905683	0.000533	20.718292
652.170320	-2.996300	3.727300	-11.167000	24.907797	0.000533	20.733691
653.172827	-3.017200	3.728200	-11.248000	24.879724	0.000536	20.733490
654.155260	-3.013800	3.727700	-11.234000	24.844118	0.000534	20.721462
655.163603	-3.011900	3.728000	-11.227000	24.859708	0.000534	20.725255
656.143795	-2.989700	3.726500	-11.140000	24.848642	0.000533	20.711303
657.150176	-3.023400	3.724900	-11.261000	24.837378	0.000531	20.748838
658.139772	-3.005500	3.726200	-11.198000	24.863684	0.000533	20.722133
659.143936	-2.999900	3.725800	-11.176000	24.879997	0.000533	20.735661
660.144603	-2.993100	3.725200	-11.148000	24.884722	0.000533	20.744197
661.145048	-2.990400	3.724300	-11.136000	24.870946	0.000531	20.729422
662.146799	-2.987900	3.725300	-11.130000	24.889495	0.000533	20.731443
663.170002	-2.984400	3.725600	-11.117000	24.892329	0.000531	20.724804
664.162373	-2.997300	3.724300	-11.162000	24.945937	0.000533	20.748739
665.145010	-2.995400	3.725100	-11.157000	24.911451	0.000531	20.736410
666.148417	-3.000200	3.725400	-11.176000	24.912792	0.000531	20.718315
667.146134	-3.005100	3.722200	-11.185000	24.909735	0.000532	20.736584
668.145105	-2.988400	3.722900	-11.124000	24.881264	0.000531	20.733613
669.143999	-2.998800	3.723400	-11.165000	24.878431	0.000531	20.715122
670.144535	-2.997100	3.722700	-11.156000	24.885344	0.000532	20.725380
671.148310	-3.005100	3.723400	-11.189000	24.876889	0.000530	20.733490
672.144336	-3.004900	3.722400	-11.184000	24.883406	0.000531	20.729599
673.144666	-2.995600	3.723500	-11.153000	24.870450	0.000532	20.728924
674.146413	-3.016500	3.723000	-11.229000	24.840165	0.000531	20.722710
675.142567	-3.024400	3.721400	-11.254000	24.896262	0.000530	20.718320
676.149490	-2.993500	3.722500	-11.141000	24.895017	0.000529	20.724657
677.169364	-3.008400	3.721400	-11.194000	24.935074	0.000528	20.707488
678.180108	-2.976500	3.721400	-11.075000	24.940071	0.000529	20.736687
679.148619	-3.006800	3.721000	-11.187000	24.928733	0.000529	20.739058
680.150522	-3.005700	3.721200	-11.184000	24.966302	0.000531	20.732195
681.176105	-3.018600	3.719300	-11.226000	24.990990	0.000528	20.718094
682.170389	-3.000200	3.721700	-11.164000	24.961481	0.000530	20.735417
683.155356	-2.981700	3.719800	-11.090000	24.952158	0.000529	20.751665
684.154388	-3.013700	3.719300	-11.208000	24.925155	0.000529	20.729302
685.170842	-3.015700	3.718000	-11.211000	24.894499	0.000529	20.752588
686.166872	-2.992200	3.718400	-11.125000	24.863319	0.000527	20.744527
687.180998	-3.010200	3.718600	-11.193000	24.880277	0.000528	20.740210
688.149621	-2.976200	3.719400	-11.069000	24.882862	0.000531	20.728579
689.157460	-2.987200	3.719800	-11.111000	24.919389	0.000529	20.744852
690.148934	-3.018700	3.716500	-11.217000	24.922968	0.000529	20.730426
691.149989	-2.998100	3.717300	-11.144000	24.910215	0.000527	20.747498
692.156538	-3.002100	3.717300	-11.159000	24.928812	0.000526	20.734869
693.151783	-2.999300	3.718200	-11.149000	24.915735	0.000528	20.763471
694.151269	-2.987700	3.717100	-11.105000	24.932940	0.000527	20.735693
695.150239	-2.983700	3.717300	-11.090000	24.972000	0.000527	20.724638
696.171181	-2.996300	3.716700	-11.136000	24.987340	0.000526	20.747622
697.151878	-3.004000	3.717100	-11.165000	24.986993	0.000526	20.749171
698.175845	-3.007800	3.715300	-11.174000	24.946443	0.000529	20.736918
699.155955	-2.984300	3.715000	-11.086000	24.924836	0.000525	20.737043
700.156209	-2.991600	3.716500	-11.118000	24.914965	0.000526	20.725238
701.154778	-2.994100	3.716400	-11.127000	24.885725	0.000525	20.737617
702.154991	-3.000700	3.714700	-11.146000	24.871925	0.000528	20.734672
703.158295	-2.988400	3.715500	-11.102000	24.878017	0.000526	20.753115
704.186445	-3.028700	3.714600	-11.249000	24.886896	0.000526	20.752543
705.164524	-2.998400	3.714600	-11.137000	24.888186	0.000524	20.762373
706.159047	-3.000400	3.714800	-11.144000	24.930930	0.000527	20.753591
707.162352	-3.003200	3.715100	-11.157000	24.925162	0.000526	20.756810
708.155539	-3.001600	3.713600	-11.146000	24.918698	0.000526	20.762177
709.163962	-3.011600	3.713600	-11.183000	24.953904	0.000527	20.751520
710.161719	-2.962300	3.714800	-11.003000	25.007284	0.000525	20.743459
711.163970	-2.998800	3.714000	-11.137000	24.973621	0.000527	20.744757
712.159337	-3.002200	3.712500	-11.145000	24.965689	0.000524	20.771410
713.163033	-3.011400	3.712300	-11.178000	24.984137	0.000525	20.754365
714.166134	-2.985900	3.713400	-11.087000	24.999179	0.000526	20.735798
715.156821	-2.991600	3.712300	-11.105000	24.976281	0.000526	20.753592
716.185918	-2.997100	3.711400	-11.123000	24.988240	0.000527	20.752793
717.183627	-3.009100	3.711100	-11.167000	25.016756	0.000527	20.755812
718.160193	-3.003300	3.711300	-11.145000	25.012429	0.000525	20.756210
719.176765	-2.999000	3.711100	-11.129000	25.036347	0.000525	20.764573
720.185512	-3.013100	3.710400	-11.180000	25.038908	0.000525	20.746279
721.164841	-2.977700	3.710800	-11.048000	25.027670	0.000524	20.771984
722.162580	-2.994300	3.710200	-11.108000	25.033413	0.000524	20.768265
723.160023	-2.996300	3.710300	-11.116000	25.008354	0.000523	20.766819
724.178764	-2.963200	3.710900	-10.995000	25.039405	0.000525	20.766219
725.163766	-3.007100	3.710000	-11.155000	25.052482	0.000524	20.749474
726.161075	-2.989300	3.711100	-11.092000	25.051836	0.000523	20.785811
727.168656	-3.013600	3.709400	-11.178000	25.059045	0.000523	20.762701
728.163932	-3.009200	3.708100	-11.158000	25.044229	0.000523	20.756837
729.168251	-2.992300	3.708300	-11.095000	25.046668	0.000524	20.759286
730.177581	-3.020300	3.709200	-11.203000	25.069117	0.000524	20.760008
731.184951	-3.003500	3.708300	-11.137000	25.110608	0.000522	20.766098
732.164256	-3.008500	3.708500	-11.156000	25.088309	0.000522	20.765050
733.163357	-2.997100	3.708800	-11.115000	25.107949	0.000523	20.773860
734.160715	-3.009900	3.707800	-11.160000	25.100293	0.000520	20.775183
735.164078	-2.987300	3.708500	-11.077000	25.087789	0.000521	20.774011
736.191387	-3.007600	3.707400	-11.150000	25.085128	0.000522	20.757115
737.181854	-2.989500	3.707200	-11.082000	25.078641	0.000521	20.758190
738.181932	-2.989200	3.706900	-11.079000	25.095000	0.000522	20.782198
739.182776	-2.995800	3.706500	-11.103000	25.125476	0.000521	20.774860
740.184771	-3.000000	3.706300	-11.119000	25.145563	0.000520	20.756144
741.193373	-3.012200	3.706300	-11.163000	25.172534	0.000521	20.771367
742.188750	-3.005100	3.706000	-11.135000	25.153716	0.000522	20.761484
743.163840	-3.015200	3.705700	-11.172000	25.181112	0.000519	20.786142
744.165016	-3.005400	3.705600	-11.136000	25.178476	0.000518	20.775435
745.160833	-2.996300	3.706100	-11.103000	25.194286	0.000520	20.778980
746.161919	-3.016600	3.704100	-11.173000	25.164930	0.000521	20.757568
747.162946	-3.001400	3.704600	-11.118000	25.158368	0.000519	20.793181
748.185570	-3.004500	3.703500	-11.126000	25.132962	0.000519	20.781427
749.179375	-3.015200	3.703200	-11.164000	25.176268	0.000518	20.749984
750.183218	-3.016100	3.703100	-11.168000	25.163689	0.000520	20.764383
751.183519	-2.983000	3.703500	-11.047000	25.127967	0.000518	20.771670
752.194314	-3.006400	3.703800	-11.135000	25.140918	0.000520	20.775188
753.167138	-3.002100	3.704200	-11.120000	25.102388	0.000518	20.763062
754.168174	-2.986900	3.704000	-11.062000	25.115861	0.000518	20.772794
755.170406	-3.015500	3.702500	-11.163000	25.123769	0.000518	20.766033
756.169351	-2.988700	3.702500	-11.065000	25.145667	0.000517	20.778534
757.172734	-2.989000	3.703400	-11.067000	25.130629	0.000517	20.802792
758.176384	-2.971100	3.703000	-11.000000	25.114968	0.000519	20.781380
759.171353	-2.989800	3.701300	-11.065000	25.127248	0.000518	20.784225
760.172418	-3.007000	3.701300	-11.129000	25.129113	0.000517	20.761915
761.201884	-3.005900	3.700600	-11.122000	25.137540	0.000518	20.785548
762.173874	-3.021900	3.700200	-11.181000	25.135230	0.000517	20.794609
763.174802	-2.973300	3.700800	-11.002000	25.141867	0.000517	20.784202
764.177904	-2.986700	3.701700	-11.055000	25.141319	0.000517	20.779858
765.172437	-2.991900	3.701000	-11.072000	25.122875	0.000516	20.785999
766.204728	-2.995200	3.701600	-11.085000	25.075219	0.000514	20.794110
767.199263	-2.974200	3.699600	-11.002000	25.110568	0.000517	20.783128
768.193104	-2.989000	3.700500	-11.060000	25.094387	0.000514	20.794385
769.196653	-2.980700	3.699400	-11.025000	25.103037	0.000516	20.786473
770.175502	-3.007400	3.699600	-11.126000	25.139604	0.000515	20.796630
771.204449	-2.991900	3.700400	-11.070000	25.116736	0.000515	20.785527
772.175686	-2.995800	3.698800	-11.081000	25.123570	0.000515	20.785275
773.176744	-3.000900	3.698500	-11.098000	25.162626	0.000513	20.786550
774.178361	-3.005900	3.698900	-11.118000	25.150222	0.000515	20.791167
775.210138	-3.003600	3.697900	-11.106000	25.150047	0.000514	20.797629
776.172670	-3.022800	3.696300	-11.172000	25.136349	0.000516	20.795733
777.175639	-2.998300	3.697400	-11.085000	25.064455	0.000514	20.793736
778.175797	-3.010400	3.696200	-11.126000	25.088048	0.000512	20.797979
779.179184	-2.998500	3.697200	-11.085000	25.021595	0.000513	20.792913
780.201613	-2.993900	3.696800	-11.066000	25.050485	0.000514	20.826179
781.175085	-2.980700	3.698200	-11.022000	25.087974	0.000511	20.789370
782.176155	-2.998900	3.695600	-11.082000	25.078826	0.000512	20.810058
783.177391	-2.983100	3.696600	-11.026000	25.114824	0.000513	20.801150
784.176747	-2.990800	3.696200	-11.052000	25.143733	0.000511	20.807412
785.192576	-3.001200	3.695800	-11.091000	25.140154	0.000512	20.789121
786.200435	-2.988000	3.696100	-11.043000	25.128769	0.000511	20.786700
787.203550	-3.002800	3.693900	-11.091000	25.101747	0.000510	20.809834
788.202524	-3.000100	3.694500	-11.083000	25.115471	0.000511	20.804171
789.178981	-2.980700	3.695700	-11.015000	25.132723	0.000511	20.796833
790.175460	-2.987000	3.695800	-11.039000	25.127104	0.000510	20.809211
791.201853	-2.993400	3.694400	-11.058000	25.126782	0.000511	20.804620
792.202775	-3.018900	3.693900	-11.150000	25.152411	0.000511	20.824659
793.201378	-3.016500	3.694000	-11.142000	25.173640	0.000511	20.815151
794.196125	-3.012000	3.693100	-11.123000	25.159200	0.000510	20.804448
795.182798	-3.001300	3.694800	-11.088000	25.115995	0.000509	20.815602
796.191813	-2.996000	3.693200	-11.064000	25.104487	0.000509	20.812111
797.207678	-2.992900	3.693400	-11.054000	25.156368	0.000509	20.822467
798.204734	-2.990900	3.692700	-11.043000	25.201460	0.000510	20.810363
799.194474	-2.998900	3.692200	-11.072000	25.181077	0.000509	20.815978
800.202873	-3.003800	3.691600	-11.088000	25.182617	0.000510	20.809939
801.184801	-3.008300	3.692300	-11.107000	25.220700	0.000509	20.813558
802.185261	-3.024900	3.691200	-11.165000	25.221818	0.000509	20.826060
803.199855	-2.981100	3.691100	-11.002000	25.178418	0.000508	20.792921
804.202870	-3.012900	3.691100	-11.120000	25.206334	0.000506	20.827111
805.204694	-3.021900	3.688900	-11.147000	25.247299	0.000506	20.826038
806.192767	-3.014700	3.689400	-11.121000	25.240960	0.000508	20.816355
807.204219	-2.995000	3.691800	-11.056000	25.199225	0.000508	20.812862
808.200385	-3.000000	3.689600	-11.068000	25.174990	0.000508	20.815083
809.205170	-2.992400	3.689800	-11.040000	25.193535	0.000507	20.815209
810.196242	-2.971700	3.691200	-10.967000	25.205837	0.000507	20.828034
811.203221	-2.997600	3.689600	-11.059000	25.191943	0.000505	20.819775
812.196743	-3.005800	3.688400	-11.085000	25.213891	0.000508	20.827111
813.208538	-3.012200	3.688600	-11.110000	25.232485	0.000505	20.803579
814.201174	-3.017800	3.688900	-11.131000	25.236960	0.000505	20.831305
815.204459	-2.994800	3.688600	-11.046000	25.209989	0.000504	20.840262
816.181246	-3.022200	3.687500	-11.144000	25.227141	0.000504	20.829034
817.185007	-3.017900	3.688700	-11.131000	25.247699	0.000506	20.838293
818.204653	-2.978100	3.687900	-10.982000	25.240068	0.000502	20.822097
819.191258	-3.013600	3.687300	-11.111000	25.184786	0.000505	20.827288
820.188928	-3.001800	3.688800	-11.072000	25.172332	0.000504	20.822847
821.206977	-3.014200	3.686900	-11.112000	25.228162	0.000503	20.840015
822.215737	-2.999800	3.687100	-11.059000	25.227591	0.000504	20.827588
823.215842	-2.991100	3.687800	-11.029000	25.243747	0.000503	20.837645
824.215131	-3.002400	3.686500	-11.066000	25.231691	0.000503	20.829808
825.209198	-3.016400	3.685300	-11.115000	25.217547	0.000505	20.839316
826.209455	-2.978000	3.686800	-10.978000	25.222894	0.000504	20.836149
827.184324	-2.990300	3.687300	-11.026000	25.264948	0.000503	20.840438
828.187802	-3.005500	3.686200	-11.078000	25.237036	0.000503	20.831855
829.190322	-3.014400	3.684800	-11.107000	25.211209	0.000502	20.822048
830.207942	-2.974000	3.685000	-10.959000	25.197985	0.000502	20.841487
831.213253	-2.993200	3.684600	-11.028000	25.192838	0.000502	20.843432
832.211991	-3.000200	3.685000	-11.055000	25.234500	0.000503	20.854912
833.193415	-2.994200	3.685400	-11.034000	25.247424	0.000501	20.847026
834.190579	-2.999600	3.683800	-11.049000	25.260524	0.000502	20.836945
835.190443	-3.021800	3.683600	-11.130000	25.222095	0.000504	20.840088
836.210753	-3.015700	3.682900	-11.105000	25.198381	0.000501	20.842359
837.212006	-3.000700	3.683500	-11.052000	25.212078	0.000502	20.843782
838.203706	-3.018100	3.683600	-11.117000	25.227265	0.000501	20.846701
839.194826	-3.008600	3.682500	-11.078000	25.247524	0.000500	20.845229
840.196804	-2.988700	3.684000	-11.009000	25.232436	0.000501	20.847150
841.213834	-3.005100	3.683000	-11.066000	25.197087	0.000501	20.874249
842.214057	-2.997600	3.683300	-11.040000	25.219408	0.000501	20.832650
843.207862	-2.988700	3.683300	-11.007000	25.231839	0.000500	20.850345
844.195882	-2.995400	3.681500	-11.027000	25.254433	0.000500	20.848846
845.195002	-3.019200	3.680600	-11.112000	25.281053	0.000499	20.856607
846.199227	-3.002000	3.681000	-11.048000	25.312766	0.000500	20.837714
847.195768	-2.990800	3.682400	-11.013000	25.293455	0.000498	20.872851
848.198172	-2.973700	3.681200	-10.946000	25.323878	0.000498	20.855509
849.224676	-3.035000	3.679900	-11.167000	25.329643	0.000497	20.860348
850.197945	-2.983500	3.680100	-10.979000	25.333571	0.000499	20.854335
851.202990	-2.968300	3.681900	-10.928000	25.367000	0.000497	20.856607
852.197276	-3.010300	3.679300	-11.074000	25.321194	0.000499	20.848072
853.199171	-2.970400	3.680400	-10.931000	25.285301	0.000500	20.873199
854.196896	-2.990400	3.680300	-11.005000	25.321019	0.000497	20.874448
855.197205	-2.984600	3.680400	-10.983000	25.344655	0.000497	20.856456
856.202841	-3.003900	3.678700	-11.050000	25.323705	0.000497	20.870507
857.198496	-3.003200	3.678200	-11.045000	25.318434	0.000496	20.856207
858.198349	-2.983700	3.678100	-10.973000	25.319280	0.000496	20.867012
859.198936	-2.994700	3.677600	-11.012000	25.294398	0.000495	20.866686
860.210833	-3.004600	3.677400	-11.048000	25.313289	0.000496	20.875222
861.199981	-3.003500	3.678400	-11.048000	25.302403	0.000495	20.877568
862.203254	-2.990700	3.676400	-10.993000	25.323031	0.000495	20.861771
863.197558	-2.997300	3.677500	-11.022000	25.350371	0.000494	20.874522
864.218230	-3.003300	3.677200	-11.043000	25.333719	0.000495	20.857329
865.215934	-3.005100	3.675800	-11.045000	25.284905	0.000493	20.854785
866.200139	-3.034100	3.675100	-11.150000	25.274018	0.000492	20.870406
867.201937	-3.010300	3.676000	-11.064000	25.307773	0.000492	20.891493
868.201007	-3.008500	3.675500	-11.057000	25.300516	0.000492	20.868087
869.199113	-3.004500	3.675100	-11.041000	25.283041	0.000493	20.887524
870.202651	-2.994900	3.677200	-11.012000	25.242774	0.000492	20.882184
871.200188	-3.018300	3.674600	-11.089000	25.228284	0.000493	20.877120
872.199217	-3.012500	3.674900	-11.070000	25.230097	0.000490	20.876570
873.202072	-3.017700	3.673900	-11.086000	25.204994	0.000491	20.870333
874.220606	-3.008500	3.674200	-11.054000	25.221324	0.000490	20.879615
875.215934	-3.019800	3.674700	-11.096000	25.251080	0.000490	20.884359
876.221777	-3.013100	3.674200	-11.070000	25.260498	0.000490	20.866315
877.212620	-3.023100	3.673100	-11.104000	25.280409	0.000492	20.872080
878.214829	-3.010300	3.673000	-11.056000	25.339540	0.000490	20.860328
879.223249	-2.989900	3.674100	-10.984000	25.403239	0.000489	20.859330
880.200306	-2.964900	3.674400	-10.893000	25.394989	0.000490	20.866218
881.199860	-2.990300	3.673000	-10.982000	25.428837	0.000487	20.850421
882.203628	-2.966600	3.674300	-10.899000	25.432365	0.000488	20.857757
883.206126	-2.986700	3.673600	-10.971000	25.431695	0.000488	20.868937
884.219709	-3.003900	3.672200	-11.030000	25.402518	0.000487	20.871881
885.197861	-3.012900	3.671300	-11.061000	25.398864	0.000489	20.869161
886.201735	-2.989800	3.671300	-10.975000	25.406196	0.000486	20.868463
887.202634	-2.995300	3.671300	-10.995000	25.446331	0.000487	20.864194
888.222633	-2.995100	3.671400	-10.994000	25.449139	0.000485	20.846627
889.221078	-3.006600	3.671900	-11.039000	25.453714	0.000485	20.840315
890.224991	-2.977200	3.670600	-10.927000	25.448941	0.000484	20.846428
891.218538	-2.986900	3.670800	-10.963000	25.394515	0.000485	20.858631
892.220257	-3.004300	3.671300	-11.029000	25.341676	0.000486	20.859155
893.221140	-3.010600	3.670300	-11.049000	25.330118	0.000485	20.851343
894.201409	-2.998200	3.670100	-11.003000	25.315726	0.000486	20.849695
895.202046	-2.996900	3.669100	-10.994000	25.359124	0.000483	20.834475
896.206087	-3.013100	3.668400	-11.053000	25.398265	0.000483	20.833948
897.219638	-3.006100	3.669000	-11.029000	25.378980	0.000483	20.847300
898.224827	-3.009700	3.667600	-11.038000	25.400528	0.000483	20.826738
899.227921	-2.998200	3.669400	-11.000000	25.433706	0.000484	20.838241
900.203066	-3.004300	3.668200	-11.020000	25.428859	0.000481	20.827684
901.201489	-3.005800	3.666900	-11.021000	25.392722	0.000481	20.855408
902.202206	-3.012700	3.667100	-11.047000	25.396127	0.000483	20.837490
903.205833	-3.007700	3.667400	-11.029000	25.368540	0.000482	20.844878
904.208883	-2.989200	3.667900	-10.964000	25.412008	0.000482	20.849170
905.204789	-3.004300	3.666000	-11.014000	25.428408	0.000482	20.819171
906.205525	-2.995300	3.665300	-10.978000	25.371073	0.000482	20.824662
907.204714	-3.010200	3.666600	-11.036000	25.382357	0.000480	20.838837
908.205861	-2.998700	3.665600	-10.992000	25.359342	0.000481	20.835642
909.201292	-2.981700	3.665200	-10.927000	25.335929	0.000481	20.847220
910.205777	-3.016100	3.663500	-11.049000	25.336599	0.000479	20.835566
911.202289	-2.995600	3.664800	-10.978000	25.335059	0.000480	20.845398
912.227646	-3.025500	3.663600	-11.084000	25.360484	0.000480	20.831100
913.208299	-3.011500	3.664800	-11.036000	25.363914	0.000480	20.823163
914.203307	-2.991500	3.665500	-10.964000	25.402884	0.000480	20.816302
915.209635	-3.004200	3.664600	-11.008000	25.453361	0.000478	20.846124
916.209863	-2.997900	3.665100	-10.987000	25.475651	0.000481	20.819670
917.207889	-2.973400	3.664700	-10.895000	25.444363	0.000478	20.826658
918.207970	-3.027000	3.662600	-11.086000	25.416927	0.000479	20.852686
919.212202	-2.997600	3.663000	-10.980000	25.386182	0.000480	20.837936
920.204074	-3.018300	3.662300	-11.053000	25.374055	0.000477	20.821966
921.225918	-3.002100	3.663000	-10.995000	25.411011	0.000479	20.801228
922.228111	-2.978000	3.662700	-10.907000	25.375645	0.000477	20.845373
923.206382	-3.012500	3.662100	-11.031000	25.390979	0.000475	20.836114
924.210275	-3.006700	3.660700	-11.006000	25.369830	0.000476	20.821043
925.207743	-3.035600	3.660700	-11.112000	25.370500	0.000476	20.802276
926.213501	-2.994700	3.662800	-10.968000	25.430321	0.000475	20.825360
927.214391	-2.971400	3.662200	-10.881000	25.432010	0.000475	20.810461
928.212619	-2.991500	3.660700	-10.950000	25.375645	0.000475	20.829727
929.217396	-2.988300	3.660900	-10.939000	25.398385	0.000473	20.807991
930.215045	-2.991300	3.662400	-10.955000	25.380616	0.000472	20.818124
931.210837	-2.999700	3.660300	-10.979000	25.355439	0.000474	20.821292
932.215007	-2.995200	3.660700	-10.964000	25.361876	0.000474	20.812109
933.213782	-3.007100	3.659200	-11.002000	25.369531	0.000472	20.814105
934.210568	-3.024900	3.659500	-11.068000	25.453110	0.000473	20.805096
935.211786	-2.994500	3.659900	-10.958000	25.477639	0.000472	20.810761
936.211661	-3.007500	3.659100	-11.004000	25.459001	0.000472	20.810537
937.238045	-3.012600	3.659800	-11.025000	25.461188	0.000473	20.803725
938.229877	-2.994800	3.658300	-10.955000	25.471502	0.000473	20.803176
939.231637	-2.992900	3.657700	-10.946000	25.474858	0.000471	20.816504
940.230731	-3.011400	3.657500	-11.014000	25.478388	0.000469	20.799660
941.235703	-2.983400	3.657800	-10.912000	25.492328	0.000470	20.810340
942.232898	-3.005700	3.656500	-10.989000	25.473293	0.000470	20.803553
943.236816	-2.989300	3.656800	-10.931000	25.436414	0.000469	20.812986
944.216439	-3.004700	3.656900	-10.986000	25.420409	0.000470	20.833424
945.212749	-3.010100	3.656900	-11.006000	25.406294	0.000470	20.805501
946.217118	-3.002300	3.656100	-10.975000	25.396629	0.000467	20.809546
947.214293	-3.012000	3.655000	-11.007000	25.450931	0.000468	20.804804
948.217514	-2.999100	3.656100	-10.964000	25.428614	0.000468	20.820327
949.214993	-2.998200	3.655800	-10.960000	25.445365	0.000468	20.781198
950.216847	-2.997700	3.656300	-10.958000	25.440023	0.000467	20.801911
951.230843	-3.005200	3.655600	-10.984000	25.482918	0.000467	20.802313
952.221315	-2.990100	3.655100	-10.928000	25.484087	0.000465	20.805383
953.223349	-3.016500	3.653200	-11.019000	25.474246	0.000465	20.790285
954.221261	-3.008600	3.654400	-10.994000	25.480534	0.000467	20.815091
955.221306	-3.007900	3.654400	-10.992000	25.463960	0.000464	20.786594
956.224610	-2.995400	3.653700	-10.943000	25.467168	0.000466	20.797402
957.224748	-2.996100	3.653800	-10.946000	25.469281	0.000464	20.792412
958.219506	-3.013900	3.653000	-11.009000	25.473407	0.000465	20.781382
959.227949	-3.019400	3.651200	-11.024000	25.458374	0.000464	20.791890
960.222211	-3.013500	3.651600	-11.003000	25.476565	0.000464	20.782183
961.219298	-3.007700	3.651100	-10.981000	25.515730	0.000464	20.816771
962.218927	-3.025100	3.651400	-11.045000	25.505169	0.000463	20.779139
963.222026	-2.998200	3.653800	-10.954000	25.475971	0.000463	20.772103
964.236817	-3.011800	3.651300	-10.996000	25.415187	0.000463	20.788826
965.226051	-3.012600	3.650500	-10.996000	25.465537	0.000461	20.796238
966.222658	-3.025200	3.650400	-11.042000	25.516160	0.000462	20.772632
967.221117	-2.989600	3.650300	-10.911000	25.540563	0.000462	20.782914
968.243934	-2.997300	3.650800	-10.941000	25.536241	0.000460	20.782841
969.224591	-2.985100	3.649700	-10.894000	25.542952	0.000461	20.785787
970.222107	-3.022700	3.649600	-11.031000	25.521880	0.000461	20.805403
971.225253	-2.979600	3.650000	-10.875000	25.524541	0.000461	20.788636
972.252597	-3.012800	3.649800	-10.995000	25.502276	0.000460	20.800889
973.230021	-2.995900	3.649300	-10.933000	25.432944	0.000460	20.774889
974.226235	-2.995300	3.649300	-10.928000	25.414157	0.000458	20.770722
975.233459	-2.975700	3.650100	-10.861000	25.400690	0.000458	20.795606
976.226274	-2.989900	3.647900	-10.906000	25.478377	0.000457	20.775467
977.226657	-2.983300	3.649700	-10.887000	25.512821	0.000458	20.785874
978.225331	-3.006100	3.648200	-10.966000	25.547712	0.000458	20.786300
979.226926	-3.011500	3.646900	-10.981000	25.579546	0.000460	20.783658
980.248665	-3.004900	3.646400	-10.956000	25.537107	0.000456	20.762374
981.245891	-3.009200	3.646800	-10.973000	25.527142	0.000457	20.781765
982.260519	-2.990000	3.645200	-10.898000	25.492652	0.000457	20.783638
983.251873	-3.013400	3.645400	-10.984000	25.500755	0.000456	20.761429
984.242128	-3.017100	3.645300	-10.997000	25.540568	0.000455	20.771539
985.252331	-3.005400	3.645500	-10.955000	25.547254	0.000455	20.761184
986.232564	-2.989200	3.646200	-10.898000	25.561123	0.000455	20.769897
987.229526	-2.985300	3.645200	-10.880000	25.559634	0.000454	20.770772
988.228770	-2.993100	3.644700	-10.907000	25.579490	0.000453	20.739029
989.225619	-3.012200	3.643800	-10.974000	25.538441	0.000457	20.783154
990.230004	-2.980600	3.644400	-10.861000	25.541774	0.000453	20.765164
991.235178	-2.997400	3.643100	-10.919000	25.535065	0.000453	20.766487
992.225571	-3.021600	3.644100	-11.010000	25.537852	0.000453	20.763596
993.227304	-3.009700	3.643100	-10.963000	25.554329	0.000454	20.759281
994.226496	-3.004000	3.643100	-10.943000	25.574757	0.000450	20.757510
995.252766	-3.023900	3.641400	-11.010000	25.529757	0.000453	20.752147
996.234153	-2.998000	3.642700	-10.920000	25.557741	0.000450	20.756068
997.239491	-2.992900	3.642900	-10.902000	25.572677	0.000453	20.758741
998.230344	-2.992200	3.643000	-10.899000	25.587814	0.000451	20.750709
999.230834	-3.003400	3.642900	-10.940000	25.596885	0.000450	20.775467
1000.239358	-3.002000	3.641800	-10.931000	25.571345	0.000451	20.774473
1001.249703	-2.976200	3.642200	-10.839000	25.502315	0.000448	20.768211
1002.234653	-2.987000	3.642000	-10.877000	25.481421	0.000450	20.745332
1003.232347	-2.999700	3.640900	-10.921000	25.461689	0.000447	20.743061
1004.232570	-3.009100	3.640600	-10.954000	25.453394	0.000449	20.757017
1005.234157	-2.973500	3.641100	-10.826000	25.412414	0.000447	20.751428
1006.260349	-2.984100	3.640100	-10.862000	25.467365	0.000447	20.741648
1007.247131	-2.989300	3.640600	-10.882000	25.481585	0.000449	20.752610
1008.258734	-2.978000	3.640300	-10.838000	25.503828	0.000448	20.758351
1009.239735	-3.007200	3.638000	-10.939000	25.544909	0.000447	20.723740
1010.235751	-2.994400	3.639000	-10.895000	25.571998	0.000445	20.737670
1011.235029	-2.996400	3.639200	-10.903000	25.512535	0.000446	20.736748
1012.235383	-3.002600	3.638600	-10.924000	25.506999	0.000446	20.735456
1013.237958	-2.980400	3.638200	-10.842000	25.477803	0.000444	20.752605
1014.236971	-2.998100	3.637300	-10.904000	25.476962	0.000446	20.755553
1015.232742	-2.997600	3.637400	-10.902000	25.468615	0.000445	20.732946
1016.236225	-2.990300	3.636400	-10.873000	25.524905	0.000447	20.742059
1017.240941	-3.005000	3.637000	-10.929000	25.494170	0.000443	20.740116
1018.238179	-3.037200	3.636300	-11.043000	25.483015	0.000444	20.749304
1019.235176	-3.017300	3.636400	-10.971000	25.484184	0.000444	20.750003
1020.233536	-3.015100	3.635900	-10.961000	25.475914	0.000443	20.715144
1021.234919	-2.988500	3.636100	-10.866000	25.467839	0.000443	20.717467
1022.271657	-3.043000	3.633400	-11.055000	25.488619	0.000443	20.724110
1023.239944	-2.992400	3.634500	-10.875000	25.453208	0.000443	20.727431
1024.242140	-3.005000	3.634400	-10.920000	25.452515	0.000442	20.753764
1025.243047	-3.014100	3.632800	-10.949000	25.495908	0.000442	20.730007
1026.237585	-2.978900	3.633300	-10.823000	25.472077	0.000443	20.725042
1027.244771	-2.990300	3.634800	-10.869000	25.460353	0.000439	20.736503
1028.241414	-2.995900	3.633200	-10.884000	25.500040	0.000440	20.724673
1029.245270	-2.998700	3.632600	-10.892000	25.443952	0.000441	20.723827
1030.242547	-2.990000	3.631600	-10.858000	25.469328	0.000440	20.728446
1031.245665	-2.998900	3.632800	-10.894000	25.467046	0.000440	20.718093
1032.242679	-3.001000	3.632200	-10.899000	25.453332	0.000440	20.743678
1033.242471	-3.022000	3.630800	-10.972000	25.482659	0.000439	20.738988
1034.244754	-3.013500	3.631900	-10.944000	25.511238	0.000439	20.725488
1035.239636	-3.001800	3.631000	-10.899000	25.510325	0.000439	20.715561
1036.244315	-2.980900	3.631500	-10.824000	25.538582	0.000439	20.724024
1037.256245	-2.991600	3.631100	-10.862000	25.547406	0.000437	20.702064
1038.261921	-3.010400	3.630500	-10.928000	25.515678	0.000436	20.710505
1039.247269	-2.982300	3.630500	-10.826000	25.504719	0.000437	20.709931
1040.271120	-3.016700	3.629100	-10.947000	25.486905	0.000436	20.725708
1041.271314	-2.992600	3.630100	-10.863000	25.500501	0.000437	20.735095
1042.261512	-2.999100	3.629400	-10.884000	25.495363	0.000434	20.704329
1043.246628	-3.014900	3.629800	-10.941000	25.505528	0.000434	20.710744
1044.248882	-3.016600	3.628000	-10.943000	25.483042	0.000436	20.750753
1045.281309	-3.016800	3.627800	-10.942000	25.474152	0.000434	20.718590
1046.263288	-3.007400	3.627600	-10.909000	25.454595	0.000431	20.720288
1047.263375	-2.979200	3.628900	-10.811000	25.474977	0.000433	20.694287
1048.269062	-3.020800	3.627900	-10.959000	25.512183	0.000433	20.722169
1049.249352	-2.968300	3.628200	-10.768000	25.545809	0.000432	20.723222
1050.270679	-3.004800	3.626200	-10.895000	25.504361	0.000430	20.701511
1051.248865	-2.996400	3.627000	-10.868000	25.488611	0.000432	20.707506
1052.250577	-3.006300	3.626900	-10.902000	25.497980	0.000432	20.707905
1053.249023	-3.006400	3.626100	-10.900000	25.507678	0.000431	20.701996
1054.252588	-2.998100	3.626300	-10.871000	25.532506	0.000431	20.703222
1055.262666	-3.000300	3.626000	-10.878000	25.501373	0.000432	20.701355
1056.267035	-3.009900	3.625400	-10.911000	25.521179	0.000431	20.702279
1057.266699	-3.008300	3.623400	-10.899000	25.509953	0.000429	20.701911
1058.264246	-3.005600	3.623400	-10.890000	25.528941	0.000429	20.702012
1059.263856	-3.005000	3.624400	-10.890000	25.563859	0.000428	20.697724
1060.270101	-2.995700	3.625200	-10.859000	25.575242	0.000428	20.705838
1061.278742	-2.990900	3.624600	-10.839000	25.613609	0.000429	20.712129
1062.265298	-3.007000	3.622300	-10.891000	25.617317	0.000431	20.693091
1063.248195	-3.009000	3.623400	-10.902000	25.621521	0.000428	20.698737
1064.249621	-2.998000	3.623200	-10.861000	25.601522	0.000428	20.705204
1065.253246	-3.021800	3.622300	-10.945000	25.587360	0.000428	20.689558
1066.249854	-2.994300	3.623100	-10.847000	25.599240	0.000427	20.709551
1067.253294	-2.995400	3.621600	-10.847000	25.619076	0.000426	20.682529
1068.250130	-3.004800	3.622400	-10.882000	25.606032	0.000426	20.694560
1069.253704	-3.002700	3.622100	-10.875000	25.661819	0.000426	20.683259
1070.256711	-3.000400	3.621800	-10.865000	25.629422	0.000425	20.679644
1071.257493	-3.011000	3.621800	-10.904000	25.586687	0.000424	20.692201
1072.260070	-3.010600	3.619900	-10.898000	25.614947	0.000425	20.686444
1073.251219	-3.005100	3.620600	-10.880000	25.587073	0.000422	20.689743
1074.253801	-2.971700	3.621400	-10.761000	25.643832	0.000423	20.687953
1075.272915	-2.989300	3.619000	-10.818000	25.646464	0.000425	20.688700
1076.280478	-2.999800	3.618900	-10.855000	25.594614	0.000422	20.675979
1077.253817	-2.978200	3.619500	-10.778000	25.563610	0.000424	20.662383
1078.256075	-2.977700	3.618900	-10.775000	25.524773	0.000424	20.680755
1079.261801	-3.009500	3.616900	-10.883000	25.524654	0.000423	20.659771
1080.250322	-3.001400	3.617400	-10.856000	25.526175	0.000421	20.666514
1081.257245	-2.984900	3.619600	-10.803000	25.552496	0.000422	20.683941
1082.253224	-2.997600	3.618200	-10.845000	25.556105	0.000420	20.684721
1083.258235	-3.010000	3.617300	-10.886000	25.596016	0.000420	20.666480
1084.253648	-2.996700	3.617000	-10.838000	25.573386	0.000419	20.665564
1085.277480	-3.001100	3.617700	-10.855000	25.514253	0.000419	20.679674
1086.284250	-3.016100	3.615700	-10.904000	25.516863	0.000419	20.668069
1087.278907	-3.010300	3.615900	-10.884000	25.537322	0.000420	20.694781
1088.270035	-3.002800	3.615700	-10.856000	25.494981	0.000418	20.665535
1089.281894	-2.993300	3.615000	-10.820000	25.498143	0.000417	20.683411
1090.282032	-2.987600	3.615400	-10.800000	25.524466	0.000417	20.675705
1091.280621	-3.021100	3.614200	-10.917000	25.579909	0.000418	20.657889
1092.274150	-2.997700	3.614900	-10.836000	25.587594	0.000418	20.661814
1093.259579	-2.983300	3.615100	-10.784000	25.582631	0.000415	20.675798
1094.265283	-2.984500	3.613700	-10.785000	25.541017	0.000419	20.647753
1095.254239	-2.991600	3.615000	-10.813000	25.566864	0.000415	20.640518
1096.256878	-3.006800	3.614000	-10.865000	25.576861	0.000415	20.649137
1097.272662	-3.002200	3.614200	-10.850000	25.598482	0.000413	20.652360
1098.285805	-2.982600	3.613500	-10.777000	25.643291	0.000416	20.658483
1099.262764	-2.988100	3.612300	-10.793000	25.651794	0.000413	20.657540
1100.258198	-2.996200	3.611200	-10.819000	25.623874	0.000415	20.629969
1101.263949	-3.009000	3.612800	-10.870000	25.619134	0.000414	20.649393
1102.279349	-3.019200	3.611000	-10.902000	25.598418	0.000413	20.659409
1103.283939	-2.999900	3.611400	-10.833000	25.554390	0.000412	20.661184
1104.260475	-2.975300	3.611600	-10.744000	25.569333	0.000413	20.647741
1105.265079	-2.988600	3.609600	-10.787000	25.564917	0.000415	20.672232
1106.260920	-3.001700	3.609100	-10.833000	25.546361	0.000414	20.674934
1107.261919	-3.012100	3.608700	-10.869000	25.554170	0.000413	20.672345
1108.264402	-2.991800	3.610300	-10.800000	25.572540	0.000409	20.635787
1109.262956	-3.001800	3.608500	-10.831000	25.596574	0.000410	20.625310
1110.278948	-3.016200	3.608700	-10.884000	25.573001	0.000411	20.657590
1111.295771	-3.002400	3.609100	-10.834000	25.589408	0.000409	20.642771
1112.263162	-2.990300	3.608300	-10.789000	25.565909	0.000407	20.624858
1113.286593	-3.003500	3.609400	-10.840000	25.587956	0.000411	20.654117
1114.281114	-2.999000	3.607000	-10.816000	25.564084	0.000410	20.621603
1115.262152	-3.023500	3.606000	-10.903000	25.576041	0.000408	20.641675
1116.283870	-3.008800	3.606800	-10.851000	25.574458	0.000410	20.640084
1117.263790	-3.005800	3.606600	-10.839000	25.550514	0.000406	20.650178
1118.262805	-2.956500	3.608600	-10.667000	25.540827	0.000406	20.655150
1119.260211	-2.990800	3.607800	-10.789000	25.549384	0.000406	20.645724
1120.280446	-3.005900	3.606600	-10.840000	25.566757	0.000405	20.637566
1121.292226	-3.019400	3.604900	-10.884000	25.555413	0.000407	20.629017
1122.285159	-3.007000	3.604900	-10.839000	25.541804	0.000407	20.659450
1123.289343	-2.994100	3.605600	-10.794000	25.569021	0.000405	20.643633
1124.284374	-3.004800	3.604700	-10.831000	25.564355	0.000407	20.631359
1125.281290	-2.988500	3.604300	-10.771000	25.547642	0.000403	20.642551
1126.288169	-2.984000	3.604600	-10.755000	25.560346	0.000403	20.633498
1127.284865	-2.993800	3.603300	-10.787000	25.570665	0.000404	20.628687
1128.292213	-2.986200	3.603800	-10.761000	25.566943	0.000403	20.634908
1129.282964	-3.026900	3.602800	-10.904000	25.580049	0.000401	20.657555
1130.288450	-3.031900	3.602200	-10.921000	25.606049	0.000403	20.644311
1131.294357	-2.967000	3.604400	-10.694000	25.604216	0.000402	20.643893
1132.301826	-3.012000	3.602800	-10.850000	25.604201	0.000401	20.637712
1133.271142	-3.015100	3.602600	-10.862000	25.609351	0.000400	20.640040
1134.271358	-3.021900	3.601800	-10.884000	25.581058	0.000402	20.616363
1135.271990	-3.008100	3.601500	-10.833000	25.533381	0.000402	20.641981
1136.272223	-3.003300	3.601300	-10.815000	25.539229	0.000399	20.641689
1137.274607	-2.998300	3.601600	-10.797000	25.570594	0.000399	20.637626
1138.273409	-3.003100	3.600700	-10.811000	25.618386	0.000400	20.623982
1139.272306	-2.997300	3.599200	-10.787000	25.632361	0.000401	20.639443
1140.274611	-2.998900	3.600000	-10.794000	25.665090	0.000398	20.626320
1141.269426	-2.989400	3.598800	-10.758000	25.712252	0.000398	20.635284
1142.274599	-2.990600	3.599500	-10.763000	25.664733	0.000398	20.637342
1143.274751	-2.986900	3.599300	-10.749000	25.642826	0.000398	20.616284
1144.276365	-2.986100	3.599600	-10.748000	25.633591	0.000399	20.643523
1145.275391	-3.016600	3.599000	-10.856000	25.650272	0.000396	20.634671
1146.275961	-2.998100	3.597500	-10.785000	25.673710	0.000397	20.639247
1147.276155	-2.988000	3.599100	-10.753000	25.659780	0.000396	20.648964
1148.276631	-3.018800	3.596400	-10.856000	25.605967	0.000399	20.631424
1149.309895	-3.000700	3.598600	-10.798000	25.597778	0.000398	20.641219
1150.274364	-3.014900	3.597400	-10.845000	25.595948	0.000394	20.654557
1151.279386	-2.997000	3.596500	-10.778000	25.583479	0.000395	20.636816
1152.277762	-3.022400	3.595300	-10.865000	25.590074	0.000395	20.625420
1153.282625	-2.994900	3.596400	-10.770000	25.563268	0.000396	20.647340
1154.277491	-2.980400	3.595400	-10.715000	25.583080	0.000394	20.641157
1155.278675	-3.002400	3.594900	-10.793000	25.565100	0.000394	20.638746
1156.279578	-3.005500	3.594300	-10.801000	25.588565	0.000393	20.632914
1157.275854	-2.998200	3.595600	-10.779000	25.630861	0.000394	20.644100
1158.282717	-3.001800	3.594900	-10.790000	25.640443	0.000392	20.637602
1159.279582	-2.997200	3.593500	-10.770000	25.608097	0.000390	20.622657
1160.283588	-2.995500	3.594600	-10.766000	25.582116	0.000390	20.626910
1161.276721	-3.020200	3.593400	-10.852000	25.605084	0.000392	20.635280
1162.285552	-3.022700	3.591800	-10.856000	25.612394	0.000391	20.616067
1163.280494	-3.000300	3.593000	-10.779000	25.602990	0.000391	20.621322
1164.294002	-3.019600	3.591400	-10.843000	25.569727	0.000392	20.627745
1165.306312	-2.991400	3.593100	-10.748000	25.579722	0.000389	20.604589
1166.295679	-3.004500	3.592700	-10.793000	25.601598	0.000389	20.622769
1167.304442	-2.983200	3.593100	-10.718000	25.573306	0.000387	20.638928
1168.303446	-3.014400	3.591100	-10.824000	25.534351	0.000390	20.626357
1169.302936	-3.014800	3.591200	-10.826000	25.531772	0.000388	20.627561
1170.285823	-2.995300	3.590300	-10.752000	25.503827	0.000389	20.636957
1171.312953	-2.993500	3.590400	-10.747000	25.536490	0.000389	20.631825
1172.281812	-2.984400	3.590600	-10.715000	25.538013	0.000388	20.641890
1173.285305	-2.993900	3.590100	-10.747000	25.534986	0.000387	20.635531
1174.311673	-2.986700	3.591000	-10.725000	25.578979	0.000386	20.617595
1175.306231	-2.989100	3.589200	-10.727000	25.572504	0.000386	20.618678
1176.306142	-2.988300	3.589000	-10.724000	25.622379	0.000387	20.645065
1177.306290	-2.970000	3.588600	-10.657000	25.625769	0.000386	20.625707
1178.289681	-3.005900	3.589400	-10.789000	25.590297	0.000385	20.627541
1179.285526	-2.988600	3.588000	-10.722000	25.562794	0.000384	20.626946
1180.311688	-2.981700	3.587500	-10.696000	25.587902	0.000386	20.630825
1181.285958	-2.987200	3.587600	-10.716000	25.642797	0.000387	20.634276
1182.287918	-3.014500	3.586500	-10.810000	25.662710	0.000385	20.636732
1183.286138	-3.004300	3.587500	-10.777000	25.707188	0.000384	20.619289
1184.289088	-3.038600	3.584800	-10.891000	25.718479	0.000385	20.633003
1185.297022	-2.976800	3.587000	-10.676000	25.723256	0.000384	20.631637
1186.312432	-2.979700	3.585900	-10.683000	25.687883	0.000382	20.645422
1187.287620	-2.990000	3.586100	-10.721000	25.650945	0.000381	20.642460
1188.288403	-3.008000	3.585600	-10.785000	25.644716	0.000381	20.658966
1189.296135	-2.980200	3.585900	-10.686000	25.665323	0.000382	20.652161
1190.288465	-3.002000	3.584500	-10.760000	25.618318	0.000382	20.629604
1191.308681	-3.002100	3.585100	-10.762000	25.638556	0.000381	20.624325
1192.306707	-2.984200	3.584300	-10.695000	25.635554	0.000378	20.640279
1193.292737	-2.995700	3.584600	-10.738000	25.603754	0.000379	20.649594
1194.289691	-3.010500	3.583300	-10.787000	25.594155	0.000379	20.626673
1195.307690	-3.045600	3.582300	-10.909000	25.585660	0.000377	20.645172
1196.306475	-3.015700	3.582500	-10.803000	25.588110	0.000377	20.618705
1197.317741	-2.999300	3.582100	-10.743000	25.605061	0.000378	20.649958
1198.312930	-3.000900	3.581800	-10.748000	25.646889	0.000378	20.659726
1199.303413	-3.012600	3.582000	-10.790000	25.645234	0.000379	20.640043
1200.311200	-3.011800	3.581400	-10.785000	25.671605	0.000378	20.649935
1201.312779	-2.994400	3.581500	-10.724000	25.654120	0.000376	20.653238
1202.291349	-2.990200	3.581800	-10.709000	25.631894	0.000375	20.643241
1203.324038	-3.020300	3.580100	-10.812000	25.615403	0.000374	20.625728
1204.325343	-2.990800	3.581200	-10.709000	25.585794	0.000376	20.656687
1205.316096	-2.990400	3.580000	-10.704000	25.540030	0.000374	20.647710
1206.312418	-3.005300	3.579700	-10.756000	25.533879	0.000376	20.649594
1207.330983	-3.006400	3.577900	-10.755000	25.516840	0.000374	20.653820
1208.327259	-3.015500	3.578500	-10.790000	25.595445	0.000373	20.644567
1209.297366	-3.001900	3.579800	-10.746000	25.598905	0.000372	20.655630
1210.294957	-3.012100	3.579100	-10.780000	25.605629	0.000374	20.646261
1211.298191	-2.995700	3.579200	-10.722000	25.623232	0.000372	20.642603
1212.301449	-3.007300	3.578700	-10.761000	25.640680	0.000373	20.632149
1213.317760	-2.991200	3.577000	-10.698000	25.596165	0.000372	20.642445
1214.316683	-3.009000	3.577000	-10.762000	25.596424	0.000371	20.653612
1215.319678	-2.970700	3.577500	-10.626000	25.583139	0.000371	20.644536
1216.298063	-2.979600	3.575800	-10.653000	25.594703	0.000371	20.653306
1217.300580	-2.973600	3.577700	-10.638000	25.595931	0.000370	20.644581
1218.321865	-3.019900	3.576100	-10.798000	25.591296	0.000372	20.649409
1219.301877	-2.992400	3.575600	-10.698000	25.614290	0.000370	20.657805
1220.302839	-3.028500	3.575300	-10.827000	25.634902	0.000371	20.662386
1221.325098	-3.001600	3.574500	-10.729000	25.684701	0.000369	20.669730
1222.322483	-3.015600	3.574200	-10.777000	25.694307	0.000368	20.654246
1223.321823	-3.000800	3.574200	-10.725000	25.730911	0.000368	20.636482
1224.300726	-2.993800	3.575200	-10.703000	25.708859	0.000368	20.653689
1225.323642	-3.002600	3.573400	-10.729000	25.673569	0.000368	20.668031
1226.301495	-3.018800	3.574200	-10.789000	25.712858	0.000368	20.643954
1227.307302	-2.978300	3.573400	-10.642000	25.726983	0.000368	20.661937
1228.304060	-3.004400	3.572800	-10.733000	25.653302	0.000366	20.674229
1229.328193	-2.984200	3.572200	-10.659000	25.685565	0.000367	20.647361
1230.302528	-3.001400	3.573400	-10.724000	25.664929	0.000365	20.649868
1231.305901	-2.998000	3.571800	-10.708000	25.657979	0.000364	20.667072
1232.304851	-2.991600	3.571900	-10.685000	25.629272	0.000364	20.660524
1233.307814	-2.985200	3.571400	-10.660000	25.629555	0.000365	20.669819
1234.331544	-2.988200	3.571100	-10.670000	25.706268	0.000364	20.667683
1235.308403	-2.993400	3.570700	-10.687000	25.639643	0.000364	20.651499
1236.311776	-3.000300	3.570200	-10.711000	25.672903	0.000362	20.654085
1237.309989	-2.998400	3.571300	-10.707000	25.682506	0.000363	20.657092
1238.310014	-3.033900	3.570000	-10.830000	25.665917	0.000363	20.640429
1239.310146	-2.984000	3.570900	-10.655000	25.656386	0.000362	20.651720
1240.314658	-2.980900	3.569200	-10.639000	25.675906	0.000362	20.657576
1241.335063	-2.999800	3.568700	-10.704000	25.640886	0.000360	20.662706
1242.330040	-2.983300	3.570000	-10.649000	25.616797	0.000362	20.639458
1243.340353	-3.006900	3.569200	-10.731000	25.631663	0.000361	20.656287
1244.343147	-2.985200	3.567500	-10.649000	25.649050	0.000360	20.665216
1245.327004	-3.011200	3.567000	-10.740000	25.704071	0.000359	20.666899
1246.313227	-2.988000	3.568200	-10.661000	25.713501	0.000361	20.672578
1247.332531	-3.009100	3.566900	-10.732000	25.705936	0.000359	20.675412
1248.329925	-3.004200	3.566200	-10.713000	25.712407	0.000360	20.654408
1249.342342	-2.989500	3.567000	-10.663000	25.689687	0.000359	20.646285
1250.332332	-3.006700	3.566100	-10.722000	25.645742	0.000357	20.679439
1251.309590	-2.985600	3.567100	-10.649000	25.575539	0.000356	20.676261
1252.309590	-3.021700	3.565000	-10.771000	25.586284	0.000358	20.644375
1253.325874	-3.002600	3.565800	-10.705000	25.603962	0.000356	20.670668
1254.311280	-3.007300	3.565200	-10.720000	25.647085	0.000357	20.666562
1255.333362	-2.995400	3.565100	-10.678000	25.647822	0.000356	20.675363
1256.331757	-2.988400	3.564500	-10.651000	25.675138	0.000357	20.668659
1257.332644	-2.987500	3.563600	-10.646000	25.645681	0.000354	20.666574
1258.331298	-3.015200	3.564600	-10.747000	25.656705	0.000354	20.650617
1259.342168	-2.994400	3.563800	-10.671000	25.659674	0.000355	20.674939
1260.331241	-2.991800	3.562700	-10.658000	25.642417	0.000354	20.671832
1261.338949	-2.990200	3.562900	-10.653000	25.628367	0.000355	20.667677
1262.332807	-3.033000	3.562200	-10.804000	25.620379	0.000355	20.670086
1263.308555	-3.008800	3.562600	-10.717000	25.582172	0.000354	20.650678
1264.320778	-2.968000	3.562300	-10.571000	25.632796	0.000354	20.669280
1265.310447	-3.002500	3.562300	-10.695000	25.644937	0.000354	20.664878
1266.321112	-3.009500	3.561900	-10.719000	25.659143	0.000354	20.669664
1267.313129	-3.006200	3.560500	-10.703000	25.658729	0.000352	20.673042
1268.313973	-3.011600	3.560500	-10.721000	25.602214	0.000353	20.668438
1269.315432	-2.993500	3.559300	-10.654000	25.622529	0.000350	20.655648
1270.313765	-2.981200	3.560300	-10.613000	25.626222	0.000352	20.669790
1271.314601	-2.997100	3.559600	-10.668000	25.587370	0.000350	20.684351
1272.316340	-3.012800	3.558100	-10.719000	25.637551	0.000351	20.684963
1273.311969	-3.017400	3.558700	-10.737000	25.666860	0.000351	20.674570
1274.311931	-3.013300	3.558300	-10.722000	25.693237	0.000349	20.663604
1275.315103	-2.986900	3.559400	-10.631000	25.688900	0.000351	20.662566
1276.331452	-2.990700	3.558200	-10.641000	25.706902	0.000348	20.673537
1277.350375	-2.992200	3.557700	-10.644000	25.726743	0.000348	20.660273
1278.313344	-2.998900	3.557200	-10.666000	25.698424	0.000349	20.691101
1279.337901	-2.994000	3.556200	-10.647000	25.657874	0.000347	20.687831
1280.340551	-2.998000	3.557500	-10.665000	25.690708	0.000347	20.688567
1281.320074	-3.001200	3.556100	-10.672000	25.672257	0.000347	20.667663
1282.318833	-2.996700	3.556600	-10.657000	25.686685	0.000347	20.681207
1283.317648	-3.014200	3.555900	-10.718000	25.673029	0.000346	20.669861
1284.319364	-2.994200	3.555400	-10.644000	25.661935	0.000346	20.685746
1285.325427	-2.991400	3.556500	-10.638000	25.697105	0.000347	20.668912
1286.323802	-2.983600	3.554900	-10.606000	25.692124	0.000346	20.685722
1287.319041	-3.021600	3.555300	-10.742000	25.700617	0.000344	20.674810
1288.327067	-3.008500	3.553500	-10.690000	25.709842	0.000345	20.670799
1289.342621	-3.009100	3.553600	-10.692000	25.720936	0.000344	20.677675
1290.318804	-3.000300	3.554100	-10.663000	25.735186	0.000345	20.692939
1291.321377	-3.033400	3.552400	-10.775000	25.797132	0.000344	20.689728
1292.319286	-2.993100	3.554200	-10.637000	25.814833	0.000343	20.674317
1293.326550	-3.005700	3.551700	-10.674000	25.749983	0.000346	20.697370
1294.322419	-2.990900	3.552200	-10.623000	25.762492	0.000343	20.687175
1295.342931	-2.994900	3.551600	-10.635000	25.804642	0.000345	20.661233
1296.342399	-3.017900	3.551500	-10.717000	25.775386	0.000343	20.696334
1297.344911	-2.996300	3.552900	-10.644000	25.759346	0.000341	20.681170
1298.318344	-3.001900	3.551800	-10.661000	25.767367	0.000343	20.678320
1299.323455	-3.008900	3.551600	-10.686000	25.785364	0.000342	20.672690
1300.322542	-3.013500	3.550100	-10.697000	25.774369	0.000343	20.666861
1301.324077	-2.997300	3.551900	-10.644000	25.738676	0.000340	20.682693
1302.323483	-3.012700	3.550100	-10.695000	25.656944	0.000341	20.695907
1303.339734	-3.007200	3.549000	-10.671000	25.655292	0.000341	20.681919
1304.342439	-2.997200	3.550100	-10.640000	25.638459	0.000342	20.696782
1305.346813	-3.009200	3.548700	-10.678000	25.594416	0.000339	20.687635
1306.320218	-2.996700	3.548600	-10.632000	25.586695	0.000339	20.696003
1307.341316	-3.002800	3.548500	-10.655000	25.572935	0.000337	20.691666
1308.345005	-3.014700	3.547000	-10.692000	25.616956	0.000337	20.687513
1309.341751	-3.004700	3.546100	-10.654000	25.663980	0.000340	20.695387
1310.340689	-2.998500	3.547100	-10.636000	25.683296	0.000338	20.685390
1311.348577	-2.982500	3.548800	-10.583000	25.697568	0.000337	20.682180
1312.329019	-2.988900	3.547100	-10.601000	25.665924	0.000338	20.672207
1313.332139	-2.989300	3.547100	-10.602000	25.719672	0.000336	20.707229
1314.329079	-3.007500	3.545300	-10.661000	25.755087	0.000338	20.682107
1315.327970	-3.008600	3.545900	-10.668000	25.724695	0.000335	20.698048
1316.353691	-2.984500	3.546500	-10.584000	25.706191	0.000337	20.695110
1317.325867	-3.001600	3.545300	-10.641000	25.685258	0.000333	20.693051
1318.323276	-2.974000	3.546100	-10.545000	25.673590	0.000336	20.694607
1319.325963	-3.008200	3.544900	-10.663000	25.699442	0.000335	20.708246
1320.329525	-2.996800	3.544600	-10.621000	25.710305	0.000335	20.722003
1321.331179	-2.980700	3.544500	-10.565000	25.678318	0.000334	20.696037
1322.327367	-3.021000	3.542700	-10.702000	25.654527	0.000335	20.716241
1323.326358	-3.023600	3.542200	-10.709000	25.685052	0.000332	20.707069
1324.327336	-3.016900	3.542700	-10.686000	25.668962	0.000332	20.702289
1325.327183	-2.971700	3.543700	-10.530000	25.659649	0.000332	20.697675
1326.330300	-2.989900	3.542300	-10.590000	25.648477	0.000333	20.693566
1327.326482	-2.988300	3.544200	-10.589000	25.665409	0.000333	20.692555
1328.333778	-3.012200	3.541100	-10.666000	25.708777	0.000331	20.694388
1329.327053	-2.991200	3.542200	-10.595000	25.683945	0.000331	20.699793
1330.331970	-3.003700	3.539900	-10.632000	25.672400	0.000331	20.699577
1331.354850	-2.983400	3.541100	-10.564000	25.695469	0.000329	20.705678
1332.355363	-3.000800	3.541200	-10.625000	25.744132	0.000331	20.699555
1333.355367	-3.020800	3.539900	-10.692000	25.738871	0.000328	20.721299
1334.342953	-3.005000	3.538500	-10.632000	25.729337	0.000329	20.720257
1335.352779	-2.992000	3.539100	-10.587000	25.713628	0.000329	20.703529
1336.347542	-2.992000	3.539200	-10.587000	25.711200	0.000329	20.723850
1337.348581	-2.967600	3.539900	-10.504000	25.769794	0.000328	20.726756
1338.347095	-2.987900	3.538200	-10.571000	25.756495	0.000327	20.704387
1339.332504	-3.031200	3.537900	-10.723000	25.759811	0.000330	20.693966
1340.361617	-2.981900	3.537200	-10.547000	25.779525	0.000327	20.732262
1341.332910	-3.003900	3.538100	-10.627000	25.753273	0.000328	20.731024
1342.334312	-3.031200	3.536400	-10.718000	25.750875	0.000325	20.711544
1343.354146	-2.990300	3.537200	-10.576000	25.689946	0.000327	20.721469
1344.353619	-2.992400	3.535800	-10.579000	25.679020	0.000327	20.722349
1345.346804	-2.987900	3.536200	-10.565000	25.675003	0.000326	20.699347
1346.354179	-2.993500	3.537000	-10.587000	25.705282	0.000325	20.726916
1347.358819	-3.002000	3.535400	-10.613000	25.713569	0.000325	20.733818
1348.337335	-2.980900	3.536300	-10.540000	25.691319	0.000324	20.722849
1349.333605	-3.012300	3.534500	-10.646000	25.662288	0.000324	20.728778
1350.365035	-3.000900	3.535100	-10.608000	25.674028	0.000321	20.730137
1351.338386	-3.022700	3.533100	-10.679000	25.671176	0.000324	20.718738
1352.333187	-2.995600	3.534200	-10.586000	25.669801	0.000321	20.723047
1353.366434	-2.985800	3.533500	-10.550000	25.698634	0.000324	20.729722
1354.329538	-3.019100	3.533300	-10.667000	25.718993	0.000321	20.727885
1355.334328	-3.002900	3.533100	-10.609000	25.729346	0.000322	20.722163
1356.355464	-3.011900	3.533000	-10.640000	25.735991	0.000321	20.735476
1357.334895	-3.021600	3.531900	-10.671000	25.712356	0.000323	20.734495
1358.367806	-3.014100	3.530100	-10.639000	25.743744	0.000322	20.743738
1359.338447	-3.017400	3.531400	-10.654000	25.784676	0.000321	20.723686
1360.338126	-3.001400	3.532500	-10.601000	25.775345	0.000319	20.718106
1361.335269	-2.985300	3.531500	-10.542000	25.801177	0.000321	20.720346
1362.336825	-3.000300	3.531100	-10.594000	25.774203	0.000318	20.736400
1363.344722	-3.008300	3.530200	-10.619000	25.780657	0.000319	20.752841
1364.344863	-2.979700	3.530500	-10.518000	25.763680	0.000319	20.737210
1365.340355	-2.994900	3.530000	-10.572000	25.732684	0.000318	20.739741
1366.340984	-2.994400	3.529500	-10.568000	25.682779	0.000317	20.753152
1367.340127	-2.989700	3.530500	-10.555000	25.654299	0.000316	20.708898
1368.337202	-3.028400	3.528700	-10.686000	25.635328	0.000316	20.722563
1369.340974	-2.999500	3.529300	-10.585000	25.618222	0.000314	20.730987
1370.339273	-2.998100	3.527100	-10.574000	25.630410	0.000316	20.720468
1371.337266	-2.994300	3.529000	-10.566000	25.633707	0.000316	20.738953
1372.339015	-3.038700	3.526500	-10.715000	25.664178	0.000313	20.732573
1373.337142	-3.008200	3.527300	-10.610000	25.698363	0.000315	20.728502
1374.339623	-2.990000	3.527200	-10.546000	25.710048	0.000315	20.715107
1375.338163	-3.006200	3.525900	-10.599000	25.711206	0.000315	20.721960
1376.338909	-2.993300	3.527500	-10.557000	25.745384	0.000316	20.720254
1377.371075	-3.007400	3.526800	-10.605000	25.772229	0.000313	20.731572
1378.343944	-3.000900	3.524900	-10.576000	25.812590	0.000312	20.723751
1379.344578	-3.002800	3.525800	-10.586000	25.828902	0.000316	20.712160
1380.345012	-2.984100	3.525200	-10.518000	25.829061	0.000312	20.695723
1381.362709	-3.009600	3.523600	-10.604000	25.870683	0.000313	20.721890
1382.361232	-3.003100	3.524400	-10.583000	25.848934	0.000310	20.691504
1383.371886	-3.000900	3.525000	-10.577000	25.835656	0.000312	20.710410
1384.365237	-3.016400	3.523400	-10.627000	25.821930	0.000313	20.693776
1385.357666	-3.006700	3.522900	-10.591000	25.815309	0.000314	20.722214
1386.348264	-3.006300	3.521900	-10.586000	25.756807	0.000309	20.716081
1387.345217	-2.991300	3.523100	-10.537000	25.749640	0.000310	20.711726
1388.345196	-2.986300	3.522500	-10.519000	25.720170	0.000311	20.678329
1389.345376	-2.998600	3.521900	-10.560000	25.732548	0.000310	20.701195
1390.350191	-2.992400	3.520900	-10.535000	25.776736	0.000310	20.701010
1391.345735	-2.990600	3.521100	-10.530000	25.804150	0.000309	20.715272
1392.344641	-2.970900	3.521300	-10.461000	25.813529	0.000310	20.695295
1393.346542	-2.993400	3.519200	-10.534000	25.810666	0.000311	20.704273
1394.343475	-2.994900	3.521000	-10.544000	25.845504	0.000309	20.698016
1395.345960	-3.010500	3.520100	-10.596000	25.811733	0.000307	20.685902
1396.348869	-2.977400	3.520600	-10.480000	25.797087	0.000308	20.686838
1397.346890	-2.994200	3.518800	-10.535000	25.835683	0.000305	20.713282
1398.346235	-3.002300	3.518300	-10.562000	25.889675	0.000307	20.703509
1399.346892	-3.001000	3.517600	-10.555000	25.881945	0.000307	20.700959
1400.344114	-2.995100	3.517200	-10.534000	25.862133	0.000305	20.692436
1401.351839	-3.010900	3.517000	-10.588000	25.843633	0.000305	20.688550
1402.347082	-3.005800	3.517900	-10.573000	25.874601	0.000306	20.676036
1403.343950	-3.006900	3.516500	-10.573000	25.812707	0.000305	20.698736
1404.368123	-2.983700	3.516600	-10.491000	25.790436	0.000304	20.674466
1405.366816	-2.984900	3.516100	-10.495000	25.769206	0.000303	20.686807
1406.376485	-2.998700	3.517100	-10.546000	25.766019	0.000303	20.685028
1407.352403	-3.003300	3.515200	-10.556000	25.780689	0.000304	20.676055
1408.350016	-2.986400	3.516100	-10.499000	25.827855	0.000304	20.695460
1409.370530	-3.004600	3.514800	-10.560000	25.867351	0.000303	20.689142
1410.353691	-3.018200	3.513900	-10.604000	25.843511	0.000303	20.696963
1411.349710	-2.992900	3.513800	-10.515000	25.807902	0.000301	20.686322
1412.354421	-2.978000	3.515300	-10.468000	25.842470	0.000301	20.694494
1413.367755	-3.019000	3.513300	-10.606000	25.793570	0.000301	20.677614
1414.363223	-3.011400	3.512600	-10.577000	25.773714	0.000303	20.663358
1415.371753	-3.016400	3.512300	-10.593000	25.784056	0.000302	20.672799
1416.348970	-2.982700	3.513400	-10.479000	25.739874	0.000299	20.672042
1417.355175	-3.010600	3.511400	-10.570000	25.825270	0.000302	20.693812
1418.349802	-2.974600	3.512000	-10.446000	25.826779	0.000299	20.679204
1419.351980	-3.004400	3.512000	-10.550000	25.832057	0.000300	20.656529
1420.352055	-3.003700	3.511100	-10.546000	25.804993	0.000298	20.675812
1421.352783	-3.012500	3.511000	-10.576000	25.788564	0.000301	20.670689
1422.352675	-2.990900	3.511300	-10.501000	25.776150	0.000301	20.674341
1423.356362	-2.991100	3.509700	-10.497000	25.750826	0.000298	20.671662
1424.352458	-3.009500	3.510600	-10.565000	25.737174	0.000301	20.677864
1425.350554	-2.999100	3.510000	-10.526000	25.737235	0.000300	20.668917
1426.374848	-3.010100	3.510200	-10.565000	25.745280	0.000296	20.676997
1427.366343	-2.991100	3.507900	-10.491000	25.736145	0.000297	20.681099
1428.373176	-3.002200	3.509100	-10.534000	25.750473	0.000294	20.651391
1429.375968	-2.986600	3.508300	-10.477000	25.767333	0.000296	20.683977
1430.370506	-2.990900	3.508300	-10.492000	25.820213	0.000295	20.656011
1431.373690	-2.993800	3.507900	-10.502000	25.878503	0.000296	20.669049
1432.368170	-2.982700	3.507700	-10.461000	25.897752	0.000298	20.659936
1433.357416	-3.003200	3.506000	-10.528000	25.934309	0.000297	20.672481
1434.351083	-2.999000	3.507000	-10.516000	25.897679	0.000295	20.682625
1435.354307	-3.000200	3.506600	-10.519000	25.853429	0.000295	20.674682
1436.369744	-2.975300	3.506400	-10.430000	25.828205	0.000293	20.686802
1437.377133	-3.010800	3.505900	-10.555000	25.789487	0.000292	20.669245
1438.367421	-3.001200	3.504400	-10.517000	25.799364	0.000293	20.660199
1439.380187	-3.007100	3.506300	-10.542000	25.739207	0.000293	20.654300
1440.352977	-2.987700	3.505400	-10.472000	25.737308	0.000293	20.660453
1441.349854	-2.985900	3.505300	-10.466000	25.784728	0.000291	20.658773
1442.368730	-2.988500	3.504900	-10.474000	25.792667	0.000293	20.653471
1443.373884	-2.988500	3.503300	-10.468000	25.832141	0.000293	20.657088
1444.381413	-3.002200	3.503000	-10.516000	25.802448	0.000289	20.649071
1445.365246	-3.006300	3.502600	-10.529000	25.778111	0.000292	20.658291
1446.369139	-3.000000	3.503400	-10.509000	25.812369	0.000289	20.634379
1447.356083	-3.009400	3.501800	-10.538000	25.799067	0.000289	20.661324
1448.354248	-3.009700	3.502200	-10.540000	25.849642	0.000289	20.664238
1449.379313	-2.991500	3.502700	-10.478000	25.907214	0.000288	20.665175
1450.359886	-3.018100	3.500700	-10.565000	25.862168	0.000291	20.664493
1451.364872	-3.013800	3.501500	-10.552000	25.870733	0.000289	20.649387
1452.376852	-3.019000	3.500000	-10.565000	25.832465	0.000290	20.643187
1453.377522	-2.958600	3.501800	-10.359000	25.827733	0.000289	20.628000
1454.379306	-3.005200	3.500000	-10.517000	25.796373	0.000286	20.651503
1455.380686	-2.997400	3.500000	-10.490000	25.770872	0.000286	20.643431
1456.376092	-3.024500	3.499600	-10.584000	25.785875	0.000286	20.631946
1457.392567	-3.009500	3.498900	-10.528000	25.769612	0.000287	20.637897
1458.379136	-3.016400	3.498800	-10.553000	25.721427	0.000284	20.636912
1459.361193	-3.011000	3.498400	-10.533000	25.774261	0.000287	20.678607
1460.359304	-3.007600	3.498800	-10.522000	25.821404	0.000286	20.648198
1461.360997	-2.998900	3.498700	-10.491000	25.791459	0.000285	20.665061
1462.358653	-2.975700	3.497500	-10.405000	25.770930	0.000285	20.630686
1463.372630	-2.979500	3.497300	-10.419000	25.811343	0.000284	20.638090
1464.384717	-3.002000	3.497400	-10.499000	25.797766	0.000285	20.646264
1465.376892	-2.997800	3.496200	-10.480000	25.808464	0.000284	20.655589
1466.363346	-3.010500	3.496000	-10.523000	25.833243	0.000283	20.652505
1467.362786	-2.999600	3.495400	-10.484000	25.846571	0.000283	20.638391
1468.363684	-3.009500	3.495100	-10.517000	25.852371	0.000282	20.646115
1469.364233	-3.019000	3.494000	-10.546000	25.818554	0.000281	20.666200
1470.389089	-2.988100	3.494800	-10.442000	25.809176	0.000281	20.638758
1471.388456	-3.016900	3.494400	-10.542000	25.833036	0.000281	20.647080
1472.362313	-3.004900	3.493000	-10.496000	25.851930	0.000280	20.650413
1473.365468	-2.992300	3.494300	-10.455000	25.887025	0.000282	20.648684
1474.391068	-3.010700	3.492300	-10.514000	25.858670	0.000280	20.650072
1475.392313	-3.010600	3.491900	-10.512000	25.849072	0.000281	20.634739
1476.383713	-2.993300	3.493300	-10.456000	25.832517	0.000280	20.666001
1477.386662	-2.991700	3.492500	-10.447000	25.843737	0.000281	20.645975
1478.390944	-2.991700	3.492500	-10.448000	25.877294	0.000280	20.631794
1479.367435	-2.991900	3.490900	-10.444000	25.853750	0.000281	20.645128
1480.371661	-2.984100	3.491700	-10.419000	25.843852	0.000277	20.655575
1481.365935	-3.005200	3.491300	-10.491000	25.835712	0.000280	20.648820
1482.371429	-3.009300	3.490500	-10.504000	25.819807	0.000279	20.657026
1483.365691	-2.985400	3.490200	-10.419000	25.846767	0.000278	20.629103
1484.386430	-3.004600	3.488000	-10.479000	25.879559	0.000279	20.648771
1485.366470	-2.984800	3.490300	-10.417000	25.893149	0.000280	20.635869
1486.388471	-2.960100	3.490900	-10.333000	25.896516	0.000276	20.629293
1487.394229	-2.999200	3.489500	-10.464000	25.869277	0.000275	20.632749
1488.386038	-2.998200	3.488700	-10.459000	25.847953	0.000276	20.639304
1489.395080	-3.008600	3.488100	-10.493000	25.852305	0.000273	20.614750
1490.387158	-2.985100	3.489000	-10.414000	25.813191	0.000276	20.643741
1491.373784	-3.015900	3.488100	-10.519000	25.829709	0.000275	20.638521
1492.366362	-2.995500	3.486900	-10.445000	25.847358	0.000276	20.641078
1493.371108	-2.977000	3.487300	-10.381000	25.906340	0.000274	20.638215
1494.372875	-2.995400	3.486800	-10.443000	25.877815	0.000275	20.630421
1495.371633	-3.006300	3.485800	-10.479000	25.882591	0.000274	20.631425
1496.370395	-2.997400	3.487400	-10.453000	25.875361	0.000273	20.610883
1497.371739	-2.997000	3.486200	-10.447000	25.868239	0.000273	20.643088
1498.370260	-2.981400	3.487600	-10.396000	25.840803	0.000273	20.634493
1499.368093	-2.975500	3.486800	-10.374000	25.799077	0.000272	20.609643
1500.400701	-3.007600	3.483900	-10.477000	25.796340	0.000273	20.638666
1501.388819	-2.976800	3.485000	-10.373000	25.812850	0.000269	20.625378
1502.374336	-2.985400	3.484000	-10.399000	25.875967	0.000271	20.654172
1503.371611	-2.998500	3.484600	-10.448000	25.922896	0.000271	20.620232
1504.397082	-3.013300	3.483400	-10.495000	25.883027	0.000271	20.625224
1505.390796	-3.012900	3.483700	-10.495000	25.863542	0.000270	20.609916
1506.385669	-3.014400	3.482100	-10.495000	25.884324	0.000271	20.628425
1507.387635	-2.996500	3.483200	-10.437000	25.906449	0.000268	20.639273
1508.393840	-2.999700	3.482400	-10.445000	25.908928	0.000269	20.628960
1509.386543	-2.991400	3.481100	-10.412000	25.907722	0.000271	20.635810
1510.391147	-3.013300	3.479500	-10.484000	25.917795	0.000266	20.624116
1511.387424	-3.006900	3.482000	-10.469000	25.875810	0.000271	20.619396
1512.375084	-3.013900	3.480800	-10.490000	25.819704	0.000270	20.620408
1513.392306	-3.003600	3.479800	-10.451000	25.825187	0.000267	20.618803
1514.380211	-3.016800	3.480300	-10.499000	25.818391	0.000266	20.618140
1515.374661	-2.996200	3.480300	-10.427000	25.779772	0.000267	20.620125
1516.383050	-2.999900	3.479200	-10.436000	25.738418	0.000264	20.618415
1517.376289	-2.993500	3.478600	-10.413000	25.791798	0.000265	20.618928
1518.387892	-3.009900	3.477600	-10.466000	25.850864	0.000266	20.615198
1519.398784	-3.020300	3.478400	-10.505000	25.881834	0.000265	20.596995
1520.381406	-3.003200	3.478100	-10.445000	25.898736	0.000266	20.631997
1521.373379	-2.993300	3.478800	-10.412000	25.863050	0.000265	20.624122
1522.375275	-3.017400	3.477100	-10.490000	25.834451	0.000264	20.608192
1523.378325	-3.003800	3.476700	-10.442000	25.845192	0.000266	20.606180
1524.378356	-3.015700	3.476000	-10.481000	25.855021	0.000263	20.625540
1525.393841	-3.022500	3.475000	-10.502000	25.848501	0.000265	20.603814
1526.408653	-2.990500	3.476100	-10.395000	25.850103	0.000266	20.617753
1527.376990	-3.003600	3.475700	-10.439000	25.838716	0.000264	20.613900
1528.377699	-3.011500	3.475400	-10.466000	25.866351	0.000263	20.630285
1529.383352	-2.993700	3.475700	-10.404000	25.827410	0.000265	20.612500
1530.398700	-2.996000	3.475600	-10.412000	25.841942	0.000264	20.606709
1531.405755	-2.992400	3.475500	-10.399000	25.826079	0.000262	20.608318
1532.400354	-2.995500	3.473700	-10.405000	25.808972	0.000263	20.601564
1533.403630	-2.994900	3.473700	-10.403000	25.781910	0.000262	20.600458
1534.400107	-3.006300	3.473500	-10.441000	25.794775	0.000262	20.605795
1535.381895	-2.979600	3.472700	-10.346000	25.849438	0.000262	20.606179
1536.383022	-2.990700	3.473300	-10.387000	25.887294	0.000259	20.621924
1537.380461	-2.991300	3.473000	-10.388000	25.927616	0.000263	20.597943
1538.379688	-2.988400	3.473300	-10.379000	25.946118	0.000259	20.589502
1539.380436	-2.970100	3.473000	-10.315000	25.888520	0.000261	20.610826
1540.380560	-3.015600	3.472300	-10.470000	25.863869	0.000259	20.613563
1541.386061	-3.036600	3.470100	-10.536000	25.891910	0.000260	20.614232
1542.405372	-2.997800	3.471900	-10.407000	25.868839	0.000259	20.617134
1543.406547	-3.008600	3.470300	-10.440000	25.838596	0.000260	20.611409
1544.386120	-3.015900	3.469300	-10.462000	25.842664	0.000259	20.609331
1545.380922	-3.015000	3.469900	-10.461000	25.794892	0.000257	20.594057
1546.378075	-3.008300	3.469300	-10.435000	25.785694	0.000257	20.607580
1547.380439	-3.004600	3.469400	-10.424000	25.838348	0.000257	20.594088
1548.379437	-3.015200	3.469100	-10.459000	25.872462	0.000257	20.587104
1549.386923	-3.022600	3.467600	-10.479000	25.885123	0.000259	20.589392
1550.383389	-2.983800	3.469300	-10.351000	25.891820	0.000257	20.598018
1551.381536	-2.975300	3.468700	-10.320000	25.916476	0.000255	20.591492
1552.384577	-2.992200	3.467400	-10.373000	25.931846	0.000257	20.594606
1553.382036	-2.987800	3.467700	-10.359000	25.906220	0.000257	20.604425
1554.379516	-2.997100	3.466500	-10.388000	25.865522	0.000254	20.590090
1555.379179	-3.001800	3.465800	-10.403000	25.841359	0.000256	20.594742
1556.379773	-2.982900	3.467000	-10.340000	25.834294	0.000255	20.595231
1557.382223	-2.985800	3.466700	-10.349000	25.814460	0.000253	20.597119
1558.386167	-3.018600	3.465400	-10.459000	25.822696	0.000253	20.608238
1559.382915	-2.994300	3.466000	-10.378000	25.837921	0.000255	20.587019
1560.381874	-2.997800	3.465100	-10.387000	25.828447	0.000253	20.578923
1561.403807	-3.002500	3.464000	-10.400000	25.780910	0.000253	20.580958
1562.397223	-3.013300	3.464300	-10.438000	25.797121	0.000251	20.576853
1563.383362	-3.008900	3.464400	-10.423000	25.811769	0.000252	20.592518
1564.383655	-2.968200	3.465300	-10.284000	25.851954	0.000252	20.585943
1565.386631	-2.991800	3.462400	-10.358000	25.843823	0.000253	20.588207
1566.387850	-2.992500	3.464100	-10.365000	25.862743	0.000252	20.576865
1567.386267	-2.999600	3.462300	-10.384000	25.915240	0.000250	20.595941
1568.405807	-3.014900	3.462100	-10.437000	25.944395	0.000252	20.592988
1569.386445	-2.986600	3.463700	-10.343000	25.975503	0.000251	20.583936
1570.391081	-3.007900	3.461500	-10.411000	25.973582	0.000250	20.584377
1571.385966	-3.005000	3.461300	-10.400000	26.011695	0.000251	20.575725
1572.393679	-3.006400	3.460300	-10.403000	26.016829	0.000248	20.602225
1573.390676	-2.989500	3.460600	-10.345000	26.011108	0.000249	20.579877
1574.410471	-3.014300	3.459800	-10.427000	26.016583	0.000249	20.589648
1575.392147	-3.012700	3.459800	-10.423000	25.972798	0.000249	20.571733
1576.390832	-3.018800	3.458200	-10.439000	25.953488	0.000251	20.577464
1577.407312	-2.992000	3.460600	-10.354000	25.935764	0.000246	20.582892
1578.405195	-2.989600	3.460100	-10.343000	25.935251	0.000247	20.578109
1579.415555	-3.018200	3.458400	-10.437000	25.959158	0.000246	20.576996
1580.390194	-2.981500	3.459000	-10.312000	25.893765	0.000247	20.585270
1581.394289	-3.016500	3.459100	-10.434000	25.883437	0.000247	20.582956
1582.389297	-2.988800	3.457400	-10.333000	25.871181	0.000245	20.589137
1583.395843	-3.016600	3.457500	-10.427000	25.885528	0.000246	20.573200
1584.393211	-2.979500	3.458400	-10.303000	25.905066	0.000245	20.571965
1585.393281	-3.020900	3.457700	-10.445000	25.902144	0.000245	20.579937
1586.413739	-2.986200	3.456300	-10.320000	25.915196	0.000244	20.581670
1587.408536	-2.992200	3.457000	-10.344000	25.894591	0.000244	20.593215
1588.413113	-3.014200	3.455900	-10.416000	25.965981	0.000244	20.579110
1589.409315	-3.015200	3.456000	-10.419000	25.955719	0.000245	20.575438
1590.394632	-3.022300	3.454300	-10.439000	25.906195	0.000245	20.581636
1591.393868	-2.995900	3.455700	-10.352000	25.851011	0.000243	20.575037
1592.393549	-3.016100	3.454000	-10.416000	25.834206	0.000242	20.564791
1593.399911	-2.983500	3.453700	-10.303000	25.817514	0.000245	20.586434
1594.391571	-2.989800	3.454000	-10.325000	25.791691	0.000242	20.585624
1595.417367	-3.027700	3.452900	-10.452000	25.824073	0.000243	20.577848
1596.413442	-2.993800	3.453000	-10.337000	25.800675	0.000242	20.605084
1597.415812	-3.005600	3.452600	-10.377000	25.792617	0.000241	20.566163
1598.425502	-2.997800	3.452400	-10.349000	25.836230	0.000241	20.573464
1599.411369	-2.991300	3.452700	-10.327000	25.845158	0.000242	20.580063
1600.417203	-3.000900	3.451400	-10.356000	25.855232	0.000241	20.596350
1601.420046	-2.997500	3.450600	-10.342000	25.861897	0.000240	20.563684
1602.414459	-2.992800	3.451700	-10.328000	25.863646	0.000239	20.589154
1603.408406	-2.997800	3.451600	-10.347000	25.859333	0.000240	20.583398
1604.420625	-3.024400	3.450100	-10.433000	25.860814	0.000239	20.571607
1605.433026	-2.984200	3.450400	-10.296000	25.842259	0.000240	20.584264
1606.426507	-2.988600	3.450700	-10.312000	25.867397	0.000239	20.585809
1607.395420	-3.003900	3.449900	-10.362000	25.853611	0.000238	20.587133
1608.400443	-3.020900	3.448900	-10.417000	25.855092	0.000239	20.572971
1609.398433	-2.981800	3.449700	-10.285000	25.886471	0.000241	20.581736
1610.401937	-2.990900	3.448300	-10.312000	25.917988	0.000238	20.574990
1611.404563	-3.005100	3.448600	-10.362000	25.943507	0.000239	20.595889
1612.404338	-2.979800	3.448800	-10.276000	25.893461	0.000236	20.566944
1613.425906	-3.004900	3.447900	-10.360000	25.894445	0.000236	20.575521
1614.406936	-2.978600	3.448000	-10.269000	25.867941	0.000236	20.579242
1615.411840	-2.962400	3.448800	-10.216000	25.934173	0.000237	20.575603
1616.404974	-3.016300	3.447000	-10.396000	25.920201	0.000235	20.598080
1617.407965	-2.980800	3.447500	-10.276000	25.930104	0.000235	20.573411
1618.400758	-3.008700	3.446100	-10.367000	25.934335	0.000237	20.580508
1619.403822	-2.997300	3.445200	-10.326000	25.923317	0.000234	20.573705
1620.404555	-3.018800	3.444200	-10.396000	25.910948	0.000234	20.606804
1621.403706	-3.002700	3.444700	-10.342000	25.888748	0.000235	20.585921
1622.404370	-2.995900	3.444900	-10.320000	25.898774	0.000234	20.606427
1623.402439	-3.001300	3.445700	-10.340000	25.834565	0.000234	20.574163
1624.402617	-3.003600	3.445100	-10.347000	25.855740	0.000232	20.582159
1625.402773	-2.980800	3.444500	-10.267000	25.889757	0.000235	20.583615
1626.402353	-3.001900	3.443200	-10.335000	25.910036	0.000233	20.578856
1627.405991	-3.020400	3.442000	-10.395000	25.953742	0.000235	20.598586
1628.402575	-2.976500	3.443200	-10.248000	25.957176	0.000235	20.594922
1629.404319	-2.997300	3.443000	-10.318000	25.996282	0.000232	20.571619
1630.423431	-3.002800	3.441700	-10.333000	26.000514	0.000232	20.578716
1631.405134	-3.008500	3.441600	-10.353000	25.992629	0.000233	20.599248
1632.404287	-2.978600	3.441800	-10.251000	25.979968	0.000232	20.567555
1633.407866	-2.992000	3.441100	-10.295000	25.968453	0.000229	20.571635
1634.405501	-3.000000	3.441500	-10.324000	25.965133	0.000231	20.591537
1635.404633	-3.002200	3.439200	-10.324000	25.965296	0.000230	20.584113
1636.404827	-3.001300	3.438800	-10.319000	25.995753	0.000231	20.587212
1637.407471	-3.029400	3.439500	-10.419000	25.984191	0.000232	20.589820
1638.406222	-3.013800	3.440000	-10.367000	25.964352	0.000229	20.594072
1639.411935	-3.015000	3.439800	-10.370000	25.923006	0.000230	20.591414
1640.407850	-2.992800	3.439500	-10.292000	25.908684	0.000229	20.574178
1641.411085	-3.001100	3.439300	-10.321000	25.901564	0.000227	20.600220
1642.409952	-2.988000	3.438300	-10.272000	25.915862	0.000229	20.590401
1643.410221	-3.001800	3.436800	-10.315000	25.894997	0.000229	20.586983
1644.411839	-2.996000	3.438100	-10.300000	25.892303	0.000229	20.587122
1645.409981	-3.000900	3.437700	-10.315000	25.956321	0.000227	20.605919
1646.410691	-2.996300	3.437900	-10.300000	25.934887	0.000227	20.597187
1647.412502	-3.036500	3.435900	-10.432000	25.926782	0.000225	20.613703
1648.413013	-3.034400	3.436100	-10.425000	25.955222	0.000227	20.616197
1649.415211	-2.994800	3.435100	-10.286000	26.006372	0.000227	20.588872
1650.411750	-3.001900	3.435900	-10.313000	26.013077	0.000226	20.604620
1651.408437	-2.973300	3.437100	-10.219000	25.976257	0.000228	20.592281
1652.413448	-3.004000	3.434700	-10.317000	25.963661	0.000228	20.598119
1653.411186	-2.999500	3.436300	-10.307000	25.902549	0.000225	20.608324
1654.442410	-3.000100	3.435000	-10.305000	25.926286	0.000222	20.609885
1655.426051	-3.006800	3.433800	-10.324000	25.931413	0.000224	20.592748
1656.414605	-3.005100	3.434700	-10.321000	25.956842	0.000225	20.616402
1657.414314	-3.007500	3.433500	-10.325000	25.896429	0.000224	20.598381
1658.438779	-2.997900	3.433600	-10.293000	25.912509	0.000224	20.606950
1659.434997	-2.985300	3.434100	-10.251000	25.969593	0.000222	20.613565
1660.435846	-2.998500	3.433400	-10.294000	26.012711	0.000226	20.626066
1661.435261	-3.002400	3.432000	-10.303000	26.041303	0.000224	20.612592
1662.415709	-2.982000	3.433300	-10.237000	26.057105	0.000223	20.608078
1663.415838	-3.005300	3.430900	-10.311000	26.049432	0.000221	20.615543
1664.415880	-2.985400	3.430200	-10.239000	26.061034	0.000222	20.606337
1665.422543	-2.980400	3.432400	-10.229000	26.057609	0.000221	20.614276
1666.435141	-3.022400	3.431600	-10.371000	26.027203	0.000222	20.605536
1667.416027	-2.998600	3.430800	-10.287000	26.064021	0.000221	20.635420
1668.415628	-2.974500	3.430300	-10.202000	26.012109	0.000219	20.627358
1669.414334	-2.984500	3.430500	-10.238000	26.025510	0.000222	20.605258
1670.416384	-2.987100	3.429000	-10.242000	26.082612	0.000221	20.637979
1671.419658	-2.988400	3.429600	-10.249000	26.049009	0.000219	20.632665
1672.418338	-3.001200	3.427200	-10.284000	25.987462	0.000220	20.611603
1673.418059	-2.998600	3.428300	-10.279000	25.961236	0.000220	20.615127
1674.419090	-3.011000	3.428000	-10.321000	25.975721	0.000221	20.620670
1675.418151	-2.988300	3.427600	-10.242000	25.969122	0.000217	20.643915
1676.420220	-3.014200	3.426600	-10.327000	25.989692	0.000219	20.620957
1677.415619	-2.997000	3.426600	-10.269000	25.966046	0.000219	20.611423
1678.415082	-3.002500	3.426400	-10.287000	25.975745	0.000219	20.619272
1679.417497	-3.019800	3.426100	-10.345000	26.053517	0.000216	20.626288
1680.419946	-3.005600	3.425400	-10.295000	26.070718	0.000217	20.623655
1681.420039	-3.038100	3.425500	-10.407000	26.087023	0.000217	20.623917
1682.423065	-3.001800	3.425200	-10.281000	26.044852	0.000214	20.609992
1683.418594	-2.990400	3.424900	-10.240000	26.014958	0.000216	20.623107
1684.419866	-3.016000	3.424100	-10.326000	25.988212	0.000217	20.622789
1685.426935	-3.005400	3.425100	-10.293000	25.970098	0.000216	20.621186
1686.419710	-3.003800	3.424300	-10.285000	26.000783	0.000216	20.640163
1687.419925	-3.005800	3.423900	-10.291000	25.949617	0.000213	20.629060
1688.423111	-2.989200	3.423600	-10.233000	25.980416	0.000214	20.637244
1689.417555	-2.984300	3.424300	-10.217000	25.916384	0.000213	20.621276
1690.420086	-3.010300	3.421700	-10.299000	25.968325	0.000215	20.647857
1691.419478	-2.981000	3.423200	-10.204000	25.935174	0.000213	20.648691
1692.419008	-3.008700	3.420400	-10.290000	25.960513	0.000214	20.634792
1693.423888	-3.018500	3.420900	-10.325000	26.015292	0.000214	20.652370
1694.424215	-3.023500	3.421500	-10.344000	26.044584	0.000213	20.659516
1695.423374	-3.010500	3.420900	-10.298000	26.067374	0.000213	20.631677
1696.425872	-2.995300	3.420300	-10.244000	26.068456	0.000212	20.643197
1697.424555	-2.988200	3.421300	-10.223000	26.055918	0.000211	20.664741
1698.426126	-3.016100	3.419000	-10.311000	26.076959	0.000212	20.632772
1699.426889	-3.015300	3.419000	-10.308000	26.093427	0.000214	20.622291
1700.421564	-3.009400	3.418300	-10.287000	26.092272	0.000211	20.619707
1701.426704	-3.009900	3.419000	-10.290000	26.114134	0.000211	20.666336
1702.425867	-2.994800	3.419700	-10.240000	26.084087	0.000210	20.639935
1703.426762	-3.005100	3.419900	-10.276000	26.085104	0.000211	20.653287
1704.426823	-3.009200	3.418200	-10.286000	26.047831	0.000209	20.658511
1705.425742	-3.022500	3.417300	-10.328000	26.036627	0.000209	20.666696
1706.428663	-2.989400	3.417100	-10.214000	25.961353	0.000211	20.638006
1707.425521	-2.973400	3.418600	-10.164000	25.959994	0.000209	20.645651
1708.427825	-3.006100	3.415600	-10.266000	25.977912	0.000210	20.643738
1709.429742	-3.007900	3.415900	-10.274000	25.965120	0.000211	20.653173
1710.423988	-2.999000	3.415300	-10.242000	25.989817	0.000207	20.660442
1711.426046	-2.990500	3.416200	-10.215000	26.024048	0.000206	20.672076
1712.428317	-2.993800	3.416900	-10.228000	26.069605	0.000207	20.664268
1713.425291	-3.035900	3.414300	-10.364000	26.113370	0.000207	20.652290
1714.434198	-2.992400	3.416000	-10.222000	26.167693	0.000208	20.639070
1715.426267	-3.004700	3.414500	-10.259000	26.178823	0.000207	20.664955
1716.425323	-3.003500	3.414600	-10.255000	26.168743	0.000205	20.653877
1717.426979	-2.976300	3.414300	-10.161000	26.172005	0.000206	20.663320
1718.426728	-2.987100	3.414400	-10.198000	26.200000	0.000207	20.651146
1719.435060	-2.995700	3.413700	-10.225000	26.230133	0.000206	20.674317
1720.428792	-2.995000	3.413200	-10.222000	26.177261	0.000204	20.661489
1721.428548	-2.992100	3.413200	-10.212000	26.131726	0.000206	20.658881
1722.435772	-2.974100	3.414100	-10.153000	26.153213	0.000206	20.652970
1723.428578	-3.005000	3.411800	-10.251000	26.167271	0.000204	20.677531
1724.429073	-3.010000	3.412000	-10.268000	26.138992	0.000203	20.646740
1725.431007	-2.996300	3.411900	-10.222000	26.127894	0.000204	20.654557
1726.429212	-2.999800	3.411200	-10.232000	26.185390	0.000203	20.663493
1727.428391	-3.012700	3.411500	-10.277000	26.219648	0.000203	20.662357
1728.426110	-3.018200	3.409600	-10.290000	26.207201	0.000204	20.664074
1729.430149	-3.001900	3.409000	-10.232000	26.211017	0.000202	20.670280
1730.429718	-3.001300	3.410700	-10.235000	26.220365	0.000202	20.678252
1731.426801	-2.996700	3.410500	-10.220000	26.185716	0.000204	20.678996
1732.430763	-2.992900	3.410100	-10.205000	26.164165	0.000201	20.676306
1733.432026	-3.015100	3.408400	-10.275000	26.121753	0.000202	20.662611
1734.432818	-2.991200	3.408400	-10.194000	26.113186	0.000201	20.667280
1735.434625	-3.008000	3.407900	-10.250000	26.135194	0.000202	20.670902
1736.433133	-2.972300	3.408200	-10.129000	26.137439	0.000201	20.664149
1737.433794	-2.991500	3.408000	-10.195000	26.163091	0.000198	20.662424
1738.442384	-3.010500	3.407800	-10.258000	26.136821	0.000200	20.670167
1739.433425	-2.993200	3.407000	-10.196000	26.162896	0.000201	20.669341
1740.434495	-2.997300	3.407200	-10.211000	26.110437	0.000198	20.673053
1741.435575	-3.004100	3.405200	-10.229000	26.108891	0.000200	20.677664
1742.433798	-3.004600	3.406000	-10.233000	26.088851	0.000199	20.665114
1743.437977	-3.015400	3.406800	-10.271000	26.053336	0.000196	20.663569
1744.432834	-2.984600	3.405400	-10.162000	26.084043	0.000196	20.668818
1745.431460	-2.991200	3.405400	-10.186000	26.098233	0.000196	20.688293
1746.438985	-2.996700	3.403700	-10.199000	26.080569	0.000198	20.659637
1747.435707	-3.012800	3.403200	-10.252000	26.102887	0.000195	20.690599
1748.434982	-2.994100	3.404500	-10.193000	26.144584	0.000196	20.682235
1749.453986	-3.001800	3.403500	-10.215000	26.137831	0.000195	20.670233
1750.434929	-2.992500	3.403600	-10.184000	26.100959	0.000194	20.692930
1751.439467	-2.986700	3.403300	-10.164000	26.112407	0.000195	20.688785
1752.439333	-2.981900	3.403300	-10.148000	26.086672	0.000195	20.691850
1753.437407	-3.005700	3.401900	-10.223000	26.085858	0.000195	20.685343
1754.440810	-3.026700	3.400200	-10.290000	26.102481	0.000194	20.697778
1755.440601	-2.986000	3.401500	-10.156000	26.133007	0.000193	20.706167
1756.442016	-3.004100	3.401000	-10.216000	26.120315	0.000195	20.704319
1757.444585	-3.005700	3.400700	-10.220000	26.150247	0.000195	20.703575
1758.441888	-2.986200	3.400600	-10.153000	26.110576	0.000194	20.695955
1759.442490	-2.978000	3.400800	-10.126000	26.073524	0.000193	20.694761
1760.446187	-2.967800	3.401300	-10.093000	26.106021	0.000191	20.707974
1761.454632	-3.019100	3.399000	-10.261000	26.107851	0.000191	20.688474
1762.446328	-2.971500	3.401500	-10.106000	26.126726	0.000192	20.695587
1763.443259	-2.995700	3.398900	-10.182000	26.142998	0.000192	20.689652
1764.444339	-3.006300	3.399000	-10.218000	26.189909	0.000191	20.703125
1765.447446	-3.016900	3.398600	-10.252000	26.223963	0.000192	20.696569
1766.443461	-2.997600	3.398200	-10.184000	26.190861	0.000190	20.703134
1767.446761	-3.008200	3.396400	-10.217000	26.215902	0.000188	20.713599
1768.448158	-3.004500	3.398700	-10.210000	26.197369	0.000192	20.712045
1769.442482	-2.996600	3.397100	-10.178000	26.210060	0.000190	20.708677
1770.446428	-3.007000	3.396500	-10.211000	26.200680	0.000189	20.716796
1771.442441	-2.994300	3.397000	-10.170000	26.245864	0.000189	20.694395
1772.444406	-2.987200	3.397000	-10.146000	26.196564	0.000188	20.716927
1773.453857	-3.004300	3.395700	-10.201000	26.153161	0.000189	20.706977
1774.446803	-3.008700	3.394900	-10.214000	26.158026	0.000188	20.720876
1775.444579	-2.995900	3.395500	-10.171000	26.186167	0.000188	20.692727
1776.457228	-2.998100	3.394500	-10.176000	26.158677	0.000188	20.703985
1777.445782	-2.983100	3.395100	-10.127000	26.100831	0.000189	20.744487
1778.448185	-2.989800	3.394000	-10.147000	26.119194	0.000187	20.719315
1779.446356	-2.998100	3.393200	-10.172000	26.143927	0.000188	20.723778
1780.446277	-3.010700	3.394600	-10.219000	26.147450	0.000185	20.723051
1781.446758	-3.022900	3.393100	-10.256000	26.163103	0.000186	20.716020
1782.446508	-2.992000	3.393300	-10.152000	26.176194	0.000187	20.714949
1783.458898	-2.990400	3.394000	-10.149000	26.221784	0.000185	20.705285
1784.462441	-3.019300	3.392500	-10.242000	26.228000	0.000183	20.724809
1785.449780	-3.017900	3.391300	-10.234000	26.290500	0.000185	20.722184
1786.452620	-3.005300	3.392300	-10.194000	26.301498	0.000186	20.723754
1787.451615	-3.013000	3.392500	-10.221000	26.247247	0.000185	20.740833
1788.451197	-3.007500	3.392100	-10.201000	26.251665	0.000181	20.727253
1789.451236	-2.973700	3.390200	-10.080000	26.201162	0.000183	20.727237
1790.451791	-2.989000	3.390400	-10.133000	26.208581	0.000183	20.724735
1791.449743	-2.984000	3.390100	-10.115000	26.126175	0.000183	20.743400
1792.450830	-3.001100	3.389800	-10.172000	26.157352	0.000183	20.718775
1793.449635	-3.000900	3.388300	-10.166000	26.136239	0.000180	20.722217
1794.452672	-3.010100	3.389200	-10.201000	26.170735	0.000183	20.722740
1795.449893	-2.992400	3.388600	-10.139000	26.154350	0.000182	20.747529
1796.451793	-3.027700	3.387600	-10.256000	26.170011	0.000181	20.725332
1797.450050	-2.988500	3.388600	-10.125000	26.259743	0.000180	20.757658
1798.453766	-2.992800	3.389500	-10.142000	26.271962	0.000182	20.731529
1799.452700	-3.002100	3.387700	-10.169000	26.249037	0.000181	20.742157
1800.453242	-2.988700	3.386300	-10.120000	26.221874	0.000179	20.750423
1801.452336	-2.995500	3.387600	-10.147000	26.201512	0.000181	20.730434
1802.451215	-2.990000	3.386700	-10.125000	26.269635	0.000179	20.742943
1803.456374	-3.003300	3.385300	-10.166000	26.257864	0.000179	20.733958
1804.452527	-2.991500	3.386000	-10.129000	26.246556	0.000181	20.737293
1805.457315	-3.008200	3.385000	-10.182000	26.215627	0.000178	20.732764
1806.455518	-2.983300	3.386700	-10.103000	26.239268	0.000179	20.740874
1807.452857	-2.989600	3.385500	-10.120000	26.271751	0.000179	20.743172
1808.454774	-2.977300	3.385700	-10.079000	26.312107	0.000177	20.747693
1809.454047	-3.017800	3.384600	-10.213000	26.341602	0.000177	20.752205
1810.462533	-2.980900	3.383400	-10.085000	26.333119	0.000177	20.756007
1811.451890	-2.993500	3.383700	-10.129000	26.306543	0.000176	20.756800
1812.453580	-3.012800	3.383700	-10.194000	26.267090	0.000177	20.765989
1813.454806	-2.989900	3.382700	-10.113000	26.241212	0.000176	20.745199
1814.454709	-3.004100	3.382700	-10.160000	26.253838	0.000175	20.743663
1815.459490	-3.001200	3.383600	-10.154000	26.244572	0.000174	20.745257
1816.455659	-2.999000	3.382100	-10.142000	26.242579	0.000173	20.752263
1817.472536	-2.992600	3.381400	-10.119000	26.227342	0.000176	20.761608
1818.464394	-3.008900	3.381300	-10.172000	26.240977	0.000173	20.759188
1819.456264	-3.007700	3.381200	-10.168000	26.287264	0.000173	20.757340
1820.453252	-3.012100	3.379600	-10.178000	26.256954	0.000174	20.758175
1821.459267	-2.970100	3.381800	-10.044000	26.230580	0.000172	20.741153
1822.457874	-2.979600	3.379500	-10.069000	26.256906	0.000174	20.765712
1823.457523	-2.993100	3.378900	-10.112000	26.270637	0.000173	20.744898
1824.463765	-2.996300	3.380200	-10.127000	26.262446	0.000173	20.750890
1825.460331	-3.037400	3.377800	-10.259000	26.264674	0.000173	20.760717
1826.464484	-3.003200	3.379400	-10.148000	26.284231	0.000172	20.771836
1827.458075	-2.997900	3.377400	-10.124000	26.244418	0.000170	20.737990
1828.457743	-2.987600	3.379000	-10.095000	26.266049	0.000171	20.753564
1829.461462	-3.013800	3.377100	-10.177000	26.239212	0.000171	20.757889
1830.458555	-3.008900	3.377000	-10.159000	26.260616	0.000172	20.765173
1831.462837	-3.004100	3.378200	-10.148000	26.249137	0.000169	20.756008
1832.458885	-2.987400	3.378300	-10.091000	26.245070	0.000171	20.766146
1833.458666	-2.981400	3.376500	-10.066000	26.270621	0.000171	20.781393
1834.459857	-2.973700	3.377300	-10.042000	26.265773	0.000168	20.778417
1835.460555	-3.004300	3.375200	-10.139000	26.263861	0.000168	20.772228
1836.460774	-2.997600	3.374700	-10.115000	26.263584	0.000168	20.778114
1837.464265	-3.013500	3.376000	-10.173000	26.307122	0.000168	20.780616
1838.474449	-2.995400	3.375000	-10.109000	26.320918	0.000167	20.780730
1839.462383	-3.020000	3.372700	-10.185000	26.324911	0.000168	20.763881
1840.460947	-2.979400	3.374000	-10.052000	26.281529	0.000168	20.784294
1841.463710	-3.005500	3.374600	-10.141000	26.337202	0.000166	20.784294
1842.465419	-2.974600	3.376100	-10.042000	26.365981	0.000167	20.784294
1843.462830	-3.006300	3.372700	-10.139000	26.407449	0.000168	20.793254
1844.463812	-3.008900	3.374000	-10.151000	26.398355	0.000167	20.785062
1845.472465	-3.000600	3.372600	-10.119000	26.450223	0.000168	20.795943
1846.466373	-2.965300	3.373300	-10.001000	26.468003	0.000165	20.782046
1847.472250	-2.995300	3.372500	-10.101000	26.510011	0.000165	20.785389
1848.465099	-2.998600	3.372600	-10.112000	26.494737	0.000166	20.784261
1849.464107	-3.012000	3.370800	-10.153000	26.445701	0.000166	20.770535
1850.462528	-2.996500	3.371100	-10.101000	26.425172	0.000164	20.757962
1851.466241	-3.016500	3.370400	-10.166000	26.386089	0.000164	20.792649
1852.466136	-3.001900	3.370600	-10.116000	26.410636	0.000164	20.771802
1853.471317	-2.978700	3.371000	-10.041000	26.365477	0.000165	20.798012
1854.468085	-2.971300	3.369800	-10.011000	26.324163	0.000162	20.794897
1855.467792	-2.968900	3.370500	-10.005000	26.305583	0.000164	20.783337
1856.472967	-3.023300	3.368500	-10.183000	26.358489	0.000163	20.770600
1857.470487	-2.998900	3.368200	-10.101000	26.379825	0.000163	20.780190
1858.469945	-2.989500	3.370100	-10.074000	26.387276	0.000163	20.779143
1859.470230	-2.992700	3.367500	-10.077000	26.409620	0.000162	20.779315
1860.471299	-2.999200	3.366700	-10.096000	26.415159	0.000164	20.782986
1861.470123	-2.990700	3.368000	-10.071000	26.391863	0.000159	20.769055
1862.469609	-2.989200	3.368200	-10.067000	26.401673	0.000162	20.782708
1863.480420	-2.976100	3.369200	-10.026000	26.430824	0.000161	20.775497
1864.472398	-2.989200	3.367400	-10.064000	26.405341	0.000162	20.787817
1865.471043	-2.963600	3.367600	-9.979100	26.431841	0.000158	20.771777
1866.470374	-2.986200	3.366900	-10.054000	26.473330	0.000161	20.755631
1867.471599	-2.988600	3.365400	-10.057000	26.494126	0.000159	20.776061
1868.472550	-3.001900	3.364600	-10.098000	26.467563	0.000157	20.754102
1869.478945	-2.980200	3.365800	-10.030000	26.392856	0.000157	20.763888
1870.482547	-2.986600	3.365400	-10.050000	26.352657	0.000158	20.763790
1871.470343	-2.995900	3.364000	-10.077000	26.397467	0.000160	20.768049
1872.469908	-3.005000	3.364100	-10.108000	26.388659	0.000158	20.748290
1873.470807	-2.998800	3.364300	-10.088000	26.356846	0.000155	20.729118
1874.476079	-3.000700	3.363600	-10.092000	26.369063	0.000156	20.743768
1875.472020	-3.021000	3.362700	-10.158000	26.369332	0.000156	20.755892
1876.470546	-3.034200	3.361900	-10.199000	26.380012	0.000155	20.769472
1877.472078	-2.997300	3.363000	-10.079000	26.450043	0.000156	20.752614
1878.474298	-2.993900	3.362800	-10.067000	26.470141	0.000155	20.778031
1879.475112	-3.019300	3.363500	-10.154000	26.453378	0.000155	20.766872
1880.474143	-3.016300	3.361400	-10.139000	26.458689	0.000155	20.739018
1881.472595	-3.003300	3.361100	-10.094000	26.484683	0.000156	20.741912
1882.481701	-3.003800	3.361300	-10.096000	26.442023	0.000154	20.748820
1883.480363	-3.000600	3.361200	-10.085000	26.450116	0.000153	20.756955
1884.472501	-2.999100	3.360700	-10.079000	26.485773	0.000154	20.758655
1885.478970	-3.007900	3.360000	-10.104000	26.537662	0.000151	20.755336
1886.474357	-2.999200	3.359600	-10.076000	26.527260	0.000154	20.745828
1887.477450	-2.999000	3.360000	-10.076000	26.532449	0.000152	20.736345
1888.478859	-2.990900	3.359400	-10.047000	26.494069	0.000152	20.748027
1889.480959	-3.008900	3.358600	-10.104000	26.459771	0.000151	20.758124
1890.481085	-3.035900	3.357500	-10.192000	26.483716	0.000150	20.749949
1891.477487	-3.020000	3.357800	-10.140000	26.502722	0.000150	20.757200
1892.479211	-3.005900	3.357900	-10.093000	26.513304	0.000150	20.751714
1893.479656	-2.986800	3.359300	-10.032000	26.555082	0.000149	20.734914
1894.477642	-3.006500	3.357600	-10.094000	26.523161	0.000148	20.761149
1895.482965	-3.016400	3.356200	-10.122000	26.475891	0.000150	20.735919
1896.482089	-3.011700	3.356500	-10.108000	26.508912	0.000149	20.725487
1897.481458	-2.976900	3.356000	-9.990000	26.499551	0.000148	20.745477
1898.478214	-3.030800	3.355900	-10.170000	26.511392	0.000148	20.733671
1899.479354	-3.019200	3.355100	-10.128000	26.521599	0.000148	20.735870
1900.485360	-3.027500	3.355100	-10.156000	26.528350	0.000148	20.758778
1901.483358	-2.985200	3.355600	-10.016000	26.527854	0.000146	20.754486
1902.480366	-2.996700	3.354800	-10.053000	26.555586	0.000146	20.733524
1903.478303	-2.983700	3.354200	-10.008000	26.488408	0.000145	20.728586
1904.486187	-3.006800	3.354900	-10.087000	26.485822	0.000146	20.742108
1905.482586	-3.000500	3.354200	-10.064000	26.498038	0.000146	20.742059
1906.485603	-2.991400	3.354200	-10.032000	26.485830	0.000148	20.739746
1907.479767	-2.980500	3.354100	-9.996200	26.451678	0.000148	20.735290
1908.481133	-2.978100	3.352900	-9.984600	26.505154	0.000145	20.751109
1909.483060	-2.998300	3.351400	-10.049000	26.466481	0.000148	20.730728
1910.484738	-2.988300	3.351200	-10.014000	26.477705	0.000143	20.713559
1911.487843	-3.000300	3.353100	-10.058000	26.481771	0.000145	20.726656
1912.484107	-3.009800	3.351200	-10.086000	26.411929	0.000145	20.718571
1913.484776	-3.002300	3.351900	-10.061000	26.418257	0.000144	20.722086
1914.484437	-2.979800	3.352300	-9.988300	26.458851	0.000142	20.724007
1915.483801	-3.010800	3.351300	-10.089000	26.456574	0.000143	20.736892
1916.492367	-2.997800	3.350700	-10.044000	26.480852	0.000142	20.733794
1917.488017	-3.004300	3.348800	-10.060000	26.520404	0.000141	20.722814
1918.480448	-2.984800	3.349600	-9.997000	26.540240	0.000141	20.741806
1919.487656	-3.018200	3.348300	-10.105000	26.527455	0.000141	20.739386
1920.490372	-2.986500	3.350700	-10.006000	26.526959	0.000141	20.718497
1921.485523	-2.996800	3.348200	-10.034000	26.537711	0.000141	20.716503
1922.492671	-2.995700	3.349500	-10.034000	26.572388	0.000141	20.722912
1923.484475	-2.992000	3.347700	-10.015000	26.605512	0.000141	20.724915
1924.486280	-2.989000	3.347800	-10.005000	26.584010	0.000139	20.741233
1925.484384	-2.978600	3.347300	-9.969600	26.633487	0.000138	20.728856
1926.486297	-2.996000	3.346500	-10.025000	26.672488	0.000139	20.731080
1927.489869	-3.011600	3.346300	-10.077000	26.631543	0.000141	20.704615
1928.487354	-2.990900	3.347100	-10.010000	26.640838	0.000137	20.718228
1929.490375	-2.989900	3.346400	-10.005000	26.656826	0.000138	20.722920
1930.492262	-3.015900	3.345400	-10.089000	26.667658	0.000139	20.739501
1931.496724	-3.022900	3.345700	-10.113000	26.660876	0.000138	20.726992
1932.489587	-3.019200	3.344300	-10.096000	26.642831	0.000138	20.719757
1933.489792	-2.967300	3.346500	-9.929100	26.679294	0.000137	20.719430
1934.490393	-2.993100	3.343600	-10.008000	26.650524	0.000137	20.709946
1935.495891	-3.005900	3.344200	-10.052000	26.634097	0.000136	20.703389
1936.501491	-3.012800	3.343500	-10.073000	26.637651	0.000135	20.725455
1937.495482	-3.013900	3.342900	-10.074000	26.675375	0.000138	20.714067
1938.496739	-2.997500	3.344800	-10.025000	26.658550	0.000133	20.729870
1939.493739	-2.988000	3.343600	-9.990100	26.681417	0.000132	20.740531
1940.496362	-2.989000	3.343800	-9.993700	26.618614	0.000133	20.708213
1941.494351	-2.975400	3.344400	-9.948800	26.631894	0.000133	20.715874
1942.494864	-2.991700	3.342500	-9.999100	26.661754	0.000132	20.713176
1943.496788	-2.994700	3.341300	-10.005000	26.602870	0.000133	20.710878
1944.499166	-3.002500	3.342200	-10.034000	26.552310	0.000132	20.717902
1945.494878	-2.983800	3.341600	-9.969300	26.580213	0.000132	20.727459
1946.495561	-2.993300	3.339900	-9.996400	26.548756	0.000132	20.702474
1947.497639	-3.009700	3.339500	-10.050000	26.580644	0.000133	20.710822
1948.495363	-2.987400	3.340200	-9.977200	26.613100	0.000130	20.718318
1949.499557	-3.000900	3.339400	-10.020000	26.611116	0.000131	20.708262
1950.496032	-3.004700	3.339200	-10.032000	26.595608	0.000131	20.707846
1951.497317	-3.005200	3.338000	-10.031000	26.604269	0.000131	20.703749
1952.498044	-2.989700	3.339200	-9.982200	26.588654	0.000128	20.721245
1953.499234	-2.996200	3.339000	-10.003000	26.571820	0.000130	20.721867
1954.499105	-3.016300	3.337800	-10.067000	26.627064	0.000128	20.711492
1955.500653	-2.993300	3.338000	-9.990600	26.593542	0.000131	20.710985
1956.501417	-3.005800	3.337200	-10.030000	26.592135	0.000128	20.711467
1957.507774	-2.965700	3.336800	-9.894900	26.618549	0.000128	20.703406
1958.501484	-3.006700	3.337000	-10.033000	26.618126	0.000129	20.702507
1959.503772	-3.010300	3.335700	-10.041000	26.540103	0.000127	20.700888
1960.508184	-2.982500	3.335900	-9.948200	26.536183	0.000128	20.704535
1961.501594	-3.018000	3.335500	-10.066000	26.583255	0.000127	20.699221
1962.509987	-2.996600	3.336200	-9.997000	26.654590	0.000128	20.689851
1963.511915	-2.975200	3.336100	-9.924400	26.688281	0.000126	20.712342
1964.507805	-3.005900	3.334400	-10.022000	26.670854	0.000126	20.702883
1965.506569	-2.988900	3.335500	-9.969200	26.692656	0.000128	20.703464
1966.505683	-2.986900	3.335500	-9.961400	26.679718	0.000125	20.721278
1967.507759	-2.992600	3.335200	-9.979800	26.692948	0.000126	20.701861
1968.505795	-3.006800	3.333500	-10.023000	26.701730	0.000124	20.715433
1969.502087	-2.999600	3.333500	-9.998000	26.652712	0.000124	20.712146
1970.509985	-3.002900	3.334400	-10.012000	26.619631	0.000123	20.695959
1971.508731	-3.013700	3.332800	-10.043000	26.627608	0.000123	20.719627
1972.506762	-2.986300	3.332800	-9.951800	26.602968	0.000123	20.711451
1973.508690	-2.981200	3.332800	-9.934300	26.607490	0.000122	20.702246
1974.504606	-2.998800	3.330900	-9.987300	26.622307	0.000123	20.701968
1975.508526	-2.997600	3.330600	-9.983000	26.680686	0.000122	20.693326
1976.508265	-2.993700	3.331600	-9.972700	26.677767	0.000120	20.686597
1977.514196	-2.972000	3.330200	-9.896700	26.679580	0.000122	20.704069
1978.512031	-2.982400	3.329600	-9.930100	26.684419	0.000121	20.689966
1979.515645	-3.021000	3.329700	-10.058000	26.650436	0.000121	20.687570
1980.508068	-2.991500	3.330800	-9.963100	26.661202	0.000121	20.702662
1981.513763	-3.015000	3.328700	-10.034000	26.673449	0.000119	20.720666
1982.510905	-2.991000	3.329400	-9.957600	26.663617	0.000118	20.702720
1983.512221	-3.016900	3.329000	-10.041000	26.630154	0.000119	20.701322
1984.515108	-2.984100	3.329600	-9.934600	26.581344	0.000119	20.713896
1985.509062	-2.986100	3.328800	-9.938800	26.611361	0.000117	20.702344
1986.523421	-3.015100	3.327800	-10.032000	26.644849	0.000119	20.684799
1987.511211	-3.009800	3.327500	-10.014000	26.649687	0.000118	20.687766
1988.512459	-2.996200	3.327400	-9.968300	26.707179	0.000117	20.697201
1989.515663	-3.003800	3.326700	-9.992000	26.746917	0.000117	20.688314
1990.515055	-3.033400	3.325300	-10.086000	26.724507	0.000116	20.682379
1991.514807	-2.983800	3.326600	-9.923900	26.704569	0.000115	20.692680
1992.516564	-3.015500	3.324800	-10.025000	26.751731	0.000115	20.682722
1993.514761	-2.999800	3.326100	-9.977200	26.791850	0.000115	20.710732
1994.513145	-3.011400	3.325500	-10.013000	26.769164	0.000116	20.695035
1995.518537	-3.010200	3.324600	-10.006000	26.739876	0.000115	20.709686
1996.512361	-2.997700	3.324200	-9.963600	26.761960	0.000115	20.670245
1997.516323	-3.022300	3.322900	-10.041000	26.816437	0.000115	20.678078
1998.516854	-3.014100	3.324100	-10.018000	26.842300	0.000112	20.693653
1999.515864	-3.026300	3.323400	-10.056000	26.860667	0.000112	20.683196
2000.518871	-2.983700	3.322800	-9.913400	26.812372	0.000112	20.688690
2001.518450	-3.030400	3.322300	-10.066000	26.798078	0.000114	20.693759
2002.516551	-2.987000	3.323200	-9.924600	26.772791	0.000111	20.686352
2003.523926	-2.999500	3.321100	-9.960500	26.810680	0.000111	20.686041
2004.524106	-3.000900	3.321200	-9.965700	26.765887	0.000111	20.690317
2005.519483	-3.008400	3.320200	-9.987800	26.821950	0.000111	20.677931
2006.521040	-2.981400	3.321000	-9.899800	26.827194	0.000111	20.696008
2007.518740	-3.002500	3.320800	-9.969200	26.818681	0.000111	20.683180
2008.519470	-2.990500	3.319800	-9.926800	26.750373	0.000110	20.670924
2009.520530	-2.989800	3.319000	-9.921800	26.743746	0.000109	20.675642
2010.525085	-2.996500	3.321100	-9.950900	26.761333	0.000111	20.676729
2011.518176	-2.997600	3.319300	-9.948900	26.722670	0.000109	20.685273
2012.525377	-3.000200	3.319400	-9.958200	26.686305	0.000109	20.683327
2013.525591	-3.007700	3.319800	-9.984400	26.680816	0.000108	20.672118
2014.519833	-2.988600	3.318500	-9.916600	26.711399	0.000107	20.665405
2015.526713	-3.015200	3.318000	-10.004000	26.722019	0.000107	20.670392
2016.523628	-3.002500	3.317700	-9.959600	26.732915	0.000107	20.667596
2017.528024	-3.009800	3.317300	-9.983200	26.738054	0.000107	20.679877
2018.529612	-3.009600	3.317300	-9.982600	26.766204	0.000107	20.685420
2019.529117	-2.969500	3.318300	-9.852600	26.791394	0.000107	20.680874
2020.531939	-3.042900	3.315500	-10.088000	26.787767	0.000106	20.644981
2021.525984	-3.011900	3.317000	-9.989500	26.781523	0.000107	20.663836
2022.525350	-2.997300	3.316300	-9.939500	26.751828	0.000106	20.672862
2023.524485	-2.997000	3.315500	-9.936000	26.797947	0.000105	20.661857
2024.526803	-2.998600	3.315000	-9.939100	26.813632	0.000105	20.700390
2025.526884	-2.999100	3.315900	-9.944100	26.832470	0.000104	20.670491
2026.526051	-3.006900	3.315000	-9.966800	26.800631	0.000104	20.678781
2027.529625	-2.989600	3.314100	-9.907000	26.777149	0.000103	20.700218
2028.538585	-3.007400	3.314900	-9.968200	26.782271	9.988182E-5	20.694937
2029.527563	-3.005000	3.313100	-9.955400	26.793849	0.000101	20.667220
2030.526937	-3.005300	3.313400	-9.957300	26.795817	0.000100	20.668251
2031.528171	-3.007900	3.313500	-9.964700	26.785336	0.000103	20.666247
2032.526226	-3.028200	3.310900	-10.025000	26.759081	0.000101	20.677784
2033.532274	-3.004200	3.313000	-9.951600	26.827112	0.000101	20.674113
2034.538378	-3.002600	3.311700	-9.942600	26.837755	0.000101	20.659208
2035.526814	-2.995800	3.312100	-9.921600	26.871309	0.000101	20.667343
2036.530286	-3.009500	3.311900	-9.965600	26.877521	9.925478E-5	20.693980
2037.532091	-2.996500	3.311000	-9.920800	26.914351	0.000101	20.665103
2038.527641	-3.011400	3.311200	-9.970300	26.839227	9.800069E-5	20.653575
2039.535838	-2.995600	3.310500	-9.916100	26.775092	9.631756E-5	20.682975
2040.531135	-2.991200	3.309800	-9.899300	26.817957	9.872674E-5	20.669649
2041.529527	-2.993300	3.309700	-9.905900	26.835430	9.948579E-5	20.676312
2042.533826	-2.990600	3.309900	-9.897500	26.848643	9.734064E-5	20.656404
2043.536119	-2.995800	3.308600	-9.911200	26.879489	9.638357E-5	20.662765
2044.539341	-2.978200	3.309000	-9.854300	26.866961	9.456844E-5	20.668660
2045.528805	-3.006100	3.307200	-9.941000	26.863651	9.499747E-5	20.676713
2046.532288	-2.995400	3.307300	-9.905700	26.851716	9.503047E-5	20.676566
2047.529331	-3.009700	3.307100	-9.952100	26.853553	9.512948E-5	20.661816
2048.533010	-2.968800	3.308700	-9.820800	26.767010	9.420541E-5	20.660623
2049.533113	-2.993000	3.306200	-9.894400	26.743055	9.522848E-5	20.663092
2050.535047	-2.986900	3.305500	-9.872300	26.813892	9.433742E-5	20.673148
2051.528958	-2.989500	3.306300	-9.883000	26.840048	9.374338E-5	20.669575
2052.532890	-3.019600	3.303300	-9.973200	26.854359	9.423841E-5	20.643658
2053.533155	-3.006000	3.304900	-9.932600	26.853285	9.361137E-5	20.664866
2054.530847	-2.987500	3.305000	-9.872500	26.827568	9.291831E-5	20.646592
2055.538191	-2.999500	3.304800	-9.912000	26.865985	9.281931E-5	20.648710
2056.532195	-3.006200	3.304500	-9.932800	26.930993	9.245628E-5	20.649119
2057.535841	-2.986300	3.304300	-9.866700	26.947862	9.163122E-5	20.646641
2058.531968	-2.997000	3.303300	-9.898200	26.986225	9.034413E-5	20.673369
2059.534787	-3.000400	3.303900	-9.912300	26.960097	9.037713E-5	20.646617
2060.534289	-3.017700	3.304000	-9.970100	26.938179	9.232427E-5	20.655872
2061.535275	-2.998100	3.303400	-9.902400	26.968780	9.080616E-5	20.670049
2062.533713	-3.010900	3.301400	-9.939500	26.946317	9.001410E-5	20.676386
2063.536090	-3.005000	3.301800	-9.920900	26.987331	8.988209E-5	20.647450
2064.533778	-3.015700	3.300900	-9.953500	27.010394	9.044313E-5	20.662585
2065.537594	-3.016400	3.302700	-9.961200	27.051681	8.945306E-5	20.658586
2066.539250	-3.009900	3.301100	-9.935200	27.092033	8.803396E-5	20.656968
2067.534513	-2.989900	3.298900	-9.862300	27.033415	8.780294E-5	20.675306
2068.538679	-3.004000	3.299100	-9.909400	26.995444	8.876001E-5	20.666043
2069.538166	-2.979200	3.301400	-9.834100	26.965860	8.885902E-5	20.650516
2070.536958	-3.001200	3.299900	-9.902900	26.931813	8.793495E-5	20.655160
2071.535573	-3.013200	3.297400	-9.934800	26.984249	8.592180E-5	20.660475
2072.540370	-3.019400	3.299100	-9.960300	26.994102	8.664786E-5	20.665168
2073.539022	-2.997600	3.298800	-9.887500	26.985770	8.635083E-5	20.650623
2074.539874	-2.997000	3.298900	-9.886100	27.032993	8.493173E-5	20.654016
2075.543537	-3.006400	3.296800	-9.910600	27.090723	8.522875E-5	20.679835
2076.539474	-3.002400	3.297100	-9.897700	27.070629	8.555878E-5	20.658202
2077.545077	-2.973300	3.296600	-9.801000	26.985257	8.275357E-5	20.671446
2078.538334	-3.009300	3.295700	-9.917200	27.019831	8.169749E-5	20.654056
2079.542900	-2.999400	3.296700	-9.886900	27.034114	8.255556E-5	20.661782
2080.547105	-3.000000	3.296300	-9.888100	27.033447	8.179650E-5	20.659689
2081.547397	-2.992000	3.294800	-9.856900	27.038585	8.255556E-5	20.664857
2082.538577	-2.989000	3.295500	-9.849200	27.034780	8.219253E-5	20.649649
2083.548851	-3.004500	3.293500	-9.894400	26.986761	8.192851E-5	20.673433
2084.542731	-3.008800	3.293300	-9.907800	26.988948	8.050941E-5	20.661880
2085.539023	-3.003900	3.293900	-9.893900	26.991476	8.206052E-5	20.654465
2086.546117	-3.008700	3.294000	-9.909700	27.077782	8.202752E-5	20.678674
2087.542933	-2.981500	3.295100	-9.823500	27.129983	8.305059E-5	20.669533
2088.544790	-2.994000	3.293200	-9.859200	27.106980	8.060842E-5	20.663466
2089.546899	-2.990000	3.293200	-9.845300	27.039161	7.965135E-5	20.664962
2090.545037	-2.986200	3.293000	-9.833100	27.027252	7.965135E-5	20.674324
2091.544906	-2.985400	3.293300	-9.830200	27.051192	7.790222E-5	20.682279
2092.547046	-2.990400	3.292600	-9.845800	27.111092	7.678014E-5	20.680880
2093.542647	-2.986900	3.290900	-9.828600	27.163073	7.836425E-5	20.673416
2094.550575	-2.996100	3.290500	-9.858200	27.159773	7.734118E-5	20.672942
2095.546703	-3.006800	3.291000	-9.894800	27.163447	7.727517E-5	20.688966
2096.543583	-3.004800	3.290800	-9.887300	27.199786	7.905730E-5	20.666719
2097.548190	-2.988000	3.290200	-9.830400	27.147865	7.711016E-5	20.669500
2098.555396	-3.007400	3.288300	-9.888700	27.093843	7.826524E-5	20.657366
2099.547373	-3.025600	3.289000	-9.949900	27.152799	7.608708E-5	20.676359
2100.549312	-3.003700	3.288900	-9.877600	27.147133	7.506401E-5	20.676825
2101.553635	-2.995400	3.288100	-9.847800	27.131754	7.585607E-5	20.671789
2102.559406	-2.985500	3.287800	-9.815000	27.126243	7.565805E-5	20.682842
2103.559016	-3.010300	3.286500	-9.892800	27.107954	7.390893E-5	20.662550
2104.548166	-3.012800	3.286200	-9.900100	27.091648	7.380992E-5	20.663220
2105.545032	-2.984600	3.288300	-9.813800	27.179905	7.496500E-5	20.671854
2106.554007	-2.991200	3.286600	-9.830100	27.190000	7.387592E-5	20.672998
2107.553997	-3.005600	3.286500	-9.878100	27.242724	7.559205E-5	20.671976
2108.556229	-2.981300	3.286800	-9.797900	27.217537	7.446997E-5	20.695007
2109.550210	-2.996500	3.286200	-9.846300	27.190918	7.301786E-5	20.677716
2110.562545	-3.014900	3.284500	-9.901100	27.154236	7.275384E-5	20.681125
2111.551313	-3.028900	3.283600	-9.944400	27.156301	7.235781E-5	20.657594
2112.553740	-2.998500	3.284800	-9.848200	27.171037	7.192878E-5	20.661985
2113.559177	-3.009000	3.283700	-9.880000	27.229256	7.225880E-5	20.675499
2114.555786	-2.987200	3.283100	-9.806700	27.277639	7.245682E-5	20.681967
2115.550743	-3.001700	3.282700	-9.853100	27.330675	7.189578E-5	20.671779
2116.550741	-3.018900	3.281300	-9.905000	27.242179	7.070769E-5	20.687076
2117.553194	-3.000600	3.282900	-9.850400	27.143637	7.149975E-5	20.672834
2118.553859	-3.007900	3.280200	-9.864400	27.120072	6.955261E-5	20.691810
2119.557564	-2.975500	3.280600	-9.760400	27.141068	6.859554E-5	20.666456
2120.563110	-2.982900	3.279800	-9.782300	27.218625	6.895856E-5	20.679031
2121.557271	-2.981400	3.281700	-9.783900	27.248372	6.734144E-5	20.689987
2122.558506	-2.985200	3.280900	-9.793000	27.189763	6.843052E-5	20.661379
2123.552935	-3.002400	3.279400	-9.845100	27.120958	6.796849E-5	20.685588
2124.552229	-2.984300	3.280500	-9.789000	27.099466	6.839752E-5	20.675826
2125.557741	-2.982600	3.279600	-9.781400	27.153130	6.641738E-5	20.659146
2126.560081	-3.020000	3.278100	-9.898500	27.158437	6.668140E-5	20.686773
2127.556744	-3.010700	3.279600	-9.873500	27.156974	6.717643E-5	20.680559
2128.559283	-3.022900	3.278600	-9.910300	27.148057	6.595534E-5	20.703835
2129.563210	-3.013100	3.277400	-9.874400	27.185975	6.684641E-5	20.696453
2130.563234	-3.012800	3.278500	-9.876800	27.158730	6.592234E-5	20.671893
2131.563496	-3.005300	3.277500	-9.848800	27.190355	6.476726E-5	20.685211
2132.559746	-3.010100	3.278100	-9.866600	27.195419	6.516328E-5	20.701211
2133.562511	-2.989000	3.276100	-9.791500	27.203384	6.549331E-5	20.678400
2134.563901	-2.989700	3.276500	-9.794600	27.256221	6.539430E-5	20.691244
2135.558526	-2.975100	3.277300	-9.749200	27.316923	6.476726E-5	20.693509
2136.560451	-2.991800	3.274900	-9.797500	27.345879	6.206106E-5	20.697507
2137.563580	-2.980500	3.276400	-9.763600	27.295191	6.295212E-5	20.695357
2138.562349	-3.009500	3.273800	-9.852100	27.352095	6.453624E-5	20.680525
2139.565790	-3.007900	3.275400	-9.850600	27.368568	6.354617E-5	20.686665
2140.568847	-2.996300	3.274100	-9.809600	27.343213	6.331515E-5	20.691506
2141.565301	-2.981400	3.273100	-9.757700	27.352883	6.361217E-5	20.692225
2142.566585	-2.996400	3.273500	-9.807900	27.313932	6.268810E-5	20.699509
2143.567912	-2.984900	3.273400	-9.770100	27.351591	6.308413E-5	20.690451
2144.559862	-3.010000	3.271400	-9.845900	27.356345	6.116999E-5	20.709459
2145.568704	-2.997600	3.271700	-9.805700	27.339133	6.414021E-5	20.700678
2146.573584	-3.003800	3.271700	-9.827100	27.312533	6.011392E-5	20.687671
2147.562429	-2.978000	3.270800	-9.739800	27.352468	5.994890E-5	20.694653
2148.568067	-3.004600	3.271600	-9.829000	27.332566	5.984990E-5	20.672733
2149.587189	-2.992400	3.269400	-9.783000	27.279675	5.975089E-5	20.708200
2150.563567	-3.009100	3.269500	-9.836400	27.342911	5.915684E-5	20.715860
2151.565166	-3.000600	3.270200	-9.811600	27.380293	5.747372E-5	20.730233
2152.565091	-3.011300	3.267500	-9.838500	27.360635	5.780375E-5	20.694333
2153.564078	-2.989400	3.269700	-9.774100	27.275677	5.839779E-5	20.716980
2154.565102	-2.979200	3.268600	-9.737000	27.332931	5.777074E-5	20.716727
2155.562743	-2.983300	3.268800	-9.751300	27.356767	5.945387E-5	20.705616
2156.564928	-2.990200	3.266800	-9.767800	27.430960	5.994890E-5	20.710080
2157.567419	-2.998900	3.266400	-9.794800	27.445847	5.777074E-5	20.714625
2158.568202	-2.995000	3.266400	-9.782000	27.472824	5.707769E-5	20.704307
2159.568666	-2.995500	3.266500	-9.783800	27.430700	5.658266E-5	20.706498
2160.568066	-3.014800	3.265900	-9.845700	27.437647	5.555958E-5	20.708272
2161.566992	-2.997600	3.264200	-9.784200	27.433430	5.628563E-5	20.702607
2162.568120	-3.003000	3.266200	-9.807500	27.406386	5.602162E-5	20.700056
2163.567659	-2.997300	3.263800	-9.781200	27.357595	5.513055E-5	20.713562
2164.566578	-2.994400	3.265100	-9.776600	27.324690	5.621963E-5	20.725506
2165.567583	-3.018800	3.264400	-9.853400	27.302390	5.417348E-5	20.693589
2166.566316	-3.006000	3.263200	-9.808200	27.297895	5.658266E-5	20.701396
2167.565537	-3.005000	3.263500	-9.806100	27.321342	5.526256E-5	20.706490
2168.569379	-3.017900	3.262100	-9.842700	27.382170	5.272137E-5	20.698453
2169.573294	-3.001300	3.262800	-9.790900	27.352264	5.539457E-5	20.723846
2170.568307	-3.012100	3.261300	-9.822700	27.359114	5.463551E-5	20.712245
2171.566392	-3.000800	3.262800	-9.790000	27.316547	5.282038E-5	20.730117
2172.567207	-3.015300	3.259800	-9.828200	27.309346	5.110425E-5	20.701061
2173.567024	-2.970500	3.262400	-9.690000	27.316863	5.420648E-5	20.727591
2174.567275	-3.017000	3.259300	-9.832400	27.379894	5.371145E-5	20.703751
2175.566627	-2.983600	3.260400	-9.727300	27.388703	5.328241E-5	20.722571
2176.566386	-3.034500	3.258700	-9.887000	27.429456	5.305140E-5	20.724214
2177.566870	-2.991400	3.259800	-9.749900	27.469979	5.150028E-5	20.726102
2178.569475	-3.002800	3.259100	-9.786300	27.463357	5.037820E-5	20.712801
2179.567813	-2.985800	3.258900	-9.728900	27.453329	5.245735E-5	20.724524
2180.571018	-3.012100	3.256400	-9.807800	27.444204	5.130227E-5	20.719137
2181.570583	-2.994800	3.259200	-9.759500	27.443830	5.047721E-5	20.709277
2182.567770	-3.000100	3.257000	-9.770500	27.479616	4.981716E-5	20.717305
2183.567889	-3.002500	3.257100	-9.778300	27.480859	5.093924E-5	20.738946
2184.569221	-3.002000	3.256100	-9.773600	27.423645	4.928912E-5	20.722635
2185.569772	-2.975500	3.256100	-9.687900	27.397414	4.780401E-5	20.722325
2186.568006	-2.993600	3.256400	-9.747700	27.488911	5.021319E-5	20.715752
2187.572266	-3.015500	3.254900	-9.814600	27.494884	4.853007E-5	20.721286
2188.571410	-3.006700	3.254200	-9.784200	27.467029	4.810103E-5	20.725031
2189.571486	-2.988900	3.253900	-9.725200	27.431527	4.585687E-5	20.717763
2190.569858	-2.997700	3.253500	-9.751900	27.452760	4.750699E-5	20.725848
2191.571797	-2.996000	3.252500	-9.743700	27.466923	4.612089E-5	20.711647
2192.570456	-2.993500	3.252300	-9.734800	27.489545	4.753999E-5	20.737253
2193.572783	-2.998300	3.251700	-9.749000	27.550534	4.803503E-5	20.729862
2194.571348	-3.019600	3.251700	-9.817900	27.523964	4.691295E-5	20.730157
2195.572500	-2.989900	3.253100	-9.725600	27.495956	4.506481E-5	20.726159
2196.570986	-3.014400	3.251900	-9.801700	27.515880	4.697895E-5	20.740989
2197.571903	-3.010000	3.251100	-9.784900	27.432900	4.480079E-5	20.726257
2198.575919	-3.010200	3.252600	-9.788500	27.411861	4.400873E-5	20.718841
2199.573388	-3.003900	3.249600	-9.760800	27.414307	4.473479E-5	20.722250
2200.571856	-3.019600	3.250000	-9.811100	27.444373	4.651692E-5	20.736378
2201.575118	-2.979000	3.251500	-9.684700	27.504642	4.268864E-5	20.726837
2202.576187	-2.999800	3.248600	-9.744200	27.539881	4.602188E-5	20.735740
2203.574586	-2.999800	3.248900	-9.745200	27.585097	4.496580E-5	20.730974
2204.576284	-3.026300	3.247200	-9.826200	27.567205	4.239162E-5	20.746638
2205.581534	-2.990200	3.247900	-9.710400	27.597211	4.328268E-5	20.751224
2206.574962	-3.008200	3.246000	-9.763700	27.607724	4.354670E-5	20.751371
2207.578807	-2.995900	3.247300	-9.727500	27.596755	4.242462E-5	20.748869
2208.575399	-2.996800	3.247400	-9.729700	27.638516	4.341469E-5	20.746318
2209.577455	-3.020500	3.244600	-9.799300	27.587322	4.252363E-5	20.743645
2210.579278	-2.998600	3.245900	-9.732700	27.562956	4.186358E-5	20.748525
2211.578535	-2.989900	3.246100	-9.704400	27.567124	4.117053E-5	20.739917
2212.577157	-2.996200	3.244800	-9.721500	27.488121	4.381072E-5	20.763323
2213.580047	-2.981400	3.244400	-9.672500	27.427267	4.037847E-5	20.754256
2214.576750	-3.002100	3.243400	-9.736000	27.497758	4.146755E-5	20.742672
2215.580972	-3.017600	3.244400	-9.789300	27.507029	4.159956E-5	20.736826
2216.581367	-3.003000	3.242800	-9.737200	27.525758	4.117053E-5	20.740971
2217.575490	-3.008900	3.242400	-9.755500	27.526538	3.978442E-5	20.743652
2218.581371	-3.010900	3.242700	-9.762900	27.527058	3.882735E-5	20.747495
2219.576686	-3.008100	3.241100	-9.748900	27.485188	3.985043E-5	20.746146
2220.579493	-2.987900	3.242000	-9.686100	27.490242	3.961941E-5	20.765930
2221.576702	-2.982300	3.241200	-9.665600	27.513700	4.041147E-5	20.750176
2222.578074	-2.983500	3.240800	-9.667600	27.601450	3.843133E-5	20.751223
2223.576483	-2.972700	3.240800	-9.633200	27.570275	3.912438E-5	20.748304
2224.577462	-2.989600	3.239000	-9.682900	27.522199	3.945440E-5	20.760624
2225.577863	-2.990900	3.239200	-9.687500	27.609746	3.994944E-5	20.743448
2226.577360	-2.998300	3.239700	-9.712900	27.601109	3.787028E-5	20.757992
2227.579536	-3.001200	3.239800	-9.722500	27.604009	3.876135E-5	20.759962
2228.577853	-2.996900	3.239100	-9.705700	27.626206	3.684721E-5	20.755269
2229.580266	-3.010700	3.236800	-9.744200	27.607397	3.800229E-5	20.740611
2230.582610	-3.002900	3.238400	-9.723700	27.646972	3.823331E-5	20.746767
2231.580307	-2.989900	3.238000	-9.680300	27.642780	3.704522E-5	20.748238
2232.580722	-3.006900	3.236600	-9.731500	27.619560	3.760626E-5	20.745736
2233.579967	-3.007800	3.235500	-9.731000	27.619852	3.688021E-5	20.773532
2234.580464	-2.999800	3.236000	-9.706200	27.612256	3.612116E-5	20.749767
2235.584509	-2.999700	3.235800	-9.705400	27.618203	3.556011E-5	20.753380
2236.581138	-3.009500	3.234200	-9.732400	27.636361	3.635217E-5	20.757901
2237.580743	-3.014000	3.234000	-9.746500	27.669630	3.704522E-5	20.776680
2238.583704	-3.018000	3.233800	-9.758500	27.656428	3.608815E-5	20.766240
2239.581717	-2.976800	3.233800	-9.625300	27.698991	3.651718E-5	20.776353
2240.584810	-2.970500	3.233900	-9.605300	27.708756	3.602215E-5	20.752039
2241.586659	-2.996900	3.232200	-9.685900	27.678290	3.602215E-5	20.770221
2242.583041	-2.992500	3.231800	-9.670200	27.671962	3.463605E-5	20.770017
2243.587054	-2.984400	3.233100	-9.647800	27.728634	3.552711E-5	20.745965
2244.593503	-2.989500	3.231500	-9.659500	27.726668	3.377798E-5	20.787135
2245.586754	-3.020000	3.230800	-9.755900	27.717952	3.371198E-5	20.785950
2246.583323	-3.013500	3.230600	-9.734500	27.619762	3.341496E-5	20.772494
2247.586218	-2.995100	3.229200	-9.671200	27.629016	3.252389E-5	20.789866
2248.588465	-2.992800	3.229200	-9.663700	27.675585	3.216086E-5	20.772240
2249.585753	-2.989800	3.229000	-9.653200	27.659466	3.397600E-5	20.784470
2250.588278	-3.015500	3.229100	-9.736900	27.721160	3.562612E-5	20.791076
2251.588757	-3.001900	3.228200	-9.689800	27.753842	3.044474E-5	20.779393
2252.586622	-3.002100	3.226600	-9.685700	27.758350	3.166583E-5	20.763067
2253.591633	-3.010400	3.228200	-9.717700	27.745775	3.225987E-5	20.787871
2254.585930	-2.965300	3.228200	-9.571300	27.730389	3.027973E-5	20.796569
2255.587245	-3.003400	3.227800	-9.692900	27.676470	3.252389E-5	20.785933
2256.587690	-3.015700	3.224700	-9.723200	27.717090	3.146781E-5	20.795041
2257.588607	-2.996400	3.226200	-9.666200	27.721672	3.156682E-5	20.794910
2258.587216	-2.988400	3.227800	-9.644800	27.718747	3.117079E-5	20.779164
2259.593177	-3.000400	3.225700	-9.677900	27.755028	2.981769E-5	20.797657
2260.589676	-2.979200	3.225100	-9.607200	27.819494	3.077476E-5	20.798523
2261.589096	-2.982100	3.224000	-9.613600	27.854975	3.044474E-5	20.780652
2262.592168	-2.996600	3.222900	-9.657200	27.857672	3.179784E-5	20.782892
2263.592579	-2.984200	3.223100	-9.616800	27.862578	2.965268E-5	20.766019
2264.590371	-3.011800	3.222200	-9.703900	27.869117	2.938866E-5	20.793937
2265.595891	-3.008900	3.221500	-9.692100	27.864674	3.117079E-5	20.811750
2266.589259	-2.990500	3.221000	-9.631200	27.887539	3.011471E-5	20.781184
2267.593533	-3.014000	3.221000	-9.707200	27.833970	2.968568E-5	20.794125
2268.594653	-2.996300	3.221600	-9.651500	27.829973	3.057675E-5	20.800060
2269.591384	-3.001000	3.219500	-9.661100	27.808772	2.909164E-5	20.818552
2270.593790	-3.016000	3.218400	-9.706000	27.804134	2.843159E-5	20.793021
2271.593413	-2.992100	3.218600	-9.629200	27.804280	2.975169E-5	20.793168
2272.593464	-3.002600	3.218200	-9.661200	27.831768	2.668246E-5	20.793806
2273.595297	-3.017200	3.217200	-9.706000	27.842572	2.859660E-5	20.780971
2274.594778	-2.989500	3.218300	-9.620400	27.812249	2.721050E-5	20.795972
2275.595037	-2.971200	3.218300	-9.561500	27.798634	2.836559E-5	20.780374
2276.593022	-2.995200	3.216700	-9.634000	27.814994	2.638544E-5	20.804900
2277.592974	-2.977200	3.215700	-9.573200	27.849760	2.664946E-5	20.777775
2278.598007	-2.997900	3.215400	-9.638700	27.829494	2.701249E-5	20.796733
2279.594987	-2.995900	3.216200	-9.633600	27.859589	2.681447E-5	20.822754
2280.599372	-3.013000	3.214700	-9.685900	27.890203	2.714450E-5	20.800461
2281.598470	-3.011500	3.215100	-9.681200	27.853058	2.648445E-5	20.799112
2282.600225	-2.992800	3.213900	-9.617900	27.871919	2.661646E-5	20.810982
2283.600103	-2.980700	3.213200	-9.576700	27.848168	2.430629E-5	20.804148
2284.602343	-3.008800	3.211700	-9.663000	27.849720	2.608842E-5	20.819459
2285.601260	-2.990900	3.212800	-9.608600	27.831841	2.450430E-5	20.807156
2286.599550	-2.971000	3.212600	-9.542900	27.859183	2.602241E-5	20.821871
2287.600722	-2.991200	3.212700	-9.610200	27.851621	2.648445E-5	20.813312
2288.602547	-3.010100	3.212300	-9.667900	27.871822	2.424028E-5	20.800927
2289.603482	-3.001400	3.212000	-9.639200	27.858558	2.160009E-5	20.810336
2290.602838	-3.006900	3.209900	-9.650500	27.817984	2.348123E-5	20.821658
2291.601165	-3.006800	3.208900	-9.647300	27.843002	2.341522E-5	20.812699
2292.600248	-3.007700	3.209700	-9.652900	27.829275	2.404227E-5	20.796038
2293.600186	-2.991800	3.209400	-9.600300	27.821444	2.358023E-5	20.796692
2294.602504	-3.019500	3.208200	-9.686700	27.842588	2.282118E-5	20.793790
2295.600891	-3.023500	3.206900	-9.694700	27.838243	2.328321E-5	20.801744
2296.601078	-3.001600	3.207500	-9.626500	27.889115	2.245815E-5	20.812642
2297.605781	-2.977500	3.207100	-9.548200	27.953712	2.278818E-5	20.803216
2298.600398	-3.007100	3.206600	-9.642200	28.009249	2.331622E-5	20.808383
2299.603026	-3.015400	3.204800	-9.663200	28.030218	2.216113E-5	20.802464
2300.601678	-2.988500	3.206300	-9.581300	27.978354	2.209513E-5	20.797199
2301.604841	-2.990700	3.206000	-9.587700	27.965944	2.288718E-5	20.789449
2302.603149	-3.000200	3.205000	-9.614700	28.000778	2.209513E-5	20.796537
2303.603527	-2.973500	3.205700	-9.531800	27.966147	2.305220E-5	20.784438
2304.602967	-3.022400	3.203300	-9.680400	27.947986	2.120406E-5	20.778961
2305.605920	-3.008900	3.203900	-9.639300	27.993574	2.298619E-5	20.786441
2306.603010	-3.019600	3.201800	-9.667800	27.969477	2.044500E-5	20.806756
2307.602901	-2.994900	3.202300	-9.589400	27.937663	2.004897E-5	20.779950
2308.603457	-3.010900	3.200900	-9.637200	27.959357	2.011498E-5	20.785664
2309.603058	-2.989100	3.202800	-9.572800	27.949505	1.961994E-5	20.774325
2310.603802	-2.992800	3.201500	-9.580500	27.932521	2.011498E-5	20.766714
2311.607798	-2.981700	3.200500	-9.542100	27.908861	2.097304E-5	20.790316
2312.608497	-3.011800	3.199300	-9.635100	27.988230	2.113806E-5	20.764940
2313.607787	-3.003200	3.199800	-9.608400	28.017111	1.839885E-5	20.779787
2314.610531	-3.017400	3.200400	-9.655500	28.103975	1.843186E-5	20.770974
2315.608322	-2.997100	3.197700	-9.583100	28.109920	1.783781E-5	20.780277
2316.607399	-2.990800	3.199400	-9.568600	28.079450	1.711176E-5	20.772364
2317.607615	-3.000600	3.197200	-9.592300	28.090405	1.744178E-5	20.797142
2318.606438	-2.991200	3.196400	-9.560600	28.120550	1.773881E-5	20.766322
2319.608309	-2.996300	3.195900	-9.574400	28.140454	1.750779E-5	20.749849
2320.610911	-3.014100	3.194900	-9.629000	28.120664	1.869588E-5	20.776394
2321.609455	-3.001200	3.194900	-9.587200	28.073311	1.843186E-5	20.768554
2322.609704	-3.019900	3.194700	-9.646700	28.099939	1.734278E-5	20.742254
2323.608496	-2.983200	3.195600	-9.533000	28.145749	1.664973E-5	20.766085
2324.610071	-2.987600	3.193000	-9.539300	28.108661	1.595667E-5	20.771898
2325.609117	-2.985600	3.194400	-9.536400	28.097252	1.895989E-5	20.764679
2326.610162	-2.989900	3.192600	-9.544200	28.145903	1.671573E-5	20.753912
2327.611503	-2.986500	3.192500	-9.533000	28.137441	1.787081E-5	20.762464
2328.616696	-3.000800	3.191500	-9.576700	28.070647	1.879488E-5	20.768244
2329.608842	-2.981300	3.193400	-9.518600	28.067935	1.750779E-5	20.782583
2330.610917	-2.984100	3.190500	-9.519500	28.039502	1.740878E-5	20.754910
2331.613869	-2.992900	3.190200	-9.547100	28.066644	1.589067E-5	20.758523
2332.613482	-2.979600	3.189300	-9.501300	28.052756	1.615469E-5	20.742647
2333.616405	-2.996000	3.189200	-9.554000	28.054957	1.780481E-5	20.745337
2334.610565	-2.963300	3.190900	-9.454900	28.059416	1.678173E-5	20.751247
2335.613503	-3.010000	3.188600	-9.596700	28.097666	1.509861E-5	20.751820
2336.612169	-2.999600	3.187600	-9.560900	28.155299	1.503261E-5	20.753414
2337.612523	-3.005500	3.184800	-9.571100	28.167618	1.400953E-5	20.734995
2338.613405	-2.967600	3.186800	-9.455400	28.136947	1.285445E-5	20.751534
2339.611405	-3.031800	3.184600	-9.654500	28.087881	1.615469E-5	20.750978
2340.612917	-2.996300	3.184600	-9.540700	28.065621	1.387752E-5	20.756071
2341.613227	-3.005700	3.184000	-9.569500	28.073523	1.371251E-5	20.740317
2342.615072	-2.975700	3.184300	-9.474000	28.111765	1.460357E-5	20.745623
2343.612833	-2.986900	3.184600	-9.511100	28.147487	1.526362E-5	20.747921
2344.613734	-2.996200	3.182500	-9.534700	28.130921	1.222740E-5	20.765857
2345.611594	-2.976600	3.181500	-9.469400	28.176486	1.351449E-5	20.753406
2346.612926	-2.996300	3.181100	-9.530500	28.175138	1.463658E-5	20.760585
2347.617467	-2.993100	3.180300	-9.517900	28.197590	1.163336E-5	20.769913
2348.614767	-2.969200	3.180500	-9.443200	28.162738	1.424055E-5	20.749998
2349.615867	-2.990300	3.179300	-9.506400	28.180830	1.338248E-5	20.759677
2350.614978	-3.010500	3.179700	-9.571700	28.214830	1.176537E-5	20.750284
2351.613315	-3.005600	3.178300	-9.552100	28.195691	1.179837E-5	20.758991
2352.615734	-3.000900	3.177200	-9.533800	28.173993	1.318447E-5	20.741888
2353.616548	-3.011300	3.176800	-9.565800	28.186239	1.328348E-5	20.767967
2354.616556	-2.986400	3.176000	-9.483900	28.238085	1.519762E-5	20.734342
2355.614097	-3.003700	3.174700	-9.535200	28.262575	1.232641E-5	20.745248
2356.614470	-3.009800	3.174500	-9.554400	28.199532	1.103931E-5	20.752901
2357.614108	-3.003200	3.174200	-9.531200	28.186645	9.785220E-6	20.732814
2358.614974	-3.003800	3.172700	-9.528800	28.137801	1.123733E-5	20.741014
2359.614809	-3.025900	3.171800	-9.596500	28.116354	9.620208E-6	20.736493
2360.616311	-2.981100	3.172500	-9.457200	28.131735	1.156735E-5	20.742020
2361.615331	-3.027800	3.170300	-9.597300	28.096661	1.077529E-5	20.740376
2362.617200	-2.982200	3.172100	-9.458400	28.108997	1.272244E-5	20.744734
2363.616078	-2.971500	3.171300	-9.423100	28.140132	1.169936E-5	20.719652
2364.618063	-3.002400	3.169900	-9.515600	28.136113	1.113832E-5	20.753539
2365.617603	-2.985700	3.169200	-9.461200	28.108957	1.051127E-5	20.745168
2366.616456	-2.990100	3.168300	-9.472200	28.079161	1.057728E-5	20.746942
2367.617687	-2.994900	3.166800	-9.483400	28.105774	1.097331E-5	20.764249
2368.617421	-3.001100	3.166600	-9.502500	28.144794	9.752218E-6	20.741416
2369.615953	-3.007600	3.167000	-9.524200	28.134132	7.310038E-6	20.727362
2370.618120	-3.013800	3.166700	-9.542300	28.101803	8.036092E-6	20.739862
2371.619883	-3.001800	3.165100	-9.499700	28.107220	7.607060E-6	20.733935
2372.616319	-3.020700	3.163100	-9.554400	28.157633	6.352968E-6	20.743910
2373.616527	-3.008300	3.163800	-9.516800	28.213525	8.597133E-6	20.739013
2374.624321	-2.998700	3.161500	-9.479100	28.195312	6.848004E-6	20.737746
2375.618900	-3.013900	3.161600	-9.527700	28.208442	6.748997E-6	20.734369
2376.621256	-3.019100	3.160800	-9.541900	28.212600	8.861152E-6	20.743771
2377.618474	-3.021700	3.161100	-9.551300	28.217350	7.607060E-6	20.741916
2378.619111	-2.973100	3.161200	-9.397400	28.211122	6.517980E-6	20.733274
2379.619783	-2.982300	3.159500	-9.421900	28.256561	7.079021E-6	20.742513
2380.620554	-2.981600	3.158600	-9.416400	28.286871	6.319965E-6	20.726562
2381.619295	-3.011600	3.158200	-9.510500	28.267645	8.960159E-6	20.730912
2382.620342	-2.985800	3.157100	-9.425700	28.251097	5.395897E-6	20.744123
2383.623175	-2.997900	3.157700	-9.464900	28.253468	5.098875E-6	20.742243
2384.619645	-2.995900	3.155500	-9.452900	28.229864	5.362895E-6	20.752144
2385.625377	-3.017200	3.153400	-9.513100	28.234622	5.725922E-6	20.727062
2386.622471	-2.987000	3.154600	-9.420800	28.297119	6.781999E-6	20.739726
2387.620637	-3.015600	3.153700	-9.509600	28.296770	5.791926E-6	20.743168
2388.620759	-3.000300	3.151800	-9.455100	28.294984	3.613766E-6	20.724773
2389.618909	-2.968000	3.152500	-9.356300	28.265859	5.329892E-6	20.730063
2390.624920	-3.005400	3.152000	-9.472400	28.305142	4.735849E-6	20.725517
2391.621357	-3.018900	3.149700	-9.507100	28.267792	4.075800E-6	20.723473
2392.618794	-2.969300	3.150700	-9.354700	28.231724	2.986720E-6	20.737421
2393.620902	-2.998800	3.148000	-9.439700	28.267776	3.151732E-6	20.723457
2394.620677	-2.999400	3.148100	-9.441700	28.245423	2.557688E-6	20.717546
2395.624532	-2.992900	3.148100	-9.421200	28.184937	1.666623E-6	20.721136
2396.624217	-3.002600	3.147400	-9.450200	28.194080	4.471829E-6	20.723703
2397.620986	-2.984600	3.147800	-9.393300	28.224863	4.933863E-6	20.708701
2398.625957	-2.984800	3.146800	-9.392500	28.236313	5.098875E-6	20.710745
2399.622161	-3.020400	3.143700	-9.493700	28.274508	2.062652E-6	20.728339
2400.623056	-3.014800	3.143500	-9.476300	28.234202	3.085727E-6	20.728535
2401.621285	-2.961100	3.143700	-9.308000	28.303827	1.006574E-6	20.726090
2402.621725	-2.986300	3.141700	-9.380800	28.360531	2.689698E-6	20.739564
2403.621968	-2.996600	3.142700	-9.416400	28.387226	1.633620E-6	20.711440
2404.625272	-2.998400	3.141200	-9.416400	28.371086	1.435606E-6	20.707041
2405.620464	-3.011500	3.139900	-9.453800	28.289887	3.085727E-6	20.717744
2406.623790	-3.002000	3.138900	-9.421900	28.214389	2.128657E-6	20.717122
2407.626390	-3.004000	3.138300	-9.426400	28.211710	1.006574E-6	20.708734
2408.622626	-3.003400	3.137300	-9.421500	28.199538	1.930642E-6	20.731094
2409.623492	-3.008300	3.137400	-9.436900	28.254713	2.227664E-6	20.724055
2410.630659	-3.003800	3.134500	-9.415000	28.304981	2.029649E-6	20.705439
2411.624510	-2.993500	3.134300	-9.380900	28.372735	2.491683E-6	20.729092
2412.622886	-3.008600	3.135100	-9.431200	28.335883	2.557688E-6	20.714269
2413.623565	-2.991700	3.132300	-9.369800	28.375040	1.666623E-6	20.712920
2414.622777	-3.001300	3.131500	-9.397300	28.337685	1.468608E-6	20.711817
2415.623568	-2.994900	3.133300	-9.383200	28.402466	-1.105581E-6	20.701654
2416.623862	-2.981200	3.130300	-9.330900	28.324004	2.145158E-7	20.710844
2417.624006	-2.990600	3.129500	-9.357900	28.311428	1.468608E-6	20.709086
2418.623492	-2.998600	3.129000	-9.382100	28.343921	3.135231E-7	20.703870
2419.627342	-3.017200	3.128300	-9.437900	28.361450	8.415620E-7	20.702554
2420.624189	-2.994300	3.127500	-9.363100	28.344441	-1.336598E-6	20.717671
2421.626449	-3.005900	3.126200	-9.396800	28.355150	-3.795279E-7	20.705693
2422.629535	-3.005200	3.125300	-9.390500	28.367758	7.425547E-7	20.705113
2423.626585	-2.995300	3.124200	-9.357200	28.390166	-8.415620E-7	20.709185
2424.626104	-2.985900	3.125800	-9.332600	28.407410	-1.485109E-7	20.717540
2425.628180	-2.990300	3.122300	-9.335100	28.473112	-1.237591E-6	20.698352
2426.627865	-2.980200	3.123000	-9.306200	28.506834	-1.303596E-6	20.713346
2427.629772	-2.993000	3.121100	-9.340400	28.508758	-7.755571E-7	20.713387
2428.636368	-2.997900	3.119700	-9.351800	28.489754	-1.501611E-6	20.695196
2429.629403	-2.988700	3.119500	-9.322900	28.479144	-1.996647E-6	20.702056
2430.627343	-2.972600	3.119600	-9.272600	28.414165	-3.910788E-6	20.707272
2431.630627	-2.981600	3.118100	-9.294700	28.326669	-2.194662E-6	20.710682
2432.629242	-2.997000	3.115500	-9.336200	28.253878	-1.996647E-6	20.719421
2433.628075	-3.009000	3.114700	-9.371100	28.278415	-3.019722E-6	20.710935
2434.630843	-2.996300	3.115000	-9.332700	28.379312	-3.118730E-6	20.688296
2435.630902	-3.020100	3.113000	-9.400300	28.457347	-2.392676E-6	20.707134
2436.631681	-2.998000	3.112600	-9.330600	28.464029	-1.963645E-6	20.701059
2437.632808	-3.000300	3.113400	-9.340500	28.403393	-3.910788E-6	20.712072
2438.629077	-2.994300	3.111200	-9.314800	28.408069	-2.722700E-6	20.705401
2439.628960	-2.998200	3.111100	-9.325900	28.461504	-3.910788E-6	20.724597
2440.633251	-2.969500	3.110500	-9.234800	28.455554	-2.161659E-6	20.693947
2441.628910	-2.997100	3.108100	-9.313400	28.387741	-3.448754E-6	20.705794
2442.630666	-3.000900	3.106700	-9.322100	28.422390	-4.900861E-6	20.704175
2443.629784	-3.021900	3.106000	-9.385000	28.399659	-4.471829E-6	20.703096
2444.631669	-3.015300	3.105800	-9.363800	28.356776	-4.372822E-6	20.705908
2445.638026	-2.999600	3.105100	-9.312300	28.388943	-5.428900E-6	20.707952
2446.631268	-3.006300	3.102600	-9.326800	28.388813	-3.613766E-6	20.702132
2447.630782	-2.988800	3.102900	-9.273500	28.380686	-4.174807E-6	20.693473
2448.629311	-2.989100	3.101700	-9.270400	28.418844	-4.108803E-6	20.714355
2449.627876	-2.978400	3.101800	-9.237600	28.403565	-4.603839E-6	20.683320
2450.633086	-3.012300	3.099100	-9.334800	28.456854	-2.689698E-6	20.686721
2451.632260	-2.990200	3.099500	-9.266900	28.462919	-6.088948E-6	20.687138
2452.633167	-2.998600	3.097100	-9.285900	28.531604	-4.867859E-6	20.678071
2453.633045	-2.996800	3.096200	-9.277600	28.446804	-5.329893E-6	20.696042
2454.633842	-3.003200	3.095100	-9.294400	28.428628	-5.956939E-6	20.686746
2455.635299	-3.008700	3.094500	-9.310100	28.388059	-6.319965E-6	20.703270
2456.634982	-3.009700	3.094500	-9.311900	28.401163	-5.032871E-6	20.680901
2457.635559	-3.008500	3.093400	-9.305500	28.337212	-5.329893E-6	20.683362
2458.632834	-3.024500	3.091000	-9.348100	28.312399	-4.900861E-6	20.694890
2459.631299	-2.997800	3.090300	-9.262300	28.310443	-6.649990E-6	20.699084
2460.632585	-3.012200	3.088400	-9.301800	28.318091	-7.409046E-6	20.692086
2461.631941	-2.994800	3.089800	-9.252500	28.417645	-4.306817E-6	20.673789
2462.634619	-3.024300	3.086800	-9.333800	28.506896	-4.108803E-6	20.686855
2463.636696	-3.001300	3.086600	-9.263200	28.534821	-6.451975E-6	20.683683
2464.634534	-2.987800	3.085500	-9.217900	28.510363	-8.597133E-6	20.675172
2465.634924	-3.019300	3.084100	-9.310800	28.545050	-7.343041E-6	20.675016
2466.634949	-2.999800	3.082400	-9.246100	28.615142	-7.706068E-6	20.673063
2467.634938	-3.010100	3.082200	-9.276100	28.588502	-5.197883E-6	20.693176
2468.632640	-3.022200	3.081600	-9.311700	28.660402	-8.069094E-6	20.690200
2469.638873	-3.010900	3.079500	-9.271300	28.686789	-8.069094E-6	20.689750
2470.632617	-3.025400	3.078500	-9.313200	28.687479	-6.319965E-6	20.681910
2471.636658	-2.985200	3.077600	-9.186400	28.674647	-7.541055E-6	20.685581
2472.634679	-2.992000	3.077800	-9.208200	28.677732	-6.286963E-6	20.680152
2473.638014	-2.994300	3.076000	-9.209400	28.558518	-9.224179E-6	20.689056
2474.639637	-3.020300	3.074300	-9.284200	28.524246	-8.663138E-6	20.690103
2475.637098	-2.991300	3.073500	-9.193300	28.546724	-5.890934E-6	20.662951
2476.639796	-3.028700	3.070800	-9.299200	28.578675	-7.112024E-6	20.694183
2477.638112	-3.006600	3.072200	-9.235600	28.614252	-7.574058E-6	20.682124
2478.636550	-3.027100	3.070000	-9.292400	28.599211	-7.970087E-6	20.669345
2479.636346	-3.014100	3.068700	-9.249200	28.606387	-8.564131E-6	20.695067
2480.637753	-3.005000	3.067100	-9.216200	28.639586	-9.851226E-6	20.675870
2481.634011	-2.991700	3.066500	-9.173500	28.644586	-9.158175E-6	20.681855
2482.639802	-3.005000	3.064900	-9.209400	28.562993	-9.884228E-6	20.650411
2483.640460	-3.003700	3.062700	-9.197800	28.494392	-8.432121E-6	20.674261
2484.638321	-3.018000	3.062800	-9.242900	28.478732	-8.564131E-6	20.694054
2485.636775	-3.003400	3.062100	-9.195700	28.520360	-9.587206E-6	20.678128
2486.643533	-2.998700	3.060600	-9.177300	28.569415	-7.706068E-6	20.674425
2487.643043	-2.977400	3.060000	-9.110200	28.621892	-8.630136E-6	20.674646
2488.638418	-3.002200	3.057400	-9.177500	28.679545	-8.069094E-6	20.690041
2489.641422	-2.981000	3.057600	-9.113700	28.703797	-6.782000E-6	20.685544
2490.640795	-3.027800	3.054500	-9.247300	28.718732	-8.102097E-6	20.686837
2491.640851	-2.987600	3.054000	-9.123500	28.707304	-7.640063E-6	20.671532
2492.639883	-3.005800	3.052600	-9.175100	28.761284	-8.630136E-6	20.717848
2493.642371	-3.003200	3.051800	-9.164500	28.763735	-9.785221E-6	20.669104
2494.642299	-2.994700	3.049500	-9.132000	28.726760	-8.663138E-6	20.680224
2495.645466	-3.016900	3.047800	-9.193700	28.807991	-8.894155E-6	20.684762
2496.648467	-2.995900	3.047800	-9.130600	28.836501	-8.432121E-6	20.669383
2497.640180	-3.002900	3.045600	-9.145200	28.830430	-9.389192E-6	20.681761
2498.642096	-3.001600	3.045800	-9.141400	28.716964	-9.257182E-6	20.691695
2499.642930	-2.987200	3.044800	-9.094600	28.695546	-9.290184E-6	20.674388
2500.644515	-3.005900	3.043700	-9.147800	28.645199	-1.034626E-5	20.690061
2501.643474	-2.981600	3.041700	-9.068800	28.690036	-9.950233E-6	20.685434
2502.646174	-2.992600	3.041300	-9.100700	28.734115	-9.620209E-6	20.689530
2503.641449	-3.008000	3.038600	-9.139200	28.734424	-8.630136E-6	20.687470
2504.642355	-3.067100	3.036300	-9.310900	28.726770	-1.193038E-5	20.657947
2505.644720	-2.983500	3.037700	-9.062500	28.759072	-9.884228E-6	20.685745
2506.646211	-2.993500	3.036000	-9.087700	28.773016	-1.067629E-5	20.680824
2507.640719	-2.988100	3.035000	-9.068100	28.754528	-8.399119E-6	20.681642
2508.648050	-2.998400	3.032700	-9.090700	28.751428	-1.031326E-5	20.678519
2509.639737	-2.980100	3.032600	-9.036700	28.761679	-8.531128E-6	20.679835
2510.643446	-2.977200	3.032200	-9.027000	28.707147	-1.021425E-5	20.681806
2511.645006	-3.015900	3.030400	-9.137300	28.708625	-9.422194E-6	20.681398
2512.641090	-2.998900	3.027900	-9.080000	28.642273	-9.323187E-6	20.679525
2513.644751	-2.968900	3.027500	-8.986000	28.659488	-7.310038E-6	20.668889
2514.643004	-3.025900	3.024100	-9.149900	28.629425	-1.018125E-5	20.695984
2515.644086	-3.013100	3.023600	-9.109500	28.580585	-9.752218E-6	20.675242
2516.643610	-3.001600	3.021800	-9.069200	28.634303	-1.084130E-5	20.672446
2517.641857	-2.997300	3.021400	-9.055400	28.687419	-9.158175E-6	20.688014
2518.641742	-3.007300	3.018900	-9.078000	28.775519	-8.498126E-6	20.671490
2519.642339	-2.978500	3.020600	-8.995800	28.857217	-1.094031E-5	20.684090
2520.646748	-3.007800	3.017400	-9.074400	28.907302	-1.077529E-5	20.682863
2521.644931	-2.997100	3.015900	-9.038000	28.839665	-9.356189E-6	20.688219
2522.646330	-2.991300	3.015700	-9.020200	28.857104	-1.001624E-5	20.695831
2523.642546	-2.995000	3.014400	-9.027000	28.848649	-9.884228E-6	20.688735
2524.647606	-2.997000	3.012000	-9.025900	28.895147	-1.008224E-5	20.691008
2525.646812	-2.990200	3.011500	-9.003700	28.881515	-1.034626E-5	20.672531
2526.645859	-2.973600	3.009900	-8.948800	28.874033	-1.080830E-5	20.678270
2527.649811	-3.020800	3.008200	-9.085900	28.867639	-9.719216E-6	20.688899
2528.646560	-3.007800	3.007800	-9.045700	28.862315	-1.103931E-5	20.702978
2529.647030	-2.965200	3.006900	-8.914200	28.822575	-9.323187E-6	20.694238
2530.647386	-3.003600	3.003200	-9.019500	28.821983	-1.183137E-5	20.689373
2531.646557	-3.014800	3.002500	-9.051500	28.819353	-1.377852E-5	20.665386
2532.647083	-3.017500	3.001800	-9.057100	28.821577	-1.094031E-5	20.678059
2533.650835	-3.000600	2.999800	-9.000700	28.834416	-8.564131E-6	20.685776
2534.645967	-3.025500	2.998100	-9.070100	28.788670	-1.156735E-5	20.690904
2535.647535	-3.022500	2.996600	-9.055600	28.680085	-1.113832E-5	20.687739
2536.645134	-3.031400	2.994100	-9.075300	28.697122	-1.143534E-5	20.702056
2537.649121	-2.998600	2.993400	-8.975200	28.738588	-1.239241E-5	20.687871
2538.645542	-2.986100	2.992400	-8.934800	28.725212	-1.087430E-5	20.690520
2539.650962	-3.002100	2.991800	-8.981000	28.789701	-1.120433E-5	20.672975
2540.647642	-2.982100	2.989800	-8.914500	28.877419	-9.455196E-6	20.700650
2541.650661	-3.040500	2.986800	-9.080100	28.860743	-1.110532E-5	20.695704
2542.647394	-3.002700	2.987200	-8.968600	28.880406	-1.001624E-5	20.697969
2543.648323	-3.014600	2.984900	-8.997900	28.914489	-1.226040E-5	20.669239
2544.652543	-3.014100	2.984800	-8.995400	28.900167	-1.087430E-5	20.682313
2545.652880	-3.001100	2.981800	-8.948100	28.935319	-1.041227E-5	20.685959
2546.656422	-2.979300	2.981400	-8.880900	28.903534	-9.554204E-6	20.678119
2547.650630	-2.975000	2.981900	-8.869600	28.939962	-1.136934E-5	20.684947
2548.652794	-3.029100	2.979000	-9.022000	28.965805	-1.153435E-5	20.700553
2549.651279	-3.009700	2.977100	-8.959400	29.017363	-1.176537E-5	20.695600
2550.652834	-3.005000	2.976500	-8.943400	29.000226	-1.087430E-5	20.671693
2551.655902	-3.016300	2.973700	-8.968600	28.951647	-1.037926E-5	20.673959
2552.656458	-3.004200	2.972700	-8.929600	28.919327	-1.176537E-5	20.672217
2553.661887	-2.999300	2.971800	-8.912600	28.899235	-1.186437E-5	20.691806
2554.651712	-2.999100	2.970500	-8.908100	28.891348	-1.176537E-5	20.688602
2555.656700	-3.022600	2.967800	-8.969800	28.904802	-1.219440E-5	20.702632
2556.656991	-3.014300	2.965800	-8.938600	28.952873	-1.196338E-5	20.680410
2557.656143	-3.009500	2.965100	-8.922000	29.001940	-1.249142E-5	20.690966
2558.654445	-3.011500	2.962900	-8.922100	29.040449	-1.321747E-5	20.680926
2559.656824	-3.025700	2.961200	-8.959000	29.098996	-1.156735E-5	20.700090
2560.656822	-3.014600	2.960300	-8.923200	29.131789	-1.295345E-5	20.699469
2561.658179	-2.984900	2.959300	-8.832500	29.143545	-1.166636E-5	20.679545
2562.656893	-3.004900	2.956100	-8.882300	29.141590	-1.107232E-5	20.677100
2563.655661	-3.000400	2.954500	-8.862300	29.102582	-1.127033E-5	20.700859
2564.657295	-2.994400	2.954400	-8.846300	29.084798	-1.183137E-5	20.681041
2565.658586	-3.008300	2.953800	-8.885100	29.097325	-1.212839E-5	20.700304
2566.659086	-3.055800	2.949400	-9.011500	29.106405	-1.285445E-5	20.694279
2567.657186	-3.023900	2.948600	-8.915400	29.175381	-1.143534E-5	20.719215
2568.661767	-2.986100	2.949100	-8.804700	29.209429	-1.301946E-5	20.697574
2569.657171	-2.998900	2.947500	-8.838500	29.226911	-1.186437E-5	20.709028
2570.659122	-2.993400	2.944400	-8.812700	29.141665	-1.186437E-5	20.694247
2571.662219	-2.988400	2.945500	-8.801700	29.139856	-1.239241E-5	20.702382
2572.658080	-2.998100	2.941700	-8.817900	29.160235	-1.199638E-5	20.706323
2573.661993	-2.996400	2.940200	-8.809100	29.139029	-1.011525E-5	20.688746
2574.660946	-3.010900	2.939100	-8.848600	29.060566	-1.169936E-5	20.718743
2575.663179	-2.997700	2.937600	-8.805500	28.980036	-1.285445E-5	20.698770
2576.665246	-2.981900	2.936600	-8.756100	28.974291	-1.176537E-5	20.700568
2577.668339	-3.014700	2.933200	-8.841500	28.995842	-1.265643E-5	20.682451
2578.661271	-2.982700	2.932800	-8.746700	28.956676	-1.331648E-5	20.699416
2579.663427	-3.024000	2.928800	-8.855800	29.012128	-1.163336E-5	20.695541
2580.671206	-2.982000	2.928900	-8.732800	29.006822	-1.308546E-5	20.696834
2581.668981	-2.963700	2.928200	-8.677500	28.942891	-1.272244E-5	20.694536
2582.666469	-3.003800	2.925400	-8.786500	28.999926	-1.163336E-5	20.713595
2583.666448	-2.977400	2.923700	-8.703500	29.077769	-1.209539E-5	20.707627
2584.667776	-3.003300	2.922300	-8.776300	29.068163	-1.206239E-5	20.696524
2585.669412	-3.018300	2.920600	-8.814200	29.052731	-1.259043E-5	20.689983
2586.670449	-3.010700	2.917900	-8.783900	29.120430	-1.288745E-5	20.697032
2587.668200	-2.990900	2.916400	-8.721800	29.173334	-1.374551E-5	20.710513
2588.667506	-3.012300	2.914700	-8.779400	29.199230	-1.301946E-5	20.718592
2589.675344	-3.011200	2.912100	-8.768300	29.254304	-1.074229E-5	20.700123
2590.673696	-3.014200	2.911300	-8.773700	29.247093	-1.311847E-5	20.717039
2591.669734	-2.942800	2.910300	-8.563200	29.259399	-1.199638E-5	20.706206
2592.672266	-2.991400	2.907800	-8.696700	29.239906	-1.206239E-5	20.732082
2593.670477	-2.980600	2.907100	-8.664200	29.223187	-9.950233E-6	20.704326
2594.676184	-3.007200	2.905400	-8.735800	29.216665	-1.331648E-5	20.726679
2595.675999	-3.013000	2.903100	-8.745700	29.145291	-1.288745E-5	20.707385
2596.672829	-2.991100	2.900600	-8.674200	29.176753	-1.219440E-5	20.704476
2597.672979	-3.003400	2.899500	-8.707400	29.209941	-9.818223E-6	20.737922
2598.671507	-2.993800	2.899200	-8.678800	29.244954	-1.169936E-5	20.714409
2599.683267	-3.001400	2.895100	-8.688600	29.252718	-1.404253E-5	20.723183
2600.669908	-3.003700	2.894500	-8.692300	29.183375	-1.140234E-5	20.726797
2601.675841	-2.970600	2.892700	-8.592400	29.202788	-9.488199E-6	20.709849
2602.670336	-2.995700	2.889500	-8.655300	29.144117	-1.107232E-5	20.700987
2603.683771	-3.033600	2.886600	-8.755000	29.125093	-1.265643E-5	20.711689
2604.674663	-2.989100	2.886800	-8.627700	29.155671	-1.064328E-5	20.730175
2605.673827	-2.997600	2.885500	-8.648100	29.119285	-1.133634E-5	20.732865
2606.674350	-3.003600	2.883100	-8.659300	29.104244	-1.176537E-5	20.715337
2607.677057	-2.980600	2.882200	-8.590000	29.119351	-1.278844E-5	20.713016
2608.674939	-2.995800	2.878900	-8.624000	29.140762	-1.285445E-5	20.718944
2609.673990	-2.982800	2.877600	-8.582300	29.094518	-1.166636E-5	20.738729
2610.676919	-3.000200	2.874500	-8.623300	29.113243	-1.377852E-5	20.726302
2611.676699	-3.008500	2.872600	-8.640100	29.170618	-1.044527E-5	20.713467
2612.674538	-3.012000	2.871900	-8.648600	29.168761	-1.024725E-5	20.727243
2613.677629	-2.966700	2.869600	-8.512300	29.122120	-1.229341E-5	20.715806
2614.678182	-3.003500	2.866300	-8.608500	29.123330	-8.861153E-6	20.734095
2615.677575	-3.002400	2.865000	-8.601100	29.131395	-1.196338E-5	20.740800
2616.677840	-3.012800	2.863200	-8.625000	29.195681	-1.067629E-5	20.725921
2617.676948	-3.022700	2.861000	-8.647600	29.272788	-1.183137E-5	20.719226
2618.678937	-2.988800	2.859600	-8.545500	29.210308	-1.361350E-5	20.732127
2619.680283	-3.036700	2.857000	-8.674500	29.162687	-1.239241E-5	20.722545
2620.675501	-2.999700	2.856500	-8.567600	29.178354	-1.216140E-5	20.726479
2621.679335	-3.004400	2.854400	-8.575200	29.161975	-1.325048E-5	20.719931
2622.681548	-3.005300	2.851800	-8.569600	29.127479	-1.443856E-5	20.725000
2623.675448	-3.002200	2.847700	-8.548200	29.198369	-9.818223E-6	20.738589
2624.679718	-3.005000	2.848800	-8.560100	29.238534	-1.001624E-5	20.730225
2625.681667	-3.002500	2.845400	-8.542500	29.327821	-1.120433E-5	20.729171
2626.681428	-3.013400	2.842100	-8.563600	29.352124	-1.209539E-5	20.727587
2627.681395	-3.004900	2.841000	-8.536000	29.324350	-1.268943E-5	20.739898
2628.684874	-3.008100	2.838900	-8.539300	29.341272	-1.255743E-5	20.721865
2629.677233	-3.002600	2.837200	-8.517900	29.321732	-1.235941E-5	20.731569
2630.678113	-2.999300	2.834600	-8.500700	29.300529	-1.242542E-5	20.736753
2631.698061	-2.978700	2.832200	-8.435100	29.348063	-1.176537E-5	20.742461
2632.679371	-3.003000	2.829300	-8.495300	29.368439	-1.212839E-5	20.735495
2633.683365	-3.016600	2.826600	-8.525500	29.374248	-1.255743E-5	20.742298
2634.686418	-2.984800	2.825300	-8.432500	29.269462	-1.057728E-5	20.755231
2635.682738	-2.979200	2.823000	-8.410300	29.209450	-1.391052E-5	20.713717
2636.682981	-2.994100	2.820100	-8.443000	29.229877	-1.282144E-5	20.761332
2637.685101	-2.991400	2.818800	-8.431800	29.224028	-1.308546E-5	20.754489
2638.681803	-3.012800	2.814600	-8.479400	29.265401	-1.183137E-5	20.739758
2639.685288	-2.987900	2.813500	-8.405600	29.301231	-1.189738E-5	20.748367
2640.681931	-2.993700	2.810300	-8.411900	29.312588	-1.199638E-5	20.746537
2641.679823	-2.980100	2.808300	-8.368200	29.234365	-1.262343E-5	20.744991
2642.683786	-2.982100	2.805900	-8.366900	29.252585	-1.024725E-5	20.750077
2643.685940	-2.992800	2.802300	-8.385700	29.347842	-1.044527E-5	20.744134
2644.684747	-2.986300	2.799700	-8.359800	29.361380	-1.259043E-5	20.768211
2645.685096	-3.004400	2.798400	-8.406800	29.303822	-1.189738E-5	20.762833
2646.685363	-3.016200	2.794100	-8.426200	29.321561	-1.097331E-5	20.757951
2647.685009	-2.999600	2.793000	-8.376900	29.317393	-1.272244E-5	20.756121
2648.685149	-2.998900	2.788400	-8.361400	29.398952	-1.113832E-5	20.784269
2649.682778	-3.013700	2.785600	-8.393800	29.488428	-1.054428E-5	20.754494
2650.684993	-2.998100	2.784300	-8.347000	29.463863	-1.384452E-5	20.742534
2651.683558	-3.011900	2.780400	-8.373100	29.409636	-1.084130E-5	20.760423
2652.692198	-3.016900	2.776900	-8.376500	29.340578	-1.107232E-5	20.754831
2653.688517	-2.982700	2.775100	-8.276300	29.320462	-1.090730E-5	20.766801
2654.689202	-2.999300	2.771800	-8.312800	29.319100	-1.298646E-5	20.766376
2655.688603	-2.976000	2.770300	-8.242800	29.320284	-1.183137E-5	20.763776
2656.688777	-2.985900	2.765500	-8.256200	29.350669	-1.344849E-5	20.780176
2657.692045	-3.005900	2.762500	-8.303100	29.347839	-1.285445E-5	20.749822
2658.692181	-3.008800	2.761000	-8.306200	29.411447	-1.315147E-5	20.777896
2659.692035	-2.996600	2.756900	-8.259200	29.502382	-1.235941E-5	20.752438
2660.690222	-2.997400	2.753600	-8.252700	29.593334	-1.031326E-5	20.761145
2661.689305	-2.995300	2.752000	-8.241800	29.580327	-1.321747E-5	20.785018
2662.692105	-2.985800	2.747800	-8.203900	29.603552	-1.305246E-5	20.750109
2663.695031	-2.994100	2.744100	-8.215000	29.617679	-1.107232E-5	20.759136
2664.691728	-2.973100	2.741200	-8.149000	29.662183	-1.229341E-5	20.754689
2665.691246	-2.995600	2.736800	-8.196300	29.639412	-1.127033E-5	20.747854
2666.692379	-3.033800	2.733300	-8.291200	29.654974	-1.120433E-5	20.790096
2667.695146	-3.020900	2.730400	-8.247300	29.613359	-1.107232E-5	20.767582
2668.691676	-2.995800	2.727000	-8.168600	29.486879	-1.381152E-5	20.767157
2669.692509	-2.988800	2.723200	-8.137700	29.474080	-1.166636E-5	20.755679
2670.693230	-2.987100	2.719700	-8.123000	29.481098	-1.196338E-5	20.760856
2671.691418	-2.987700	2.716500	-8.115100	29.422094	-1.371251E-5	20.774403
2672.690091	-2.988000	2.713100	-8.106100	29.378473	-1.235941E-5	20.769317
2673.695135	-3.013300	2.708000	-8.159000	29.408500	-1.447157E-5	20.775400
2674.696845	-2.996200	2.704900	-8.103700	29.449354	-1.212839E-5	20.775801
2675.690862	-2.987900	2.700800	-8.068500	29.487279	-1.417454E-5	20.780837
2676.693928	-2.976000	2.696900	-8.025000	29.553069	-9.818223E-6	20.777454
2677.692778	-2.998200	2.692900	-8.073000	29.557107	-1.179837E-5	20.775361
2678.695302	-2.979400	2.687900	-8.007800	29.565525	-1.305246E-5	20.790011
2679.699650	-2.989300	2.685500	-8.027100	29.660948	-1.216140E-5	20.789954
2680.692367	-3.030600	2.679500	-8.119000	29.674190	-9.158175E-6	20.776752
2681.693006	-2.968000	2.677300	-7.945300	29.706762	-1.011525E-5	20.762175
2682.696412	-2.994200	2.671300	-7.996700	29.685153	-9.785221E-6	20.793021
2683.693507	-2.987700	2.667500	-7.968200	29.693068	-1.249142E-5	20.778241
2684.696331	-3.028300	2.662400	-8.061500	29.655168	-1.199638E-5	20.773221
2685.697794	-2.988200	2.659600	-7.946700	29.684327	-1.226040E-5	20.770376
2686.697351	-3.023400	2.653500	-8.021800	29.673827	-1.341549E-5	20.756471
2687.697359	-3.021000	2.648400	-7.999600	29.721449	-1.186437E-5	20.758490
2688.700445	-3.016100	2.643600	-7.972800	29.803917	-1.235941E-5	20.797544
2689.699786	-2.977800	2.641300	-7.864600	29.863209	-1.196338E-5	20.783835
2690.695783	-2.990900	2.635200	-7.881000	29.766369	-1.130333E-5	20.783867
2691.699196	-2.997400	2.630300	-7.883600	29.810097	-1.057728E-5	20.800929
2692.696085	-2.992200	2.625500	-7.855200	29.850691	-9.851226E-6	20.781644
2693.700330	-3.010500	2.619000	-7.883500	29.835838	-9.686214E-6	20.783737
2694.703480	-2.974900	2.613300	-7.772900	29.793850	-9.521201E-6	20.786919
2695.699819	-3.005800	2.608700	-7.839700	29.832135	-1.107232E-5	20.790434
2696.700233	-2.988800	2.604100	-7.782500	29.836837	-1.176537E-5	20.782374
2697.703581	-2.993900	2.598000	-7.776300	29.857211	-1.034626E-5	20.790589
2698.703649	-3.019300	2.592400	-7.826100	29.841857	-1.037926E-5	20.793124
2699.702234	-2.999900	2.587400	-7.761100	29.818985	-9.950233E-6	20.791874
2700.703970	-3.004600	2.580900	-7.753300	29.859158	-1.057728E-5	20.795397
2701.700006	-2.997500	2.576500	-7.722100	29.843309	-1.054428E-5	20.797908
2702.699472	-3.013500	2.568400	-7.739700	29.822667	-1.226040E-5	20.809811
2703.706929	-3.002000	2.563100	-7.693700	29.772447	-1.107232E-5	20.793788
2704.701066	-3.006000	2.558200	-7.689300	29.786280	-8.267109E-6	20.808209
2705.703248	-3.007900	2.551800	-7.674900	29.772959	-8.597133E-6	20.789088
2706.704138	-3.018500	2.544000	-7.678000	29.818818	-1.169936E-5	20.796921
2707.706082	-3.044900	2.538100	-7.726600	29.778449	-8.201104E-6	20.798891
2708.704459	-3.031100	2.533000	-7.676500	29.828271	-1.067629E-5	20.801237
2709.703370	-2.999500	2.525800	-7.575500	29.896552	-9.620209E-6	20.819353
2710.704752	-2.973500	2.520300	-7.493300	29.974702	-9.389192E-6	20.808072
2711.702291	-2.970000	2.514200	-7.465800	30.025302	-9.587206E-6	20.803151
2712.703955	-2.979700	2.508000	-7.471700	30.002393	-1.120433E-5	20.815609
2713.703098	-2.977700	2.501800	-7.449100	30.006576	-8.300111E-6	20.811293
2714.706218	-2.975800	2.495100	-7.424200	30.027012	-1.008224E-5	20.809143
