LabVIEW Measurement	
Writer_Version	2
Reader_Version	2
Separator	Tab
Decimal_Separator	.
Multi_Headings	No
X_Columns	One
Time_Pref	Absolute
Operator	admin
Description	Clolumns are: time, Current, Voltage, Power, Battery Temp, and Chamber Temp
Date	2024/08/16
Time	13:07:17.8513970375061035156
***End_of_Header***	
	
Channels	6						
Samples	1	1	1	1	1	1	
Date	2024/08/27	2024/08/27	2024/08/27	2024/08/27	2024/08/27	2024/08/27	
Time	22:14:25.9057855606079101563	22:14:25.9157910346984863281	22:14:25.9297862052917480469	22:14:25.8808817863464355469	22:14:25.8808817863464355469	22:14:25.8808817863464355469	
X_Dimension	Time	Time	Time	Time	Time	Time	
X0	0.0000000000000000E+0	0.0000000000000000E+0	0.0000000000000000E+0	0.0000000000000000E+0	0.0000000000000000E+0	0.0000000000000000E+0	
Delta_X	1.000000	1.000000	1.000000	1.000000	1.000000	1.000000	
***End_of_Header***							
X_Value	Untitled	Untitled 1	Untitled 2	Untitled 3	Untitled 4	Untitled 5	Comment
0.000000	0.003306	4.089700	0.013674	20.784251	0.000452	20.752008
0.997691	-2.993600	3.931100	-11.768000	20.786752	0.000454	20.725110
2.005799	-2.987800	3.923200	-11.721000	20.782387	0.000451	20.736392
2.993568	-3.008100	3.920800	-11.793000	20.775945	0.000449	20.745124
3.996100	-2.964700	3.918600	-11.616000	20.807640	0.000450	20.755956
4.997092	-3.000100	3.914000	-11.741000	20.788853	0.000447	20.744281
6.001068	-2.978500	3.911300	-11.649000	20.798188	0.000448	20.746979
7.002184	-3.002100	3.909400	-11.735000	20.826139	0.000448	20.730358
7.999491	-3.002300	3.906300	-11.727000	20.806944	0.000447	20.717327
8.999713	-2.986600	3.906100	-11.665000	20.788059	0.000446	20.745384
9.997281	-2.995200	3.903600	-11.691000	20.833732	0.000447	20.729417
11.005306	-3.009500	3.901700	-11.741000	20.833462	0.000446	20.726302
11.999726	-3.020800	3.900900	-11.783000	20.860537	0.000445	20.730144
13.002208	-3.005500	3.899900	-11.721000	20.862858	0.000444	20.732940
13.998847	-3.008600	3.898700	-11.729000	20.851634	0.000444	20.737363
15.013096	-3.006900	3.897700	-11.719000	20.858451	0.000444	20.749871
16.001606	-3.009800	3.896600	-11.727000	20.864590	0.000445	20.744630
17.004254	-2.987700	3.896300	-11.640000	20.881511	0.000441	20.748276
17.998503	-2.999300	3.895700	-11.683000	20.878789	0.000441	20.737019
19.001531	-2.985300	3.894500	-11.626000	20.870417	0.000441	20.738129
19.997846	-3.009000	3.892400	-11.711000	20.901481	0.000441	20.734582
21.005607	-2.984100	3.893200	-11.617000	20.906376	0.000441	20.721934
22.009502	-2.997700	3.890900	-11.663000	20.907725	0.000440	20.727076
23.001302	-2.997000	3.891200	-11.661000	20.904716	0.000442	20.716005
24.009165	-2.997000	3.890500	-11.659000	20.909155	0.000441	20.732773
25.001192	-2.996000	3.890100	-11.654000	20.920477	0.000441	20.734614
26.011363	-2.982200	3.890400	-11.601000	20.919944	0.000439	20.736926
27.005406	-2.991500	3.889300	-11.634000	20.938778	0.000438	20.723518
28.003508	-3.002300	3.888100	-11.672000	20.951210	0.000438	20.734056
29.005221	-2.988800	3.888100	-11.620000	20.953507	0.000438	20.734456
30.013184	-2.989200	3.888100	-11.621000	20.965121	0.000440	20.729476
31.000953	-2.999300	3.886900	-11.657000	20.976850	0.000438	20.732673
32.005743	-2.991600	3.887000	-11.628000	20.991301	0.000438	20.711563
33.007834	-3.031900	3.885000	-11.777000	20.987859	0.000438	20.718553
34.010730	-2.991600	3.885400	-11.622000	21.025890	0.000436	20.735729
35.019589	-2.982300	3.885700	-11.587000	20.990392	0.000437	20.722035
36.014478	-2.995700	3.883100	-11.631000	20.999522	0.000437	20.714096
37.007808	-2.992500	3.884600	-11.623000	21.019286	0.000437	20.710630
38.010178	-2.979300	3.885600	-11.575000	21.019065	0.000437	20.732221
39.011475	-2.988900	3.884700	-11.610000	21.020413	0.000435	20.719819
40.007094	-2.973800	3.883600	-11.547000	21.022513	0.000433	20.713384
41.014894	-3.006300	3.881100	-11.667000	21.042195	0.000435	20.708414
42.013497	-2.996400	3.882900	-11.634000	21.049616	0.000435	20.709672
43.006907	-2.991400	3.881200	-11.609000	21.066207	0.000435	20.711568
44.014059	-3.013300	3.880300	-11.692000	21.058026	0.000436	20.716187
45.009714	-3.013700	3.881900	-11.697000	21.071748	0.000435	20.695773
46.014461	-2.999800	3.881900	-11.643000	21.079439	0.000437	20.703940
47.005294	-3.009600	3.880400	-11.678000	21.088821	0.000435	20.724706
48.008073	-3.013200	3.879000	-11.687000	21.100296	0.000432	20.693982
49.007661	-2.993700	3.879100	-11.612000	21.111860	0.000434	20.699859
50.014982	-3.005000	3.879400	-11.657000	21.121463	0.000434	20.695240
51.008267	-3.003500	3.879200	-11.650000	21.119837	0.000433	20.702149
52.007623	-2.998000	3.880700	-11.634000	21.139893	0.000433	20.696132
53.008595	-2.999500	3.880200	-11.637000	21.157594	0.000436	20.697242
54.009987	-3.018200	3.880100	-11.710000	21.155174	0.000433	20.695771
55.016408	-2.997800	3.877300	-11.622000	21.147860	0.000436	20.683712
56.016120	-3.020300	3.878500	-11.714000	21.181146	0.000433	20.698992
57.007943	-3.005900	3.878500	-11.658000	21.168447	0.000434	20.706677
58.008574	-2.991500	3.878900	-11.602000	21.170514	0.000433	20.703530
59.019451	-3.012200	3.877700	-11.680000	21.202501	0.000433	20.697119
60.015077	-2.988400	3.878200	-11.589000	21.187284	0.000433	20.702761
61.011455	-3.004800	3.877700	-11.650000	21.221509	0.000434	20.712343
62.010014	-3.005100	3.876200	-11.646000	21.208139	0.000431	20.678102
63.013610	-2.979000	3.876500	-11.547000	21.206138	0.000431	20.696490
64.012737	-3.010500	3.876400	-11.669000	21.223822	0.000431	20.683834
65.022762	-2.996300	3.876000	-11.613000	21.215838	0.000432	20.692918
66.020852	-2.991500	3.877000	-11.597000	21.232877	0.000433	20.689100
67.009195	-3.011300	3.875700	-11.669000	21.249090	0.000433	20.694414
68.011968	-3.008200	3.875300	-11.657000	21.243778	0.000432	20.694316
69.019711	-3.004600	3.874900	-11.641000	21.262909	0.000432	20.700178
70.014923	-3.010700	3.875600	-11.667000	21.238842	0.000435	20.681316
71.014423	-3.006900	3.873700	-11.647000	21.272462	0.000433	20.695510
72.011122	-3.004800	3.874300	-11.640000	21.290954	0.000433	20.684611
73.019626	-2.999000	3.874200	-11.618000	21.279301	0.000433	20.687653
74.011110	-3.020500	3.873400	-11.698000	21.295865	0.000434	20.695215
75.030291	-3.024800	3.874200	-11.718000	21.288355	0.000432	20.698608
76.011250	-3.003800	3.873200	-11.633000	21.327170	0.000435	20.675798
77.026963	-3.011800	3.874500	-11.668000	21.338576	0.000434	20.681520
78.014573	-2.981800	3.874800	-11.553000	21.334352	0.000434	20.686778
79.012973	-3.012600	3.873100	-11.668000	21.356684	0.000435	20.681618
80.017122	-3.006300	3.874200	-11.645000	21.341265	0.000434	20.680417
81.025520	-3.006000	3.873700	-11.644000	21.372674	0.000434	20.699989
82.021263	-2.988900	3.874000	-11.578000	21.358204	0.000434	20.695943
83.016933	-2.995800	3.873200	-11.601000	21.382455	0.000431	20.697920
84.016139	-3.026800	3.871500	-11.718000	21.406388	0.000434	20.693417
85.013660	-3.019500	3.872400	-11.691000	21.377013	0.000435	20.701960
86.027655	-2.987600	3.873200	-11.570000	21.400365	0.000435	20.680277
87.015590	-3.015200	3.872000	-11.674000	21.397325	0.000436	20.673916
88.017504	-3.002800	3.872700	-11.628000	21.424976	0.000436	20.682142
89.020462	-2.997700	3.870900	-11.603000	21.444062	0.000433	20.693179
90.018302	-3.019500	3.869900	-11.684000	21.459757	0.000434	20.688967
91.021099	-3.003900	3.870900	-11.626000	21.461073	0.000436	20.690758
92.014580	-3.006300	3.871400	-11.637000	21.454266	0.000435	20.684896
93.017849	-2.987600	3.871300	-11.565000	21.440295	0.000438	20.711222
94.016599	-2.997800	3.871400	-11.605000	21.460761	0.000435	20.689024
95.018301	-2.991600	3.870400	-11.578000	21.469936	0.000436	20.713380
96.019986	-2.996600	3.870500	-11.597000	21.458441	0.000436	20.694289
97.021214	-2.988900	3.870100	-11.566000	21.500974	0.000438	20.701761
98.017022	-2.982400	3.870200	-11.541000	21.502290	0.000436	20.698810
99.029235	-2.986100	3.870400	-11.556000	21.512315	0.000437	20.697935
100.017088	-3.006400	3.871100	-11.637000	21.520272	0.000437	20.700682
101.020870	-2.983600	3.870500	-11.547000	21.517854	0.000437	20.709643
102.022760	-3.014500	3.868900	-11.662000	21.508482	0.000436	20.698368
103.020416	-2.993600	3.869500	-11.583000	21.518580	0.000436	20.698041
104.020596	-3.011200	3.868600	-11.648000	21.538841	0.000439	20.689865
105.022270	-2.995700	3.870000	-11.592000	21.539978	0.000437	20.694795
106.027276	-3.006200	3.867400	-11.626000	21.575744	0.000437	20.697869
107.027177	-2.991200	3.869200	-11.572000	21.572582	0.000439	20.673840
108.022683	-3.016000	3.867400	-11.663000	21.574453	0.000438	20.720286
109.023817	-2.998400	3.867900	-11.596000	21.593659	0.000437	20.691614
110.020485	-2.977900	3.868900	-11.520000	21.590391	0.000436	20.694034
111.031232	-2.995300	3.867300	-11.582000	21.589917	0.000439	20.703044
112.028712	-3.004400	3.868900	-11.623000	21.599549	0.000439	20.712682
113.026924	-3.001000	3.867100	-11.604000	21.603813	0.000439	20.697034
114.025239	-2.991000	3.867400	-11.566000	21.617088	0.000438	20.690403
115.036320	-3.005800	3.867300	-11.623000	21.622692	0.000439	20.686054
116.024446	-3.010700	3.866900	-11.641000	21.636808	0.000438	20.699707
117.021729	-3.000800	3.867700	-11.605000	21.654452	0.000440	20.693656
118.027966	-2.997800	3.867600	-11.594000	21.634145	0.000438	20.711741
119.030323	-2.995900	3.866900	-11.583000	21.639683	0.000440	20.691678
120.025599	-3.005200	3.866300	-11.618000	21.659991	0.000441	20.694457
121.026086	-2.988800	3.868400	-11.561000	21.655049	0.000440	20.685243
122.026658	-3.004700	3.866400	-11.616000	21.688622	0.000440	20.702722
123.029717	-3.007700	3.866400	-11.628000	21.680658	0.000441	20.695700
124.026014	-2.974700	3.866500	-11.500000	21.689489	0.000443	20.706909
125.032134	-2.981100	3.866800	-11.526000	21.696652	0.000441	20.680885
126.026839	-2.996100	3.865600	-11.581000	21.706422	0.000442	20.710580
127.028526	-2.980800	3.865700	-11.521000	21.716224	0.000442	20.707587
128.042598	-3.004400	3.866300	-11.615000	21.723102	0.000443	20.699771
129.026571	-3.005400	3.865100	-11.616000	21.738165	0.000442	20.716270
130.028464	-3.029600	3.864800	-11.708000	21.741914	0.000443	20.715754
131.045160	-2.989900	3.865200	-11.555000	21.764197	0.000443	20.701071
132.022827	-3.015900	3.865200	-11.656000	21.741236	0.000445	20.726930
133.036210	-3.015500	3.864200	-11.652000	21.752884	0.000443	20.708241
134.030840	-3.023400	3.862000	-11.675000	21.797482	0.000446	20.697400
135.037728	-2.992500	3.863900	-11.561000	21.799859	0.000444	20.702624
136.036419	-2.973300	3.864000	-11.487000	21.803764	0.000444	20.706533
137.046485	-3.023300	3.863000	-11.678000	21.809971	0.000445	20.697098
138.035069	-2.980200	3.864900	-11.517000	21.803445	0.000445	20.703843
139.037578	-2.994400	3.863900	-11.569000	21.819829	0.000444	20.701275
140.027637	-2.996000	3.863800	-11.575000	21.812323	0.000447	20.719368
141.031557	-3.002800	3.863100	-11.599000	21.827956	0.000443	20.721739
142.041601	-3.017300	3.862300	-11.653000	21.817681	0.000444	20.697703
143.033955	-3.015800	3.862600	-11.648000	21.832195	0.000448	20.709860
144.038284	-3.016200	3.862700	-11.650000	21.836304	0.000445	20.713973
145.035324	-3.018900	3.862900	-11.661000	21.839097	0.000446	20.703017
146.031146	-2.980200	3.863100	-11.511000	21.846734	0.000447	20.710661
147.031208	-3.023200	3.861700	-11.674000	21.853709	0.000448	20.709108
148.033123	-2.992800	3.862500	-11.558000	21.853636	0.000448	20.714724
149.033805	-3.017400	3.861800	-11.652000	21.897470	0.000448	20.705020
150.041121	-2.994000	3.861700	-11.561000	21.900084	0.000446	20.699101
151.033240	-2.993000	3.861900	-11.558000	21.900982	0.000448	20.704268
152.040818	-3.005900	3.860800	-11.605000	21.944831	0.000448	20.705012
153.039257	-3.015600	3.861800	-11.645000	21.937800	0.000449	20.722157
154.039071	-3.005400	3.861700	-11.605000	21.940414	0.000450	20.711496
155.043030	-2.993900	3.861000	-11.559000	21.941589	0.000450	20.702715
156.040759	-2.998600	3.861100	-11.577000	21.950059	0.000449	20.711668
157.033870	-2.993900	3.861800	-11.560000	21.941680	0.000450	20.736473
158.037389	-3.008000	3.860600	-11.612000	21.920038	0.000450	20.709117
159.034623	-2.979000	3.860500	-11.499000	21.973269	0.000450	20.718306
160.033183	-2.995100	3.860700	-11.562000	21.966262	0.000450	20.726940
161.040233	-3.021700	3.860100	-11.663000	21.998022	0.000453	20.732655
162.037141	-3.002400	3.859200	-11.586000	21.982890	0.000453	20.722721
163.063805	-2.990700	3.859400	-11.541000	21.961223	0.000454	20.721422
164.042474	-2.980900	3.859500	-11.503000	22.001330	0.000452	20.715577
165.042017	-3.007100	3.859200	-11.605000	22.000611	0.000453	20.708218
166.046180	-2.984200	3.858400	-11.513000	22.006190	0.000453	20.704793
167.039471	-3.012500	3.859800	-11.626000	22.024368	0.000454	20.725363
168.040596	-3.002100	3.860600	-11.589000	22.051929	0.000455	20.710754
169.041876	-2.997400	3.859700	-11.567000	22.070875	0.000455	20.721660
170.043361	-2.990500	3.858500	-11.537000	22.080126	0.000453	20.733767
171.037335	-2.978700	3.859300	-11.495000	22.078975	0.000455	20.728348
172.050843	-2.993100	3.858200	-11.547000	22.078674	0.000455	20.742745
173.034514	-2.982900	3.858200	-11.508000	22.080364	0.000457	20.727841
174.039232	-2.998900	3.857700	-11.568000	22.103123	0.000456	20.723124
175.040598	-3.001700	3.858100	-11.580000	22.086276	0.000455	20.718112
176.035133	-3.001500	3.858600	-11.580000	22.078364	0.000458	20.720623
177.042834	-3.000600	3.857100	-11.572000	22.092345	0.000459	20.724662
178.040037	-3.021100	3.855900	-11.648000	22.080578	0.000457	20.745125
179.048819	-3.006500	3.855500	-11.591000	22.088205	0.000458	20.717198
180.042578	-2.986000	3.857200	-11.517000	22.107851	0.000458	20.736394
181.042402	-2.995600	3.856700	-11.551000	22.131360	0.000459	20.718203
182.045486	-2.992000	3.857200	-11.540000	22.130103	0.000459	20.725954
183.046594	-3.017600	3.856300	-11.635000	22.136113	0.000459	20.731023
184.045584	-3.014500	3.856400	-11.624000	22.139975	0.000458	20.740580
185.048645	-2.992200	3.856100	-11.537000	22.166970	0.000461	20.731096
186.047224	-2.983400	3.856000	-11.503000	22.164104	0.000463	20.735814
187.048583	-3.042600	3.855500	-11.729000	22.172008	0.000459	20.720967
188.054212	-3.010500	3.854900	-11.604000	22.176221	0.000458	20.759800
189.047361	-2.985600	3.855900	-11.511000	22.166448	0.000459	20.744798
190.046328	-3.014300	3.855100	-11.620000	22.168244	0.000461	20.732372
191.047825	-3.004800	3.854300	-11.580000	22.203966	0.000463	20.733998
192.048641	-2.999300	3.854900	-11.561000	22.203019	0.000461	20.730679
193.049999	-2.994500	3.854100	-11.540000	22.201942	0.000462	20.737661
194.049335	-2.992000	3.853600	-11.529000	22.210891	0.000463	20.726232
195.043429	-2.969400	3.855100	-11.446000	22.236610	0.000464	20.750562
196.042847	-2.989500	3.854100	-11.520000	22.269065	0.000463	20.731374
197.048669	-2.997400	3.855600	-11.556000	22.257577	0.000465	20.744054
198.061666	-3.008100	3.852800	-11.589000	22.273236	0.000463	20.749302
199.049234	-2.976100	3.854500	-11.470000	22.287736	0.000465	20.750545
200.049863	-2.987600	3.853900	-11.512000	22.290332	0.000465	20.740342
201.045431	-3.009700	3.851600	-11.591000	22.288112	0.000463	20.728635
202.046845	-3.015400	3.852400	-11.616000	22.293044	0.000466	20.759178
203.052078	-3.025500	3.851500	-11.652000	22.291827	0.000465	20.738045
204.052086	-3.013500	3.852300	-11.608000	22.284373	0.000464	20.733426
205.047667	-3.014300	3.851400	-11.608000	22.299060	0.000467	20.737701
206.053004	-2.983700	3.852700	-11.494000	22.290936	0.000466	20.747111
207.060267	-2.994600	3.852200	-11.535000	22.313013	0.000468	20.743612
208.054834	-2.970900	3.852900	-11.446000	22.312964	0.000465	20.745460
209.055049	-2.999400	3.850800	-11.549000	22.330762	0.000470	20.762333
210.050718	-3.004100	3.850600	-11.566000	22.305746	0.000469	20.726377
211.052333	-2.984900	3.850700	-11.493000	22.303044	0.000468	20.759709
212.053694	-2.982800	3.850300	-11.484000	22.328394	0.000471	20.765178
213.050755	-3.007400	3.850400	-11.579000	22.331831	0.000467	20.757240
214.055170	-2.995400	3.850700	-11.534000	22.369214	0.000469	20.765751
215.053099	-3.003800	3.850300	-11.564000	22.376334	0.000469	20.753913
216.050418	-3.012100	3.849400	-11.592000	22.402089	0.000469	20.772593
217.063212	-3.037800	3.847900	-11.687000	22.421266	0.000472	20.760029
218.058401	-3.013500	3.849100	-11.598000	22.390188	0.000470	20.764942
219.045249	-3.002800	3.850100	-11.560000	22.406434	0.000472	20.738536
220.065049	-3.003900	3.848400	-11.559000	22.402867	0.000472	20.755827
221.054857	-3.017200	3.848900	-11.612000	22.384596	0.000471	20.766930
222.062312	-2.999300	3.849500	-11.545000	22.385666	0.000470	20.776062
223.047667	-3.009400	3.847000	-11.576000	22.409439	0.000472	20.770944
224.051424	-3.015900	3.847900	-11.603000	22.413995	0.000471	20.776929
225.060823	-3.004100	3.848200	-11.560000	22.433309	0.000472	20.772089
226.057664	-2.985900	3.848800	-11.491000	22.431815	0.000473	20.761109
227.054149	-3.014500	3.846700	-11.595000	22.466322	0.000474	20.767691
228.051693	-3.001700	3.847300	-11.548000	22.446991	0.000472	20.753073
229.049136	-2.995500	3.847300	-11.524000	22.441155	0.000474	20.765721
230.053010	-2.996200	3.847900	-11.528000	22.447906	0.000475	20.756360
231.057280	-3.007700	3.846900	-11.570000	22.467195	0.000476	20.768092
232.059733	-3.005400	3.845800	-11.557000	22.473767	0.000474	20.758077
233.054488	-2.992100	3.847000	-11.509000	22.485783	0.000475	20.769163
234.053926	-2.993700	3.846900	-11.515000	22.496778	0.000477	20.775907
235.058119	-3.001500	3.847400	-11.547000	22.490272	0.000474	20.768917
236.061044	-3.003500	3.846200	-11.551000	22.504532	0.000477	20.781302
237.068620	-2.985000	3.846100	-11.480000	22.507047	0.000477	20.789036
238.056834	-2.989700	3.846900	-11.501000	22.503806	0.000477	20.754021
239.058638	-2.982100	3.845500	-11.467000	22.518107	0.000476	20.786363
240.055934	-3.004900	3.845000	-11.553000	22.515765	0.000477	20.760308
241.059590	-2.994500	3.845800	-11.515000	22.533682	0.000476	20.771140
242.060001	-2.995100	3.846300	-11.519000	22.543298	0.000479	20.773659
243.061293	-3.003600	3.844600	-11.546000	22.520475	0.000478	20.767870
244.070642	-3.003100	3.843800	-11.542000	22.556463	0.000478	20.779732
245.061110	-3.006000	3.843200	-11.551000	22.564438	0.000479	20.785822
246.069068	-2.995100	3.843900	-11.512000	22.572861	0.000479	20.783828
247.064894	-3.008400	3.842700	-11.559000	22.572837	0.000478	20.779061
248.055786	-2.991900	3.844000	-11.500000	22.588884	0.000479	20.773796
249.059219	-3.006400	3.843100	-11.552000	22.596034	0.000481	20.766733
250.057572	-3.007300	3.843000	-11.556000	22.582582	0.000478	20.770330
251.056030	-2.986200	3.843800	-11.477000	22.627082	0.000481	20.793564
252.064281	-3.000100	3.841900	-11.525000	22.610391	0.000481	20.774949
253.072153	-2.978500	3.842800	-11.445000	22.648588	0.000482	20.785233
254.064117	-3.015300	3.841900	-11.583000	22.638549	0.000482	20.778022
255.079659	-3.000200	3.841600	-11.525000	22.644858	0.000485	20.798092
256.064282	-2.995700	3.842500	-11.509000	22.653631	0.000481	20.795026
257.061570	-2.996700	3.841800	-11.512000	22.663801	0.000482	20.776288
258.061985	-2.987400	3.843500	-11.480000	22.674664	0.000483	20.778634
259.065018	-2.996500	3.841600	-11.510000	22.693974	0.000483	20.789442
260.059052	-3.010200	3.840800	-11.561000	22.680825	0.000485	20.785754
261.056904	-3.004700	3.841600	-11.542000	22.647068	0.000486	20.798883
262.058729	-2.984300	3.841300	-11.463000	22.680531	0.000484	20.779769
263.058906	-2.981700	3.841800	-11.454000	22.716237	0.000485	20.787086
264.062147	-2.983200	3.841000	-11.457000	22.708867	0.000485	20.779229
265.059305	-2.988000	3.840400	-11.474000	22.717787	0.000487	20.794803
266.060556	-2.995400	3.839200	-11.499000	22.707839	0.000486	20.783415
267.063507	-3.016100	3.838800	-11.577000	22.705105	0.000486	20.773564
268.075454	-3.004300	3.839600	-11.535000	22.727850	0.000486	20.799193
269.066443	-3.000000	3.839900	-11.518000	22.714408	0.000488	20.783357
270.061810	-3.006200	3.838200	-11.537000	22.753573	0.000486	20.799355
271.061388	-3.031300	3.838900	-11.635000	22.706841	0.000486	20.799011
272.064204	-3.002300	3.837900	-11.521000	22.712539	0.000487	20.792864
273.061249	-3.002500	3.837100	-11.520000	22.732844	0.000490	20.813678
274.064715	-2.994900	3.837800	-11.493000	22.718626	0.000490	20.821721
275.066183	-3.007300	3.838300	-11.542000	22.725530	0.000488	20.792602
276.068650	-2.998200	3.837600	-11.505000	22.723188	0.000486	20.820127
277.061885	-3.005600	3.837900	-11.535000	22.744987	0.000492	20.804979
278.069287	-3.004200	3.837200	-11.527000	22.751638	0.000489	20.823969
279.064435	-3.003200	3.837300	-11.523000	22.759285	0.000490	20.812663
280.070343	-3.001000	3.837300	-11.514000	22.777149	0.000491	20.817756
281.069273	-2.999300	3.837300	-11.508000	22.792622	0.000492	20.797695
282.065998	-3.014300	3.837100	-11.565000	22.782682	0.000493	20.824721
283.067569	-2.999100	3.835700	-11.502000	22.801672	0.000492	20.806760
284.066237	-3.003100	3.836900	-11.521000	22.844066	0.000491	20.802289
285.074467	-3.019400	3.834700	-11.576000	22.849094	0.000492	20.821075
286.068193	-2.997900	3.834900	-11.496000	22.882698	0.000491	20.802584
287.067231	-2.983000	3.836200	-11.443000	22.863717	0.000491	20.786887
288.073310	-2.994400	3.834500	-11.481000	22.884297	0.000493	20.815091
289.069835	-3.006900	3.834200	-11.529000	22.886933	0.000494	20.810620
290.073311	-3.004400	3.834500	-11.519000	22.882354	0.000494	20.827369
291.070372	-3.006400	3.834800	-11.527000	22.888107	0.000493	20.819383
292.070770	-2.999600	3.834000	-11.500000	22.900560	0.000494	20.808625
293.070527	-3.001200	3.834900	-11.509000	22.896651	0.000497	20.822252
294.071963	-3.001300	3.833000	-11.503000	22.894228	0.000494	20.808445
295.072793	-2.982100	3.834200	-11.433000	22.905717	0.000494	20.803834
296.070136	-3.005100	3.833900	-11.521000	22.885839	0.000495	20.819955
297.072228	-2.987200	3.832700	-11.449000	22.886565	0.000493	20.826372
298.072085	-2.985000	3.834000	-11.444000	22.913795	0.000495	20.816668
299.078620	-3.013300	3.833300	-11.550000	22.904199	0.000497	20.847357
300.071248	-2.999000	3.831100	-11.489000	22.893068	0.000495	20.817241
301.070876	-3.010800	3.831800	-11.536000	22.918951	0.000497	20.840326
302.074310	-3.011700	3.831400	-11.538000	22.925724	0.000498	20.837629
303.074874	-3.023300	3.831800	-11.584000	22.945283	0.000496	20.823559
304.074245	-3.041200	3.830500	-11.649000	22.954096	0.000497	20.845664
305.077482	-2.987400	3.831700	-11.446000	22.977170	0.000497	20.822316
306.075400	-2.988600	3.832200	-11.451000	22.987613	0.000500	20.834202
307.077961	-3.010400	3.830700	-11.531000	22.997389	0.000497	20.851582
308.080747	-2.995000	3.830600	-11.471000	22.976778	0.000498	20.846104
309.075778	-3.004400	3.830600	-11.508000	22.983273	0.000500	20.819422
310.077500	-3.002000	3.830500	-11.498000	22.970422	0.000498	20.844952
311.078561	-2.995200	3.829600	-11.469000	22.962980	0.000499	20.842712
312.082083	-3.010400	3.830000	-11.529000	22.969360	0.000501	20.835354
313.075864	-3.008700	3.829000	-11.519000	22.999297	0.000501	20.832158
314.079163	-2.982200	3.829400	-11.419000	22.998555	0.000502	20.844215
315.085531	-2.974000	3.830200	-11.390000	23.023587	0.000502	20.843218
316.082542	-2.981500	3.829300	-11.416000	23.031933	0.000500	20.846839
317.079514	-2.983700	3.828700	-11.422000	23.045110	0.000499	20.838231
318.078420	-2.974500	3.829000	-11.388000	23.053351	0.000502	20.846962
319.082199	-3.013100	3.827200	-11.531000	23.057323	0.000502	20.831502
320.081767	-3.001100	3.828500	-11.489000	23.080030	0.000502	20.842874
321.083695	-2.996200	3.827400	-11.465000	23.075820	0.000502	20.861414
322.078691	-3.018300	3.827300	-11.552000	23.047199	0.000502	20.837479
323.080198	-3.020400	3.827100	-11.558000	23.057813	0.000503	20.848588
324.078284	-3.015100	3.826800	-11.538000	23.074726	0.000502	20.854629
325.080637	-2.995100	3.827800	-11.464000	23.070345	0.000504	20.839334
326.086059	-3.002000	3.826400	-11.486000	23.084965	0.000502	20.840708
327.083118	-2.970100	3.827300	-11.367000	23.124093	0.000502	20.847672
328.080045	-2.994200	3.826600	-11.457000	23.142996	0.000506	20.863294
329.083489	-2.991500	3.826400	-11.445000	23.138159	0.000502	20.859395
330.085778	-2.989200	3.825900	-11.435000	23.149115	0.000504	20.840029
331.082930	-3.008900	3.826800	-11.514000	23.132211	0.000504	20.865289
332.082469	-2.991700	3.826800	-11.448000	23.133532	0.000506	20.834846
333.080966	-3.016400	3.825000	-11.537000	23.160945	0.000504	20.834814
334.082403	-3.002000	3.825400	-11.483000	23.167184	0.000505	20.851497
335.087532	-3.000800	3.823200	-11.471000	23.131875	0.000503	20.852151
336.086473	-3.000400	3.824100	-11.473000	23.130522	0.000506	20.857433
337.091300	-2.994300	3.824700	-11.451000	23.151219	0.000506	20.838819
338.088342	-2.993500	3.824000	-11.447000	23.179690	0.000508	20.843167
339.091713	-3.008300	3.824500	-11.505000	23.185197	0.000507	20.832564
340.088891	-2.990600	3.823900	-11.435000	23.183826	0.000508	20.823130
341.090185	-3.004700	3.822000	-11.482000	23.201929	0.000509	20.837477
342.084954	-2.987400	3.822800	-11.419000	23.197695	0.000509	20.839873
343.097164	-3.021500	3.820500	-11.542000	23.163676	0.000509	20.821430
344.094519	-3.011600	3.821300	-11.507000	23.164704	0.000513	20.825779
345.092646	-3.005700	3.820900	-11.483000	23.192262	0.000508	20.833954
346.096805	-3.000300	3.823300	-11.470000	23.209727	0.000508	20.835335
347.090527	-2.994400	3.820600	-11.440000	23.169256	0.000509	20.819435
348.095435	-3.018600	3.820700	-11.532000	23.186788	0.000509	20.829891
349.095128	-3.002800	3.820800	-11.472000	23.196748	0.000509	20.833709
350.088678	-3.014200	3.820400	-11.515000	23.190727	0.000510	20.816296
351.088849	-2.999900	3.820100	-11.459000	23.194814	0.000510	20.804270
352.088640	-3.005200	3.820600	-11.480000	23.180833	0.000511	20.804010
353.091666	-3.002100	3.819700	-11.466000	23.183132	0.000511	20.797305
354.091666	-2.997500	3.820900	-11.452000	23.185849	0.000511	20.809511
355.091504	-2.999200	3.819300	-11.454000	23.203478	0.000512	20.819116
356.094253	-2.987600	3.819500	-11.410000	23.212655	0.000511	20.814562
357.090483	-2.993300	3.820100	-11.433000	23.246770	0.000513	20.808921
358.096041	-2.992300	3.818900	-11.426000	23.222534	0.000510	20.815453
359.095181	-2.996500	3.819000	-11.443000	23.242960	0.000512	20.807000
360.091675	-3.001500	3.818100	-11.459000	23.284081	0.000510	20.799846
361.088799	-3.006000	3.817100	-11.473000	23.272792	0.000514	20.826939
362.092926	-2.997700	3.817500	-11.443000	23.308879	0.000511	20.798620
363.102641	-2.998200	3.817900	-11.446000	23.313862	0.000513	20.807882
364.098736	-3.002400	3.817400	-11.461000	23.314661	0.000515	20.806787
365.096365	-3.002300	3.817700	-11.461000	23.350200	0.000515	20.807792
366.096406	-3.010300	3.817200	-11.490000	23.348830	0.000516	20.812582
367.094436	-3.003200	3.817200	-11.464000	23.363797	0.000514	20.791073
368.090659	-3.008000	3.817400	-11.482000	23.367133	0.000514	20.813383
369.093473	-3.001200	3.816800	-11.454000	23.366317	0.000514	20.818729
370.094133	-3.002500	3.817000	-11.460000	23.379017	0.000516	20.821026
371.097378	-2.995200	3.815300	-11.427000	23.388804	0.000515	20.791956
372.095537	-2.989100	3.816800	-11.408000	23.381407	0.000516	20.786912
373.093856	-2.988300	3.816200	-11.403000	23.373364	0.000515	20.805878
374.097496	-3.018800	3.813400	-11.510000	23.338086	0.000516	20.792332
375.100186	-3.004700	3.815200	-11.463000	23.366577	0.000516	20.798127
376.094509	-2.989800	3.813800	-11.402000	23.374122	0.000518	20.790042
377.095329	-3.011500	3.815100	-11.488000	23.376112	0.000517	20.791563
378.094336	-2.998700	3.813200	-11.433000	23.386202	0.000517	20.788873
379.094637	-2.992700	3.814000	-11.414000	23.375517	0.000520	20.801871
380.101554	-3.024700	3.813200	-11.532000	23.396332	0.000517	20.803768
381.097949	-2.999800	3.813000	-11.438000	23.409276	0.000518	20.793034
382.105753	-3.013700	3.811900	-11.487000	23.410671	0.000519	20.799174
383.100154	-2.997000	3.814300	-11.431000	23.421184	0.000519	20.791693
384.097266	-3.016000	3.811700	-11.495000	23.435295	0.000520	20.793508
385.102811	-3.003800	3.811000	-11.447000	23.450611	0.000519	20.786101
386.100698	-2.995300	3.811000	-11.414000	23.453727	0.000517	20.787802
387.097847	-3.002400	3.811000	-11.442000	23.428770	0.000520	20.791236
388.102221	-3.003900	3.812100	-11.450000	23.430400	0.000519	20.785284
389.100013	-3.003800	3.812200	-11.450000	23.437130	0.000520	20.774960
390.113174	-2.999300	3.810400	-11.428000	23.451312	0.000522	20.772579
391.104605	-3.021500	3.810400	-11.512000	23.421331	0.000521	20.787573
392.111039	-2.998200	3.811100	-11.425000	23.424316	0.000522	20.777763
393.103288	-2.994700	3.810200	-11.409000	23.436290	0.000521	20.783600
394.103498	-2.988500	3.811000	-11.388000	23.461989	0.000524	20.793713
395.103870	-2.975800	3.811200	-11.340000	23.423020	0.000520	20.793059
396.100482	-2.987800	3.811500	-11.387000	23.453491	0.000522	20.788040
397.103795	-2.976500	3.810100	-11.339000	23.459314	0.000522	20.801463
398.104066	-2.994700	3.810000	-11.409000	23.443932	0.000522	20.796476
399.107918	-3.003800	3.808900	-11.441000	23.412482	0.000521	20.782971
400.106350	-3.000300	3.807800	-11.424000	23.466207	0.000523	20.788457
401.107176	-3.000900	3.807900	-11.427000	23.477763	0.000525	20.791506
402.107906	-2.996500	3.808500	-11.411000	23.464062	0.000523	20.786781
403.107691	-3.003000	3.808300	-11.435000	23.493618	0.000521	20.776579
404.100102	-3.013100	3.807300	-11.471000	23.518419	0.000522	20.800016
405.102988	-3.000700	3.806800	-11.423000	23.538660	0.000523	20.789961
406.104023	-2.991400	3.807400	-11.389000	23.520384	0.000525	20.786339
407.113545	-2.971300	3.806800	-11.310000	23.523565	0.000524	20.779097
408.109686	-3.002600	3.805100	-11.423000	23.564016	0.000522	20.795938
409.110340	-3.003800	3.805100	-11.428000	23.578564	0.000524	20.775908
410.109689	-2.998300	3.805300	-11.409000	23.583595	0.000521	20.761037
411.107121	-2.989900	3.806200	-11.379000	23.567383	0.000524	20.769442
412.106824	-2.998400	3.805700	-11.409000	23.562531	0.000523	20.785914
413.102593	-3.025300	3.803600	-11.506000	23.575677	0.000525	20.765901
414.115385	-3.011900	3.804500	-11.458000	23.575309	0.000522	20.767904
415.106641	-3.000900	3.804800	-11.417000	23.586693	0.000524	20.797808
416.104619	-3.022200	3.804800	-11.498000	23.602596	0.000525	20.790516
417.111053	-2.983800	3.803800	-11.349000	23.616190	0.000525	20.749141
418.108169	-3.006500	3.804100	-11.436000	23.596944	0.000524	20.767307
419.114101	-2.985200	3.806300	-11.362000	23.593837	0.000526	20.772253
420.112456	-2.997800	3.803200	-11.400000	23.572854	0.000525	20.764968
421.107534	-3.005000	3.804100	-11.431000	23.586921	0.000525	20.783812
422.108122	-2.998200	3.803600	-11.403000	23.610619	0.000526	20.765369
423.116571	-3.001100	3.802300	-11.410000	23.658316	0.000527	20.780468
424.116377	-2.971300	3.802900	-11.299000	23.625885	0.000526	20.781146
425.115847	-3.012300	3.802800	-11.453000	23.609902	0.000527	20.776977
426.119759	-2.995600	3.802700	-11.390000	23.619800	0.000525	20.752287
427.113747	-3.037300	3.800900	-11.544000	23.650715	0.000526	20.756252
428.115579	-3.006300	3.801400	-11.427000	23.657108	0.000528	20.775938
429.112795	-2.981600	3.801000	-11.332000	23.629757	0.000527	20.786925
430.117045	-3.011100	3.800500	-11.443000	23.624954	0.000526	20.752238
431.114052	-2.995600	3.799500	-11.381000	23.628216	0.000526	20.751240
432.117104	-2.975100	3.801900	-11.311000	23.618609	0.000529	20.756783
433.120557	-2.986900	3.800900	-11.352000	23.641858	0.000526	20.778668
434.123050	-3.009300	3.799200	-11.433000	23.688191	0.000527	20.757314
435.118909	-2.995200	3.799800	-11.380000	23.656300	0.000526	20.777973
436.114917	-2.993500	3.800300	-11.376000	23.668710	0.000527	20.761491
437.119010	-3.020500	3.797700	-11.470000	23.671074	0.000527	20.752956
438.117333	-2.998000	3.799500	-11.390000	23.644140	0.000529	20.767205
439.115513	-3.017900	3.797600	-11.459000	23.665627	0.000529	20.765038
440.114425	-2.997800	3.799300	-11.388000	23.701872	0.000527	20.773401
441.113934	-3.034200	3.797600	-11.522000	23.694827	0.000531	20.750691
442.120766	-3.002200	3.797700	-11.401000	23.693058	0.000529	20.753658
443.116210	-2.995400	3.797500	-11.373000	23.707825	0.000529	20.755187
444.113312	-2.983400	3.797700	-11.330000	23.693979	0.000527	20.746521
445.121860	-2.983000	3.796600	-11.324000	23.698651	0.000529	20.744566
446.116173	-3.009500	3.797200	-11.426000	23.693392	0.000527	20.749251
447.113993	-2.993700	3.796100	-11.363000	23.709944	0.000531	20.745932
448.118625	-2.999100	3.795900	-11.384000	23.717397	0.000530	20.747713
449.116651	-2.997800	3.795100	-11.375000	23.710303	0.000528	20.749610
450.121950	-2.970300	3.796500	-11.275000	23.729244	0.000529	20.754851
451.123803	-3.001100	3.794900	-11.388000	23.711493	0.000529	20.758391
452.122023	-3.012100	3.796000	-11.434000	23.740986	0.000529	20.750502
453.120060	-3.024200	3.793700	-11.472000	23.769190	0.000530	20.745114
454.128547	-2.995300	3.792900	-11.360000	23.738254	0.000529	20.744917
455.120896	-3.017900	3.793600	-11.447000	23.765659	0.000529	20.733987
456.121343	-3.012900	3.793300	-11.427000	23.776487	0.000528	20.744370
457.121388	-3.005400	3.793400	-11.400000	23.773422	0.000531	20.747460
458.123136	-2.987400	3.794100	-11.334000	23.788163	0.000531	20.746593
459.121049	-3.013500	3.792400	-11.427000	23.792247	0.000530	20.750215
460.122835	-2.986300	3.792500	-11.324000	23.763246	0.000528	20.755750
461.123088	-2.992200	3.794600	-11.354000	23.785994	0.000530	20.752954
462.123928	-3.001900	3.792400	-11.383000	23.805635	0.000530	20.748940
463.127209	-2.998900	3.793100	-11.375000	23.806981	0.000532	20.735115
464.122423	-3.013000	3.791700	-11.424000	23.803695	0.000530	20.738459
465.122465	-2.987700	3.791800	-11.327000	23.794041	0.000531	20.744901
466.129077	-3.001400	3.792600	-11.383000	23.801004	0.000531	20.749038
467.124969	-3.000100	3.792000	-11.375000	23.810698	0.000532	20.745481
468.122672	-3.012100	3.791800	-11.420000	23.795582	0.000531	20.739807
469.124483	-3.020500	3.790500	-11.448000	23.803051	0.000531	20.735916
470.127530	-3.001400	3.791300	-11.378000	23.806361	0.000532	20.740183
471.123850	-2.990400	3.790900	-11.336000	23.798126	0.000531	20.745677
472.128220	-2.998600	3.790300	-11.365000	23.816120	0.000531	20.742382
473.124757	-2.993800	3.789400	-11.344000	23.843800	0.000531	20.743584
474.125421	-2.998200	3.789400	-11.360000	23.845520	0.000531	20.733454
475.126349	-2.981500	3.788700	-11.295000	23.873370	0.000532	20.754743
476.129253	-2.990100	3.788800	-11.327000	23.872481	0.000532	20.739152
477.127422	-3.015400	3.787300	-11.419000	23.875473	0.000531	20.765861
478.131342	-3.036500	3.787600	-11.500000	23.876590	0.000532	20.745643
479.130380	-2.998200	3.787900	-11.356000	23.843766	0.000531	20.736437
480.132134	-2.999200	3.787300	-11.358000	23.844352	0.000531	20.719955
481.126904	-3.018500	3.786200	-11.428000	23.844793	0.000531	20.749796
482.129421	-2.997200	3.787700	-11.351000	23.846415	0.000529	20.724868
483.130631	-2.976700	3.788000	-11.274000	23.860340	0.000531	20.722235
484.133669	-2.994400	3.785900	-11.335000	23.859386	0.000530	20.716537
485.130818	-3.001200	3.785600	-11.360000	23.885483	0.000532	20.722316
486.128992	-3.003200	3.784900	-11.366000	23.890782	0.000533	20.740433
487.130770	-2.988200	3.785700	-11.312000	23.900509	0.000532	20.725530
488.132169	-2.983200	3.786200	-11.294000	23.898380	0.000532	20.734301
489.130595	-2.994200	3.785300	-11.333000	23.912321	0.000534	20.720304
490.131465	-2.986800	3.785300	-11.305000	23.921288	0.000532	20.721236
491.130210	-3.008800	3.783200	-11.382000	23.904934	0.000533	20.740400
492.128441	-2.995700	3.783000	-11.331000	23.918230	0.000534	20.725757
493.129470	-2.986200	3.782800	-11.295000	23.884283	0.000533	20.714949
494.131323	-2.982700	3.783900	-11.285000	23.866167	0.000533	20.726656
495.126845	-2.986100	3.782800	-11.294000	23.891114	0.000533	20.714212
496.129516	-3.000000	3.784600	-11.352000	23.899773	0.000533	20.708669
497.134275	-3.003200	3.782700	-11.359000	23.887576	0.000532	20.712087
498.131805	-3.028600	3.781600	-11.452000	23.891742	0.000533	20.731438
499.128751	-3.018600	3.782400	-11.417000	23.919615	0.000533	20.729042
500.130438	-3.011500	3.780900	-11.385000	23.935023	0.000533	20.742123
501.131050	-3.016000	3.780900	-11.402000	23.932186	0.000533	20.721733
502.138830	-2.997000	3.781600	-11.332000	23.958567	0.000533	20.695555
503.129838	-2.978100	3.781300	-11.259000	23.971480	0.000533	20.734585
504.133705	-2.997000	3.781900	-11.334000	23.962497	0.000533	20.723205
505.132176	-3.006600	3.781100	-11.367000	23.964885	0.000532	20.698572
506.140144	-2.999600	3.779900	-11.338000	23.975939	0.000534	20.703493
507.134933	-2.976800	3.780500	-11.253000	24.005955	0.000536	20.706567
508.132723	-2.971300	3.779900	-11.230000	23.989374	0.000535	20.724554
509.132790	-2.989600	3.780600	-11.302000	24.003779	0.000536	20.708652
510.134375	-3.011900	3.778900	-11.381000	23.982583	0.000534	20.716321
511.135177	-2.992600	3.778400	-11.306000	23.977154	0.000534	20.713721
512.135169	-3.012000	3.778900	-11.381000	24.009852	0.000534	20.717114
513.135321	-3.019400	3.778300	-11.407000	24.007365	0.000534	20.691859
514.136326	-2.996800	3.779200	-11.324000	23.992798	0.000535	20.709495
515.136473	-2.976900	3.778300	-11.247000	23.999891	0.000535	20.693372
516.138890	-2.995900	3.778300	-11.319000	24.021233	0.000535	20.723312
517.137155	-3.012200	3.777400	-11.377000	24.001627	0.000535	20.701279
518.137279	-3.005900	3.776900	-11.351000	23.973356	0.000534	20.704696
519.137469	-3.021000	3.775500	-11.404000	23.976039	0.000534	20.721612
520.136744	-2.998100	3.777600	-11.325000	23.997813	0.000534	20.714050
521.138290	-2.985700	3.777300	-11.276000	24.013839	0.000534	20.713052
522.137746	-2.989500	3.776200	-11.288000	24.019929	0.000536	20.711573
523.139393	-2.995100	3.776600	-11.310000	24.040879	0.000533	20.690381
524.143374	-3.006500	3.776400	-11.353000	24.006690	0.000535	20.694028
525.139707	-3.006100	3.775200	-11.348000	23.987175	0.000534	20.705752
526.140223	-2.995400	3.775900	-11.309000	24.024250	0.000533	20.709268
527.140322	-3.003500	3.775000	-11.337000	24.074300	0.000534	20.699244
528.140829	-3.013800	3.774300	-11.375000	24.085908	0.000537	20.690971
529.139286	-3.016600	3.774600	-11.386000	24.051371	0.000533	20.695214
530.146158	-2.984600	3.774900	-11.265000	24.028424	0.000535	20.686425
531.141193	-2.987600	3.773300	-11.272000	24.037245	0.000534	20.697643
532.143607	-2.987800	3.774400	-11.276000	24.018365	0.000534	20.696253
533.140801	-2.984000	3.773700	-11.260000	24.060395	0.000535	20.724181
534.142327	-2.987900	3.773600	-11.274000	24.064642	0.000535	20.697619
535.143941	-3.001700	3.774000	-11.327000	24.055708	0.000532	20.719955
536.142267	-3.011400	3.771600	-11.357000	24.089153	0.000532	20.706555
537.143867	-3.004800	3.771900	-11.333000	24.096661	0.000532	20.698911
538.147809	-3.017600	3.771600	-11.381000	24.085087	0.000536	20.683508
539.149079	-3.003100	3.772500	-11.328000	24.074115	0.000535	20.700955
540.144264	-3.010300	3.771500	-11.352000	24.086081	0.000535	20.697309
541.145265	-2.984300	3.773000	-11.259000	24.069453	0.000534	20.704814
542.144023	-3.004400	3.770500	-11.327000	24.051886	0.000533	20.693834
543.143858	-3.010800	3.769600	-11.348000	24.063128	0.000533	20.691832
544.150533	-2.997900	3.770600	-11.303000	24.119265	0.000532	20.694080
545.146507	-2.998600	3.771500	-11.308000	24.103012	0.000533	20.698642
546.147633	-3.005100	3.769800	-11.328000	24.117619	0.000532	20.699067
547.145879	-2.998000	3.769600	-11.300000	24.110821	0.000533	20.700310
548.148069	-3.019000	3.768800	-11.377000	24.136105	0.000533	20.711920
549.147285	-3.014400	3.767900	-11.357000	24.107634	0.000536	20.686207
550.146090	-3.003900	3.768600	-11.320000	24.139880	0.000533	20.696738
551.146309	-2.976600	3.770100	-11.221000	24.166525	0.000532	20.711610
552.146566	-2.977200	3.769700	-11.222000	24.159466	0.000533	20.686984
553.147818	-3.003400	3.768500	-11.317000	24.181114	0.000536	20.675505
554.149507	-3.014000	3.768500	-11.358000	24.193797	0.000532	20.701504
555.149304	-3.006600	3.768400	-11.329000	24.221450	0.000532	20.692257
556.149077	-3.010300	3.768100	-11.342000	24.162498	0.000534	20.708993
557.151194	-2.983900	3.766300	-11.237000	24.196616	0.000533	20.700065
558.151348	-3.004200	3.766700	-11.315000	24.199452	0.000533	20.682045
559.150159	-2.990900	3.766700	-11.265000	24.173256	0.000534	20.706981
560.147214	-3.006300	3.766200	-11.322000	24.136382	0.000533	20.703188
561.152466	-2.985400	3.767000	-11.245000	24.124914	0.000535	20.686942
562.148870	-2.980700	3.764500	-11.219000	24.124262	0.000535	20.688660
563.148591	-2.994500	3.766300	-11.278000	24.142553	0.000533	20.682348
564.152870	-3.012700	3.765900	-11.345000	24.130685	0.000534	20.688937
565.150063	-2.990600	3.764700	-11.258000	24.146930	0.000534	20.701438
566.149690	-3.000700	3.764800	-11.296000	24.178432	0.000534	20.692731
567.151374	-3.008600	3.764500	-11.325000	24.219184	0.000534	20.688087
568.151526	-2.993800	3.762700	-11.263000	24.212843	0.000533	20.698797
569.153803	-2.994600	3.764300	-11.272000	24.249690	0.000534	20.696876
570.153560	-2.982500	3.764100	-11.225000	24.247302	0.000533	20.700171
571.150902	-2.998800	3.763600	-11.286000	24.243496	0.000534	20.686394
572.151195	-3.005000	3.763500	-11.308000	24.268867	0.000533	20.706156
573.153247	-2.988300	3.762500	-11.243000	24.279193	0.000533	20.707030
574.163641	-3.007300	3.762200	-11.313000	24.291410	0.000534	20.692257
575.153675	-3.009000	3.760800	-11.315000	24.284613	0.000531	20.706777
576.151602	-2.979400	3.762700	-11.210000	24.259543	0.000534	20.706286
577.151131	-3.016100	3.760900	-11.342000	24.262120	0.000533	20.685635
578.154199	-3.005800	3.761200	-11.304000	24.260334	0.000533	20.707079
579.154303	-2.971300	3.761100	-11.175000	24.205027	0.000535	20.701389
580.152506	-2.961200	3.761500	-11.138000	24.231850	0.000535	20.694154
581.154180	-2.996200	3.761400	-11.269000	24.247946	0.000535	20.692281
582.154931	-3.002800	3.759900	-11.290000	24.261826	0.000534	20.687711
583.154754	-3.007200	3.759400	-11.304000	24.241500	0.000533	20.701937
584.153857	-3.023900	3.759400	-11.367000	24.206144	0.000535	20.692551
585.155597	-3.010400	3.760400	-11.319000	24.235771	0.000535	20.696664
586.153852	-3.011700	3.759100	-11.320000	24.268037	0.000533	20.706271
587.153565	-2.995500	3.759300	-11.260000	24.284760	0.000534	20.705028
588.157013	-2.978400	3.760100	-11.198000	24.325770	0.000533	20.701121
589.155647	-3.007900	3.758100	-11.303000	24.347838	0.000533	20.714725
590.154568	-2.978800	3.758800	-11.196000	24.301517	0.000534	20.709983
591.156911	-2.976600	3.758800	-11.188000	24.234068	0.000533	20.701595
592.154490	-2.985500	3.757400	-11.217000	24.232853	0.000531	20.721241
593.158581	-2.989900	3.757400	-11.233000	24.237068	0.000532	20.713614
594.160786	-2.999900	3.756700	-11.269000	24.276383	0.000532	20.708479
595.158851	-2.979500	3.756600	-11.192000	24.274811	0.000532	20.700263
596.157988	-2.995400	3.756800	-11.253000	24.299415	0.000532	20.690804
597.160416	-2.990100	3.755800	-11.229000	24.256897	0.000533	20.704106
598.160177	-3.028900	3.755100	-11.373000	24.257019	0.000531	20.690003
599.159832	-3.017100	3.755100	-11.328000	24.246417	0.000532	20.684108
600.160348	-3.014800	3.754500	-11.318000	24.255447	0.000532	20.700754
601.157734	-2.996600	3.754000	-11.248000	24.263980	0.000532	20.700304
602.157034	-2.978600	3.755100	-11.184000	24.296049	0.000535	20.703076
603.160760	-2.983900	3.754600	-11.202000	24.321696	0.000533	20.709363
604.160677	-3.000200	3.753300	-11.259000	24.355949	0.000532	20.705791
605.161894	-3.027500	3.753500	-11.362000	24.352648	0.000532	20.703902
606.164019	-2.987100	3.754800	-11.215000	24.330905	0.000533	20.696789
607.159507	-3.007900	3.753700	-11.290000	24.335722	0.000534	20.693086
608.161007	-3.016800	3.752300	-11.319000	24.360854	0.000533	20.735844
609.165359	-2.994700	3.753400	-11.239000	24.326220	0.000533	20.701098
610.158550	-3.006700	3.753400	-11.285000	24.308307	0.000528	20.720115
611.160318	-2.985100	3.751800	-11.197000	24.320124	0.000532	20.697353
612.162138	-3.001100	3.751900	-11.259000	24.323506	0.000535	20.693159
613.159554	-3.000100	3.751700	-11.255000	24.326016	0.000531	20.707532
614.160577	-3.017700	3.751600	-11.321000	24.353578	0.000533	20.725225
615.162343	-3.000400	3.752700	-11.259000	24.357930	0.000532	20.716788
616.160754	-3.011100	3.751200	-11.294000	24.349926	0.000532	20.730097
617.159171	-3.007500	3.750400	-11.278000	24.374228	0.000532	20.711800
618.163050	-3.007500	3.750700	-11.279000	24.338835	0.000533	20.715650
619.161466	-2.997700	3.749700	-11.240000	24.357538	0.000530	20.730146
620.163564	-3.029600	3.747900	-11.354000	24.342780	0.000530	20.702063
621.163671	-3.008400	3.749600	-11.279000	24.370324	0.000532	20.682752
622.163362	-3.010300	3.750300	-11.289000	24.393687	0.000529	20.718520
623.164342	-3.029100	3.749400	-11.355000	24.361995	0.000529	20.711857
624.166004	-2.999600	3.749000	-11.245000	24.304876	0.000530	20.710034
625.164590	-2.991200	3.748900	-11.213000	24.302733	0.000529	20.704565
626.163613	-2.981600	3.749300	-11.178000	24.302863	0.000530	20.721766
627.165492	-3.009000	3.748800	-11.279000	24.321819	0.000529	20.714702
628.168491	-3.016200	3.747400	-11.302000	24.329333	0.000530	20.732672
629.166412	-3.031100	3.746600	-11.356000	24.337189	0.000528	20.726802
630.167634	-3.006100	3.748300	-11.266000	24.343586	0.000528	20.729426
631.166824	-2.990900	3.747400	-11.208000	24.332894	0.000526	20.710164
632.166523	-2.987400	3.747300	-11.194000	24.345256	0.000527	20.731576
633.167074	-2.995600	3.746700	-11.223000	24.317442	0.000528	20.709363
634.163776	-3.006200	3.746700	-11.261000	24.367023	0.000526	20.725911
635.165572	-3.005100	3.745900	-11.256000	24.371896	0.000528	20.711832
636.168930	-2.999800	3.746900	-11.239000	24.384837	0.000529	20.715805
637.165764	-3.011000	3.746100	-11.279000	24.431400	0.000527	20.733596
638.165150	-2.995300	3.745900	-11.219000	24.444161	0.000526	20.710361
639.168465	-3.009500	3.745000	-11.270000	24.463594	0.000528	20.709469
640.166971	-3.008000	3.745200	-11.265000	24.433078	0.000530	20.703034
641.172194	-3.005200	3.743500	-11.249000	24.428082	0.000531	20.725051
642.167077	-2.955100	3.745600	-11.068000	24.446735	0.000528	20.729540
643.168552	-3.010400	3.743300	-11.268000	24.449081	0.000530	20.703917
644.167670	-2.994800	3.744100	-11.212000	24.473853	0.000529	20.748212
645.172176	-3.017500	3.742200	-11.292000	24.448780	0.000526	20.703140
646.169158	-3.019900	3.743600	-11.305000	24.445031	0.000526	20.725459
647.170126	-3.014000	3.742400	-11.278000	24.415525	0.000527	20.730471
648.172708	-3.001400	3.742200	-11.231000	24.440288	0.000527	20.725917
649.169678	-3.001300	3.742700	-11.232000	24.437574	0.000529	20.731255
650.169148	-2.993700	3.741400	-11.199000	24.469362	0.000529	20.724740
651.170972	-3.000100	3.741300	-11.223000	24.467895	0.000527	20.727536
652.168159	-2.988400	3.742600	-11.183000	24.440133	0.000527	20.741409
653.167987	-2.983800	3.742300	-11.165000	24.421953	0.000526	20.731231
654.177823	-3.008300	3.742100	-11.256000	24.404123	0.000530	20.724723
655.178085	-3.017700	3.742500	-11.293000	24.391835	0.000527	20.739896
656.169748	-3.012100	3.741300	-11.268000	24.448526	0.000525	20.722327
657.176959	-2.971500	3.742100	-11.118000	24.483621	0.000526	20.715811
658.173535	-2.986400	3.741100	-11.170000	24.501864	0.000526	20.730796
659.186585	-3.011500	3.740100	-11.263000	24.514250	0.000527	20.739904
660.174256	-3.000800	3.740700	-11.224000	24.518030	0.000526	20.747965
661.177381	-2.995700	3.741000	-11.206000	24.536584	0.000526	20.725327
662.173859	-2.994800	3.739300	-11.197000	24.536395	0.000526	20.725138
663.175217	-3.008000	3.738400	-11.244000	24.517068	0.000524	20.727558
664.175542	-3.007400	3.738900	-11.243000	24.532965	0.000527	20.731654
665.173996	-3.001100	3.739300	-11.221000	24.527465	0.000526	20.735145
666.181463	-3.008000	3.737600	-11.241000	24.505873	0.000526	20.737189
667.176077	-2.992100	3.737800	-11.183000	24.507705	0.000525	20.737605
668.178558	-3.028400	3.737100	-11.317000	24.497210	0.000527	20.739878
669.184890	-3.002900	3.738000	-11.224000	24.499818	0.000526	20.734433
670.178177	-2.989200	3.737700	-11.172000	24.527106	0.000523	20.738578
671.178235	-2.986400	3.737900	-11.161000	24.502531	0.000526	20.742372
672.177183	-2.982900	3.736800	-11.145000	24.501643	0.000524	20.733893
673.179680	-2.999900	3.738200	-11.214000	24.503582	0.000526	20.741529
674.183569	-3.005400	3.737000	-11.230000	24.539043	0.000526	20.751029
675.182783	-2.998700	3.736900	-11.205000	24.555843	0.000525	20.752239
676.179134	-2.999400	3.735600	-11.204000	24.561066	0.000525	20.751789
677.188539	-3.008800	3.735300	-11.238000	24.559623	0.000523	20.728530
678.178157	-2.991900	3.734800	-11.173000	24.531766	0.000524	20.738512
679.186047	-3.003900	3.734600	-11.217000	24.490650	0.000525	20.728554
680.185700	-3.014300	3.734000	-11.254000	24.499980	0.000523	20.734596
681.184647	-3.011900	3.735000	-11.248000	24.512911	0.000524	20.739510
682.179448	-2.977600	3.735900	-11.122000	24.536573	0.000523	20.746654
683.180700	-3.012500	3.734400	-11.249000	24.498766	0.000521	20.762776
684.181155	-3.011200	3.734800	-11.245000	24.503394	0.000522	20.739918
685.184385	-2.997300	3.733700	-11.190000	24.497022	0.000521	20.754863
686.186852	-2.997500	3.734000	-11.192000	24.535473	0.000524	20.749819
687.192466	-3.007000	3.733200	-11.225000	24.546090	0.000523	20.753833
688.184575	-3.016600	3.733000	-11.260000	24.520448	0.000521	20.738062
689.183060	-3.011900	3.733700	-11.245000	24.501675	0.000522	20.766643
690.186718	-2.990500	3.732200	-11.160000	24.492688	0.000522	20.750514
691.183994	-2.984700	3.732300	-11.138000	24.503207	0.000519	20.766284
692.183246	-2.984700	3.732800	-11.140000	24.517385	0.000520	20.765336
693.187218	-3.002800	3.732100	-11.206000	24.489331	0.000520	20.739559
694.182987	-2.998800	3.731600	-11.190000	24.532165	0.000520	20.746974
695.187325	-3.015300	3.731300	-11.250000	24.567079	0.000520	20.756400
696.187267	-2.987800	3.731100	-11.147000	24.571601	0.000520	20.742445
697.188493	-3.003800	3.730400	-11.205000	24.587122	0.000521	20.749958
698.187747	-3.022600	3.731200	-11.276000	24.591946	0.000521	20.752427
699.190223	-3.011200	3.730100	-11.230000	24.529241	0.000522	20.767274
700.186929	-3.011500	3.729400	-11.230000	24.538807	0.000520	20.750319
701.187532	-3.001700	3.729800	-11.195000	24.547020	0.000519	20.764724
702.189633	-3.016100	3.729400	-11.248000	24.553807	0.000519	20.757309
703.188503	-2.995300	3.729200	-11.169000	24.547990	0.000518	20.753842
704.196829	-2.993000	3.729400	-11.162000	24.560325	0.000519	20.759107
705.191354	-2.993100	3.729700	-11.162000	24.593584	0.000517	20.754071
706.193233	-2.986300	3.728700	-11.135000	24.574747	0.000518	20.780216
707.186704	-3.001200	3.729400	-11.192000	24.558753	0.000518	20.765116
708.193206	-3.000200	3.727600	-11.183000	24.590065	0.000519	20.768084
709.188395	-2.995900	3.728200	-11.168000	24.607084	0.000518	20.764773
710.188399	-3.002200	3.727500	-11.190000	24.587352	0.000517	20.767259
711.189873	-2.990000	3.726800	-11.142000	24.592582	0.000520	20.768239
712.188014	-2.969600	3.728200	-11.071000	24.622744	0.000518	20.770054
713.190546	-2.962900	3.728200	-11.045000	24.650330	0.000520	20.783511
714.191947	-2.990200	3.726500	-11.142000	24.640652	0.000518	20.753410
715.189351	-3.005600	3.727700	-11.204000	24.608739	0.000517	20.774968
716.189726	-3.010500	3.725900	-11.215000	24.578846	0.000517	20.760146
717.192336	-2.976900	3.727300	-11.094000	24.576458	0.000517	20.771976
718.190900	-3.001900	3.726700	-11.186000	24.567504	0.000519	20.761094
719.191715	-3.003800	3.725200	-11.189000	24.571814	0.000518	20.774902
720.191203	-3.012300	3.725700	-11.221000	24.583824	0.000518	20.770831
721.191974	-3.017700	3.725200	-11.240000	24.550712	0.000517	20.773644
722.192168	-2.996800	3.724500	-11.161000	24.542735	0.000516	20.785080
723.196016	-3.001800	3.724000	-11.179000	24.558802	0.000517	20.790770
724.195181	-3.001000	3.723400	-11.174000	24.575611	0.000517	20.770177
725.195700	-3.001400	3.724400	-11.178000	24.558802	0.000517	20.794563
726.194971	-3.012500	3.723000	-11.214000	24.561287	0.000516	20.786626
727.193457	-3.023300	3.722900	-11.254000	24.568669	0.000515	20.780282
728.196166	-3.011300	3.723100	-11.211000	24.558346	0.000517	20.769450
729.195287	-3.009300	3.724200	-11.206000	24.536787	0.000518	20.765362
730.194323	-3.018200	3.723000	-11.236000	24.557157	0.000516	20.783903
731.193440	-2.993900	3.722300	-11.143000	24.599288	0.000517	20.782080
732.193707	-3.019400	3.722700	-11.239000	24.651324	0.000514	20.792094
733.194071	-2.979600	3.723300	-11.092000	24.645719	0.000515	20.784100
734.194867	-2.975300	3.722400	-11.074000	24.622964	0.000515	20.784026
735.199394	-3.001500	3.722700	-11.173000	24.653077	0.000515	20.774887
736.195470	-3.017200	3.720200	-11.224000	24.658877	0.000515	20.793035
737.200240	-2.994200	3.722100	-11.144000	24.686006	0.000517	20.776636
738.198730	-2.989200	3.722000	-11.125000	24.713892	0.000513	20.807938
739.195813	-2.985900	3.721700	-11.112000	24.707570	0.000516	20.777412
740.199094	-3.007400	3.720400	-11.188000	24.693199	0.000515	20.776742
741.202212	-3.002200	3.719400	-11.166000	24.667953	0.000514	20.789814
742.196714	-2.993200	3.720500	-11.135000	24.632131	0.000514	20.791327
743.199650	-2.990800	3.721400	-11.129000	24.575831	0.000513	20.786046
744.205123	-3.005500	3.720500	-11.181000	24.610230	0.000512	20.768403
745.197379	-3.005100	3.719200	-11.176000	24.637165	0.000512	20.778835
746.197215	-2.976000	3.721000	-11.072000	24.652499	0.000513	20.811291
747.196840	-2.980500	3.719500	-11.085000	24.680377	0.000511	20.798963
748.207199	-2.994400	3.720200	-11.139000	24.645663	0.000513	20.780724
749.197751	-3.015400	3.718900	-11.213000	24.652026	0.000512	20.817455
750.198339	-3.031400	3.717500	-11.269000	24.632456	0.000512	20.814413
751.200305	-2.979900	3.719400	-11.083000	24.642453	0.000512	20.808323
752.200459	-2.994400	3.718800	-11.135000	24.638550	0.000511	20.787338
753.200453	-2.977800	3.717500	-11.069000	24.697608	0.000511	20.790649
754.197550	-3.003700	3.716700	-11.163000	24.711742	0.000511	20.818582
755.206791	-3.002800	3.717000	-11.161000	24.702333	0.000511	20.807244
756.202097	-2.997100	3.717600	-11.141000	24.716207	0.000511	20.798407
757.199599	-2.993200	3.716500	-11.123000	24.726487	0.000511	20.812991
758.198412	-2.998600	3.716400	-11.144000	24.713926	0.000512	20.801808
759.202619	-2.998300	3.717700	-11.146000	24.721738	0.000510	20.795897
760.200928	-3.013000	3.715000	-11.192000	24.682096	0.000510	20.822024
761.205174	-2.994800	3.715300	-11.126000	24.673143	0.000509	20.801660
762.201804	-2.999800	3.716400	-11.148000	24.679359	0.000510	20.810269
763.199285	-3.014000	3.714100	-11.194000	24.718430	0.000510	20.820079
764.203215	-2.978100	3.716500	-11.067000	24.747823	0.000508	20.800737
765.200802	-2.984500	3.715700	-11.088000	24.742454	0.000509	20.831858
766.201291	-3.000700	3.714700	-11.146000	24.773939	0.000509	20.823152
767.200154	-3.005500	3.713800	-11.161000	24.765777	0.000509	20.829660
768.202217	-2.991600	3.714500	-11.111000	24.730862	0.000507	20.823545
769.201658	-3.024400	3.714300	-11.232000	24.743196	0.000509	20.817430
770.202402	-3.006800	3.713500	-11.165000	24.751025	0.000506	20.806321
771.205215	-3.008500	3.714000	-11.172000	24.709046	0.000509	20.810662
772.204666	-2.993900	3.713600	-11.118000	24.725542	0.000507	20.822474
773.202770	-3.037300	3.713000	-11.276000	24.741876	0.000507	20.823218
774.204486	-2.986800	3.712900	-11.088000	24.758462	0.000506	20.847922
775.209471	-2.981100	3.713400	-11.069000	24.790696	0.000508	20.834752
776.207263	-3.023600	3.711100	-11.220000	24.805066	0.000506	20.834949
777.205462	-3.004600	3.711900	-11.153000	24.805538	0.000506	20.827363
778.204278	-3.002000	3.712500	-11.144000	24.763790	0.000505	20.814863
779.207322	-2.980700	3.712700	-11.065000	24.753591	0.000504	20.829758
780.213757	-3.000300	3.710900	-11.133000	24.759040	0.000506	20.819580
781.206769	-2.988000	3.711800	-11.090000	24.733624	0.000504	20.811618
782.207017	-2.995200	3.711400	-11.115000	24.753867	0.000502	20.816285
783.211781	-3.012800	3.709700	-11.176000	24.806035	0.000504	20.824542
784.209314	-2.995400	3.709900	-11.112000	24.804415	0.000502	20.824812
785.210966	-3.005600	3.710100	-11.150000	24.770054	0.000508	20.840589
786.215697	-2.997200	3.711200	-11.123000	24.777655	0.000504	20.821665
787.210152	-2.955200	3.710700	-10.965000	24.789124	0.000503	20.840287
788.213247	-3.006500	3.708900	-11.149000	24.764100	0.000506	20.831770
789.221203	-3.009400	3.709400	-11.162000	24.761314	0.000504	20.819017
790.214247	-3.015800	3.709100	-11.185000	24.788840	0.000505	20.842372
791.222095	-2.980200	3.709800	-11.054000	24.823200	0.000502	20.852199
792.214658	-3.009300	3.707900	-11.157000	24.792930	0.000504	20.857382
793.215520	-2.995900	3.709200	-11.112000	24.805344	0.000502	20.838547
794.218381	-3.008900	3.708200	-11.156000	24.734073	0.000500	20.832931
795.220550	-2.999600	3.708000	-11.122000	24.761600	0.000503	20.822149
796.217472	-3.013500	3.706900	-11.170000	24.747092	0.000501	20.848366
797.219832	-3.002400	3.707800	-11.131000	24.764843	0.000504	20.839627
798.219810	-3.014800	3.706600	-11.174000	24.827779	0.000502	20.856320
799.218615	-3.005400	3.707900	-11.142000	24.800800	0.000501	20.832565
800.225264	-3.010800	3.707600	-11.162000	24.794178	0.000502	20.846781
801.218020	-3.007100	3.706600	-11.145000	24.799033	0.000502	20.851653
802.220010	-2.987700	3.707800	-11.077000	24.791669	0.000501	20.854220
803.217213	-2.997500	3.706400	-11.109000	24.761472	0.000501	20.840986
804.219542	-2.997000	3.706200	-11.105000	24.790513	0.000500	20.852586
805.218060	-3.022400	3.705700	-11.199000	24.815431	0.000500	20.846299
806.217955	-3.001700	3.706000	-11.123000	24.844268	0.000501	20.864333
807.220583	-3.001200	3.704200	-11.115000	24.862571	0.000501	20.851883
808.221294	-2.977200	3.705200	-11.031000	24.852666	0.000501	20.857590
809.222070	-2.997600	3.704500	-11.104000	24.803898	0.000499	20.867440
810.219628	-2.999000	3.704400	-11.109000	24.765033	0.000499	20.862102
811.223605	-2.989600	3.704400	-11.074000	24.754859	0.000497	20.863746
812.222129	-3.011900	3.703600	-11.154000	24.761123	0.000500	20.836843
813.225613	-3.005900	3.703200	-11.131000	24.816451	0.000500	20.860599
814.223796	-3.006300	3.703700	-11.133000	24.842030	0.000500	20.834113
815.226187	-2.980600	3.704300	-11.040000	24.848074	0.000498	20.849661
816.221152	-3.006800	3.703900	-11.136000	24.796698	0.000498	20.843620
817.223713	-3.002600	3.702700	-11.116000	24.861620	0.000496	20.850455
818.237445	-3.004200	3.703700	-11.126000	24.878351	0.000496	20.839272
819.225811	-3.005300	3.702100	-11.125000	24.886032	0.000497	20.872584
820.222996	-3.011700	3.702800	-11.151000	24.918759	0.000496	20.845689
821.226760	-3.015300	3.702400	-11.163000	24.921586	0.000498	20.845681
822.224257	-3.005000	3.702400	-11.125000	24.968672	0.000496	20.863543
823.227421	-2.989400	3.702600	-11.068000	24.980132	0.000498	20.849442
824.229690	-3.007300	3.700700	-11.128000	24.925505	0.000497	20.884699
825.224844	-3.006100	3.701000	-11.125000	24.882115	0.000495	20.852058
826.230206	-3.018000	3.701000	-11.169000	24.843245	0.000495	20.854773
827.223798	-3.010600	3.700200	-11.139000	24.839588	0.000498	20.839723
828.226714	-3.004400	3.700900	-11.117000	24.800734	0.000493	20.850989
829.228346	-3.022100	3.699500	-11.179000	24.772589	0.000495	20.845504
830.227434	-2.997500	3.701300	-11.094000	24.771571	0.000495	20.853964
831.226191	-3.022100	3.699200	-11.178000	24.751393	0.000494	20.843673
832.226635	-3.008900	3.699500	-11.131000	24.795977	0.000494	20.862810
833.239691	-2.970500	3.700500	-10.992000	24.767825	0.000493	20.840723
834.226039	-3.010300	3.699400	-11.136000	24.801639	0.000495	20.847157
835.228894	-2.987700	3.699500	-11.052000	24.835379	0.000496	20.826491
836.233244	-2.984800	3.698100	-11.037000	24.877997	0.000493	20.839391
837.230801	-2.985300	3.699200	-11.042000	24.901790	0.000494	20.840511
838.230084	-2.988300	3.698500	-11.051000	24.930648	0.000493	20.824432
839.233414	-3.012100	3.696300	-11.133000	24.898654	0.000492	20.825985
840.232892	-2.996200	3.698300	-11.079000	24.893442	0.000493	20.843513
841.228730	-2.995100	3.697100	-11.072000	24.882657	0.000492	20.823680
842.237509	-3.010700	3.698100	-11.133000	24.830934	0.000491	20.827245
843.236595	-3.011200	3.696000	-11.127000	24.841922	0.000492	20.815988
844.234600	-2.991600	3.696300	-11.056000	24.843658	0.000493	20.817256
845.244730	-2.993400	3.698200	-11.069000	24.894526	0.000493	20.828480
846.237276	-3.006700	3.695200	-11.109000	24.926259	0.000492	20.830458
847.235999	-3.001000	3.695500	-11.089000	24.908146	0.000492	20.826502
848.239027	-2.996600	3.696000	-11.074000	24.921853	0.000492	20.831725
849.240757	-2.997600	3.696000	-11.078000	24.864217	0.000490	20.833148
850.234076	-2.997100	3.694800	-11.073000	24.907152	0.000493	20.812703
851.238978	-3.024200	3.694300	-11.170000	24.912153	0.000492	20.818670
852.240349	-3.001000	3.694400	-11.086000	24.857180	0.000489	20.832249
853.242267	-3.004600	3.694800	-11.101000	24.844522	0.000489	20.808166
854.238711	-3.014300	3.695100	-11.137000	24.855510	0.000489	20.836263
855.237139	-2.990900	3.695000	-11.051000	24.901686	0.000489	20.818597
856.239947	-3.002800	3.694200	-11.092000	24.912975	0.000489	20.797685
857.244632	-2.980300	3.694700	-11.010000	24.920086	0.000488	20.823788
858.237401	-3.012400	3.692300	-11.121000	24.945799	0.000489	20.810716
859.234865	-3.009200	3.693500	-11.114000	24.973866	0.000489	20.809490
860.243463	-2.998600	3.693300	-11.074000	24.994668	0.000488	20.818041
861.240723	-2.989900	3.693000	-11.040000	24.970153	0.000488	20.813823
862.238813	-2.989600	3.691800	-11.036000	24.946646	0.000487	20.827687
863.241999	-3.007300	3.691700	-11.102000	24.917993	0.000486	20.802721
864.239663	-3.014300	3.691800	-11.127000	24.920908	0.000485	20.829355
865.238545	-2.999400	3.692200	-11.073000	24.943307	0.000485	20.823862
866.238290	-3.001200	3.691000	-11.077000	25.000068	0.000487	20.814926
867.239663	-3.022300	3.690400	-11.153000	24.962529	0.000486	20.811386
868.240370	-3.024200	3.690600	-11.160000	24.982492	0.000484	20.824785
869.238490	-2.993700	3.690200	-11.046000	24.948252	0.000484	20.816022
870.242649	-2.972500	3.691600	-10.972000	24.965615	0.000484	20.810217
871.241946	-3.005900	3.690900	-11.094000	24.992818	0.000485	20.819978
872.245281	-3.003600	3.689200	-11.080000	25.016682	0.000484	20.794619
873.243091	-3.020800	3.690100	-11.146000	25.020510	0.000483	20.792772
874.239274	-2.983600	3.689400	-11.007000	25.004603	0.000482	20.790082
875.239115	-3.000100	3.688800	-11.066000	24.971186	0.000482	20.793524
876.244550	-3.011800	3.688500	-11.107000	24.959523	0.000483	20.811214
877.243834	-2.980200	3.689700	-10.995000	24.921829	0.000484	20.800881
878.250554	-2.972900	3.689100	-10.967000	24.920412	0.000481	20.799933
879.251153	-3.003900	3.687500	-11.076000	24.877600	0.000481	20.793949
880.250201	-2.984300	3.689300	-11.009000	24.889526	0.000481	20.796435
881.241449	-3.000300	3.688000	-11.064000	24.870205	0.000481	20.802174
882.245145	-3.011900	3.688400	-11.108000	24.892017	0.000483	20.798936
883.242726	-2.997500	3.688000	-11.054000	24.949417	0.000482	20.785897
884.241724	-2.990300	3.688100	-11.028000	24.947104	0.000480	20.772670
885.244517	-2.984300	3.688200	-11.006000	24.986466	0.000481	20.806016
886.249950	-2.965600	3.686900	-10.933000	24.965510	0.000481	20.809637
887.245128	-2.978400	3.687700	-10.982000	24.955159	0.000479	20.810627
888.249152	-2.996800	3.685700	-11.044000	24.980766	0.000479	20.791285
889.246081	-3.028500	3.686500	-11.162000	24.993772	0.000480	20.795806
890.244900	-2.997400	3.685800	-11.047000	25.006747	0.000479	20.791285
891.250824	-3.018600	3.685100	-11.122000	25.038787	0.000478	20.784091
892.255195	-2.992600	3.685200	-11.028000	24.961667	0.000477	20.797719
893.244541	-2.982800	3.685400	-10.992000	24.945997	0.000479	20.781991
894.251612	-2.983900	3.684800	-10.994000	24.941053	0.000479	20.781770
895.251882	-3.019000	3.684900	-11.124000	24.904799	0.000477	20.787583
896.251197	-2.998900	3.684500	-11.048000	24.905818	0.000477	20.791449
897.248142	-3.026000	3.683400	-11.145000	24.917971	0.000479	20.776620
898.248699	-2.983400	3.685200	-10.993000	24.904743	0.000479	20.788000
899.253350	-2.987700	3.684700	-11.008000	24.888330	0.000479	20.776269
900.247269	-2.992800	3.685100	-11.028000	24.915413	0.000476	20.769785
901.249207	-3.006700	3.683600	-11.074000	24.872650	0.000477	20.763850
902.250856	-3.001700	3.683600	-11.056000	24.881822	0.000476	20.776849
903.258644	-3.003800	3.682900	-11.061000	24.899270	0.000475	20.794361
904.250075	-3.010200	3.681600	-11.081000	24.911129	0.000475	20.792513
905.250629	-3.019200	3.682700	-11.118000	24.922621	0.000472	20.795513
906.250788	-2.970900	3.682100	-10.938000	24.927468	0.000472	20.774299
907.251389	-2.978200	3.682300	-10.966000	24.935979	0.000476	20.768616
908.249771	-3.005700	3.681500	-11.064000	24.927443	0.000476	20.772377
909.249092	-3.009100	3.681100	-11.076000	24.991160	0.000473	20.778485
910.252347	-3.012700	3.681800	-11.091000	24.981713	0.000474	20.778959
911.253912	-2.997600	3.680800	-11.032000	24.980043	0.000472	20.789137
912.252517	-2.996400	3.681700	-11.031000	24.970620	0.000473	20.779679
913.251153	-2.981100	3.680900	-10.973000	24.916024	0.000473	20.777512
914.257197	-2.983400	3.681100	-10.981000	24.903710	0.000474	20.794075
915.254515	-2.992800	3.679900	-11.012000	24.916839	0.000470	20.775485
916.255105	-3.004900	3.679400	-11.056000	24.922085	0.000471	20.791655
917.259208	-3.012500	3.680200	-11.086000	24.995037	0.000471	20.776212
918.254246	-2.995700	3.679600	-11.023000	25.043537	0.000472	20.785541
919.259846	-2.996600	3.679800	-11.026000	25.022574	0.000471	20.771610
920.258550	-3.008600	3.677500	-11.063000	25.006049	0.000471	20.785843
921.259173	-3.006000	3.678200	-11.055000	24.977576	0.000471	20.771488
922.264258	-3.007800	3.679100	-11.065000	25.000405	0.000471	20.776858
923.260541	-3.001600	3.679200	-11.041000	24.998841	0.000470	20.753003
924.261946	-2.992600	3.676900	-11.003000	24.994712	0.000472	20.759764
925.261158	-2.975100	3.678000	-10.941000	24.999761	0.000471	20.766729
926.259370	-3.007300	3.677200	-11.057000	24.959762	0.000469	20.758823
927.258744	-3.011700	3.677100	-11.073000	24.977314	0.000469	20.762216
928.259704	-3.014700	3.676200	-11.082000	24.970400	0.000470	20.756698
929.263721	-3.027300	3.676600	-11.129000	24.959567	0.000468	20.768110
930.261421	-3.017100	3.675000	-11.086000	24.966376	0.000468	20.753133
931.258128	-3.002100	3.676400	-11.036000	24.966131	0.000468	20.761422
932.261709	-3.006700	3.674900	-11.049000	24.990874	0.000468	20.745480
933.264453	-2.979200	3.676200	-10.951000	24.971384	0.000468	20.753892
934.259602	-2.988500	3.676200	-10.985000	25.001592	0.000469	20.773309
935.259755	-2.968100	3.676500	-10.912000	25.043633	0.000469	20.763825
936.260070	-2.997800	3.673800	-11.012000	25.013556	0.000467	20.760661
937.261461	-2.988900	3.676000	-10.986000	24.983642	0.000464	20.745333
938.261250	-2.999500	3.673500	-11.018000	24.973624	0.000465	20.758511
939.260904	-3.001600	3.675100	-11.030000	25.017261	0.000465	20.764855
940.263361	-3.014300	3.673700	-11.072000	25.036181	0.000467	20.746387
941.265851	-3.004300	3.673900	-11.036000	25.020544	0.000467	20.739699
942.265148	-2.971400	3.674200	-10.917000	24.982925	0.000467	20.750303
943.263888	-3.002600	3.673900	-11.031000	24.986410	0.000464	20.738154
944.268778	-2.985400	3.674100	-10.968000	25.012814	0.000465	20.738105
945.267262	-2.991100	3.673700	-10.986000	25.049911	0.000465	20.762541
946.265372	-3.012300	3.671300	-11.057000	24.995858	0.000463	20.753802
947.263616	-3.016300	3.671300	-11.073000	24.972214	0.000463	20.754251
948.267581	-3.000000	3.672100	-11.015000	24.990938	0.000465	20.742225
949.267237	-3.005700	3.671700	-11.035000	25.005606	0.000463	20.749362
950.267177	-3.014500	3.670200	-11.062000	25.014354	0.000463	20.762884
951.273795	-2.997300	3.671000	-11.002000	25.003913	0.000463	20.745291
952.267969	-3.004700	3.671200	-11.030000	25.032654	0.000462	20.745217
953.270280	-3.009700	3.670500	-11.046000	25.029998	0.000462	20.755829
954.266109	-2.992800	3.670400	-10.983000	25.015347	0.000461	20.750605
955.270872	-3.028200	3.669900	-11.113000	25.011104	0.000462	20.751087
956.265977	-3.022400	3.670100	-11.092000	24.993846	0.000461	20.737557
957.270271	-3.003400	3.668700	-11.018000	25.007276	0.000462	20.741080
958.267776	-2.977200	3.670300	-10.926000	24.974380	0.000461	20.760219
959.269238	-2.992800	3.668100	-10.977000	24.982981	0.000462	20.737557
960.270724	-2.991000	3.669100	-10.973000	25.017489	0.000461	20.735685
961.271794	-3.024700	3.668800	-11.095000	25.041954	0.000460	20.745544
962.272803	-2.999400	3.668500	-11.002000	25.025674	0.000459	20.745323
963.273608	-3.008000	3.667700	-11.031000	24.992096	0.000460	20.756664
964.274177	-2.996200	3.667200	-10.988000	24.957293	0.000459	20.744490
965.269504	-3.001700	3.667900	-11.009000	24.968215	0.000461	20.736012
966.273611	-2.968200	3.668100	-10.887000	25.023280	0.000457	20.741023
967.278318	-2.995300	3.666900	-10.983000	25.010526	0.000457	20.717314
968.272002	-2.984800	3.667600	-10.947000	24.995882	0.000456	20.709253
969.272858	-2.985200	3.667200	-10.947000	25.019623	0.000458	20.737827
970.272032	-2.985700	3.666500	-10.947000	24.996200	0.000456	20.736127
971.275495	-3.018000	3.665900	-11.062000	25.009329	0.000458	20.726545
972.270540	-3.002400	3.665400	-11.004000	24.981108	0.000455	20.737100
973.276917	-3.017400	3.665400	-11.058000	25.004825	0.000455	20.741940
974.275477	-3.009700	3.666000	-11.033000	25.010029	0.000457	20.737680
975.270653	-3.008900	3.664400	-11.025000	25.012513	0.000455	20.715990
976.272949	-3.007300	3.663700	-11.017000	25.042297	0.000454	20.747311
977.271597	-3.014600	3.664400	-11.046000	25.079221	0.000454	20.725580
978.273681	-2.988400	3.665100	-10.951000	25.116553	0.000453	20.734132
979.275714	-3.003900	3.664400	-11.006000	25.114915	0.000454	20.718737
980.276114	-3.004400	3.664400	-11.008000	25.112806	0.000452	20.730371
981.275087	-2.997900	3.662600	-10.979000	25.091876	0.000453	20.709833
982.274699	-2.995900	3.664000	-10.976000	25.043770	0.000451	20.712752
983.274423	-3.016000	3.663900	-11.049000	25.049292	0.000452	20.727779
984.276737	-2.977800	3.663500	-10.908000	25.085394	0.000452	20.718499
985.274102	-2.973900	3.662900	-10.892000	25.046889	0.000450	20.716831
986.277146	-2.975200	3.663700	-10.900000	25.056311	0.000451	20.711590
987.276642	-3.027300	3.660700	-11.081000	25.000971	0.000450	20.727165
988.276901	-3.034800	3.660100	-11.106000	25.014817	0.000450	20.717354
989.277426	-2.968500	3.661800	-10.869000	25.006664	0.000450	20.729086
990.281192	-2.991800	3.661700	-10.954000	25.002941	0.000451	20.708278
991.276134	-3.006100	3.660700	-11.003000	24.986579	0.000450	20.732634
992.274109	-3.001000	3.660700	-10.984000	24.984599	0.000449	20.735862
993.280722	-3.016100	3.659100	-11.034000	24.953079	0.000448	20.703748
994.274527	-3.008800	3.659500	-11.009000	24.930697	0.000450	20.719691
995.278963	-2.996700	3.660400	-10.969000	24.960645	0.000448	20.703281
996.276438	-3.008200	3.660500	-11.011000	24.976821	0.000448	20.729003
997.281126	-2.982200	3.659400	-10.911000	24.953551	0.000448	20.717499
998.278703	-3.002600	3.659300	-10.987000	25.019840	0.000445	20.715758
999.276128	-2.992000	3.660200	-10.950000	25.058157	0.000447	20.707279
1000.279886	-3.001400	3.658500	-10.980000	25.092915	0.000446	20.704237
1001.276937	-2.981800	3.658900	-10.909000	25.070960	0.000446	20.700689
1002.279774	-2.961400	3.658200	-10.832000	25.088713	0.000444	20.709503
1003.280838	-3.012100	3.655800	-11.010000	25.075512	0.000445	20.697672
1004.282248	-2.999300	3.656800	-10.967000	25.041559	0.000445	20.706739
1005.279790	-3.004700	3.658100	-10.990000	25.086611	0.000441	20.706444
1006.278290	-3.027800	3.656700	-11.071000	25.108713	0.000444	20.713458
1007.282446	-3.021200	3.655800	-11.044000	25.135097	0.000444	20.714341
1008.280730	-3.002900	3.655900	-10.977000	25.146132	0.000443	20.721151
1009.283477	-2.999000	3.655800	-10.963000	25.107832	0.000443	20.705462
1010.283577	-3.009900	3.656200	-11.004000	25.115683	0.000443	20.718085
1011.280910	-3.010500	3.655800	-11.005000	25.056721	0.000441	20.707260
1012.279199	-2.992500	3.654800	-10.936000	25.055573	0.000442	20.719859
1013.282889	-3.002600	3.655800	-10.976000	25.036540	0.000441	20.720193
1014.284842	-2.991300	3.655500	-10.934000	25.049294	0.000441	20.698855
1015.280725	-3.015000	3.653000	-11.013000	25.087432	0.000442	20.685929
1016.280568	-2.983400	3.655500	-10.905000	25.129851	0.000439	20.699116
1017.285793	-2.992500	3.654300	-10.934000	25.125706	0.000441	20.718663
1018.284325	-2.993100	3.653500	-10.934000	25.147058	0.000441	20.696000
1019.284642	-2.994700	3.654400	-10.943000	25.148108	0.000440	20.677138
1020.291729	-3.001500	3.654000	-10.966000	25.143311	0.000440	20.710732
1021.284294	-3.020300	3.652400	-11.031000	25.178140	0.000440	20.695910
1022.284792	-3.010600	3.652500	-10.996000	25.192659	0.000440	20.697684
1023.284888	-2.999500	3.651200	-10.951000	25.195492	0.000438	20.694364
1024.285038	-3.001900	3.652000	-10.961000	25.149752	0.000438	20.699654
1025.284875	-2.999200	3.651300	-10.950000	25.140404	0.000439	20.695959
1026.284779	-2.998500	3.650700	-10.946000	25.116812	0.000438	20.702148
1027.285151	-3.028200	3.651900	-11.057000	25.068690	0.000438	20.700308
1028.285911	-3.007400	3.649500	-10.974000	25.055668	0.000438	20.698615
1029.288859	-3.021600	3.650600	-11.029000	25.098465	0.000438	20.685151
1030.287352	-3.005900	3.650100	-10.972000	25.170786	0.000438	20.693743
1031.288902	-2.978500	3.650400	-10.872000	25.197382	0.000438	20.698632
1032.283514	-2.991800	3.649600	-10.918000	25.178734	0.000438	20.675168
1033.288669	-3.000600	3.649600	-10.950000	25.128442	0.000437	20.697701
1034.293478	-3.007000	3.649200	-10.973000	25.145470	0.000435	20.702467
1035.289753	-2.975900	3.650000	-10.861000	25.133409	0.000436	20.717862
1036.292033	-2.991400	3.650000	-10.918000	25.134826	0.000434	20.688462
1037.288732	-2.983400	3.648800	-10.885000	25.128752	0.000433	20.698012
1038.289967	-3.002000	3.647200	-10.948000	25.114786	0.000436	20.707700
1039.287994	-3.014200	3.647500	-10.993000	25.105234	0.000434	20.711862
1040.291216	-3.009900	3.648700	-10.982000	25.114183	0.000432	20.700931
1041.287141	-3.012900	3.646800	-10.987000	25.119379	0.000433	20.702828
1042.291826	-3.005700	3.647800	-10.964000	25.152865	0.000431	20.696140
1043.288993	-3.006000	3.646300	-10.960000	25.178761	0.000431	20.690843
1044.289208	-2.997200	3.646000	-10.926000	25.143964	0.000431	20.702853
1045.290862	-2.991900	3.647100	-10.910000	25.132107	0.000431	20.684310
1046.297203	-2.996000	3.645800	-10.921000	25.123843	0.000432	20.677435
1047.287752	-3.023800	3.645100	-11.021000	25.091137	0.000432	20.694391
1048.288581	-2.964900	3.646500	-10.810000	25.129396	0.000431	20.700555
1049.288005	-2.994600	3.644900	-10.914000	25.110747	0.000432	20.676143
1050.288744	-2.970700	3.646300	-10.831000	25.099086	0.000430	20.704268
1051.294165	-2.996400	3.643900	-10.918000	25.080770	0.000431	20.692993
1052.293521	-3.008800	3.643900	-10.961000	25.100429	0.000431	20.692339
1053.289392	-3.020100	3.642000	-10.998000	25.102921	0.000430	20.682037
1054.287280	-3.016400	3.642500	-10.986000	25.119110	0.000431	20.695919
1055.292210	-3.001500	3.644500	-10.938000	25.115674	0.000431	20.685831
1056.295962	-3.010100	3.642300	-10.962000	25.154778	0.000428	20.703752
1057.289408	-2.976800	3.644500	-10.848000	25.195421	0.000429	20.701880
1058.293784	-3.008300	3.643100	-10.958000	25.169029	0.000428	20.700514
1059.288973	-3.000000	3.642200	-10.926000	25.186993	0.000427	20.692944
1060.290168	-2.979700	3.641700	-10.851000	25.185535	0.000428	20.708076
1061.295269	-2.977100	3.642600	-10.843000	25.176008	0.000429	20.701830
1062.292875	-2.991000	3.641400	-10.891000	25.140641	0.000427	20.704258
1063.293731	-2.987600	3.640900	-10.877000	25.112774	0.000428	20.671539
1064.290377	-2.991700	3.641400	-10.893000	25.137107	0.000428	20.679371
1065.291357	-2.988700	3.639000	-10.875000	25.135047	0.000425	20.682993
1066.293127	-3.004000	3.640200	-10.934000	25.116976	0.000424	20.711322
1067.292068	-3.000200	3.640500	-10.921000	25.089116	0.000426	20.684775
1068.294062	-2.964100	3.642000	-10.795000	25.114296	0.000426	20.697725
1069.296217	-2.983700	3.640500	-10.861000	25.103181	0.000425	20.671865
1070.296319	-2.993200	3.638000	-10.888000	25.082520	0.000425	20.673411
1071.295683	-2.986900	3.637800	-10.865000	25.088090	0.000421	20.697022
1072.293836	-2.989600	3.638400	-10.876000	25.151822	0.000423	20.700310
1073.295695	-2.991900	3.638700	-10.886000	25.140291	0.000424	20.704381
1074.295295	-3.005000	3.638300	-10.932000	25.160723	0.000422	20.696442
1075.297632	-3.011900	3.638100	-10.956000	25.178174	0.000423	20.721550
1076.294853	-3.014400	3.637700	-10.965000	25.168980	0.000424	20.703784
1077.297498	-3.002800	3.636400	-10.918000	25.206861	0.000421	20.694873
1078.297341	-3.002300	3.635400	-10.914000	25.163581	0.000421	20.705002
1079.298292	-3.003500	3.635100	-10.917000	25.145951	0.000422	20.707693
1080.296957	-2.986700	3.636100	-10.859000	25.147522	0.000421	20.710693
1081.294993	-2.993600	3.635800	-10.883000	25.139420	0.000421	20.679796
1082.293945	-2.977500	3.635900	-10.824000	25.130414	0.000420	20.705371
1083.303810	-3.006300	3.634700	-10.926000	25.144086	0.000420	20.700130
1084.298387	-3.012100	3.633900	-10.945000	25.171652	0.000418	20.701250
1085.298813	-3.003500	3.633700	-10.913000	25.163794	0.000420	20.726080
1086.299029	-2.982600	3.633700	-10.836000	25.174933	0.000418	20.698381
1087.304683	-2.991200	3.633600	-10.868000	25.206675	0.000419	20.690418
1088.303495	-2.994400	3.633100	-10.877000	25.204786	0.000418	20.704644
1089.302146	-2.996400	3.633800	-10.887000	25.190470	0.000417	20.695012
1090.298443	-3.011900	3.633200	-10.942000	25.217831	0.000418	20.705412
1091.299578	-3.006600	3.634200	-10.926000	25.243701	0.000417	20.692978
1092.303629	-2.995300	3.632500	-10.880000	25.188255	0.000416	20.695160
1093.299497	-3.010100	3.632400	-10.933000	25.164486	0.000416	20.685995
1094.302831	-2.999900	3.631900	-10.895000	25.151514	0.000416	20.704742
1095.301523	-3.026300	3.630800	-10.987000	25.166872	0.000416	20.717316
1096.301665	-3.007800	3.631900	-10.923000	25.224663	0.000417	20.722704
1097.300994	-3.007000	3.631000	-10.918000	25.247364	0.000416	20.700449
1098.302647	-2.985600	3.631000	-10.840000	25.249449	0.000414	20.704439
1099.301617	-3.010500	3.631000	-10.930000	25.281538	0.000415	20.709631
1100.307560	-2.969000	3.630700	-10.779000	25.269805	0.000417	20.705437
1101.303252	-3.013800	3.628400	-10.935000	25.252983	0.000415	20.712255
1102.306868	-3.023300	3.628900	-10.970000	25.222830	0.000412	20.715174
1103.311305	-2.999200	3.630100	-10.886000	25.212709	0.000415	20.710228
1104.309032	-3.005300	3.629600	-10.908000	25.188826	0.000413	20.715648
1105.305808	-3.003200	3.627900	-10.895000	25.177987	0.000413	20.717569
1106.308916	-3.006800	3.628200	-10.908000	25.223393	0.000412	20.707203
1107.305551	-2.990800	3.627900	-10.850000	25.221137	0.000411	20.716319
1108.306276	-3.002600	3.628100	-10.893000	25.228938	0.000411	20.694277
1109.305539	-3.008300	3.628100	-10.914000	25.226503	0.000412	20.714120
1110.308205	-3.004500	3.627500	-10.897000	25.278673	0.000412	20.727144
1111.310276	-3.002900	3.627700	-10.892000	25.252079	0.000411	20.731264
1112.309659	-3.006900	3.626300	-10.903000	25.249662	0.000410	20.702756
1113.311069	-3.012900	3.626100	-10.924000	25.225649	0.000409	20.745032
1114.310977	-3.014700	3.625500	-10.929000	25.231928	0.000409	20.723360
1115.310045	-3.014700	3.625300	-10.928000	25.211701	0.000408	20.723915
1116.316126	-3.003100	3.625900	-10.888000	25.250697	0.000408	20.731772
1117.315360	-2.970500	3.625900	-10.770000	25.258945	0.000411	20.718242
1118.310844	-2.992500	3.625400	-10.848000	25.312033	0.000409	20.732190
1119.315200	-3.003500	3.626300	-10.890000	25.269824	0.000409	20.708301
1120.315428	-3.004300	3.624800	-10.889000	25.265077	0.000407	20.721554
1121.315152	-2.986500	3.624900	-10.825000	25.254477	0.000405	20.718971
1122.321081	-3.003400	3.624200	-10.884000	25.239210	0.000406	20.736361
1123.319226	-2.999800	3.623200	-10.868000	25.252979	0.000403	20.739280
1124.314891	-3.007800	3.622600	-10.896000	25.271006	0.000404	20.719445
1125.317329	-3.000200	3.621800	-10.866000	25.276869	0.000404	20.755205
1126.318748	-2.976200	3.623200	-10.783000	25.260755	0.000401	20.739975
1127.319227	-3.005400	3.622300	-10.886000	25.218283	0.000406	20.736214
1128.319561	-3.009900	3.621000	-10.898000	25.209781	0.000405	20.733369
1129.321974	-2.976600	3.622400	-10.782000	25.187258	0.000404	20.703168
1130.318474	-2.997700	3.621400	-10.854000	25.191582	0.000402	20.724106
1131.321525	-2.994700	3.621700	-10.845000	25.205034	0.000403	20.732396
1132.321040	-2.983100	3.620300	-10.799000	25.235439	0.000400	20.741584
1133.320322	-2.991600	3.621700	-10.834000	25.233305	0.000400	20.720475
1134.320594	-3.006300	3.620300	-10.883000	25.222159	0.000401	20.735838
1135.323036	-2.999400	3.619400	-10.855000	25.231685	0.000401	20.727384
1136.320150	-3.010400	3.619200	-10.895000	25.247116	0.000401	20.755679
1137.323779	-3.011400	3.618600	-10.897000	25.256463	0.000401	20.728079
1138.323106	-2.980700	3.619500	-10.788000	25.270680	0.000400	20.745198
1139.321472	-2.990400	3.619000	-10.822000	25.258272	0.000400	20.747439
1140.322153	-2.975900	3.619000	-10.769000	25.284285	0.000400	20.731831
1141.324400	-2.984200	3.618000	-10.795000	25.247840	0.000400	20.746449
1142.320596	-2.983400	3.618200	-10.794000	25.217989	0.000400	20.729755
1143.326445	-3.012600	3.617300	-10.897000	25.191989	0.000398	20.752965
1144.325531	-3.004800	3.618300	-10.871000	25.207949	0.000397	20.725364
1145.324685	-3.008000	3.616000	-10.876000	25.228925	0.000398	20.727932
1146.322511	-3.026300	3.615500	-10.941000	25.219284	0.000395	20.738641
1147.328210	-3.006700	3.616800	-10.874000	25.265933	0.000398	20.726207
1148.321032	-3.015000	3.615300	-10.900000	25.260770	0.000397	20.724342
1149.325862	-2.992400	3.615000	-10.817000	25.272797	0.000398	20.745901
1150.327537	-2.998800	3.614800	-10.840000	25.277723	0.000398	20.742312
1151.322745	-2.995600	3.614500	-10.827000	25.330240	0.000397	20.749048
1152.326931	-3.003800	3.615200	-10.858000	25.313932	0.000395	20.750218
1153.329070	-3.001200	3.614600	-10.847000	25.265045	0.000395	20.732902
1154.328914	-3.010900	3.614200	-10.881000	25.263026	0.000394	20.731349
1155.330915	-3.011200	3.612800	-10.878000	25.224210	0.000394	20.755915
1156.329307	-3.001200	3.613300	-10.843000	25.188560	0.000395	20.759480
1157.325047	-2.987600	3.613500	-10.794000	25.190579	0.000394	20.748705
1158.330054	-2.990600	3.611800	-10.801000	25.174700	0.000393	20.741297
1159.327035	-3.007100	3.612800	-10.863000	25.224063	0.000393	20.734904
1160.324158	-2.991800	3.612200	-10.806000	25.265606	0.000392	20.759544
1161.329136	-3.004500	3.612200	-10.852000	25.335100	0.000393	20.748712
1162.329347	-3.010300	3.612500	-10.874000	25.366616	0.000391	20.767556
1163.326035	-3.018100	3.610900	-10.897000	25.381255	0.000392	20.756176
1164.332882	-3.006900	3.610800	-10.856000	25.352873	0.000391	20.746644
1165.330584	-2.993700	3.610700	-10.808000	25.387825	0.000392	20.751393
1166.328173	-2.977100	3.611400	-10.750000	25.363888	0.000392	20.755334
1167.333297	-2.980400	3.611300	-10.763000	25.331589	0.000391	20.755145
1168.335497	-2.990500	3.610100	-10.795000	25.306984	0.000390	20.752251
1169.329060	-3.020000	3.609000	-10.898000	25.281832	0.000389	20.747860
1170.333740	-3.002100	3.609600	-10.836000	25.236519	0.000389	20.745040
1171.333574	-3.008500	3.608700	-10.856000	25.265213	0.000389	20.761046
1172.328915	-3.002400	3.609600	-10.837000	25.258755	0.000389	20.739863
1173.332866	-2.984900	3.608100	-10.769000	25.248316	0.000389	20.778696
1174.334411	-2.989200	3.608000	-10.785000	25.233228	0.000388	20.757857
1175.328118	-2.982400	3.608600	-10.762000	25.208547	0.000389	20.783340
1176.335377	-2.985700	3.608800	-10.774000	25.205045	0.000389	20.743787
1177.331491	-3.002300	3.606300	-10.826000	25.227226	0.000386	20.775540
1178.333835	-3.005600	3.606900	-10.839000	25.277905	0.000388	20.769997
1179.335648	-3.019400	3.605200	-10.885000	25.300378	0.000387	20.761266
1180.334269	-3.013700	3.605100	-10.864000	25.288767	0.000388	20.764307
1181.332016	-3.000000	3.606400	-10.818000	25.324470	0.000388	20.755109
1182.334723	-3.011100	3.605100	-10.854000	25.343481	0.000386	20.772776
1183.336042	-2.989300	3.605500	-10.777000	25.322336	0.000384	20.771459
1184.333494	-2.965400	3.604600	-10.688000	25.353748	0.000383	20.748945
1185.335478	-3.000100	3.604500	-10.813000	25.360717	0.000386	20.763529
1186.336601	-3.010700	3.605400	-10.854000	25.337497	0.000385	20.759654
1187.336909	-2.998500	3.604600	-10.807000	25.335094	0.000384	20.775734
1188.337713	-3.015100	3.602600	-10.861000	25.309593	0.000384	20.766251
1189.336046	-2.993900	3.603300	-10.787000	25.254364	0.000384	20.762008
1190.335576	-2.994600	3.603000	-10.788000	25.238461	0.000382	20.776388
1191.334470	-3.003400	3.602800	-10.819000	25.256904	0.000384	20.767403
1192.335638	-3.005200	3.602700	-10.826000	25.233403	0.000383	20.756611
1193.332318	-2.997900	3.602100	-10.798000	25.281347	0.000382	20.771556
1194.334574	-2.958700	3.603900	-10.661000	25.310203	0.000382	20.775398
1195.340634	-2.990300	3.601600	-10.769000	25.360284	0.000382	20.779690
1196.335337	-2.986500	3.602000	-10.757000	25.336306	0.000381	20.779796
1197.333375	-2.978200	3.601400	-10.725000	25.294431	0.000381	20.753872
1198.336544	-2.998900	3.600900	-10.797000	25.328107	0.000383	20.787685
1199.334199	-2.991400	3.600300	-10.769000	25.326959	0.000379	20.783687
1200.334533	-2.993700	3.600500	-10.777000	25.313321	0.000380	20.774261
1201.337680	-3.004600	3.600800	-10.818000	25.291394	0.000380	20.762677
1202.334875	-3.008700	3.600000	-10.830000	25.295025	0.000378	20.781022
1203.341736	-2.977800	3.600100	-10.720000	25.278000	0.000380	20.780523
1204.338331	-2.988600	3.600000	-10.758000	25.244697	0.000378	20.770794
1205.336779	-3.010600	3.597300	-10.829000	25.241016	0.000377	20.781324
1206.337254	-3.006800	3.598200	-10.818000	25.297859	0.000378	20.786238
1207.340945	-2.992100	3.598300	-10.765000	25.325616	0.000378	20.778545
1208.336462	-2.993600	3.598800	-10.773000	25.318939	0.000376	20.789385
1209.338392	-2.996300	3.597000	-10.776000	25.289236	0.000379	20.784218
1210.340937	-2.994100	3.597700	-10.771000	25.276289	0.000377	20.780703
1211.340845	-3.014500	3.596200	-10.840000	25.265151	0.000377	20.778528
1212.342048	-3.006000	3.595700	-10.808000	25.312530	0.000374	20.782477
1213.348552	-3.011600	3.594600	-10.825000	25.287501	0.000375	20.779157
1214.340862	-3.003700	3.595600	-10.800000	25.272658	0.000374	20.793652
1215.341592	-2.993100	3.594900	-10.759000	25.223762	0.000373	20.787709
1216.345375	-3.008400	3.595900	-10.817000	25.233996	0.000373	20.798458
1217.342394	-2.993000	3.595600	-10.760000	25.252806	0.000372	20.799799
1218.340500	-2.990800	3.594500	-10.749000	25.230788	0.000373	20.791444
1219.345030	-2.987100	3.594700	-10.737000	25.193005	0.000371	20.808039
1220.344794	-3.004500	3.594800	-10.800000	25.208363	0.000371	20.791215
1221.342283	-2.971700	3.595000	-10.683000	25.226293	0.000370	20.794518
1222.346462	-3.035200	3.593500	-10.906000	25.236911	0.000371	20.808971
1223.345019	-3.011100	3.592000	-10.815000	25.267160	0.000371	20.787184
1224.345222	-2.993300	3.592300	-10.753000	25.300901	0.000371	20.803517
1225.344120	-3.005400	3.591800	-10.794000	25.291498	0.000371	20.812093
1226.347301	-2.996000	3.591700	-10.760000	25.316380	0.000370	20.792980
1227.343434	-2.991600	3.591400	-10.744000	25.262201	0.000371	20.777463
1228.344943	-3.004000	3.591800	-10.788000	25.292051	0.000371	20.807907
1229.349310	-3.003300	3.592500	-10.788000	25.309556	0.000369	20.785654
1230.345443	-3.013400	3.590300	-10.818000	25.255027	0.000370	20.806770
1231.344364	-3.013300	3.589500	-10.816000	25.245036	0.000369	20.806222
1232.344577	-3.003000	3.590300	-10.781000	25.305558	0.000367	20.795391
1233.345171	-2.978100	3.591300	-10.694000	25.353156	0.000368	20.801456
1234.345244	-3.021400	3.587900	-10.839000	25.366997	0.000369	20.803500
1235.344341	-3.000400	3.589100	-10.768000	25.343589	0.000367	20.787109
1236.345839	-3.002200	3.588700	-10.774000	25.357504	0.000366	20.813882
1237.344691	-3.003600	3.590100	-10.782000	25.385698	0.000364	20.796673
1238.349557	-2.995900	3.587900	-10.748000	25.342684	0.000366	20.815598
1239.345619	-3.010700	3.588500	-10.804000	25.364277	0.000366	20.810252
1240.346973	-3.001900	3.588100	-10.770000	25.346364	0.000365	20.798904
1241.346768	-2.988700	3.587600	-10.722000	25.369650	0.000365	20.808061
1242.347681	-2.990500	3.586700	-10.726000	25.411408	0.000365	20.812532
1243.348158	-2.989100	3.586100	-10.717000	25.429180	0.000367	20.814257
1244.349102	-2.993000	3.586600	-10.733000	25.423562	0.000363	20.811935
1245.352107	-3.021500	3.585300	-10.832000	25.411065	0.000363	20.830206
1246.350021	-3.005000	3.585600	-10.773000	25.353358	0.000364	20.810668
1247.348962	-3.004400	3.584500	-10.769000	25.359529	0.000364	20.805484
1248.348837	-3.002300	3.585500	-10.764000	25.421608	0.000363	20.815662
1249.350011	-3.026400	3.584200	-10.846000	25.440731	0.000361	20.805942
1250.349756	-3.000300	3.585000	-10.755000	25.448293	0.000362	20.815432
1251.348149	-3.000300	3.584700	-10.754000	25.432785	0.000361	20.821196
1252.349047	-3.004800	3.583800	-10.767000	25.365690	0.000361	20.799343
1253.352358	-2.981000	3.584000	-10.683000	25.362483	0.000361	20.824571
1254.347003	-2.997900	3.582600	-10.740000	25.395114	0.000362	20.808025
1255.349573	-3.015100	3.583100	-10.803000	25.431904	0.000359	20.823631
1256.361825	-2.998800	3.583900	-10.746000	25.463516	0.000360	20.805589
1257.364621	-3.024800	3.581100	-10.831000	25.439582	0.000362	20.824702
1258.351831	-3.007300	3.582200	-10.772000	25.373775	0.000358	20.822159
1259.356427	-2.995200	3.582100	-10.728000	25.390848	0.000359	20.806586
1260.351899	-2.984000	3.582300	-10.689000	25.413741	0.000358	20.847117
1261.350810	-2.990300	3.581200	-10.708000	25.447445	0.000358	20.826908
1262.351167	-2.989400	3.581400	-10.706000	25.451646	0.000358	20.817850
1263.354800	-3.015700	3.581200	-10.798000	25.411356	0.000358	20.835713
1264.357780	-2.981700	3.581800	-10.679000	25.403377	0.000358	20.828176
1265.356102	-3.021700	3.579900	-10.817000	25.413301	0.000355	20.824390
1266.350784	-2.998000	3.580400	-10.733000	25.423576	0.000358	20.812897
1267.351323	-3.005700	3.580000	-10.760000	25.400967	0.000355	20.828601
1268.351274	-3.006200	3.579000	-10.758000	25.393860	0.000356	20.803921
1269.356198	-2.996400	3.578000	-10.720000	25.387070	0.000355	20.834560
1270.351779	-3.001900	3.578300	-10.741000	25.351580	0.000357	20.835909
1271.349889	-2.964300	3.579100	-10.608000	25.360951	0.000356	20.817344
1272.352314	-2.990100	3.578300	-10.699000	25.405315	0.000354	20.828225
1273.351851	-2.998700	3.577400	-10.726000	25.436822	0.000355	20.858913
1274.354672	-2.991500	3.578200	-10.703000	25.446160	0.000354	20.830359
1275.352082	-3.001600	3.578100	-10.739000	25.482273	0.000352	20.830114
1276.350522	-2.969800	3.577300	-10.623000	25.508413	0.000352	20.853044
1277.353638	-3.002700	3.576900	-10.740000	25.518646	0.000352	20.860949
1278.350958	-3.002400	3.577000	-10.738000	25.478293	0.000352	20.850772
1279.351509	-3.013900	3.576000	-10.776000	25.498474	0.000352	20.841640
1280.350491	-2.991800	3.576600	-10.699000	25.439175	0.000352	20.836147
1281.358303	-2.975100	3.576900	-10.641000	25.376316	0.000351	20.835616
1282.358184	-2.982400	3.575300	-10.662000	25.366106	0.000350	20.825365
1283.352499	-2.985100	3.575300	-10.672000	25.341673	0.000351	20.847298
1284.355251	-3.010300	3.573600	-10.757000	25.386436	0.000350	20.841984
1285.355521	-3.019900	3.573300	-10.790000	25.369982	0.000348	20.835894
1286.355778	-2.996900	3.573000	-10.707000	25.356759	0.000347	20.839687
1287.354364	-2.986900	3.574200	-10.675000	25.374753	0.000348	20.822193
1288.355368	-2.994500	3.573600	-10.700000	25.388863	0.000347	20.839679
1289.359931	-3.006400	3.572600	-10.740000	25.393991	0.000347	20.844355
1290.365011	-3.010200	3.571900	-10.751000	25.367075	0.000347	20.814010
1291.358843	-3.011200	3.572400	-10.757000	25.366977	0.000348	20.829084
1292.358654	-2.995600	3.572700	-10.701000	25.326806	0.000347	20.821466
1293.360807	-2.983600	3.572000	-10.656000	25.387495	0.000345	20.834039
1294.357960	-3.003600	3.571500	-10.727000	25.385890	0.000347	20.817255
1295.357130	-2.970100	3.572500	-10.610000	25.399983	0.000347	20.816707
1296.364573	-2.991600	3.570600	-10.681000	25.417626	0.000345	20.806922
1297.360182	-2.970600	3.570400	-10.605000	25.392599	0.000343	20.820198
1298.364157	-3.012600	3.569900	-10.753000	25.377464	0.000344	20.820648
1299.360704	-3.013900	3.569400	-10.757000	25.390588	0.000345	20.829558
1300.360316	-3.014700	3.569800	-10.761000	25.351939	0.000345	20.825839
1301.357095	-2.994300	3.570200	-10.690000	25.337976	0.000343	20.802810
1302.358863	-3.020100	3.567400	-10.773000	25.348340	0.000343	20.796147
1303.362187	-2.995200	3.568200	-10.686000	25.417308	0.000344	20.809448
1304.361132	-2.996600	3.567800	-10.690000	25.395888	0.000341	20.814017
1305.360894	-2.975400	3.568200	-10.616000	25.414206	0.000342	20.810126
1306.357496	-2.985100	3.567900	-10.650000	25.423251	0.000342	20.813519
1307.358665	-3.006500	3.567000	-10.723000	25.455433	0.000340	20.808377
1308.360982	-2.978200	3.568000	-10.625000	25.464558	0.000343	20.818963
1309.359605	-2.994400	3.566700	-10.680000	25.460057	0.000341	20.796899
1310.360251	-2.992300	3.565900	-10.670000	25.515373	0.000342	20.793653
1311.360418	-3.012600	3.565700	-10.741000	25.539306	0.000340	20.788765
1312.367632	-3.016100	3.564900	-10.751000	25.514241	0.000341	20.824759
1313.368386	-3.012200	3.564300	-10.736000	25.529147	0.000340	20.812701
1314.363508	-3.010000	3.564700	-10.729000	25.508763	0.000339	20.800766
1315.363026	-2.989700	3.566200	-10.661000	25.446917	0.000338	20.804092
1316.365201	-2.991200	3.565100	-10.663000	25.422216	0.000341	20.786876
1317.366851	-3.014500	3.564200	-10.744000	25.419456	0.000339	20.812554
1318.363781	-3.020300	3.562800	-10.760000	25.429145	0.000339	20.797152
1319.365662	-3.021100	3.562200	-10.761000	25.407040	0.000340	20.788232
1320.362013	-3.021600	3.563000	-10.765000	25.384700	0.000339	20.783817
1321.368360	-3.007800	3.561800	-10.713000	25.436382	0.000338	20.778341
1322.364642	-3.005100	3.562800	-10.706000	25.452370	0.000336	20.773533
1323.363205	-3.019800	3.560500	-10.751000	25.425676	0.000337	20.790824
1324.366231	-3.024300	3.559600	-10.764000	25.392475	0.000338	20.794944
1325.370662	-3.008000	3.562000	-10.713000	25.400926	0.000336	20.798688
1326.369377	-2.978700	3.561600	-10.608000	25.407292	0.000335	20.786115
1327.365685	-2.988700	3.561100	-10.643000	25.406722	0.000335	20.777956
1328.368080	-3.014900	3.561200	-10.736000	25.386589	0.000336	20.782869
1329.363518	-2.992300	3.561400	-10.656000	25.416687	0.000336	20.793652
1330.365771	-3.035500	3.558300	-10.800000	25.425642	0.000335	20.771824
1331.372370	-2.995100	3.558600	-10.658000	25.386271	0.000335	20.789188
1332.366221	-3.006100	3.557700	-10.694000	25.372535	0.000334	20.763068
1333.363766	-2.995800	3.559300	-10.663000	25.364858	0.000335	20.778592
1334.369391	-2.974200	3.558700	-10.583000	25.392180	0.000334	20.772837
1335.365528	-3.001300	3.557800	-10.678000	25.355120	0.000334	20.780669
1336.365706	-2.983200	3.558800	-10.616000	25.420040	0.000332	20.782320
1337.367252	-2.992200	3.557300	-10.643000	25.469367	0.000332	20.782541
1338.366109	-3.029300	3.555300	-10.769000	25.486544	0.000331	20.757115
1339.367479	-3.012200	3.557100	-10.714000	25.497380	0.000332	20.775583
1340.370814	-2.983500	3.557400	-10.612000	25.503965	0.000329	20.775559
1341.367805	-2.993400	3.556900	-10.647000	25.507750	0.000329	20.771773
1342.369485	-2.997200	3.554700	-10.653000	25.526319	0.000329	20.779041
1343.370349	-3.012500	3.556100	-10.712000	25.554346	0.000330	20.766410
1344.372395	-3.002200	3.555400	-10.673000	25.567850	0.000329	20.779498
1345.373939	-3.010900	3.556000	-10.706000	25.529167	0.000329	20.776211
1346.370938	-3.005900	3.554400	-10.683000	25.507090	0.000331	20.773007
1347.366894	-2.994900	3.554500	-10.644000	25.484613	0.000328	20.755650
1348.377769	-3.022200	3.552900	-10.737000	25.431404	0.000327	20.762436
1349.373430	-3.005300	3.553500	-10.678000	25.397934	0.000328	20.759173
1350.369685	-2.999300	3.553500	-10.657000	25.399896	0.000327	20.755928
1351.368834	-2.985700	3.553100	-10.608000	25.451960	0.000327	20.765534
1352.371136	-2.974400	3.552500	-10.565000	25.470732	0.000325	20.759255
1353.371372	-3.001500	3.552600	-10.662000	25.485313	0.000327	20.756827
1354.368215	-2.995200	3.553500	-10.642000	25.473785	0.000327	20.765640
1355.372137	-2.995100	3.553000	-10.641000	25.463422	0.000326	20.757604
1356.369880	-2.991800	3.552300	-10.627000	25.444868	0.000325	20.766473
1357.369963	-2.993700	3.552000	-10.632000	25.426078	0.000324	20.776055
1358.373968	-2.993000	3.551400	-10.628000	25.441359	0.000326	20.768640
1359.369005	-3.014400	3.550600	-10.702000	25.452391	0.000324	20.771657
1360.370678	-2.977100	3.549800	-10.567000	25.466539	0.000325	20.741767
1361.374251	-2.971300	3.551800	-10.552000	25.461565	0.000324	20.756688
1362.369707	-3.007800	3.549700	-10.675000	25.478344	0.000325	20.753622
1363.369300	-2.998200	3.549400	-10.640000	25.507040	0.000322	20.763473
1364.376243	-3.018500	3.548500	-10.709000	25.493876	0.000325	20.761633
1365.371891	-3.003800	3.548500	-10.658000	25.482145	0.000326	20.773087
1366.372755	-3.018800	3.548800	-10.712000	25.478515	0.000322	20.761380
1367.378633	-3.008100	3.548100	-10.672000	25.505582	0.000322	20.754423
1368.376861	-2.972900	3.548400	-10.548000	25.468485	0.000322	20.764584
1369.371792	-3.001600	3.547200	-10.646000	25.480419	0.000323	20.771827
1370.377776	-3.013500	3.547100	-10.688000	25.443451	0.000321	20.753197
1371.373681	-2.998600	3.547000	-10.634000	25.404235	0.000321	20.746059
1372.371514	-3.001900	3.546700	-10.647000	25.421958	0.000320	20.767176
1373.379761	-2.996000	3.545000	-10.619000	25.428757	0.000321	20.748872
1374.377367	-2.984500	3.547000	-10.584000	25.450143	0.000319	20.739053
1375.378591	-2.966700	3.545800	-10.518000	25.514896	0.000317	20.762827
1376.378854	-2.982900	3.544900	-10.573000	25.491239	0.000320	20.756140
1377.376049	-2.990700	3.545500	-10.602000	25.486705	0.000319	20.776243
1378.384348	-3.001500	3.544500	-10.638000	25.457585	0.000320	20.752216
1379.380813	-2.986000	3.546100	-10.586000	25.450869	0.000317	20.764913
1380.378771	-2.999600	3.544100	-10.630000	25.493340	0.000318	20.735489
1381.375834	-3.010700	3.544200	-10.670000	25.506325	0.000318	20.747581
1382.379767	-2.982100	3.542900	-10.564000	25.506927	0.000319	20.764308
1383.382194	-3.011200	3.542200	-10.665000	25.515499	0.000317	20.743992
1384.384069	-3.012000	3.541200	-10.665000	25.523721	0.000316	20.745611
1385.380474	-2.980500	3.543000	-10.559000	25.566825	0.000317	20.728680
1386.377090	-2.992300	3.541800	-10.597000	25.491061	0.000315	20.747426
1387.378878	-3.007400	3.541600	-10.650000	25.518537	0.000316	20.771225
1388.379158	-2.996600	3.540800	-10.610000	25.506610	0.000316	20.763990
1389.386437	-3.003200	3.541000	-10.633000	25.475342	0.000314	20.755349
1390.378668	-2.983600	3.540800	-10.563000	25.502524	0.000314	20.723375
1391.384074	-3.002600	3.540800	-10.631000	25.532612	0.000314	20.749325
1392.382957	-2.999600	3.540000	-10.617000	25.480293	0.000314	20.746096
1393.382855	-3.019100	3.539600	-10.686000	25.476117	0.000317	20.766085
1394.384253	-3.022400	3.538300	-10.693000	25.497731	0.000316	20.733735
1395.381989	-2.991500	3.540300	-10.590000	25.539769	0.000312	20.758883
1396.383337	-2.995400	3.539000	-10.600000	25.534502	0.000313	20.730359
1397.384767	-2.966400	3.539600	-10.498000	25.521641	0.000311	20.751583
1398.382861	-2.995300	3.537400	-10.595000	25.505238	0.000311	20.747913
1399.380978	-2.988600	3.537600	-10.572000	25.527471	0.000313	20.747006
1400.387841	-3.008100	3.536900	-10.638000	25.528187	0.000311	20.755312
1401.385253	-2.990800	3.537300	-10.578000	25.524329	0.000310	20.725358
1402.388503	-3.014500	3.537100	-10.661000	25.491050	0.000311	20.730819
1403.387289	-2.999300	3.536600	-10.606000	25.491344	0.000311	20.750555
1404.385369	-3.017300	3.536200	-10.669000	25.541979	0.000310	20.744032
1405.387190	-2.993800	3.535500	-10.584000	25.514098	0.000310	20.762500
1406.389047	-2.988900	3.535000	-10.564000	25.463079	0.000311	20.730706
1407.391659	-3.007100	3.534700	-10.628000	25.431932	0.000307	20.734990
1408.396093	-3.040700	3.534700	-10.745000	25.419337	0.000309	20.743206
1409.392801	-2.989800	3.533500	-10.563000	25.429612	0.000309	20.725548
1410.388192	-2.994800	3.534000	-10.582000	25.470335	0.000308	20.741311
1411.389935	-3.014400	3.532300	-10.647000	25.454655	0.000309	20.734575
1412.396055	-2.994000	3.533000	-10.577000	25.467054	0.000309	20.730904
1413.386273	-3.005500	3.532500	-10.616000	25.496842	0.000308	20.729997
1414.388616	-3.010500	3.533700	-10.637000	25.493187	0.000306	20.740552
1415.390385	-3.003800	3.532700	-10.611000	25.486576	0.000307	20.739603
1416.390945	-2.998500	3.532700	-10.592000	25.449894	0.000306	20.750657
1417.389765	-2.999400	3.532800	-10.595000	25.417630	0.000307	20.724422
1418.390696	-2.988700	3.531100	-10.553000	25.429134	0.000306	20.740716
1419.392617	-2.996600	3.531400	-10.581000	25.444440	0.000307	20.743757
1420.390482	-2.990100	3.532100	-10.561000	25.455626	0.000306	20.754990
1421.395619	-3.007900	3.530900	-10.620000	25.474830	0.000305	20.742981
1422.392659	-3.008600	3.530400	-10.621000	25.462554	0.000304	20.727807
1423.392411	-3.016200	3.529000	-10.643000	25.431952	0.000305	20.730743
1424.392035	-2.970300	3.530000	-10.485000	25.430137	0.000303	20.727023
1425.394906	-2.990800	3.528600	-10.553000	25.439703	0.000302	20.738526
1426.392889	-2.984700	3.529200	-10.532000	25.476647	0.000301	20.746702
1427.395861	-2.987300	3.527900	-10.539000	25.521608	0.000301	20.724048
1428.400425	-2.976100	3.529400	-10.503000	25.521943	0.000301	20.725332
1429.392752	-2.994500	3.528200	-10.564000	25.538598	0.000303	20.732101
1430.395298	-2.986500	3.528400	-10.536000	25.470722	0.000302	20.715146
1431.391545	-3.008200	3.527700	-10.611000	25.427460	0.000300	20.748992
1432.392383	-3.000800	3.526500	-10.581000	25.418082	0.000301	20.733884
1433.395900	-2.990800	3.525600	-10.544000	25.377447	0.000300	20.759465
1434.400588	-2.997200	3.527600	-10.571000	25.365138	0.000300	20.717706
1435.393489	-2.984900	3.526300	-10.524000	25.374012	0.000299	20.723772
1436.399467	-3.012400	3.526400	-10.622000	25.405202	0.000300	20.711942
1437.393505	-3.013200	3.524000	-10.617000	25.399756	0.000299	20.733027
1438.398226	-3.005700	3.525300	-10.595000	25.402410	0.000300	20.732847
1439.400131	-2.994500	3.524500	-10.554000	25.367589	0.000298	20.723012
1440.394752	-3.023900	3.523100	-10.653000	25.392690	0.000300	20.726879
1441.397240	-2.984000	3.523500	-10.513000	25.453138	0.000297	20.726413
1442.400068	-2.991500	3.524000	-10.541000	25.474476	0.000298	20.710855
1443.408503	-2.983100	3.524800	-10.514000	25.478506	0.000297	20.717273
1444.399488	-2.998400	3.523300	-10.563000	25.516027	0.000298	20.703742
1445.406115	-3.011200	3.521200	-10.602000	25.556915	0.000298	20.736746
1446.401084	-2.985400	3.521800	-10.513000	25.595174	0.000298	20.739134
1447.400707	-2.983300	3.521000	-10.503000	25.583672	0.000296	20.722366
1448.403997	-3.001400	3.522700	-10.572000	25.595157	0.000295	20.706399
1449.398810	-2.977200	3.521100	-10.481000	25.613073	0.000296	20.725816
1450.404041	-3.032600	3.520700	-10.675000	25.613961	0.000294	20.731449
1451.401950	-2.998800	3.521300	-10.559000	25.579846	0.000294	20.726585
1452.402700	-3.018000	3.520100	-10.622000	25.519665	0.000294	20.718777
1453.403186	-2.995900	3.520000	-10.544000	25.542751	0.000295	20.724892
1454.404503	-3.001100	3.519600	-10.561000	25.545234	0.000292	20.714109
1455.401001	-2.991300	3.519900	-10.528000	25.519494	0.000293	20.699637
1456.401205	-2.977200	3.518700	-10.475000	25.486890	0.000291	20.709571
1457.406219	-2.986600	3.518100	-10.507000	25.471862	0.000293	20.714868
1458.399643	-3.013000	3.517000	-10.596000	25.499321	0.000293	20.713519
1459.400272	-2.992100	3.517000	-10.522000	25.450890	0.000293	20.716568
1460.401778	-3.001200	3.516700	-10.553000	25.497513	0.000290	20.702694
1461.401430	-3.015300	3.517100	-10.604000	25.494086	0.000290	20.713003
1462.401079	-2.994800	3.516200	-10.529000	25.508828	0.000290	20.709790
1463.403117	-3.009600	3.515500	-10.579000	25.513704	0.000293	20.693822
1464.401825	-2.970100	3.516800	-10.444000	25.561187	0.000289	20.697412
1465.407086	-2.974600	3.516600	-10.460000	25.568815	0.000289	20.707918
1466.409702	-2.994700	3.516200	-10.530000	25.540071	0.000289	20.698491
1467.410999	-3.016100	3.514400	-10.599000	25.499832	0.000289	20.700282
1468.402765	-3.007000	3.515400	-10.569000	25.470199	0.000289	20.708456
1469.409478	-3.003300	3.514800	-10.555000	25.437709	0.000288	20.704279
1470.405475	-2.980300	3.514300	-10.472000	25.416394	0.000288	20.708481
1471.404829	-3.006600	3.513100	-10.562000	25.462424	0.000288	20.701122
1472.410625	-2.997100	3.512600	-10.526000	25.467089	0.000289	20.719559
1473.406695	-2.980000	3.514200	-10.472000	25.507549	0.000287	20.690960
1474.406701	-2.979900	3.513400	-10.469000	25.503723	0.000289	20.682850
1475.408141	-2.993500	3.512400	-10.513000	25.458402	0.000288	20.685228
1476.409457	-2.998800	3.511700	-10.530000	25.441998	0.000287	20.712854
1477.407383	-3.006500	3.511000	-10.555000	25.427881	0.000288	20.701997
1478.409429	-3.002900	3.511400	-10.543000	25.396114	0.000287	20.699970
1479.402382	-2.999000	3.511600	-10.530000	25.367170	0.000287	20.696511
1480.408813	-3.023200	3.510700	-10.612000	25.380857	0.000287	20.697926
1481.409135	-3.029000	3.509800	-10.630000	25.436006	0.000286	20.686921
1482.405571	-3.000900	3.509400	-10.530000	25.484657	0.000286	20.688835
1483.406356	-3.021900	3.508500	-10.602000	25.466169	0.000286	20.688287
1484.408298	-2.990700	3.510800	-10.499000	25.443676	0.000286	20.677078
1485.405957	-3.001100	3.510100	-10.533000	25.468701	0.000286	20.694149
1486.409968	-3.004400	3.507400	-10.537000	25.470981	0.000286	20.700232
1487.407658	-3.009600	3.508000	-10.556000	25.523611	0.000286	20.708515
1488.408294	-3.009400	3.507600	-10.555000	25.485276	0.000286	20.702734
1489.411481	-3.021900	3.507700	-10.599000	25.451411	0.000284	20.688166
1490.414488	-3.011400	3.507500	-10.561000	25.479067	0.000287	20.701714
1491.407443	-2.998200	3.508400	-10.518000	25.420792	0.000284	20.693930
1492.409248	-2.984800	3.507100	-10.467000	25.409347	0.000283	20.700929
1493.413411	-2.999100	3.505900	-10.513000	25.476967	0.000282	20.694863
1494.406772	-2.988200	3.507800	-10.480000	25.530989	0.000282	20.690792
1495.409747	-3.002200	3.506300	-10.525000	25.575932	0.000281	20.693728
1496.410592	-3.000700	3.505700	-10.518000	25.576575	0.000283	20.699116
1497.407926	-3.003800	3.504500	-10.526000	25.556714	0.000282	20.706196
1498.412583	-2.984600	3.505900	-10.463000	25.528850	0.000280	20.686273
1499.415512	-3.018500	3.504000	-10.575000	25.531984	0.000281	20.690843
1500.412336	-2.983200	3.504700	-10.454000	25.535151	0.000280	20.686911
1501.413397	-3.004300	3.502800	-10.522000	25.493854	0.000282	20.705184
1502.414412	-3.010600	3.502900	-10.545000	25.455527	0.000280	20.716483
1503.418358	-3.013400	3.502700	-10.554000	25.467902	0.000281	20.714685
1504.414333	-2.982600	3.503700	-10.449000	25.472070	0.000280	20.710336
1505.412671	-3.007900	3.501400	-10.531000	25.509070	0.000278	20.703395
1506.412487	-3.000300	3.500800	-10.503000	25.483387	0.000280	20.709372
1507.414411	-2.984600	3.501500	-10.450000	25.468351	0.000278	20.708972
1508.416631	-2.987700	3.501900	-10.462000	25.471184	0.000278	20.694746
1509.413797	-3.006400	3.501000	-10.525000	25.482989	0.000276	20.713239
1510.413870	-2.987900	3.501900	-10.462000	25.521901	0.000278	20.687355
1511.418118	-2.992400	3.500100	-10.472000	25.563247	0.000277	20.711809
1512.420269	-3.003600	3.499600	-10.511000	25.547813	0.000277	20.719544
1513.418638	-2.997300	3.500100	-10.490000	25.528651	0.000277	20.718792
1514.418067	-3.009800	3.498700	-10.529000	25.561098	0.000276	20.710126
1515.415288	-2.979800	3.499300	-10.426000	25.533487	0.000276	20.696146
1516.416076	-3.006900	3.498200	-10.518000	25.516066	0.000277	20.704730
1517.416517	-3.017900	3.498700	-10.558000	25.488079	0.000275	20.714558
1518.416886	-2.994700	3.499100	-10.478000	25.474158	0.000275	20.713855
1519.420633	-3.006200	3.497100	-10.512000	25.496382	0.000277	20.709620
1520.417138	-2.992800	3.497700	-10.467000	25.496049	0.000273	20.712130
1521.423118	-2.999600	3.496300	-10.487000	25.506241	0.000274	20.705770
1522.417089	-3.002300	3.495900	-10.494000	25.565479	0.000275	20.714052
1523.419745	-2.978900	3.497000	-10.416000	25.595850	0.000273	20.703775
1524.413947	-2.986000	3.496700	-10.440000	25.652104	0.000275	20.707642
1525.418341	-3.001700	3.494700	-10.489000	25.639853	0.000275	20.707192
1526.418899	-3.003900	3.495100	-10.498000	25.593611	0.000271	20.709588
1527.418103	-3.029600	3.495000	-10.588000	25.590453	0.000272	20.701674
1528.423685	-3.012800	3.494500	-10.527000	25.549192	0.000271	20.709074
1529.420445	-2.982800	3.494100	-10.422000	25.550664	0.000272	20.705811
1530.420811	-2.983600	3.493700	-10.422000	25.566473	0.000272	20.725481
1531.420163	-3.002700	3.493200	-10.488000	25.550591	0.000271	20.723282
1532.422667	-3.008500	3.492600	-10.507000	25.517492	0.000270	20.711853
1533.417476	-2.995400	3.494100	-10.466000	25.538340	0.000270	20.728997
1534.422272	-3.001900	3.492100	-10.482000	25.575338	0.000268	20.706882
1535.424926	-2.998800	3.491100	-10.468000	25.558096	0.000269	20.723233
1536.420112	-2.997500	3.491300	-10.464000	25.538592	0.000268	20.733044
1537.423767	-2.994800	3.490400	-10.452000	25.530908	0.000268	20.722481
1538.423616	-2.977800	3.492200	-10.399000	25.545813	0.000269	20.714216
1539.420656	-2.980500	3.490800	-10.403000	25.544803	0.000270	20.728850
1540.420309	-2.978200	3.491700	-10.399000	25.554295	0.000267	20.711828
1541.423195	-3.020600	3.490200	-10.542000	25.570347	0.000267	20.713251
1542.419909	-3.005900	3.489900	-10.489000	25.570648	0.000267	20.702647
1543.426189	-3.027600	3.489500	-10.564000	25.606823	0.000268	20.719538
1544.422726	-3.010600	3.488500	-10.502000	25.645413	0.000268	20.717993
1545.427336	-2.985500	3.490000	-10.419000	25.658656	0.000264	20.715172
1546.425663	-3.008000	3.488200	-10.491000	25.702015	0.000266	20.718418
1547.428679	-2.958400	3.490200	-10.325000	25.687258	0.000266	20.717821
1548.425210	-2.984100	3.488300	-10.409000	25.620937	0.000266	20.715695
1549.424621	-3.001500	3.487300	-10.466000	25.617095	0.000266	20.742658
1550.424777	-3.012200	3.487800	-10.505000	25.560335	0.000263	20.707462
1551.424731	-3.021600	3.485700	-10.531000	25.563038	0.000263	20.739102
1552.431294	-3.000600	3.485900	-10.458000	25.570771	0.000264	20.713202
1553.429119	-2.993900	3.485900	-10.436000	25.561751	0.000263	20.714575
1554.428383	-2.992600	3.486700	-10.433000	25.555589	0.000263	20.716447
1555.432911	-2.986800	3.486200	-10.411000	25.601312	0.000264	20.725383
1556.428039	-2.993800	3.485700	-10.434000	25.590380	0.000263	20.749018
1557.427429	-2.990900	3.484700	-10.421000	25.601532	0.000262	20.734614
1558.427816	-3.010000	3.485700	-10.491000	25.563958	0.000263	20.736707
1559.429052	-3.004200	3.484500	-10.467000	25.572138	0.000260	20.733542
1560.427708	-3.001900	3.483000	-10.454000	25.574205	0.000263	20.714280
1561.434255	-2.989400	3.484300	-10.415000	25.534587	0.000261	20.729022
1562.428527	-3.006300	3.483300	-10.470000	25.506128	0.000259	20.721304
1563.428662	-2.982000	3.482700	-10.385000	25.513203	0.000260	20.732677
1564.433046	-2.988600	3.483900	-10.411000	25.478466	0.000259	20.715336
1565.430526	-2.998100	3.482900	-10.441000	25.544250	0.000257	20.726398
1566.431480	-2.992500	3.482700	-10.421000	25.539252	0.000260	20.728017
1567.430686	-3.005000	3.481800	-10.462000	25.510647	0.000259	20.749551
1568.427982	-2.995100	3.481900	-10.428000	25.512154	0.000262	20.728778
1569.428541	-3.002900	3.481100	-10.453000	25.506219	0.000259	20.736095
1570.430810	-3.005100	3.480200	-10.457000	25.544658	0.000258	20.726333
1571.429851	-3.006500	3.480900	-10.465000	25.577725	0.000257	20.739153
1572.429734	-2.995400	3.479900	-10.423000	25.547655	0.000261	20.745465
1573.431419	-3.002000	3.479300	-10.444000	25.552010	0.000258	20.722336
1574.430862	-2.971300	3.479900	-10.339000	25.556268	0.000257	20.749374
1575.431597	-2.988900	3.479600	-10.399000	25.536341	0.000257	20.728886
1576.429696	-2.992100	3.479700	-10.410000	25.549871	0.000256	20.733939
1577.430835	-2.988800	3.478300	-10.394000	25.539614	0.000257	20.725060
1578.429756	-2.965000	3.479500	-10.316000	25.558020	0.000256	20.724579
1579.431000	-2.987800	3.478100	-10.391000	25.544677	0.000255	20.719240
1580.432443	-2.999400	3.477200	-10.428000	25.575317	0.000256	20.722510
1581.439156	-3.003100	3.478100	-10.444000	25.559013	0.000256	20.759243
1582.431683	-2.997200	3.476800	-10.419000	25.579681	0.000256	20.725470
1583.434520	-3.006700	3.477000	-10.454000	25.609823	0.000255	20.744838
1584.431881	-3.014200	3.476800	-10.479000	25.661674	0.000256	20.745231
1585.429583	-3.007500	3.475900	-10.453000	25.608057	0.000254	20.730735
1586.433081	-2.978200	3.477000	-10.354000	25.643661	0.000253	20.745157
1587.438139	-2.998300	3.475300	-10.418000	25.663114	0.000254	20.734349
1588.436283	-2.998100	3.474400	-10.416000	25.673941	0.000255	20.758026
1589.437545	-3.002300	3.473800	-10.429000	25.704714	0.000252	20.747209
1590.436198	-3.002000	3.475000	-10.431000	25.682739	0.000251	20.733671
1591.436538	-3.000900	3.473800	-10.424000	25.673826	0.000254	20.748427
1592.436081	-2.995300	3.473600	-10.404000	25.708084	0.000251	20.752017
1593.435821	-3.021600	3.472600	-10.492000	25.709525	0.000252	20.743980
1594.431658	-3.007300	3.473600	-10.446000	25.718372	0.000251	20.745280
1595.437562	-2.994100	3.472900	-10.397000	25.750797	0.000254	20.759358
1596.437154	-3.003300	3.473500	-10.431000	25.775816	0.000251	20.756987
1597.438594	-2.995900	3.471700	-10.401000	25.747713	0.000252	20.746776
1598.432403	-3.019300	3.470800	-10.478000	25.694849	0.000249	20.732084
1599.434789	-3.024100	3.471100	-10.496000	25.679637	0.000250	20.749049
1600.433043	-3.009000	3.471000	-10.442000	25.700888	0.000250	20.745737
1601.430870	-3.023400	3.471300	-10.494000	25.713757	0.000248	20.764353
1602.441467	-3.018200	3.469600	-10.471000	25.745287	0.000250	20.743391
1603.431648	-3.035500	3.467900	-10.525000	25.703843	0.000250	20.778578
1604.433963	-3.001600	3.469000	-10.412000	25.680792	0.000249	20.757321
1605.437360	-3.018700	3.468600	-10.470000	25.685285	0.000250	20.763731
1606.437333	-3.008000	3.469000	-10.434000	25.657229	0.000246	20.781071
1607.435400	-3.006900	3.468300	-10.427000	25.675942	0.000248	20.752923
1608.436600	-3.018200	3.468500	-10.467000	25.642871	0.000249	20.746261
1609.438419	-2.983700	3.468400	-10.348000	25.658841	0.000247	20.773681
1610.436603	-3.017900	3.467000	-10.462000	25.694052	0.000246	20.764950
1611.441247	-3.005800	3.467600	-10.422000	25.717452	0.000249	20.769961
1612.445279	-3.002400	3.467200	-10.409000	25.695549	0.000247	20.758867
1613.439228	-2.958800	3.467300	-10.258000	25.613772	0.000246	20.751648
1614.441616	-3.026800	3.465900	-10.490000	25.641423	0.000247	20.767092
1615.443784	-2.973500	3.466300	-10.306000	25.597597	0.000244	20.755319
1616.442801	-3.007700	3.465500	-10.423000	25.601570	0.000245	20.752670
1617.438018	-3.003100	3.465800	-10.407000	25.620088	0.000245	20.764630
1618.440093	-2.997600	3.466100	-10.389000	25.654169	0.000246	20.754764
1619.443617	-3.007200	3.463700	-10.415000	25.652777	0.000245	20.767117
1620.444929	-3.003100	3.465100	-10.404000	25.653135	0.000246	20.735706
1621.439092	-3.001100	3.464800	-10.398000	25.677040	0.000243	20.788641
1622.443425	-2.995500	3.464600	-10.378000	25.733608	0.000244	20.762955
1623.443647	-2.993300	3.463300	-10.366000	25.728618	0.000244	20.760788
1624.443270	-2.995300	3.462300	-10.370000	25.742486	0.000245	20.776141
1625.444983	-2.991400	3.464300	-10.362000	25.724670	0.000242	20.764409
1626.440451	-2.997900	3.463000	-10.381000	25.640738	0.000244	20.777784
1627.446335	-2.993100	3.463500	-10.366000	25.666011	0.000242	20.774244
1628.440779	-3.002700	3.462200	-10.395000	25.679222	0.000245	20.767598
1629.448802	-3.008900	3.461900	-10.416000	25.659084	0.000243	20.772502
1630.438983	-2.999300	3.462500	-10.385000	25.647159	0.000243	20.772854
1631.441902	-3.009000	3.461000	-10.414000	25.624865	0.000240	20.763264
1632.442667	-3.022600	3.461100	-10.461000	25.609814	0.000241	20.766166
1633.441034	-2.994300	3.460300	-10.360000	25.630530	0.000241	20.759945
1634.444811	-2.976300	3.461400	-10.301000	25.667280	0.000241	20.757027
1635.442747	-3.000100	3.458800	-10.375000	25.656024	0.000240	20.775593
1636.441890	-3.004100	3.460400	-10.395000	25.640004	0.000240	20.787479
1637.439733	-3.010600	3.458300	-10.411000	25.585631	0.000239	20.777914
1638.447382	-2.998500	3.458700	-10.370000	25.598980	0.000238	20.775674
1639.442330	-3.001400	3.459100	-10.381000	25.619574	0.000239	20.776443
1640.444122	-3.012300	3.458500	-10.417000	25.630464	0.000240	20.772682
1641.449594	-2.978100	3.457900	-10.297000	25.631653	0.000240	20.771031
1642.444561	-2.992400	3.458000	-10.346000	25.639344	0.000238	20.776858
1643.443128	-2.982200	3.456600	-10.308000	25.671365	0.000235	20.774406
1644.447182	-3.014100	3.455600	-10.414000	25.702669	0.000238	20.767915
1645.444530	-2.981800	3.456900	-10.307000	25.705746	0.000237	20.799455
1646.443024	-2.982700	3.457700	-10.312000	25.729007	0.000236	20.781094
1647.446275	-3.005500	3.455400	-10.385000	25.768383	0.000236	20.782713
1648.446817	-3.000100	3.454900	-10.364000	25.703410	0.000236	20.792842
1649.444448	-3.009500	3.454100	-10.394000	25.722846	0.000235	20.789130
1650.446038	-3.010300	3.454600	-10.398000	25.665187	0.000234	20.769149
1651.446403	-3.001200	3.454600	-10.367000	25.694277	0.000235	20.778927
1652.447851	-3.004300	3.455100	-10.378000	25.682801	0.000234	20.790159
1653.443683	-3.000800	3.453900	-10.363000	25.675874	0.000234	20.804539
1654.447515	-2.988600	3.455100	-10.326000	25.704621	0.000232	20.784575
1655.447755	-3.016300	3.452200	-10.412000	25.751079	0.000233	20.779556
1656.446752	-2.996700	3.455000	-10.353000	25.712094	0.000234	20.803934
1657.450501	-2.978100	3.453800	-10.285000	25.711573	0.000234	20.779703
1658.450068	-3.005500	3.453100	-10.377000	25.722731	0.000235	20.782850
1659.448862	-3.001500	3.453700	-10.365000	25.685217	0.000233	20.787845
1660.449443	-3.004400	3.451800	-10.370000	25.718189	0.000233	20.786823
1661.448424	-2.990800	3.452600	-10.325000	25.734215	0.000233	20.810980
1662.447713	-2.972200	3.452000	-10.259000	25.771531	0.000231	20.798677
1663.449471	-2.995000	3.451200	-10.335000	25.712899	0.000228	20.785302
1664.466515	-2.997900	3.450700	-10.344000	25.713598	0.000232	20.809239
1665.452552	-2.976800	3.451700	-10.274000	25.737275	0.000231	20.796036
1666.449230	-2.976800	3.450300	-10.270000	25.769081	0.000231	20.814707
1667.450726	-3.013700	3.449500	-10.394000	25.755993	0.000231	20.808674
1668.457139	-3.002700	3.449200	-10.356000	25.726718	0.000232	20.784959
1669.454701	-2.989500	3.449000	-10.310000	25.676532	0.000231	20.810890
1670.450119	-2.975000	3.448400	-10.258000	25.702496	0.000230	20.794769
1671.451791	-3.003900	3.447700	-10.355000	25.717179	0.000228	20.813784
1672.455407	-2.969000	3.448700	-10.238000	25.720092	0.000228	20.795847
1673.453365	-2.975300	3.448800	-10.260000	25.685159	0.000228	20.802011
1674.452199	-2.986000	3.449000	-10.297000	25.625252	0.000228	20.794474
1675.452323	-2.991800	3.448200	-10.316000	25.624284	0.000229	20.798242
1676.453162	-2.999800	3.446600	-10.337000	25.663093	0.000230	20.781271
1677.453182	-2.986900	3.445900	-10.291000	25.669035	0.000230	20.806679
1678.452793	-2.992100	3.446400	-10.311000	25.688048	0.000228	20.814870
1679.461576	-3.003000	3.444200	-10.341000	25.701283	0.000229	20.820102
1680.457133	-2.997300	3.446100	-10.328000	25.703822	0.000230	20.807954
1681.459301	-2.997500	3.445400	-10.327000	25.632642	0.000229	20.829870
1682.455565	-2.996400	3.444100	-10.319000	25.687055	0.000227	20.822881
1683.455670	-3.018600	3.444200	-10.396000	25.731454	0.000225	20.823854
1684.457241	-2.998000	3.444100	-10.324000	25.727027	0.000228	20.821778
1685.453194	-2.991200	3.445500	-10.305000	25.674406	0.000226	20.821083
1686.460826	-3.005100	3.444400	-10.350000	25.675847	0.000226	20.816366
1687.458079	-2.999000	3.444000	-10.328000	25.697587	0.000226	20.815442
1688.461491	-3.024700	3.442900	-10.413000	25.742930	0.000226	20.833958
1689.456130	-3.018500	3.442400	-10.389000	25.705808	0.000223	20.838872
1690.462339	-3.003900	3.442500	-10.340000	25.701437	0.000227	20.831637
1691.461059	-3.006300	3.443300	-10.351000	25.733034	0.000226	20.806475
1692.463587	-2.994700	3.442500	-10.309000	25.706346	0.000227	20.833248
1693.463357	-2.996000	3.441900	-10.311000	25.674252	0.000224	20.820454
1694.457662	-3.026100	3.440800	-10.412000	25.658747	0.000222	20.824321
1695.470224	-3.026300	3.440900	-10.411000	25.666919	0.000222	20.832528
1696.463658	-2.997200	3.441700	-10.315000	25.661596	0.000222	20.843303
1697.461431	-3.014900	3.439800	-10.370000	25.662240	0.000222	20.823087
1698.462223	-3.026000	3.438000	-10.402000	25.708951	0.000221	20.826382
1699.469008	-3.025700	3.438000	-10.402000	25.672422	0.000224	20.834263
1700.459194	-3.013400	3.438800	-10.362000	25.672674	0.000221	20.826455
1701.464836	-3.007000	3.438000	-10.337000	25.661515	0.000222	20.854601
1702.462224	-2.997300	3.439700	-10.308000	25.650958	0.000222	20.838309
1703.465172	-3.010600	3.437100	-10.347000	25.660344	0.000223	20.823554
1704.466743	-3.006800	3.438100	-10.337000	25.715178	0.000219	20.836429
1705.465166	-2.996100	3.438600	-10.302000	25.735054	0.000219	20.843116
1706.463718	-3.018100	3.436700	-10.371000	25.765632	0.000219	20.844907
1707.468034	-3.011600	3.434900	-10.344000	25.730203	0.000219	20.850572
1708.467444	-2.999100	3.437100	-10.307000	25.731302	0.000217	20.833184
1709.463985	-2.995200	3.436800	-10.293000	25.734476	0.000219	20.830683
1710.466174	-2.997100	3.436600	-10.299000	25.743323	0.000220	20.854741
1711.468806	-2.996700	3.435100	-10.293000	25.756614	0.000217	20.832530
1712.466580	-3.000200	3.435900	-10.307000	25.754889	0.000219	20.841229
1713.470325	-3.005400	3.435100	-10.323000	25.723115	0.000219	20.834444
1714.466832	-2.992200	3.434200	-10.274000	25.688556	0.000218	20.853311
1715.467984	-3.010300	3.434300	-10.337000	25.680237	0.000218	20.838792
1716.470861	-3.001500	3.435500	-10.310000	25.684706	0.000219	20.843281
1717.470127	-3.000800	3.435100	-10.307000	25.719444	0.000218	20.848300
1718.469542	-2.990400	3.433100	-10.265000	25.763785	0.000216	20.826931
1719.471080	-2.998700	3.432600	-10.291000	25.756697	0.000217	20.862958
1720.471859	-3.010200	3.433500	-10.334000	25.738766	0.000216	20.849690
1721.469907	-2.999100	3.433000	-10.295000	25.783016	0.000216	20.855257
1722.472952	-3.004400	3.431700	-10.309000	25.812072	0.000216	20.854097
1723.471816	-3.008400	3.432100	-10.324000	25.792246	0.000215	20.846037
1724.470678	-2.998600	3.431800	-10.290000	25.784897	0.000216	20.859042
1725.471313	-3.009000	3.431800	-10.325000	25.740451	0.000214	20.864184
1726.472991	-2.998000	3.431100	-10.286000	25.735528	0.000213	20.845963
1727.468669	-3.002100	3.431800	-10.301000	25.718859	0.000212	20.857195
1728.483519	-3.008800	3.431200	-10.323000	25.788942	0.000214	20.844140
1729.474195	-3.034000	3.430200	-10.406000	25.793484	0.000211	20.870038
1730.469871	-3.020900	3.429000	-10.358000	25.790456	0.000214	20.839023
1731.473149	-3.018100	3.430000	-10.351000	25.792946	0.000212	20.852903
1732.471154	-3.022200	3.428000	-10.358000	25.774016	0.000212	20.860440
1733.473267	-3.001300	3.428800	-10.290000	25.742804	0.000211	20.867495
1734.484974	-3.010700	3.428400	-10.320000	25.748948	0.000209	20.843322
1735.472683	-3.006300	3.428200	-10.305000	25.740671	0.000209	20.844017
1736.468238	-3.000300	3.428300	-10.285000	25.778012	0.000211	20.849282
1737.471322	-3.038200	3.427300	-10.411000	25.776051	0.000210	20.846364
1738.472128	-2.952900	3.427300	-10.120000	25.798488	0.000211	20.838082
1739.471871	-2.980600	3.427900	-10.217000	25.738588	0.000208	20.839080
1740.472508	-2.993500	3.426900	-10.257000	25.715554	0.000209	20.841549
1741.475688	-3.013900	3.426800	-10.327000	25.679009	0.000209	20.856050
1742.476147	-2.992600	3.426400	-10.252000	25.711086	0.000208	20.842750
1743.473083	-3.001800	3.426000	-10.284000	25.710474	0.000208	20.858256
1744.474824	-3.019100	3.425200	-10.340000	25.663438	0.000210	20.848472
1745.472970	-2.996700	3.425300	-10.262000	25.708611	0.000207	20.826040
1746.478204	-2.985600	3.425900	-10.228000	25.754058	0.000208	20.834705
1747.475452	-2.994100	3.423800	-10.251000	25.813615	0.000207	20.849010
1748.475317	-3.017700	3.424200	-10.332000	25.817741	0.000208	20.841775
1749.477060	-2.992900	3.424700	-10.248000	25.819556	0.000206	20.831270
1750.476388	-3.011400	3.422200	-10.305000	25.862663	0.000207	20.830951
1751.474027	-2.993500	3.423000	-10.246000	25.837923	0.000206	20.827436
1752.477505	-2.997600	3.422500	-10.258000	25.833878	0.000208	20.824795
1753.477626	-2.992200	3.422500	-10.240000	25.826896	0.000208	20.832953
1754.472123	-3.016100	3.422200	-10.321000	25.817113	0.000206	20.822178
1755.477780	-2.983400	3.423200	-10.212000	25.781670	0.000206	20.846792
1756.477110	-2.977400	3.422800	-10.190000	25.757148	0.000203	20.831170
1757.475936	-2.986800	3.422800	-10.222000	25.758840	0.000205	20.824336
1758.479303	-2.991500	3.421200	-10.233000	25.737354	0.000205	20.825987
1759.477585	-3.011800	3.420300	-10.300000	25.761925	0.000203	20.822218
1760.477604	-3.016700	3.419200	-10.314000	25.717965	0.000205	20.819789
1761.478776	-2.992900	3.420300	-10.236000	25.762502	0.000202	20.846031
1762.476808	-3.014900	3.419100	-10.307000	25.791703	0.000204	20.809930
1763.477578	-3.001100	3.418300	-10.258000	25.823052	0.000203	20.814868
1764.481480	-3.017700	3.419300	-10.317000	25.853422	0.000203	20.851065
1765.477066	-3.023100	3.417800	-10.332000	25.904691	0.000203	20.812954
1766.480232	-3.027400	3.417500	-10.345000	25.893689	0.000201	20.818971
1767.479351	-3.003700	3.418700	-10.266000	25.901094	0.000202	20.818349
1768.480509	-2.998000	3.418700	-10.249000	25.897220	0.000203	20.825363
1769.478760	-2.994000	3.419100	-10.236000	25.899905	0.000203	20.830906
1770.479282	-2.996500	3.417900	-10.241000	25.927011	0.000200	20.811196
1771.478842	-3.002600	3.417400	-10.260000	25.927980	0.000201	20.824496
1772.480838	-3.006000	3.416000	-10.268000	25.918939	0.000201	20.814940
1773.482422	-3.019800	3.416900	-10.317000	25.914048	0.000199	20.813819
1774.478727	-3.012100	3.416000	-10.289000	25.893753	0.000199	20.796276
1775.487761	-3.013600	3.415900	-10.294000	25.882026	0.000199	20.812945
1776.478731	-3.004600	3.415000	-10.259000	25.892686	0.000200	20.798524
1777.481239	-2.986900	3.415300	-10.200000	25.909841	0.000199	20.837094
1778.479758	-2.988300	3.416300	-10.208000	25.918597	0.000198	20.809854
1779.481923	-3.005200	3.415200	-10.263000	25.915090	0.000198	20.818185
1780.483215	-3.002500	3.415500	-10.254000	25.922072	0.000200	20.795802
1781.480899	-3.009000	3.413300	-10.270000	25.926522	0.000200	20.792212
1782.480088	-2.979700	3.415000	-10.175000	25.898269	0.000198	20.807926
1783.481196	-3.005400	3.413600	-10.259000	25.856685	0.000200	20.808351
1784.479860	-3.006500	3.413200	-10.261000	25.801337	0.000199	20.810599
1785.481059	-2.986100	3.413200	-10.191000	25.816833	0.000197	20.810043
1786.484973	-3.010700	3.413200	-10.275000	25.788332	0.000200	20.805596
1787.482226	-3.004600	3.411700	-10.250000	25.812357	0.000198	20.807918
1788.483854	-2.983900	3.411900	-10.179000	25.787958	0.000197	20.806169
1789.484520	-2.985600	3.412000	-10.187000	25.804626	0.000197	20.805842
1790.485561	-2.996500	3.411000	-10.219000	25.816255	0.000197	20.811360
1791.480210	-3.016300	3.412500	-10.291000	25.805643	0.000196	20.798329
1792.484332	-3.006500	3.411100	-10.254000	25.809469	0.000198	20.820189
1793.485632	-2.993200	3.410600	-10.208000	25.793688	0.000196	20.803864
1794.486542	-2.980000	3.410300	-10.162000	25.831003	0.000197	20.812423
1795.489862	-3.004600	3.409600	-10.244000	25.852879	0.000197	20.799786
1796.486062	-2.998700	3.409200	-10.222000	25.812660	0.000195	20.791153
1797.485355	-3.021000	3.409800	-10.300000	25.797181	0.000196	20.814959
1798.493197	-3.010900	3.408400	-10.261000	25.853693	0.000196	20.799655
1799.486599	-3.021500	3.407000	-10.294000	25.837295	0.000197	20.788873
1800.489839	-3.008500	3.406100	-10.246000	25.813865	0.000197	20.789519
1801.489298	-3.008200	3.407900	-10.251000	25.835798	0.000194	20.811077
1802.488791	-3.008900	3.407100	-10.251000	25.836581	0.000193	20.784362
1803.489586	-2.967500	3.408500	-10.113000	25.872103	0.000194	20.803451
1804.491565	-2.988600	3.407000	-10.181000	25.874236	0.000194	20.790420
1805.491144	-2.994900	3.407500	-10.203000	25.887045	0.000192	20.783848
1806.490899	-3.000500	3.406100	-10.219000	25.867662	0.000193	20.779074
1807.493035	-3.010500	3.407000	-10.256000	25.861428	0.000194	20.798416
1808.489708	-2.986900	3.405300	-10.171000	25.852323	0.000195	20.782157
1809.491681	-3.006600	3.405400	-10.237000	25.775351	0.000191	20.786867
1810.491904	-2.987700	3.405700	-10.174000	25.753906	0.000193	20.791404
1811.492920	-3.003100	3.404400	-10.222000	25.739541	0.000192	20.818701
1812.490965	-2.992000	3.404400	-10.184000	25.772951	0.000192	20.811957
1813.494723	-3.014300	3.403000	-10.257000	25.746981	0.000191	20.791561
1814.491437	-3.012600	3.403700	-10.253000	25.745680	0.000190	20.820126
1815.493622	-2.982500	3.403900	-10.151000	25.803293	0.000191	20.778425
1816.492014	-2.996600	3.402900	-10.196000	25.824031	0.000192	20.780764
1817.492262	-2.982400	3.402900	-10.148000	25.783478	0.000190	20.778434
1818.499847	-3.005800	3.401500	-10.223000	25.805044	0.000190	20.783977
1819.496695	-3.024300	3.401800	-10.287000	25.829827	0.000190	20.793698
1820.493750	-3.009100	3.402900	-10.238000	25.871608	0.000191	20.789677
1821.495529	-3.010300	3.400600	-10.236000	25.863559	0.000190	20.793445
1822.494621	-2.985000	3.401200	-10.152000	25.829176	0.000187	20.802528
1823.494874	-3.014800	3.401000	-10.253000	25.802980	0.000189	20.794231
1824.499452	-3.011500	3.400000	-10.238000	25.765567	0.000187	20.798376
1825.494955	-3.007700	3.399900	-10.225000	25.805861	0.000187	20.797125
1826.495576	-2.997500	3.400800	-10.193000	25.773682	0.000188	20.799415
1827.496233	-2.993600	3.399600	-10.176000	25.842615	0.000188	20.795639
1828.494739	-3.006500	3.400400	-10.222000	25.908775	0.000186	20.769167
1829.497806	-2.977600	3.400000	-10.123000	25.916441	0.000187	20.790145
1830.502721	-2.973600	3.401000	-10.112000	25.906236	0.000186	20.803601
1831.499136	-3.007800	3.397600	-10.217000	25.887699	0.000186	20.790195
1832.497262	-3.006700	3.398100	-10.216000	25.872490	0.000184	20.796727
1833.499534	-3.013700	3.398200	-10.240000	25.863799	0.000184	20.784677
1834.495632	-2.989800	3.398000	-10.157000	25.888758	0.000184	20.799319
1835.497541	-2.965200	3.399600	-10.080000	25.871546	0.000183	20.802417
1836.497662	-3.020100	3.396700	-10.258000	25.851942	0.000181	20.793629
1837.498569	-3.010100	3.398000	-10.228000	25.828740	0.000184	20.794030
1838.497440	-3.004500	3.395600	-10.201000	25.900712	0.000182	20.796629
1839.502995	-2.981400	3.395800	-10.123000	25.951115	0.000181	20.787996
1840.503691	-3.017100	3.395200	-10.243000	25.982631	0.000182	20.799270
1841.497818	-2.992900	3.395600	-10.162000	25.994738	0.000183	20.797209
1842.500894	-2.998400	3.396200	-10.182000	26.044217	0.000179	20.770108
1843.500557	-2.997900	3.393700	-10.173000	26.008253	0.000181	20.763371
1844.499489	-3.003700	3.395300	-10.197000	25.966494	0.000181	20.784954
1845.498994	-2.993400	3.393800	-10.158000	25.983956	0.000181	20.793015
1846.502351	-2.997400	3.393800	-10.172000	25.987536	0.000180	20.785232
1847.503973	-2.992700	3.393000	-10.154000	25.975916	0.000179	20.786834
1848.503840	-2.984900	3.393700	-10.129000	25.954898	0.000179	20.777098
1849.502815	-2.993900	3.393000	-10.157000	25.941610	0.000180	20.777498
1850.503937	-2.989800	3.392900	-10.143000	25.921990	0.000177	20.778176
1851.500037	-2.996800	3.392400	-10.166000	25.945662	0.000178	20.785836
1852.503324	-2.980100	3.391200	-10.105000	25.919271	0.000177	20.779712
1853.505752	-2.988300	3.392400	-10.136000	25.955336	0.000177	20.769951
1854.501563	-3.012000	3.390600	-10.212000	25.898927	0.000175	20.765912
1855.504954	-2.976000	3.391900	-10.093000	25.900807	0.000178	20.767327
1856.509346	-2.990000	3.391200	-10.139000	25.897763	0.000174	20.776122
1857.505021	-3.005200	3.390100	-10.187000	25.912768	0.000176	20.786930
1858.504200	-2.991800	3.390200	-10.142000	25.858888	0.000176	20.781166
1859.515435	-3.022500	3.388900	-10.241000	25.833879	0.000178	20.773113
1860.507592	-2.985000	3.389800	-10.118000	25.836183	0.000176	20.783488
1861.503355	-3.019000	3.388600	-10.229000	25.834400	0.000174	20.770317
1862.509265	-2.982800	3.388900	-10.107000	25.898519	0.000174	20.774037
1863.509077	-3.010700	3.388000	-10.200000	25.939441	0.000175	20.766310
1864.509492	-2.979600	3.389400	-10.098000	25.967246	0.000174	20.757259
1865.509731	-3.016900	3.386500	-10.216000	25.935267	0.000176	20.764487
1866.509485	-3.006900	3.387700	-10.186000	25.954349	0.000175	20.768485
1867.508973	-2.996400	3.388000	-10.151000	25.976034	0.000176	20.747122
1868.508340	-2.988200	3.387800	-10.122000	25.935226	0.000173	20.770136
1869.507409	-2.992300	3.386800	-10.133000	25.936128	0.000175	20.761085
1870.506337	-2.972100	3.387200	-10.066000	25.932800	0.000173	20.758215
1871.506769	-2.985200	3.385800	-10.106000	25.960946	0.000173	20.756621
1872.516759	-2.998600	3.386600	-10.154000	25.972982	0.000171	20.777248
1873.512375	-2.988300	3.386300	-10.119000	25.930415	0.000172	20.765777
1874.505520	-3.022500	3.383500	-10.225000	25.966659	0.000173	20.768524
1875.505961	-3.013400	3.384200	-10.197000	25.968197	0.000171	20.753948
1876.508405	-3.001500	3.384700	-10.159000	25.974543	0.000171	20.744201
1877.507624	-3.002500	3.384200	-10.160000	25.940139	0.000170	20.743776
1878.510292	-2.993000	3.384700	-10.129000	25.913016	0.000169	20.762996
1879.508366	-3.023600	3.382000	-10.225000	25.934597	0.000170	20.742477
1880.507744	-2.992700	3.384000	-10.126000	25.920861	0.000170	20.749540
1881.514747	-2.997300	3.382800	-10.138000	25.905342	0.000168	20.748648
1882.517077	-3.005000	3.383300	-10.166000	25.930902	0.000169	20.761525
1883.519307	-2.987000	3.382200	-10.102000	25.879806	0.000169	20.739116
1884.513494	-3.014000	3.382900	-10.194000	25.874149	0.000169	20.753349
1885.509083	-2.982700	3.382400	-10.088000	25.850427	0.000168	20.741846
1886.509847	-3.017000	3.380500	-10.197000	25.869478	0.000169	20.740595
1887.514439	-3.025800	3.381300	-10.231000	25.880985	0.000167	20.755474
1888.511429	-2.999300	3.380800	-10.138000	25.916709	0.000170	20.756275
1889.514173	-3.001300	3.380400	-10.144000	25.946712	0.000169	20.751329
1890.512701	-3.008400	3.380400	-10.168000	25.929477	0.000168	20.758670
1891.512290	-3.002400	3.380700	-10.150000	25.906546	0.000166	20.739900
1892.515107	-2.989600	3.380400	-10.105000	25.953369	0.000167	20.758017
1893.519210	-2.985000	3.379700	-10.088000	26.000645	0.000167	20.749088
1894.512126	-3.002900	3.378400	-10.145000	26.041434	0.000165	20.763518
1895.511522	-2.998600	3.378700	-10.131000	26.059293	0.000165	20.749693
1896.515293	-2.987800	3.378800	-10.094000	26.074566	0.000164	20.735640
1897.517810	-3.017700	3.377600	-10.191000	26.093620	0.000165	20.758579
1898.517406	-2.995600	3.377400	-10.117000	26.026210	0.000166	20.753437
1899.526187	-2.987200	3.378000	-10.090000	26.017128	0.000163	20.771814
1900.518293	-3.008300	3.375800	-10.154000	25.998349	0.000166	20.718805
1901.518414	-3.004900	3.377500	-10.148000	26.035614	0.000162	20.735384
1902.517975	-2.998700	3.376500	-10.124000	26.036551	0.000163	20.719729
1903.522770	-3.007000	3.375600	-10.150000	26.010570	0.000162	20.739146
1904.516283	-3.008300	3.376300	-10.156000	25.969648	0.000162	20.737387
1905.515225	-3.017800	3.374400	-10.183000	26.009878	0.000163	20.741296
1906.527084	-2.988700	3.374000	-10.083000	26.024516	0.000162	20.755054
1907.520816	-2.987300	3.375200	-10.082000	26.045246	0.000163	20.764978
1908.519279	-3.006400	3.375600	-10.147000	26.030064	0.000161	20.725540
1909.521128	-2.980700	3.374600	-10.058000	25.997948	0.000161	20.727412
1910.517274	-2.998800	3.374300	-10.118000	25.952120	0.000161	20.713612
1911.518134	-2.981600	3.372600	-10.054000	25.987174	0.000160	20.720381
1912.523014	-2.998900	3.373800	-10.116000	25.980322	0.000160	20.721083
1913.522404	-2.997000	3.373300	-10.109000	25.989004	0.000160	20.739289
1914.519731	-2.997900	3.374400	-10.115000	25.990087	0.000159	20.715720
1915.522722	-3.000900	3.372300	-10.119000	26.040209	0.000160	20.726250
1916.525697	-2.985700	3.373700	-10.072000	26.067507	0.000160	20.727599
1917.519426	-3.014100	3.372600	-10.163000	26.115201	0.000158	20.722889
1918.522319	-3.001200	3.372500	-10.121000	26.130326	0.000159	20.734768
1919.519650	-2.988100	3.371800	-10.073000	26.102485	0.000160	20.723862
1920.523095	-3.001900	3.371200	-10.119000	26.083983	0.000158	20.720919
1921.532085	-3.003600	3.371300	-10.125000	26.079719	0.000160	20.735127
1922.520195	-2.989100	3.370700	-10.075000	26.150201	0.000158	20.701632
1923.522816	-2.970800	3.370500	-10.012000	26.168213	0.000157	20.718784
1924.530903	-3.002100	3.370600	-10.117000	26.110221	0.000157	20.722153
1925.522643	-3.012600	3.369100	-10.149000	26.095397	0.000156	20.714843
1926.529671	-3.009000	3.369200	-10.137000	26.068400	0.000156	20.719961
1927.526175	-2.994900	3.369100	-10.090000	26.005634	0.000156	20.734187
1928.528841	-2.999000	3.369500	-10.105000	26.009931	0.000155	20.702465
1929.524519	-2.986900	3.369200	-10.063000	26.051199	0.000155	20.716902
1930.529696	-3.004900	3.367500	-10.118000	26.028547	0.000156	20.705048
1931.528455	-2.992800	3.367700	-10.078000	26.016699	0.000155	20.729656
1932.531790	-3.007200	3.367600	-10.127000	26.041932	0.000156	20.718971
1933.534599	-2.985400	3.368200	-10.054000	26.077105	0.000153	20.704999
1934.534329	-3.001900	3.366900	-10.106000	26.063623	0.000156	20.717532
1935.532562	-3.001000	3.364500	-10.095000	26.065511	0.000155	20.729860
1936.530990	-2.988900	3.367200	-10.063000	26.074704	0.000153	20.714441
1937.531495	-3.002900	3.365700	-10.106000	26.028806	0.000154	20.717163
1938.528872	-3.012300	3.365400	-10.137000	26.054013	0.000154	20.717360
1939.535173	-2.981400	3.365200	-10.032000	26.054730	0.000155	20.684886
1940.531982	-2.998200	3.364300	-10.086000	26.023436	0.000154	20.703706
1941.540856	-2.983800	3.365900	-10.042000	26.021548	0.000152	20.709397
1942.534202	-3.005000	3.365000	-10.110000	26.106168	0.000153	20.699586
1943.533183	-2.998100	3.365100	-10.088000	26.110170	0.000152	20.689857
1944.534795	-3.014400	3.364100	-10.140000	26.145139	0.000152	20.722625
1945.534565	-2.985800	3.363400	-10.041000	26.158644	0.000151	20.692097
1946.535167	-3.006600	3.362900	-10.110000	26.160752	0.000152	20.710338
1947.533564	-2.998800	3.362200	-10.081000	26.129535	0.000151	20.706945
1948.537328	-2.993600	3.363200	-10.067000	26.154097	0.000151	20.728782
1949.535238	-2.994900	3.362800	-10.070000	26.136491	0.000152	20.693544
1950.539360	-2.999700	3.361900	-10.084000	26.085445	0.000151	20.711957
1951.537358	-3.008600	3.359600	-10.106000	26.082638	0.000150	20.703920
1952.538357	-3.020100	3.360300	-10.147000	26.054422	0.000150	20.699750
1953.534687	-3.038100	3.360200	-10.208000	26.051989	0.000149	20.724809
1954.537999	-3.014600	3.360000	-10.127000	26.046920	0.000149	20.701222
1955.536171	-3.005600	3.359200	-10.096000	26.057603	0.000148	20.706741
1956.534586	-3.009500	3.359400	-10.110000	26.008295	0.000149	20.696554
1957.537978	-2.979100	3.360400	-10.010000	25.966243	0.000146	20.698402
1958.534219	-3.013400	3.358500	-10.119000	26.009987	0.000148	20.684977
1959.537947	-2.974200	3.359900	-9.991800	26.049954	0.000144	20.724661
1960.543153	-2.998400	3.359500	-10.073000	26.086756	0.000147	20.693832
1961.535998	-2.990000	3.357700	-10.038000	26.170458	0.000146	20.722462
1962.536606	-3.020200	3.358000	-10.141000	26.158808	0.000145	20.710755
1963.541140	-2.996200	3.357400	-10.058000	26.171776	0.000146	20.705293
1964.544197	-3.000300	3.357400	-10.073000	26.214292	0.000145	20.710559
1965.536062	-3.006100	3.355600	-10.087000	26.205026	0.000144	20.712153
1966.536727	-2.997400	3.356700	-10.060000	26.131683	0.000146	20.689188
1967.538150	-3.012500	3.357200	-10.112000	26.088969	0.000147	20.716445
1968.536381	-2.974700	3.357600	-9.987300	26.073616	0.000144	20.711924
1969.543582	-3.006800	3.355900	-10.090000	26.135637	0.000144	20.704067
1970.536352	-3.006700	3.354300	-10.084000	26.153935	0.000144	20.694478
1971.551385	-2.996600	3.355700	-10.055000	26.125101	0.000143	20.708654
1972.544484	-3.005000	3.354000	-10.078000	26.121913	0.000143	20.700708
1973.536488	-3.038000	3.352900	-10.185000	26.173827	0.000144	20.703561
1974.540111	-2.971500	3.355400	-9.969900	26.190090	0.000143	20.708998
1975.542016	-3.024200	3.352800	-10.138000	26.216115	0.000143	20.703856
1976.540792	-2.979100	3.353500	-9.989800	26.247907	0.000144	20.705458
1977.540071	-3.002000	3.354500	-10.070000	26.218873	0.000142	20.702359
1978.544227	-2.956800	3.353800	-9.915700	26.224601	0.000143	20.720445
1979.542558	-2.996900	3.353500	-10.049000	26.216066	0.000142	20.712342
1980.542527	-3.010000	3.353100	-10.091000	26.236429	0.000140	20.708622
1981.545980	-3.021100	3.350900	-10.122000	26.260086	0.000144	20.721017
1982.547781	-3.006300	3.352000	-10.076000	26.229767	0.000141	20.698608
1983.543565	-3.008100	3.351400	-10.080000	26.243450	0.000138	20.697185
1984.546555	-3.012400	3.351200	-10.094000	26.251748	0.000140	20.702679
1985.544024	-3.010100	3.351700	-10.087000	26.269636	0.000139	20.698844
1986.550134	-2.987400	3.351600	-10.011000	26.281993	0.000140	20.703676
1987.548841	-2.995800	3.350100	-10.035000	26.244230	0.000139	20.696072
1988.547655	-3.020700	3.348200	-10.113000	26.214976	0.000137	20.713143
1989.548503	-2.985700	3.350500	-10.002000	26.214700	0.000140	20.701959
1990.555306	-3.026400	3.347700	-10.130000	26.250843	0.000137	20.721686
1991.546966	-2.990800	3.348300	-10.013000	26.221369	0.000137	20.712455
1992.546235	-2.998900	3.347600	-10.038000	26.242993	0.000137	20.708106
1993.550103	-2.976900	3.348400	-9.967400	26.285839	0.000137	20.735993
1994.553066	-3.003100	3.347000	-10.051000	26.288247	0.000138	20.713755
1995.552828	-3.002600	3.347600	-10.050000	26.298089	0.000137	20.716060
1996.548990	-3.001500	3.347000	-10.045000	26.266226	0.000136	20.714858
1997.555915	-3.013400	3.346400	-10.084000	26.307029	0.000135	20.717458
1998.550189	-3.007200	3.346100	-10.061000	26.327943	0.000137	20.720458
1999.549631	-3.038900	3.346100	-10.168000	26.273311	0.000135	20.714392
2000.551080	-2.991600	3.345800	-10.008000	26.262141	0.000134	20.701269
2001.552992	-2.991100	3.346100	-10.007000	26.266444	0.000135	20.711758
2002.552493	-3.000800	3.345500	-10.038000	26.207618	0.000136	20.703378
2003.551357	-3.000300	3.345500	-10.037000	26.209782	0.000134	20.706026
2004.552536	-3.006200	3.344300	-10.053000	26.201345	0.000132	20.715567
2005.554080	-3.040200	3.344300	-10.166000	26.135626	0.000136	20.693624
2006.551555	-2.971000	3.345000	-9.936700	26.092635	0.000133	20.696420
2007.551781	-3.009300	3.344400	-10.064000	26.114227	0.000132	20.707685
2008.553459	-2.999500	3.343600	-10.028000	26.187588	0.000133	20.726874
2009.552135	-3.009100	3.343200	-10.059000	26.243403	0.000133	20.736969
2010.554082	-2.987100	3.342800	-9.984500	26.299875	0.000131	20.709319
2011.557570	-3.003900	3.342600	-10.040000	26.318584	0.000133	20.731442
2012.556110	-3.011500	3.341600	-10.062000	26.275625	0.000134	20.720511
2013.555542	-2.999600	3.341400	-10.023000	26.254124	0.000133	20.701747
2014.558133	-2.962000	3.342300	-9.898300	26.296091	0.000132	20.710258
2015.559293	-3.003800	3.341700	-10.035000	26.205524	0.000131	20.719767
2016.558170	-3.005400	3.340100	-10.037000	26.182435	0.000130	20.697512
2017.557594	-3.014400	3.340100	-10.068000	26.230662	0.000130	20.712784
2018.556968	-2.999900	3.339100	-10.016000	26.308569	0.000132	20.732282
2019.558700	-3.000200	3.339500	-10.019000	26.310659	0.000131	20.720158
2020.560716	-3.018100	3.339200	-10.077000	26.280317	0.000130	20.721907
2021.558327	-2.998700	3.340500	-10.016000	26.248436	0.000130	20.714998
2022.558267	-2.963100	3.341400	-9.899700	26.263380	0.000128	20.710576
2023.563908	-2.995700	3.338700	-10.001000	26.235916	0.000130	20.711426
2024.557681	-3.009500	3.338100	-10.045000	26.224770	0.000127	20.737685
2025.558263	-2.967300	3.340400	-9.911000	26.269570	0.000126	20.751412
2026.558418	-2.963400	3.339500	-9.894600	26.282757	0.000127	20.732420
2027.555938	-2.976800	3.338500	-9.936800	26.360530	0.000130	20.730450
2028.558000	-3.028500	3.337300	-10.106000	26.345286	0.000128	20.734096
2029.559790	-3.010200	3.336600	-10.043000	26.358668	0.000128	20.730949
2030.558922	-2.985400	3.337000	-9.961300	26.324276	0.000126	20.707763
2031.559594	-3.016200	3.335100	-10.059000	26.380174	0.000127	20.715578
2032.561388	-2.967500	3.335000	-9.895800	26.393554	0.000126	20.735192
2033.562257	-2.991100	3.336600	-9.979700	26.375896	0.000125	20.707011
2034.562982	-3.009300	3.335500	-10.036000	26.380939	0.000127	20.731521
2035.561643	-2.990600	3.335300	-9.973800	26.339121	0.000124	20.722684
2036.563186	-2.992700	3.335200	-9.980400	26.279894	0.000125	20.716740
2037.563624	-2.978000	3.335600	-9.932600	26.264771	0.000125	20.736157
2038.564078	-3.002100	3.334000	-10.008000	26.337356	0.000125	20.734187
2039.567362	-2.997700	3.333300	-9.991200	26.328807	0.000123	20.718482
2040.566158	-2.988800	3.332900	-9.960300	26.362972	0.000122	20.724843
2041.570543	-2.993900	3.332400	-9.975500	26.369235	0.000123	20.747260
2042.563129	-2.995400	3.332800	-9.982300	26.366103	0.000122	20.732732
2043.567243	-3.006900	3.333600	-10.023000	26.358197	0.000122	20.741382
2044.572327	-2.996700	3.332100	-9.984400	26.336226	0.000123	20.724516
2045.567629	-2.992300	3.332800	-9.972100	26.342929	0.000122	20.748797
2046.566045	-2.976000	3.331400	-9.912600	26.392662	0.000121	20.754684
2047.569610	-2.993700	3.330600	-9.970100	26.431891	0.000121	20.748593
2048.568629	-2.977700	3.331100	-9.917600	26.415013	0.000122	20.739216
2049.572341	-2.999200	3.330600	-9.986900	26.425457	0.000121	20.726005
2050.568381	-3.016700	3.331200	-10.047000	26.431021	0.000118	20.747244
2051.564270	-3.002700	3.329900	-9.997800	26.453144	0.000120	20.734393
2052.571823	-2.999200	3.329400	-9.984700	26.415917	0.000121	20.743918
2053.569867	-3.001300	3.328300	-9.988000	26.378029	0.000120	20.731916
2054.569741	-2.988600	3.328800	-9.947900	26.421871	0.000123	20.724771
2055.571522	-3.021400	3.328600	-10.056000	26.453471	0.000120	20.724289
2056.573835	-3.009900	3.328700	-10.018000	26.450543	0.000120	20.755012
2057.571418	-3.007700	3.326300	-10.004000	26.419781	0.000119	20.745905
2058.568678	-3.001000	3.327900	-9.986500	26.416332	0.000119	20.732955
2059.571823	-3.002000	3.326300	-9.984400	26.414413	0.000118	20.724862
2060.569343	-2.992000	3.327300	-9.954700	26.413746	0.000119	20.717552
2061.574092	-3.012100	3.326100	-10.018000	26.474496	0.000120	20.735940
2062.576068	-3.015500	3.325800	-10.028000	26.491332	0.000119	20.755233
2063.570310	-3.017100	3.325700	-10.032000	26.512877	0.000119	20.742750
2064.569889	-2.994100	3.325300	-9.954700	26.526906	0.000118	20.748792
2065.572647	-2.998200	3.325300	-9.969200	26.497489	0.000118	20.742455
2066.572772	-3.001600	3.324100	-9.976400	26.474594	0.000115	20.747418
2067.574266	-2.970500	3.325000	-9.875800	26.424337	0.000117	20.771348
2068.570820	-3.003800	3.324500	-9.985500	26.409038	0.000117	20.755022
2069.572334	-2.990300	3.324700	-9.940900	26.405890	0.000118	20.754703
2070.575110	-2.994500	3.324800	-9.955300	26.421629	0.000116	20.754400
2071.574505	-3.035400	3.322600	-10.084000	26.440597	0.000117	20.752602
2072.575114	-2.980100	3.323700	-9.904200	26.432000	0.000116	20.767669
2073.581137	-2.999300	3.323300	-9.967100	26.441606	0.000116	20.755039
2074.572858	-3.015700	3.321500	-10.015000	26.426290	0.000115	20.745809
2075.573965	-3.010300	3.322300	-10.001000	26.445038	0.000114	20.751376
2076.576196	-2.987800	3.322600	-9.926500	26.456474	0.000113	20.767613
2077.574034	-2.990200	3.322500	-9.934100	26.506184	0.000116	20.763999
2078.572674	-3.014300	3.321500	-10.011000	26.462680	0.000114	20.752987
2079.574864	-3.010000	3.321300	-9.996500	26.496019	0.000113	20.752358
2080.575211	-2.977400	3.320700	-9.885900	26.535951	0.000114	20.761677
2081.575483	-2.985800	3.321400	-9.916200	26.508088	0.000115	20.755007
2082.573651	-2.988100	3.319700	-9.919400	26.508584	0.000113	20.760721
2083.578619	-3.000000	3.318400	-9.954100	26.539067	0.000114	20.754378
2084.577662	-2.990900	3.319300	-9.926900	26.524762	0.000111	20.777931
2085.577274	-3.007700	3.318400	-9.979500	26.509097	0.000112	20.761711
2086.577247	-3.000200	3.317600	-9.952800	26.545517	0.000111	20.760387
2087.577078	-3.007000	3.318200	-9.976900	26.539783	0.000112	20.781177
2088.574893	-3.000100	3.317100	-9.950800	26.480388	0.000111	20.769838
2089.578960	-3.006500	3.317100	-9.972500	26.415133	0.000112	20.750242
2090.580788	-3.000100	3.316400	-9.948200	26.456175	0.000111	20.772054
2091.578622	-2.997500	3.317400	-9.943400	26.441405	0.000110	20.758156
2092.580838	-3.000700	3.315900	-9.949000	26.429261	0.000112	20.776771
2093.584019	-2.988900	3.317100	-9.914200	26.424243	0.000112	20.786426
2094.578662	-3.010700	3.314300	-9.977800	26.417656	0.000111	20.766528
2095.578887	-3.007400	3.314800	-9.968500	26.416216	0.000111	20.775987
2096.585224	-2.991200	3.314800	-9.914500	26.419298	0.000110	20.773870
2097.578012	-2.997900	3.315200	-9.937600	26.502862	0.000110	20.762556
2098.580872	-3.013200	3.313200	-9.982000	26.509270	0.000108	20.787964
2099.582349	-2.994400	3.314500	-9.923800	26.515801	0.000109	20.782200
2100.578453	-2.982700	3.312800	-9.880500	26.561923	0.000107	20.773560
2101.578688	-3.012100	3.313800	-9.980600	26.551066	0.000109	20.775449
2102.587333	-2.985600	3.313300	-9.891600	26.535085	0.000107	20.783566
2103.580319	-3.019900	3.311400	-9.999400	26.533012	0.000107	20.782905
2104.582364	-2.994000	3.313000	-9.918700	26.541063	0.000109	20.792420
2105.585392	-3.014200	3.311600	-9.981100	26.488825	0.000107	20.770732
2106.581705	-3.021300	3.310400	-10.001000	26.449443	0.000106	20.769081
2107.583365	-3.004000	3.311500	-9.947100	26.483010	0.000106	20.771525
2108.584381	-3.026500	3.311100	-10.020000	26.493884	0.000106	20.784826
2109.585322	-3.000600	3.310800	-9.933400	26.507214	0.000107	20.793010
2110.585174	-2.984600	3.310900	-9.880200	26.557411	0.000106	20.782775
2111.586511	-2.996400	3.311000	-9.919400	26.599415	0.000104	20.787067
2112.581926	-2.995300	3.309900	-9.913100	26.640744	0.000105	20.779775
2113.583453	-2.987700	3.309200	-9.886100	26.687908	0.000104	20.775982
2114.585935	-3.008600	3.310000	-9.957700	26.682322	0.000104	20.766098
2115.584224	-3.012600	3.309300	-9.968800	26.671108	0.000104	20.785170
2116.590107	-2.995000	3.309100	-9.909600	26.626960	0.000102	20.785359
2117.584590	-3.003600	3.308400	-9.935200	26.640216	0.000102	20.781141
2118.584842	-2.983800	3.308400	-9.871300	26.642508	0.000104	20.793877
2119.586869	-2.976500	3.308400	-9.846900	26.682021	0.000100	20.808470
2120.589851	-3.021900	3.305400	-9.986900	26.737397	0.000103	20.796338
2121.584812	-3.000400	3.307000	-9.921300	26.740706	0.000103	20.794449
2122.585279	-2.992800	3.306700	-9.894700	26.721516	0.000102	20.803131
2123.586208	-3.029100	3.305500	-10.011000	26.707693	0.000101	20.786863
2124.590332	-3.013500	3.304300	-9.956900	26.683192	9.908977E-5	20.792103
2125.591537	-3.009900	3.304900	-9.946900	26.628163	9.928778E-5	20.806957
2126.587741	-2.971100	3.306100	-9.821500	26.580133	0.000103	20.798029
2127.588744	-2.998300	3.304800	-9.907700	26.611882	0.000101	20.782055
2128.583491	-2.996000	3.303600	-9.896600	26.633334	0.000102	20.805991
2129.594029	-3.035200	3.302700	-10.024000	26.682061	9.994783E-5	20.809458
2130.586056	-3.008100	3.302400	-9.933000	26.684419	0.000100	20.788121
2131.588030	-3.009200	3.301400	-9.933700	26.693160	0.000101	20.798805
2132.587770	-3.005600	3.303100	-9.927100	26.717409	0.000101	20.807062
2133.586817	-3.021200	3.301400	-9.973400	26.724938	9.925478E-5	20.777648
2134.589211	-3.009400	3.302200	-9.936700	26.691899	9.948579E-5	20.812711
2135.587955	-3.026000	3.301500	-9.989100	26.668098	9.925478E-5	20.797791
2136.586304	-2.992300	3.302000	-9.879100	26.640311	9.611955E-5	20.796410
2137.585269	-3.003100	3.300500	-9.910500	26.633317	9.875974E-5	20.814983
2138.586310	-2.969500	3.301700	-9.802700	26.640043	9.895776E-5	20.818899
2139.588000	-3.014700	3.299100	-9.945300	26.653972	9.875974E-5	20.803979
2140.588799	-3.008300	3.299200	-9.924600	26.706300	9.493146E-5	20.803007
2141.590632	-2.989700	3.301000	-9.867500	26.718367	9.793468E-5	20.815138
2142.587112	-2.988900	3.298600	-9.858900	26.735817	9.862773E-5	20.794275
2143.588492	-3.001600	3.299100	-9.901500	26.687865	9.407340E-5	20.801068
2144.592915	-3.036600	3.297900	-10.013000	26.666162	9.697761E-5	20.802009
2145.593751	-2.987200	3.299900	-9.856600	26.673862	9.770366E-5	20.821130
2146.589631	-3.015300	3.296400	-9.938800	26.703006	9.512948E-5	20.814394
2147.590686	-2.992500	3.298200	-9.868900	26.726986	9.476645E-5	20.818587
2148.589563	-3.000300	3.296200	-9.888000	26.727726	9.443643E-5	20.820754
2149.588993	-3.010400	3.296700	-9.923700	26.646189	9.615255E-5	20.792836
2150.594608	-3.014500	3.296500	-9.936100	26.619955	9.298432E-5	20.820990
2151.589330	-2.991600	3.296200	-9.858200	26.613490	9.229127E-5	20.824923
2152.592109	-3.003900	3.294800	-9.895800	26.613815	9.361137E-5	20.816241
2153.590818	-3.019800	3.295900	-9.951800	26.613165	9.242328E-5	20.818907
2154.587485	-3.015100	3.294600	-9.932400	26.611970	9.377638E-5	20.812015
2155.587817	-2.999700	3.294300	-9.880400	26.662145	9.311633E-5	20.822152
2156.595845	-2.984300	3.294100	-9.829800	26.696648	9.123519E-5	20.816536
2157.588220	-2.991400	3.294900	-9.855400	26.719262	9.262129E-5	20.822201
2158.589792	-3.006800	3.292700	-9.899700	26.769455	9.156522E-5	20.827621
2159.592068	-3.024400	3.292400	-9.956800	26.743810	9.235727E-5	20.825545
2160.593484	-2.994900	3.292700	-9.860200	26.758934	8.994810E-5	20.812301
2161.596755	-3.002700	3.292300	-9.884500	26.758958	9.130120E-5	20.827972
2162.591247	-3.002600	3.292200	-9.884100	26.795767	9.070715E-5	20.825152
2163.592253	-3.038600	3.289900	-9.995500	26.782726	8.899103E-5	20.838592
2164.595690	-2.998400	3.292400	-9.870400	26.783271	8.948606E-5	20.831554
2165.595243	-3.003500	3.290700	-9.882300	26.773595	8.714289E-5	20.816610
2166.594811	-2.980000	3.293000	-9.812700	26.776050	9.054214E-5	20.821449
2167.593132	-2.986700	3.291800	-9.830200	26.759398	8.912304E-5	20.834578
2168.593279	-2.998300	3.289800	-9.862700	26.776969	8.895803E-5	20.844657
2169.594481	-3.014300	3.289100	-9.913200	26.747014	8.664786E-5	20.818808
2170.594270	-2.973200	3.290500	-9.782600	26.713277	8.905703E-5	20.838943
2171.591524	-3.008700	3.289400	-9.896300	26.789580	8.885902E-5	20.835052
2172.593866	-2.963700	3.289700	-9.748200	26.788735	8.803396E-5	20.835624
2173.595953	-3.005900	3.288300	-9.883600	26.792784	8.658185E-5	20.830686
2174.592791	-2.992100	3.286900	-9.833500	26.793548	8.737391E-5	20.815809
2175.597819	-2.999600	3.287500	-9.859700	26.760243	8.760493E-5	20.841117
2176.597230	-2.994900	3.287000	-9.843300	26.812509	8.734091E-5	20.840562
2177.600692	-3.008600	3.286900	-9.888200	26.810127	8.651585E-5	20.849546
2178.594572	-3.017700	3.286400	-9.916300	26.824267	8.582280E-5	20.835315
2179.597606	-3.005700	3.286400	-9.877100	26.807672	8.608682E-5	20.843284
2180.592314	-2.994500	3.286400	-9.839000	26.868341	8.453570E-5	20.854025
2181.597363	-2.978900	3.285200	-9.785200	26.876171	8.470071E-5	20.850045
2182.595798	-2.978500	3.284500	-9.781600	26.851772	8.549277E-5	20.859650
2183.594553	-2.978600	3.284800	-9.783200	26.828648	8.585580E-5	20.830237
2184.593686	-3.003800	3.284300	-9.864700	26.772969	8.456870E-5	20.859127
2185.597026	-3.002400	3.284800	-9.861500	26.752666	8.298459E-5	20.840137
2186.595184	-3.004400	3.282700	-9.861800	26.731167	8.344662E-5	20.845549
2187.594866	-3.018100	3.281800	-9.903700	26.691501	8.347963E-5	20.856405
2188.597133	-3.011700	3.282300	-9.885100	26.691973	8.453570E-5	20.846448
2189.598539	-2.980200	3.282000	-9.780400	26.762261	8.272057E-5	20.852629
2190.599874	-2.985300	3.284200	-9.803600	26.756382	8.407367E-5	20.847667
2191.596571	-3.009400	3.280800	-9.872100	26.751194	8.262156E-5	20.841029
2192.598632	-2.991000	3.282100	-9.815400	26.808299	8.189551E-5	20.856717
2193.604302	-3.009400	3.281600	-9.875000	26.851342	8.305059E-5	20.849261
2194.602355	-3.004200	3.280800	-9.855900	26.884864	8.298459E-5	20.849777
2195.602847	-3.017400	3.279400	-9.894100	26.871531	8.410667E-5	20.859129
2196.604626	-3.002800	3.278900	-9.844800	26.875831	8.083943E-5	20.862979
2197.603478	-3.016800	3.277500	-9.886300	26.848798	8.232454E-5	20.860927
2198.604807	-3.010900	3.278500	-9.870400	26.843977	8.008038E-5	20.857028
2199.607232	-3.003100	3.278800	-9.845900	26.844530	7.803423E-5	20.845730
2200.600347	-2.990800	3.277700	-9.801300	26.907093	8.044340E-5	20.852688
2201.612858	-2.991100	3.277500	-9.802500	26.958937	7.918931E-5	20.861197
2202.604391	-3.007800	3.276900	-9.855300	26.950889	7.902430E-5	20.849312
2203.604243	-3.012300	3.278600	-9.875100	26.946547	7.965135E-5	20.859171
2204.609973	-2.995400	3.276200	-9.812000	26.963393	7.948633E-5	20.870419
2205.607806	-2.962800	3.276100	-9.705100	26.926467	7.948633E-5	20.856048
2206.604130	-3.011300	3.273800	-9.857400	26.960815	7.852926E-5	20.843647
2207.606230	-2.995000	3.275600	-9.809500	27.034401	7.932132E-5	20.844153
2208.605819	-3.013200	3.274700	-9.866500	27.080322	7.998137E-5	20.832963
2209.601949	-2.992800	3.275200	-9.801200	27.100871	7.892529E-5	20.850309
2210.605751	-2.991600	3.273800	-9.792800	27.106651	7.971735E-5	20.848536
2211.608174	-2.988400	3.274900	-9.784900	27.106829	7.846326E-5	20.839232
2212.605463	-3.001000	3.274500	-9.826600	27.081817	7.727517E-5	20.852009
2213.605706	-2.989700	3.273100	-9.784400	27.109113	7.734118E-5	20.839159
2214.609854	-3.032000	3.273000	-9.923700	27.126239	7.823224E-5	20.827934
2215.606713	-3.022600	3.270800	-9.885400	27.074916	7.793522E-5	20.824207
2216.609703	-3.005400	3.273000	-9.835100	27.023427	7.938733E-5	20.824109
2217.608741	-3.002200	3.272100	-9.822300	27.041197	7.826524E-5	20.838660
2218.610212	-3.000300	3.271600	-9.815000	27.043083	7.687914E-5	20.835815
2219.608670	-3.025500	3.270700	-9.893800	27.023980	7.615309E-5	20.827035
2220.604999	-3.000500	3.270700	-9.813500	26.977025	7.522902E-5	20.821068
2221.604758	-3.000300	3.271300	-9.813800	26.997275	7.582307E-5	20.833845
2222.607218	-2.973700	3.269500	-9.721700	27.047383	7.572406E-5	20.814535
2223.608843	-3.000900	3.269500	-9.810500	27.003193	7.747319E-5	20.826519
2224.607183	-2.986900	3.268700	-9.761400	26.984657	7.493200E-5	20.813096
2225.609223	-3.014400	3.267700	-9.849600	27.034587	7.430495E-5	20.812099
2226.609714	-3.012100	3.268200	-9.843500	27.039131	7.757219E-5	20.802444
2227.609064	-3.004900	3.266400	-9.814300	27.043203	7.628510E-5	20.810806
2228.609499	-3.012700	3.267600	-9.843300	27.009053	7.347989E-5	20.826249
2229.606925	-3.002500	3.267700	-9.809900	27.018955	7.344689E-5	20.817241
2230.607221	-3.019600	3.266200	-9.862000	27.069281	7.380992E-5	20.831816
2231.610708	-3.000400	3.266100	-9.799400	27.095813	7.651612E-5	20.812507
2232.608789	-3.001800	3.265000	-9.799800	27.138268	7.390893E-5	20.801626
2233.610106	-2.998200	3.265100	-9.788000	27.174990	7.437096E-5	20.816275
2234.613210	-2.984200	3.267200	-9.749400	27.164302	7.235781E-5	20.801731
2235.609636	-2.995800	3.263200	-9.774900	27.187653	7.413994E-5	20.832330
2236.610977	-2.979600	3.264600	-9.726800	27.157482	7.496500E-5	20.823795
2237.610566	-3.013800	3.262900	-9.832600	27.135390	7.377692E-5	20.802051
2238.613543	-2.996800	3.262200	-9.775900	27.167797	7.377692E-5	20.806669
2239.618243	-3.010700	3.262700	-9.821800	27.220498	7.374391E-5	20.788553
2240.608929	-2.988700	3.262300	-9.749100	27.190555	7.334788E-5	20.797791
2241.611244	-2.992600	3.261500	-9.760000	27.147882	7.149975E-5	20.811296
2242.610021	-2.992200	3.263700	-9.764800	27.134626	7.153275E-5	20.805549
2243.609595	-3.002300	3.261800	-9.791900	27.139225	7.166476E-5	20.800692
2244.611579	-2.976600	3.262000	-9.708900	27.151036	7.169776E-5	20.780328
2245.617979	-2.995700	3.259400	-9.763500	27.132755	7.087270E-5	20.805090
2246.609898	-3.017100	3.260000	-9.834800	27.186742	6.872755E-5	20.816715
2247.609357	-3.001700	3.259300	-9.782400	27.184832	6.932159E-5	20.811949
2248.610089	-3.003000	3.259800	-9.788200	27.188782	7.024566E-5	20.795533
2249.610165	-2.998400	3.259600	-9.772700	27.245448	7.047667E-5	20.812701
2250.609730	-2.986500	3.259800	-9.735100	27.254038	6.862854E-5	20.792418
2251.609869	-3.012500	3.256700	-9.810900	27.299786	7.057568E-5	20.811883
2252.610952	-3.013900	3.258100	-9.818800	27.346800	7.057568E-5	20.804174
2253.609583	-3.001800	3.257700	-9.778000	27.339900	6.928859E-5	20.792018
2254.611138	-3.029400	3.255300	-9.861000	27.285083	7.014665E-5	20.775757
2255.614095	-3.001300	3.255500	-9.770100	27.234320	6.777048E-5	20.792025
2256.610591	-3.033200	3.254800	-9.870700	27.208149	6.935459E-5	20.787512
2257.613511	-3.004100	3.256600	-9.782300	27.240756	6.839752E-5	20.806086
2258.616241	-2.977500	3.255900	-9.692900	27.279630	6.810050E-5	20.789237
2259.614080	-2.976400	3.255500	-9.688500	27.185797	6.810050E-5	20.798696
2260.611019	-2.981400	3.254000	-9.700300	27.224509	6.889256E-5	20.784528
2261.617061	-2.996600	3.253400	-9.748300	27.274281	6.948660E-5	20.791918
2262.613757	-2.992400	3.253700	-9.735500	27.243072	6.783648E-5	20.784233
2263.615361	-2.986100	3.253200	-9.713600	27.223720	6.780348E-5	20.775199
2264.616574	-3.005400	3.253200	-9.775600	27.192835	6.862854E-5	20.794869
2265.615957	-3.005500	3.252400	-9.774500	27.240820	6.569132E-5	20.794770
2266.612771	-3.011000	3.252700	-9.793100	27.183763	6.697842E-5	20.799969
2267.615041	-2.984900	3.251700	-9.705600	27.163167	6.638437E-5	20.778305
2268.618627	-3.015900	3.251300	-9.805000	27.138538	6.704442E-5	20.778190
2269.612198	-3.013200	3.250800	-9.794100	27.118583	6.750646E-5	20.779457
2270.611171	-2.994200	3.251800	-9.735200	27.151868	6.615336E-5	20.788278
2271.613328	-2.995100	3.250700	-9.735300	27.136660	6.612035E-5	20.776775
2272.623867	-3.025800	3.249500	-9.831300	27.125865	6.704442E-5	20.782988
2273.616303	-3.032700	3.250200	-9.855600	27.113811	6.823251E-5	20.783666
2274.614509	-3.006100	3.248200	-9.763800	27.148949	6.450324E-5	20.771591
2275.617558	-2.987200	3.248400	-9.702500	27.207112	6.456924E-5	20.774616
2276.615639	-2.994900	3.247600	-9.724900	27.236242	6.671440E-5	20.768353
2277.618649	-3.001000	3.246600	-9.742200	27.192035	6.456924E-5	20.772727
2278.622574	-3.012600	3.246100	-9.777800	27.227341	6.169803E-5	20.778842
2279.616485	-2.995900	3.246100	-9.724400	27.298398	6.209406E-5	20.760701
2280.619203	-3.007800	3.246200	-9.763300	27.249334	6.440423E-5	20.762082
2281.618570	-3.007600	3.245600	-9.760500	27.180306	6.288612E-5	20.785586
2282.622838	-3.022400	3.243200	-9.801200	27.184678	6.001491E-5	20.780975
2283.621000	-2.973500	3.245800	-9.649700	27.264662	6.311713E-5	20.774181
2284.620206	-2.972500	3.245900	-9.647700	27.338472	6.189605E-5	20.755967
2285.617817	-2.970500	3.244300	-9.636000	27.278665	5.806777E-5	20.771197
2286.621850	-2.981200	3.243400	-9.668400	27.247512	5.843079E-5	20.762620
2287.621306	-3.006900	3.243000	-9.750600	27.296040	6.060895E-5	20.755009
2288.619301	-2.980800	3.243000	-9.666300	27.320656	5.951987E-5	20.748476
2289.627257	-3.001100	3.241400	-9.727300	27.293324	6.008091E-5	20.761761
2290.622371	-2.989300	3.242000	-9.690700	27.264001	5.793576E-5	20.770672
2291.622535	-3.014700	3.240900	-9.769600	27.189244	5.760573E-5	20.765178
2292.622817	-3.025300	3.241300	-9.805100	27.172630	5.747372E-5	20.758899
2293.620149	-2.995700	3.240400	-9.706500	27.215284	5.717670E-5	20.785206
2294.624958	-2.992100	3.240100	-9.694100	27.185065	6.044394E-5	20.769036
2295.622225	-3.002600	3.240200	-9.728400	27.199069	5.912384E-5	20.761784
2296.622815	-3.018000	3.240300	-9.778200	27.279580	5.856280E-5	20.758366
2297.621886	-3.010700	3.238000	-9.747400	27.350755	5.767174E-5	20.785394
2298.632972	-2.977500	3.240500	-9.648300	27.356321	5.648365E-5	20.777242
2299.625027	-3.009800	3.237900	-9.744200	27.343717	5.753973E-5	20.740380
2300.626967	-3.006800	3.236700	-9.731200	27.363423	5.714370E-5	20.746454
2301.624431	-3.004000	3.239200	-9.729400	27.300140	5.744072E-5	20.737321
2302.626186	-2.985900	3.237000	-9.664800	27.307340	5.651665E-5	20.763531
2303.624987	-2.996200	3.238000	-9.700700	27.251149	5.460251E-5	20.752527
2304.625191	-2.984900	3.236600	-9.660500	27.336921	5.605462E-5	20.750614
2305.631359	-2.986000	3.238100	-9.668100	27.368306	5.579060E-5	20.752788
2306.626243	-3.011300	3.235200	-9.741800	27.402567	5.737471E-5	20.748847
2307.628963	-3.027700	3.232900	-9.787600	27.362479	5.681367E-5	20.754513
2308.628179	-2.997700	3.235300	-9.697400	27.364015	5.651665E-5	20.769335
2309.638797	-3.007900	3.233400	-9.724600	27.298382	5.433849E-5	20.734131
2310.630781	-2.998700	3.234100	-9.697400	27.251423	5.526256E-5	20.750907
2311.628738	-2.991000	3.233800	-9.671500	27.257129	5.562559E-5	20.750956
2312.629759	-3.025200	3.232900	-9.778900	27.302982	5.513055E-5	20.757250
2313.630923	-2.995000	3.232800	-9.681300	27.328362	5.437149E-5	20.775195
2314.627114	-3.000600	3.231500	-9.695800	27.297423	5.658266E-5	20.740753
2315.627213	-2.996700	3.232500	-9.686300	27.276707	5.216033E-5	20.753106
2316.628803	-2.975700	3.232000	-9.617000	27.236598	5.480053E-5	20.754013
2317.633106	-3.016200	3.228800	-9.737900	27.255226	5.440450E-5	20.727230
2318.628394	-2.993000	3.231900	-9.671300	27.272172	5.390946E-5	20.739534
2319.631527	-2.991300	3.230300	-9.661700	27.304770	5.420648E-5	20.727753
2320.631470	-3.019500	3.227800	-9.745700	27.360194	5.489953E-5	20.749843
2321.632336	-2.976200	3.230100	-9.612100	27.390083	5.367844E-5	20.730124
2322.635442	-2.991800	3.227900	-9.657000	27.364087	5.585660E-5	20.743328
2323.630818	-2.987800	3.229100	-9.647000	27.424709	5.417348E-5	20.739355
2324.633653	-3.007700	3.227600	-9.706600	27.416307	5.417348E-5	20.738013
2325.630497	-2.978400	3.229600	-9.618500	27.381096	5.344743E-5	20.739101
2326.633044	-2.992500	3.227300	-9.656800	27.330638	5.480053E-5	20.750931
2327.630055	-2.991500	3.226000	-9.649400	27.353458	5.364544E-5	20.716513
2328.636995	-2.990400	3.224500	-9.641600	27.416811	5.232534E-5	20.723348
2329.634246	-3.040100	3.223400	-9.798000	27.412789	5.447050E-5	20.733052
2330.632227	-3.026300	3.224000	-9.755300	27.409961	5.311740E-5	20.734001
2331.627719	-2.991100	3.223600	-9.640800	27.373190	5.239135E-5	20.739209
2332.634263	-2.996900	3.225000	-9.663400	27.354710	5.252336E-5	20.735317
2333.641216	-2.998100	3.223700	-9.664400	27.420298	5.529556E-5	20.756255
2334.632779	-3.052000	3.221900	-9.832000	27.376213	5.453651E-5	20.745570
2335.636331	-2.962700	3.221900	-9.544200	27.386006	5.245735E-5	20.744990
2336.640340	-2.997800	3.221600	-9.657000	27.408493	5.361244E-5	20.740584
2337.635030	-2.998500	3.219800	-9.654100	27.412466	5.338142E-5	20.736046
2338.633427	-3.014600	3.221400	-9.710200	27.426078	5.301840E-5	20.747844
2339.634415	-3.014000	3.221100	-9.707200	27.418634	5.338142E-5	20.723285
2340.634658	-2.998800	3.219800	-9.654400	27.386308	5.400847E-5	20.735336
2341.635379	-3.014400	3.219500	-9.704100	27.356314	5.318341E-5	20.727447
2342.636346	-3.010500	3.218700	-9.689200	27.368048	5.176430E-5	20.734036
2343.641574	-3.013800	3.217800	-9.696800	27.415125	5.130227E-5	20.734453
2344.636520	-3.023400	3.217500	-9.727300	27.336038	5.021319E-5	20.724120
2345.640401	-2.988600	3.216900	-9.613300	27.319199	5.008118E-5	20.743691
2346.642110	-2.988000	3.217700	-9.613700	27.319557	5.209433E-5	20.727456
2347.639509	-2.966000	3.217900	-9.543600	27.286667	4.905810E-5	20.733252
2348.637619	-3.011900	3.215500	-9.683700	27.352731	5.103825E-5	20.734274
2349.638541	-2.981600	3.216900	-9.590200	27.404618	4.952014E-5	20.741428
2350.641525	-2.994900	3.214400	-9.625400	27.449198	4.869508E-5	20.731274
2351.639105	-3.011300	3.215500	-9.682500	27.440292	4.928912E-5	20.733220
2352.644188	-3.030600	3.214200	-9.738900	27.450612	4.928912E-5	20.746448
2353.642403	-3.008000	3.213100	-9.663900	27.506346	4.813404E-5	20.732345
2354.638273	-3.032500	3.213300	-9.743600	27.546054	4.952014E-5	20.737210
2355.650048	-2.991100	3.212500	-9.608200	27.617676	4.773801E-5	20.717286
2356.643077	-3.002200	3.213700	-9.647500	27.599549	4.796902E-5	20.729394
2357.642255	-2.979600	3.212200	-9.570700	27.546672	4.859607E-5	20.725028
2358.645168	-3.013300	3.212900	-9.680500	27.484334	4.661593E-5	20.725372
2359.643098	-3.001200	3.210500	-9.633900	27.419742	4.780401E-5	20.714441
2360.647438	-3.005700	3.210300	-9.647400	27.455976	4.820004E-5	20.715333
2361.645583	-2.986400	3.210300	-9.586400	27.492322	5.011418E-5	20.740521
2362.642874	-2.991800	3.211400	-9.606900	27.581058	4.829905E-5	20.736868
2363.643144	-3.014600	3.210100	-9.676300	27.577515	4.806803E-5	20.722871
2364.659529	-2.996800	3.210900	-9.621000	27.623777	4.767200E-5	20.723900
2365.643117	-3.020500	3.209300	-9.692900	27.594748	4.546084E-5	20.724563
2366.641628	-2.988500	3.206900	-9.583500	27.574209	4.793602E-5	20.708163
2367.644075	-2.997900	3.208600	-9.618500	27.568254	4.790302E-5	20.728251
2368.644481	-3.014900	3.207400	-9.669400	27.559495	4.661593E-5	20.715644
2369.640726	-2.992100	3.204900	-9.588800	27.574868	4.704496E-5	20.721155
2370.645430	-2.994800	3.205800	-9.599900	27.613778	4.605488E-5	20.719529
2371.650990	-2.965900	3.206200	-9.508400	27.577940	4.480079E-5	20.709546
2372.646205	-2.988100	3.204200	-9.574000	27.547999	4.684694E-5	20.713086
2373.650150	-3.003100	3.204400	-9.621400	27.534682	4.641791E-5	20.729086
2374.649880	-2.983800	3.204500	-9.560600	27.603078	4.513082E-5	20.715875
2375.656244	-2.998700	3.203000	-9.603700	27.662533	4.516382E-5	20.724966
2376.648996	-3.030900	3.201900	-9.703500	27.669691	4.433876E-5	20.714624
2377.646975	-2.976100	3.202900	-9.531500	27.632831	4.480079E-5	20.706931
2378.643992	-3.002500	3.202000	-9.613500	27.582190	4.245762E-5	20.722833
2379.648239	-2.999100	3.200700	-9.598600	27.602649	4.516382E-5	20.720184
2380.654597	-2.996300	3.202500	-9.594600	27.577307	4.252363E-5	20.699900
2381.647138	-2.990700	3.200000	-9.569500	27.550609	4.344769E-5	20.702435
2382.650653	-3.027800	3.199100	-9.685900	27.525031	4.417375E-5	20.682388
2383.649619	-3.016800	3.198700	-9.649200	27.541704	4.225961E-5	20.708174
2384.647212	-2.990300	3.199200	-9.565700	27.611741	4.255663E-5	20.721272
2385.654137	-3.006400	3.198100	-9.614000	27.621888	4.216060E-5	20.685961
2386.650398	-2.962800	3.199100	-9.477700	27.665452	4.324968E-5	20.703720
2387.651757	-2.994200	3.198000	-9.574600	27.678548	4.298566E-5	20.695560
2388.651593	-2.995300	3.196300	-9.572800	27.648935	4.156656E-5	20.697531
2389.647454	-2.975300	3.196000	-9.507900	27.578024	4.202859E-5	20.692086
2390.649346	-3.005600	3.194100	-9.599500	27.572621	4.014745E-5	20.710833
2391.651399	-3.012200	3.195000	-9.623300	27.507384	4.275464E-5	20.697351
2392.649544	-3.000200	3.194400	-9.582700	27.569663	4.156656E-5	20.701693
2393.653973	-3.004000	3.193300	-9.591700	27.627227	4.047748E-5	20.689911
2394.650666	-2.988500	3.194000	-9.543400	27.687201	4.443777E-5	20.706164
2395.652436	-2.972900	3.192500	-9.489900	27.662073	4.179757E-5	20.715967
2396.650548	-2.984300	3.192200	-9.525800	27.679922	4.126953E-5	20.684614
2397.648704	-3.009300	3.190700	-9.600900	27.701288	3.938840E-5	20.707064
2398.652281	-2.997500	3.191000	-9.564200	27.631298	3.829932E-5	20.695430
2399.651708	-2.994300	3.190500	-9.551300	27.584028	3.919038E-5	20.710931
2400.652774	-3.014900	3.189600	-9.615100	27.560864	3.915738E-5	20.698528
2401.653962	-3.013600	3.188300	-9.606500	27.568623	3.816731E-5	20.705388
2402.651714	-3.008600	3.188300	-9.591200	27.601805	3.909137E-5	20.699894
2403.656447	-2.997000	3.188200	-9.553300	27.603942	3.803530E-5	20.701570
2404.654149	-2.992500	3.188800	-9.541600	27.617786	3.853033E-5	20.691791
2405.653235	-2.961200	3.188100	-9.438700	27.661065	3.882735E-5	20.709263
2406.656013	-2.994700	3.187200	-9.543700	27.629542	3.961941E-5	20.689870
2407.659483	-2.990500	3.186700	-9.529000	27.626366	3.895936E-5	20.708486
2408.653077	-2.995000	3.185300	-9.538800	27.751557	3.938840E-5	20.690319
2409.655257	-2.989000	3.185500	-9.519700	27.707713	3.787028E-5	20.679388
2410.658209	-3.025000	3.183700	-9.630500	27.735196	3.641818E-5	20.653462
2411.653423	-2.976000	3.183800	-9.474300	27.691002	3.724324E-5	20.696713
2412.656289	-3.009000	3.183100	-9.577000	27.713253	3.562612E-5	20.700138
2413.655547	-3.011500	3.181500	-9.579900	27.710768	3.750726E-5	20.693843
2414.653498	-3.015600	3.181300	-9.593200	27.794245	3.697922E-5	20.685863
2415.657587	-3.003700	3.181200	-9.554900	27.774229	3.763927E-5	20.681841
2416.658339	-3.008800	3.180700	-9.568600	27.781573	3.523009E-5	20.691602
2417.658641	-2.993700	3.179400	-9.517200	27.817582	3.678120E-5	20.691806
2418.653664	-2.980700	3.179300	-9.475300	27.848897	3.549411E-5	20.686811
2419.657705	-2.990900	3.179700	-9.509900	27.768851	3.486706E-5	20.715312
2420.659647	-2.979200	3.179100	-9.470300	27.777828	3.750726E-5	20.684040
2421.659853	-3.011400	3.176500	-9.564400	27.767040	3.473505E-5	20.696892
2422.662901	-2.978300	3.176800	-9.460400	27.787852	3.559312E-5	20.675160
2423.654971	-3.018500	3.175800	-9.585000	27.821823	3.651718E-5	20.677106
2424.661603	-2.996100	3.174100	-9.508700	27.710182	3.367898E-5	20.695150
2425.659863	-3.021100	3.174400	-9.589200	27.696005	3.262290E-5	20.687047
2426.656353	-3.015000	3.173800	-9.568200	27.703073	3.381099E-5	20.709809
2427.659757	-2.996400	3.173500	-9.508200	27.725819	3.447103E-5	20.684807
2428.659257	-3.003300	3.173400	-9.529100	27.676142	3.153382E-5	20.678912
2429.663614	-2.995300	3.172600	-9.502000	27.648885	3.262290E-5	20.680883
2430.659794	-2.996200	3.172400	-9.504300	27.675004	3.272191E-5	20.692468
2431.661383	-3.018600	3.171800	-9.573600	27.713520	3.407501E-5	20.702303
2432.657694	-2.993000	3.171000	-9.489900	27.690261	3.311794E-5	20.682689
2433.659271	-3.028000	3.169900	-9.597700	27.687336	3.447103E-5	20.681168
2434.658967	-3.021900	3.168400	-9.573900	27.723739	3.272191E-5	20.684136
2435.658745	-3.009500	3.169000	-9.536400	27.705427	3.008171E-5	20.679458
2436.657038	-2.994700	3.168300	-9.487300	27.659567	3.272191E-5	20.682149
2437.660717	-2.985000	3.167400	-9.453700	27.691186	3.156682E-5	20.693579
2438.656389	-3.011400	3.166300	-9.533900	27.684394	3.143481E-5	20.687218
2439.661873	-3.000600	3.164700	-9.495600	27.677424	2.945467E-5	20.681625
2440.658451	-2.988900	3.166300	-9.462300	27.699643	3.057675E-5	20.704935
2441.662914	-2.991600	3.163800	-9.463200	27.748605	3.179784E-5	20.703471
2442.662921	-2.985700	3.165600	-9.450100	27.806386	3.136881E-5	20.691444
2443.662844	-3.019200	3.163000	-9.548700	27.801203	3.150082E-5	20.702824
2444.660488	-3.000000	3.162800	-9.487300	27.869713	3.107178E-5	20.685001
2445.661526	-3.002800	3.161400	-9.492400	27.865546	3.282091E-5	20.690766
2446.664920	-3.017300	3.161300	-9.537700	27.895851	2.968568E-5	20.690920
2447.658350	-3.012600	3.160000	-9.519100	27.898507	3.024672E-5	20.677471
2448.662157	-2.990100	3.159700	-9.446800	27.921307	3.192985E-5	20.672918
2449.661603	-2.994100	3.157300	-9.451500	27.847302	2.952067E-5	20.696586
2450.659303	-2.967300	3.158700	-9.372000	27.804306	2.905864E-5	20.685557
2451.661639	-2.997900	3.157600	-9.464900	27.777297	2.882762E-5	20.701999
2452.664123	-2.996800	3.156000	-9.457200	27.763641	2.754053E-5	20.703429
2453.656986	-2.981900	3.155500	-9.408200	27.686409	2.882762E-5	20.687822
2454.665334	-3.003200	3.154100	-9.471500	27.705386	2.783755E-5	20.711662
2455.662633	-3.000500	3.154500	-9.464100	27.696856	2.813457E-5	20.698336
2456.657795	-2.987400	3.153700	-9.420000	27.699187	2.816757E-5	20.695466
2457.658589	-3.003700	3.152700	-9.468900	27.768052	2.740852E-5	20.699333
2458.659474	-3.031200	3.152300	-9.554400	27.773796	2.968568E-5	20.690414
2459.662642	-3.007400	3.152100	-9.478600	27.741220	2.829958E-5	20.713583
2460.659976	-3.002600	3.150000	-9.455400	27.762959	2.872861E-5	20.701321
2461.667953	-3.003100	3.148500	-9.454300	27.806923	2.783755E-5	20.685819
2462.660452	-3.026800	3.147800	-9.526500	27.868965	2.780454E-5	20.701795
2463.658941	-2.994100	3.149400	-9.427800	27.957483	2.625343E-5	20.705539
2464.658659	-3.006000	3.145700	-9.454500	28.006564	2.714450E-5	20.694249
2465.661211	-2.999700	3.145700	-9.434600	27.985715	2.645145E-5	20.707878
2466.661691	-3.002700	3.145900	-9.445900	27.888071	2.882762E-5	20.683089
2467.658543	-3.003300	3.144400	-9.442700	27.918246	2.556038E-5	20.689753
2468.663011	-3.027300	3.143700	-9.514600	27.916622	2.658346E-5	20.685748
2469.664239	-2.988900	3.142800	-9.392700	27.932874	2.714450E-5	20.693097
2470.657711	-2.991300	3.143100	-9.401300	27.916264	2.457031E-5	20.687758
2471.663594	-3.028500	3.142200	-9.514500	27.935961	2.532936E-5	20.697153
2472.658462	-3.007100	3.140500	-9.442400	27.950613	2.562638E-5	20.698150
2473.672019	-2.985300	3.140500	-9.374200	27.921780	2.579140E-5	20.695681
2474.663246	-2.955600	3.139600	-9.278400	27.929373	2.674847E-5	20.706644
2475.659754	-2.982300	3.139300	-9.361100	27.905787	2.598941E-5	20.711354
2476.660561	-2.975800	3.138700	-9.339400	27.932266	2.285418E-5	20.707659
2477.665021	-3.016700	3.135600	-9.458300	27.939154	2.473532E-5	20.697995
2478.665053	-3.025300	3.134800	-9.483100	28.015540	2.509835E-5	20.706605
2479.672993	-3.049900	3.133800	-9.556400	28.037005	2.229314E-5	20.709246
2480.673311	-2.975300	3.134500	-9.325100	28.040766	2.572539E-5	20.699754
2481.661726	-2.988400	3.133300	-9.361900	28.068484	2.447130E-5	20.696361
2482.669455	-2.985600	3.132300	-9.351100	28.079342	2.519735E-5	20.703499
2483.665901	-2.993000	3.132400	-9.373200	28.038184	2.288718E-5	20.691939
2484.671716	-3.023400	3.129700	-9.460600	27.981762	2.331622E-5	20.699631
2485.662784	-2.973600	3.131100	-9.309400	27.991550	2.278818E-5	20.700948
2486.665581	-3.008100	3.128300	-9.409300	27.948138	2.100605E-5	20.716997
2487.669780	-2.976900	3.128100	-9.311100	27.986612	2.127006E-5	20.708781
2488.664143	-3.001300	3.126300	-9.381600	28.033798	2.189711E-5	20.701275
2489.673312	-2.990500	3.127600	-9.352200	27.970149	2.430629E-5	20.707383
2490.664900	-3.027500	3.125400	-9.460200	27.947879	2.272217E-5	20.714365
2491.672022	-3.007200	3.125500	-9.398100	27.897496	2.358023E-5	20.712019
2492.671205	-3.013500	3.123300	-9.411400	27.915674	2.229314E-5	20.692855
2493.671818	-2.990500	3.122500	-9.337600	27.951152	2.292019E-5	20.704857
2494.670769	-2.993100	3.122600	-9.345400	27.990698	1.988396E-5	20.707678
2495.675867	-3.019600	3.120800	-9.423000	28.047548	2.321721E-5	20.711324
2496.673131	-3.001100	3.120200	-9.362800	28.082900	2.219413E-5	20.710400
2497.669810	-3.014900	3.117800	-9.398800	28.068395	2.186411E-5	20.715714
2498.673560	-2.989300	3.118800	-9.322200	28.039865	2.315120E-5	20.708805
2499.669860	-2.984900	3.118300	-9.307300	28.042049	2.120406E-5	20.730446
2500.669658	-2.988900	3.116300	-9.312700	27.985418	2.199612E-5	20.722279
2501.674738	-3.009900	3.115300	-9.375300	27.879358	2.077503E-5	20.720790
2502.670616	-2.999200	3.114800	-9.340700	27.903157	2.156709E-5	20.708707
2503.675483	-3.026900	3.112900	-9.421300	27.977742	2.133607E-5	20.727355
2504.675952	-2.995600	3.114200	-9.327400	28.010733	2.150108E-5	20.723579
2505.674860	-2.979300	3.112000	-9.271400	27.994222	2.282118E-5	20.738254
2506.670534	-2.983800	3.110100	-9.278700	28.023833	2.057701E-5	20.717798
2507.674168	-2.978800	3.109800	-9.262500	28.035650	2.090704E-5	20.724952
2508.670120	-2.978900	3.109300	-9.261600	27.967542	2.130307E-5	20.722778
2509.674575	-2.993200	3.108000	-9.302000	27.921384	1.961994E-5	20.720889
2510.674769	-3.021900	3.108000	-9.390300	27.872162	2.084103E-5	20.717341
2511.672429	-2.995000	3.105000	-9.297200	27.921481	1.935592E-5	20.718616
2512.672785	-2.985700	3.105400	-9.270800	27.917956	1.998297E-5	20.731665
2513.681449	-3.010800	3.103800	-9.344100	27.915057	2.070902E-5	20.721633
2514.675402	-2.995000	3.103400	-9.293400	27.933429	1.919091E-5	20.705036
2515.673918	-3.011400	3.102800	-9.342600	27.935809	1.909190E-5	20.729244
2516.678144	-3.006300	3.101600	-9.323800	27.929157	2.123706E-5	20.706427
2517.671420	-2.994300	3.100000	-9.281700	27.982121	1.968595E-5	20.725124
2518.676113	-2.970100	3.099800	-9.205400	27.980156	2.136907E-5	20.744484
2519.677043	-3.000200	3.096900	-9.289600	28.014397	2.090704E-5	20.722051
2520.677178	-2.967700	3.097900	-9.193000	28.067876	1.833285E-5	20.707604
2521.673024	-2.979700	3.096600	-9.226500	28.108310	2.067602E-5	20.714169
2522.678451	-3.013000	3.095000	-9.324100	28.184408	1.862987E-5	20.746209
2523.673401	-3.018400	3.092900	-9.335200	28.170474	1.787081E-5	20.715584
2524.675645	-3.029400	3.091700	-9.364600	28.216239	2.074203E-5	20.733684
2525.677222	-3.014300	3.090900	-9.315300	28.215736	1.773881E-5	20.717056
2526.675606	-2.999200	3.092200	-9.273000	28.198107	1.612169E-5	20.741035
2527.678435	-3.012800	3.089400	-9.306100	28.205294	1.948793E-5	20.725035
2528.679235	-3.015600	3.088700	-9.313300	28.210004	1.744178E-5	20.721242
2529.683393	-3.006300	3.089100	-9.285700	28.180713	1.892689E-5	20.714987
2530.675426	-3.016200	3.086400	-9.308200	28.171587	1.862987E-5	20.745629
2531.678716	-2.995200	3.085200	-9.239900	28.202322	1.856387E-5	20.719198
2532.678306	-2.990200	3.084200	-9.221700	28.201275	1.572566E-5	20.724782
2533.679761	-2.991800	3.084400	-9.227200	28.187917	1.843186E-5	20.726507
2534.679402	-2.990500	3.082600	-9.217400	28.136230	1.793682E-5	20.728527
2535.682221	-2.996700	3.080500	-9.230100	28.110220	1.582466E-5	20.735059
2536.681561	-3.014800	3.080300	-9.286100	28.088788	1.839885E-5	20.716802
2537.677607	-2.981300	3.079400	-9.179700	28.055419	1.737578E-5	20.744853
2538.679572	-3.007400	3.077900	-9.256000	28.096942	1.955394E-5	20.723114
2539.679782	-3.006800	3.075800	-9.247600	28.121434	1.760680E-5	20.736391
2540.684985	-2.990800	3.075600	-9.197100	28.060097	1.750779E-5	20.729647
2541.679139	-2.998700	3.074300	-9.218000	28.012766	1.711176E-5	20.753601
2542.683197	-3.007600	3.074600	-9.246100	27.994346	1.582466E-5	20.731740
2543.682324	-2.997500	3.071500	-9.205900	27.970427	1.671573E-5	20.717146
2544.679402	-2.998200	3.070000	-9.203300	28.031364	1.730977E-5	20.736285
2545.688023	-2.984100	3.069800	-9.159700	28.045641	1.664973E-5	20.758719
2546.680891	-2.979900	3.069100	-9.145200	28.015592	1.526362E-5	20.760714
2547.682131	-3.011000	3.066700	-9.232900	28.098526	1.516462E-5	20.743676
2548.685699	-2.990500	3.067100	-9.171500	28.129239	1.602268E-5	20.740455
2549.683627	-3.001200	3.064600	-9.197000	28.145147	1.539563E-5	20.768325
2550.681494	-2.999300	3.064100	-9.190100	28.187243	1.235941E-5	20.741003
2551.684100	-3.015900	3.062000	-9.233600	28.162306	1.506561E-5	20.733440
2552.684626	-2.987200	3.061800	-9.145900	28.118828	1.529663E-5	20.740880
2553.689033	-2.987300	3.060300	-9.140500	28.161225	1.648471E-5	20.748948
2554.687054	-2.984800	3.058400	-9.127700	28.197214	1.483459E-5	20.756257
2555.683095	-2.985200	3.058500	-9.129400	28.244408	1.615469E-5	20.754459
2556.691509	-2.992100	3.056800	-9.145700	28.280702	1.483459E-5	20.758759
2557.691739	-2.989000	3.055100	-9.130600	28.232097	1.499960E-5	20.759134
2558.686909	-3.039200	3.052900	-9.277200	28.217644	1.523062E-5	20.755963
2559.687789	-2.988300	3.054700	-9.127700	28.240550	1.539563E-5	20.748678
2560.691492	-3.017900	3.052100	-9.208600	28.273565	1.493360E-5	20.738770
2561.686839	-3.002100	3.051100	-9.159100	28.295374	1.579166E-5	20.750771
2562.686534	-2.992700	3.050100	-9.126900	28.245958	1.529663E-5	20.745113
2563.685649	-3.019900	3.047800	-9.203600	28.233737	1.727677E-5	20.753673
2564.683534	-2.983500	3.047900	-9.091700	28.148938	1.546164E-5	20.751752
2565.687927	-3.002300	3.045800	-9.143500	28.102999	1.592367E-5	20.769991
2566.684713	-3.006900	3.044100	-9.153000	28.124422	1.552764E-5	20.749356
2567.686099	-2.997000	3.044500	-9.123300	28.091678	1.457057E-5	20.771871
2568.690061	-3.008500	3.042300	-9.151500	28.075112	1.585767E-5	20.773212
2569.688437	-2.982900	3.042500	-9.074100	28.091451	1.308546E-5	20.750779
2570.693173	-3.033300	3.039900	-9.220000	28.170530	1.625370E-5	20.757842
2571.689658	-2.996800	3.038400	-9.104600	28.269602	1.473558E-5	20.756118
2572.695116	-3.001900	3.037500	-9.117000	28.343691	1.730977E-5	20.742996
2573.694057	-2.978500	3.036300	-9.042700	28.414446	1.721077E-5	20.741696
2574.688890	-3.017300	3.035000	-9.156500	28.348856	1.539563E-5	20.760999
2575.688345	-3.001400	3.033300	-9.101900	28.299507	1.377851E-5	20.759201
2576.691435	-2.984400	3.032200	-9.048100	28.293986	1.701275E-5	20.761702
2577.691812	-2.979600	3.030600	-9.028900	28.239715	1.608868E-5	20.759692
2578.691817	-3.001800	3.030800	-9.095800	28.319003	1.509861E-5	20.775985
2579.693488	-2.998600	3.029100	-9.081000	28.363048	1.684774E-5	20.767703
2580.692977	-2.996200	3.027500	-9.070100	28.413645	1.711176E-5	20.771710
2581.694213	-3.002400	3.026300	-9.084500	28.421276	1.655072E-5	20.757584
2582.698727	-3.002400	3.024600	-9.079800	28.436783	1.661672E-5	20.782208
2583.696758	-2.992800	3.022700	-9.045500	28.362928	1.450457E-5	20.783704
2584.693959	-2.970700	3.023400	-8.979900	28.309440	1.536263E-5	20.764934
2585.695451	-2.979200	3.020600	-8.997900	28.265092	1.321747E-5	20.762008
2586.693638	-3.000700	3.018800	-9.057400	28.215691	1.476859E-5	20.764428
2587.691359	-3.002700	3.019100	-9.064600	28.212899	1.245842E-5	20.779161
2588.699216	-3.011200	3.016000	-9.080400	28.211186	1.351449E-5	20.781230
2589.698715	-3.024400	3.014700	-9.116500	28.270233	1.430655E-5	20.774771
2590.693357	-2.986400	3.013900	-9.000300	28.331843	1.364650E-5	20.787966
2591.693991	-3.010500	3.012700	-9.069200	28.462148	1.463658E-5	20.764128
2592.696607	-2.957100	3.013200	-8.908700	28.533739	1.612169E-5	20.779325
2593.696372	-3.007300	3.010100	-9.051900	28.583937	1.503261E-5	20.790052
2594.699749	-3.009200	3.007900	-9.050100	28.510410	1.546164E-5	20.785703
2595.698918	-3.014700	3.006200	-9.062100	28.408486	1.457057E-5	20.773154
2596.703485	-3.002500	3.006500	-9.026200	28.362730	1.397653E-5	20.779711
2597.702560	-2.975400	3.004500	-8.938000	28.353360	1.417454E-5	20.792562
2598.698186	-2.993000	3.003900	-8.990300	28.397746	1.457057E-5	20.786047
2599.701129	-2.983900	3.002200	-8.957400	28.374868	1.516462E-5	20.795726
2600.700618	-2.995600	3.000000	-8.986000	28.420348	1.249142E-5	20.797427
2601.699120	-3.021000	2.998500	-9.057300	28.491220	1.549464E-5	20.791982
2602.701416	-3.014100	2.998800	-9.037700	28.472874	1.437256E-5	20.805276
2603.702772	-2.999800	2.996900	-8.989100	28.441027	1.529663E-5	20.782688
2604.697693	-3.019800	2.994000	-9.040600	28.412175	1.730977E-5	20.765962
2605.701539	-2.994300	2.994100	-8.963700	28.425034	1.420755E-5	20.788395
2606.697532	-3.016000	2.992300	-9.024100	28.485872	1.490060E-5	20.794657
2607.705022	-2.998300	2.990300	-8.964600	28.483413	1.503261E-5	20.796922
2608.701467	-2.986700	2.989500	-8.928100	28.388225	1.631970E-5	20.799694
2609.701393	-2.978000	2.988400	-8.898600	28.323907	1.645171E-5	20.786140
2610.704969	-3.017900	2.986200	-9.011500	28.298397	1.239241E-5	20.812611
2611.705925	-3.024300	2.984400	-9.024700	28.365039	1.493360E-5	20.795313
2612.706175	-2.996300	2.984300	-8.940900	28.332174	1.592367E-5	20.788773
2613.708447	-3.010700	2.981700	-8.976200	28.454376	1.608868E-5	20.811778
2614.708222	-2.994100	2.979800	-8.920700	28.516625	1.265643E-5	20.806186
2615.711054	-3.039000	2.978100	-9.049500	28.456852	1.150135E-5	20.807159
2616.709842	-3.009500	2.978700	-8.963800	28.416302	1.348149E-5	20.812318
2617.707232	-3.031000	2.976000	-9.019300	28.395308	1.377851E-5	20.801609
2618.709202	-2.994300	2.975200	-8.908400	28.406658	1.282144E-5	20.808297
2619.713226	-2.999000	2.973500	-8.917100	28.454825	1.364650E-5	20.790419
2620.711052	-3.005100	2.972500	-8.931200	28.473464	1.463658E-5	20.825783
2621.718797	-3.007000	2.970800	-8.932600	28.468309	1.354750E-5	20.805894
2622.707713	-3.010000	2.969500	-8.936900	28.500253	1.206239E-5	20.824786
2623.712635	-2.989800	2.969100	-8.876000	28.558554	1.486759E-5	20.813325
2624.709919	-3.008400	2.965800	-8.920900	28.620026	1.193038E-5	20.824027
2625.713850	-3.012500	2.964700	-8.929700	28.652119	1.090730E-5	20.816996
2626.715636	-2.982400	2.962700	-8.835500	28.588183	1.150135E-5	20.805233
2627.713592	-2.987100	2.962300	-8.848400	28.566136	1.255742E-5	20.822857
2628.715733	-2.998800	2.960300	-8.876400	28.470631	1.292045E-5	20.821509
2629.712172	-2.999900	2.958800	-8.875500	28.467677	1.199638E-5	20.819956
2630.715135	-3.011100	2.956300	-8.899600	28.441048	1.295345E-5	20.814478
2631.713265	-2.999000	2.955600	-8.862600	28.418341	1.176537E-5	20.827174
2632.712780	-3.009100	2.953100	-8.884800	28.482929	1.196338E-5	20.808289
2633.719941	-2.970200	2.951900	-8.767000	28.555429	1.407554E-5	20.823928
2634.714055	-2.986700	2.950400	-8.810500	28.535631	1.090730E-5	20.816792
2635.714048	-3.004500	2.950000	-8.862500	28.500002	1.222740E-5	20.819791
2636.710853	-2.995600	2.948000	-8.830400	28.450960	1.443856E-5	20.820666
2637.713371	-3.020100	2.945100	-8.893900	28.442826	1.090730E-5	20.841398
2638.716199	-3.015000	2.943600	-8.873600	28.513331	1.308546E-5	20.819465
2639.717103	-2.984200	2.944500	-8.786100	28.629083	1.212839E-5	20.826511
2640.719743	-2.999200	2.942100	-8.822500	28.642209	1.424055E-5	20.832618
2641.721398	-3.016300	2.938700	-8.863000	28.617931	1.470258E-5	20.833770
2642.722258	-3.016400	2.938600	-8.863300	28.628710	1.219440E-5	20.828980
2643.719368	-3.035100	2.937000	-8.913700	28.687514	1.374551E-5	20.822774
2644.717765	-3.003900	2.935400	-8.817400	28.744295	1.394353E-5	20.817853
2645.715661	-3.005700	2.934700	-8.820500	28.774665	1.235941E-5	20.827582
2646.721931	-2.991700	2.932000	-8.770900	28.776824	1.232641E-5	20.837816
2647.722666	-2.967200	2.931900	-8.698500	28.771061	1.212839E-5	20.835804
2648.719146	-3.013200	2.928900	-8.824400	28.729264	1.301946E-5	20.819308
2649.717719	-2.975300	2.929100	-8.714200	28.661727	1.328348E-5	20.843742
2650.726160	-3.029300	2.925800	-8.862500	28.672157	1.189738E-5	20.820109
2651.718795	-3.027800	2.922400	-8.847100	28.734205	1.216140E-5	20.839458
2652.721658	-3.005500	2.921300	-8.778300	28.787016	1.120432E-5	20.826747
2653.725247	-3.004600	2.921800	-8.777600	28.841924	1.427355E-5	20.836539
2654.722303	-2.988100	2.919500	-8.723200	28.892537	1.047827E-5	20.854809
2655.719785	-2.987900	2.916900	-8.715000	28.882775	1.288745E-5	20.849717
2656.727233	-3.003700	2.916300	-8.758600	28.771295	1.344849E-5	20.833670
2657.721688	-2.978900	2.914200	-8.679900	28.631857	1.417454E-5	20.833571
2658.720273	-2.994100	2.911000	-8.714700	28.553510	1.216140E-5	20.836694
2659.725786	-2.993600	2.910200	-8.710800	28.556230	1.173236E-5	20.863614
2660.723850	-3.011400	2.909200	-8.758800	28.609803	1.503261E-5	20.841231
2661.719709	-3.005200	2.908100	-8.738500	28.672318	1.433956E-5	20.836392
2662.725223	-3.006600	2.905400	-8.734400	28.704654	1.407554E-5	20.835296
2663.723130	-2.986100	2.904400	-8.671500	28.706934	1.457057E-5	20.844231
2664.727663	-3.003100	2.901700	-8.712400	28.706269	1.407554E-5	20.847353
2665.726310	-2.992700	2.900000	-8.678400	28.759859	1.391052E-5	20.858659
2666.724379	-3.010200	2.897900	-8.722600	28.785326	1.552764E-5	20.856812
2667.728746	-3.024000	2.895300	-8.754600	28.735820	1.437256E-5	20.843455
2668.731005	-3.004600	2.893400	-8.692900	28.741274	1.367951E-5	20.855111
2669.731429	-3.012600	2.892400	-8.712500	28.739091	1.328348E-5	20.843904
2670.726893	-2.986800	2.892200	-8.636400	28.738798	1.585767E-5	20.852618
2671.732956	-2.996900	2.889400	-8.658500	28.717883	1.391052E-5	20.833449
2672.725825	-2.988100	2.887800	-8.627300	28.695490	1.556064E-5	20.865894
2673.726486	-2.988700	2.885500	-8.622800	28.703810	1.179837E-5	20.866213
2674.725328	-3.027200	2.882100	-8.724200	28.694395	1.559365E-5	20.862420
2675.728479	-2.992500	2.881700	-8.622300	28.702512	1.513161E-5	20.869173
2676.728218	-3.008800	2.878800	-8.660300	28.677019	1.490060E-5	20.856772
2677.728261	-3.009400	2.879200	-8.663900	28.680980	1.747479E-5	20.858391
2678.728037	-3.025600	2.876400	-8.701300	28.668716	1.354750E-5	20.869745
2679.732263	-3.014400	2.875800	-8.668200	28.701546	1.509861E-5	20.871045
2680.725987	-3.009400	2.872400	-8.643500	28.753880	1.480159E-5	20.855956
2681.730964	-2.997000	2.870200	-8.601500	28.822416	1.641871E-5	20.858612
2682.726250	-3.015900	2.868900	-8.651300	28.800035	1.470258E-5	20.856455
2683.726786	-2.982900	2.866900	-8.551300	28.886186	1.678173E-5	20.855998
2684.732105	-2.979800	2.866000	-8.538500	28.863238	1.546164E-5	20.861329
2685.729162	-3.008300	2.862800	-8.609900	28.875427	1.565965E-5	20.862702
2686.729887	-3.000700	2.861100	-8.584300	28.949612	1.674873E-5	20.865367
2687.732171	-3.008600	2.859000	-8.600800	28.993234	1.539563E-5	20.856211
2688.729554	-3.010000	2.856400	-8.597200	28.967530	1.496660E-5	20.854496
2689.737449	-3.002500	2.854700	-8.569800	28.863540	1.536263E-5	20.853573
2690.730343	-2.992800	2.852800	-8.537300	28.792539	1.509861E-5	20.833733
2691.730662	-2.969800	2.851400	-8.467100	28.760994	1.513161E-5	20.840363
2692.735387	-3.035900	2.848800	-8.647900	28.858129	1.536263E-5	20.860923
2693.732641	-2.984400	2.846900	-8.495400	28.894760	1.519762E-5	20.845670
2694.731533	-3.004600	2.845100	-8.546900	28.951011	1.635270E-5	20.865829
2695.737093	-3.017100	2.843200	-8.577500	29.074003	1.420755E-5	20.836597
2696.733346	-2.993200	2.840700	-8.501700	29.087325	1.503261E-5	20.849072
2697.733422	-3.011400	2.837100	-8.543400	29.087325	1.513161E-5	20.849072
2698.730866	-3.003100	2.835500	-8.514900	29.013954	1.631970E-5	20.854329
2699.735454	-2.993400	2.832700	-8.478600	28.976654	1.592367E-5	20.850413
2700.733233	-2.994400	2.831500	-8.477700	29.015756	1.447156E-5	20.856619
2701.732820	-2.987400	2.830100	-8.453200	29.079035	1.562665E-5	20.853995
2702.734233	-2.994600	2.828000	-8.467700	29.061584	1.582466E-5	20.843999
2703.733763	-2.993900	2.826500	-8.461100	28.974498	1.424055E-5	20.826905
2704.734954	-3.044800	2.820600	-8.587000	28.924806	1.278844E-5	20.816671
2705.733159	-3.011800	2.819800	-8.491700	28.861138	1.684774E-5	20.830765
2706.736104	-3.037000	2.818200	-8.557600	28.858509	1.513161E-5	20.853720
2707.733953	-2.981000	2.814200	-8.388100	28.893258	1.295345E-5	20.857906
2708.734312	-2.995400	2.814100	-8.428900	28.932273	1.542864E-5	20.833202
2709.736171	-3.033900	2.810400	-8.525500	29.029513	1.552764E-5	20.851988
2710.734385	-2.989600	2.808700	-8.396300	29.060524	1.308546E-5	20.814956
2711.735782	-3.024200	2.804100	-8.479200	29.085506	1.565965E-5	20.849135
2712.736957	-2.990000	2.802800	-8.379800	29.111460	1.562665E-5	20.831192
2713.736158	-3.021100	2.800900	-8.460100	29.118358	1.668273E-5	20.812064
2714.733258	-2.993700	2.798100	-8.375600	29.186489	1.486759E-5	20.842311
2715.741902	-3.009300	2.794400	-8.408600	29.212465	1.420755E-5	20.832926
2716.733872	-3.027200	2.791100	-8.448800	29.249726	1.592367E-5	20.840129
2717.735229	-3.012000	2.790200	-8.403300	29.190270	1.655072E-5	20.824785
2718.740712	-3.013100	2.787300	-8.397500	29.098189	1.691374E-5	20.828725
2719.738210	-3.020200	2.784900	-8.409400	29.154949	1.569265E-5	20.820960
2720.738735	-3.002600	2.781900	-8.351900	29.186872	1.437256E-5	20.843645
2721.740181	-2.987000	2.779400	-8.300500	29.169755	1.635270E-5	20.827345
2722.738798	-3.020600	2.775800	-8.383000	29.119479	1.651772E-5	20.818884
2723.738753	-3.025400	2.772000	-8.385200	29.080488	1.668273E-5	20.820847
2724.737898	-2.990500	2.769800	-8.282100	29.073527	1.671573E-5	20.829954
2725.737200	-2.994500	2.767300	-8.285900	29.058785	1.638571E-5	20.815101
2726.743173	-2.982600	2.763800	-8.242100	29.160824	1.579166E-5	20.823561
2727.739439	-3.002600	2.761800	-8.292000	29.140688	1.490060E-5	20.819867
2728.737991	-2.986400	2.759400	-8.239600	29.145557	1.655072E-5	20.805807
2729.740798	-3.010500	2.754600	-8.291300	29.191192	1.536263E-5	20.820024
2730.737592	-3.008700	2.749600	-8.271800	29.187923	1.480159E-5	20.824790
2731.737545	-2.997600	2.748800	-8.239700	29.179690	1.486759E-5	20.821235
2732.743946	-3.024400	2.745200	-8.301800	29.183178	1.351449E-5	20.799147
2733.737548	-2.961600	2.743100	-8.122900	29.252386	1.526362E-5	20.820999
2734.741740	-3.010500	2.738800	-8.243500	29.188120	1.691374E-5	20.813610
2735.740329	-3.009800	2.735900	-8.233400	29.260677	1.513161E-5	20.791423
2736.737998	-3.004800	2.731300	-8.206300	29.313712	1.559365E-5	20.813578
2737.738472	-3.021800	2.729100	-8.245500	29.249451	1.612169E-5	20.813300
2738.740750	-2.986100	2.724500	-8.134300	29.310046	1.526362E-5	20.821262
2739.738640	-3.000400	2.721000	-8.163400	29.359559	1.625370E-5	20.816636
2740.741939	-2.999600	2.717100	-8.149000	29.399515	1.529663E-5	20.801432
2741.741292	-3.002300	2.713000	-8.144400	29.448885	1.737578E-5	20.827959
2742.741066	-2.996700	2.710600	-8.122300	29.468660	1.546164E-5	20.826080
2743.740379	-2.998900	2.706500	-8.115900	29.504434	1.526362E-5	20.819467
2744.742862	-3.030500	2.701400	-8.185900	29.501807	1.394353E-5	20.827724
2745.738732	-3.010700	2.699300	-8.126200	29.416914	1.450457E-5	20.825606
2746.740966	-3.013600	2.695100	-8.121200	29.440550	1.447156E-5	20.824299
2747.741278	-3.023200	2.691100	-8.134600	29.407523	1.460357E-5	20.794803
2748.742625	-2.967500	2.689400	-7.980200	29.298499	1.367951E-5	20.799668
2749.743760	-2.996900	2.682900	-8.039200	29.300186	1.374551E-5	20.823179
2750.744092	-3.002500	2.678600	-8.042000	29.276598	1.519762E-5	20.808891
2751.743841	-3.015500	2.674500	-8.064300	29.304357	1.575866E-5	20.817899
2752.743528	-3.010400	2.671800	-8.042400	29.316394	1.536263E-5	20.813910
2753.756742	-2.989800	2.666700	-7.972600	29.307058	1.513161E-5	20.805449
2754.744245	-2.997500	2.661700	-7.977900	29.202436	1.641871E-5	20.816182
2755.744739	-2.982600	2.658500	-7.928200	29.237125	1.499960E-5	20.798034
2756.746099	-3.014500	2.652600	-7.995500	29.370270	1.536263E-5	20.835018
2757.745785	-2.971000	2.648000	-7.866400	29.476481	1.655072E-5	20.814998
2758.747261	-2.983700	2.644200	-7.888300	29.549098	1.770580E-5	20.827031
2759.744920	-3.005200	2.638500	-7.928400	29.487917	1.466958E-5	20.808982
2760.745154	-3.016300	2.633600	-7.942000	29.513238	1.466958E-5	20.795624
2761.745258	-2.990100	2.629700	-7.862400	29.496774	1.460357E-5	20.801788
2762.745630	-2.988100	2.624900	-7.841500	29.454431	1.331648E-5	20.818376
2763.744498	-3.013500	2.620000	-7.894600	29.436757	1.503261E-5	20.819528
2764.746678	-2.984800	2.613400	-7.799200	29.491892	1.420755E-5	20.791178
2765.745078	-3.008200	2.607500	-7.842800	29.542767	1.483459E-5	20.805950
2766.745211	-2.990000	2.603400	-7.783100	29.638174	1.351449E-5	20.814885
2767.746464	-3.026100	2.597200	-7.858400	29.623991	1.536263E-5	20.804380
2768.746069	-2.989300	2.592500	-7.748900	29.673821	1.532963E-5	20.803407
2769.747444	-3.006600	2.587600	-7.779300	29.674194	1.516462E-5	20.800464
2770.750798	-3.004900	2.582500	-7.759700	29.625322	1.348149E-5	20.817101
2771.752670	-3.022900	2.574400	-7.780900	29.568062	1.516462E-5	20.802051
2772.744158	-2.992800	2.569800	-7.689500	29.462745	1.668273E-5	20.801152
2773.745370	-3.010000	2.564300	-7.717700	29.498536	1.437256E-5	20.794082
2774.745773	-2.989300	2.559600	-7.649900	29.497547	1.453757E-5	20.811102
2775.748135	-2.972500	2.555100	-7.594800	29.490710	1.579166E-5	20.801840
2776.751929	-2.987600	2.547100	-7.609400	29.539996	1.668273E-5	20.793674
2777.748480	-3.002600	2.539900	-7.625300	29.490630	1.767280E-5	20.786112
2778.750004	-3.015500	2.534900	-7.643200	29.459155	1.486759E-5	20.814129
2779.746451	-3.007800	2.528200	-7.604100	29.509195	1.727677E-5	20.802454
2780.752323	-3.013300	2.522600	-7.600900	29.531076	1.694675E-5	20.801278
2781.749700	-2.999000	2.517300	-7.548800	29.523842	1.773881E-5	20.796357
2782.748694	-2.999700	2.508700	-7.525100	29.560305	1.747479E-5	20.792335
2783.751438	-3.010500	2.504400	-7.537900	29.654819	1.800282E-5	20.803216
2784.750684	-2.974800	2.497200	-7.428000	29.691657	1.635270E-5	20.801474
