LabVIEW Measurement	
Writer_Version	2
Reader_Version	2
Separator	Tab
Decimal_Separator	.
Multi_Headings	No
X_Columns	One
Time_Pref	Absolute
Operator	admin
Description	Clolumns are: time, Current, Voltage, Power, Battery Temp, and Chamber Temp
Date	2024/08/16
Time	13:07:17.8513970375061035156
***End_of_Header***	
	
Channels	6						
Samples	1	1	1	1	1	1	
Date	2024/09/06	2024/09/06	2024/09/06	2024/09/06	2024/09/06	2024/09/06	
Time	21:22:19.6549487113952636719	21:22:19.6619625091552734375	21:22:19.6679568290710449219	21:22:19.6369023323059082031	21:22:19.6369023323059082031	21:22:19.6369023323059082031	
X_Dimension	Time	Time	Time	Time	Time	Time	
X0	0.0000000000000000E+0	0.0000000000000000E+0	0.0000000000000000E+0	0.0000000000000000E+0	0.0000000000000000E+0	0.0000000000000000E+0	
Delta_X	1.000000	1.000000	1.000000	1.000000	1.000000	1.000000	
***End_of_Header***							
X_Value	Untitled	Untitled 1	Untitled 2	Untitled 3	Untitled 4	Untitled 5	Comment
0.000000	0.012829	4.090300	0.052655	20.914220	0.000466	20.895256
0.997234	-3.023900	3.923400	-11.863000	20.902671	0.000466	20.900300
1.999432	-3.002900	3.917400	-11.763000	20.896557	0.000463	20.899876
2.999964	-2.997700	3.912500	-11.727000	20.924380	0.000461	20.899253
4.002530	-3.006100	3.909000	-11.750000	20.922186	0.000461	20.887576
5.000694	-2.994100	3.905900	-11.693000	20.922211	0.000462	20.903721
6.000849	-2.993200	3.904000	-11.684000	20.920664	0.000460	20.898855
7.003507	-3.012200	3.900500	-11.748000	20.928550	0.000461	20.885881
8.001831	-2.999800	3.898500	-11.693000	20.944072	0.000461	20.907566
9.008914	-2.983500	3.898400	-11.630000	20.953804	0.000458	20.907343
10.007164	-3.023900	3.896500	-11.782000	20.945670	0.000459	20.909639
11.002135	-2.995600	3.896500	-11.671000	20.953482	0.000456	20.901331
12.004074	-2.983900	3.893600	-11.616000	20.959670	0.000457	20.905622
13.003611	-3.005100	3.891700	-11.693000	20.971996	0.000456	20.916527
14.010535	-2.995400	3.891900	-11.657000	20.990361	0.000457	20.899335
15.004245	-2.992100	3.891100	-11.642000	20.990711	0.000456	20.914382
16.005187	-2.979300	3.889400	-11.586000	21.009671	0.000456	20.899208
17.005054	-2.999300	3.887000	-11.656000	21.029562	0.000455	20.914360
18.009853	-3.000400	3.886700	-11.661000	21.019329	0.000456	20.898910
19.003922	-2.991300	3.885900	-11.623000	21.029361	0.000453	20.919374
20.005999	-2.998400	3.885700	-11.649000	21.024397	0.000453	20.911091
21.004394	-3.021800	3.884800	-11.738000	21.034027	0.000453	20.925463
22.005599	-3.014200	3.883500	-11.705000	21.044057	0.000452	20.928856
23.006989	-2.991600	3.884500	-11.620000	21.060921	0.000453	20.916802
24.010160	-2.997500	3.883100	-11.639000	21.053111	0.000450	20.942178
25.010118	-3.000600	3.883300	-11.651000	21.071003	0.000454	20.920248
26.008943	-3.003200	3.881800	-11.658000	21.078436	0.000451	20.918200
27.011063	-3.001800	3.881000	-11.649000	21.079009	0.000451	20.912136
28.009770	-2.980800	3.882100	-11.571000	21.122896	0.000449	20.929953
29.010283	-3.011400	3.878300	-11.678000	21.100989	0.000451	20.922266
30.010929	-3.004200	3.880700	-11.657000	21.137516	0.000447	20.900484
31.013082	-3.004000	3.879400	-11.652000	21.122171	0.000449	20.917376
32.010430	-3.001200	3.877900	-11.637000	21.158571	0.000449	20.931026
33.013787	-2.990400	3.879000	-11.599000	21.141909	0.000446	20.935695
34.012399	-3.003900	3.878100	-11.648000	21.135496	0.000447	20.931177
35.010646	-2.997700	3.876700	-11.621000	21.168952	0.000446	20.925289
36.014922	-3.007400	3.877400	-11.660000	21.164485	0.000447	20.923666
37.012879	-3.014200	3.874100	-11.676000	21.185666	0.000447	20.925413
38.013934	-3.004400	3.876000	-11.644000	21.179380	0.000447	20.934297
39.016271	-2.964800	3.876100	-11.489000	21.192056	0.000445	20.922323
40.012999	-3.023100	3.874800	-11.713000	21.201682	0.000446	20.923418
41.014126	-3.008700	3.874500	-11.656000	21.216701	0.000448	20.925165
42.013302	-3.005300	3.873600	-11.640000	21.222215	0.000447	20.925940
43.013453	-3.016900	3.873000	-11.683000	21.237856	0.000447	20.923569
44.013972	-3.023400	3.873000	-11.709000	21.261505	0.000449	20.930157
45.015974	-2.986700	3.872600	-11.565000	21.261282	0.000446	20.931356
46.018394	-2.986300	3.873300	-11.566000	21.251026	0.000443	20.937216
47.016656	-2.994700	3.871400	-11.592000	21.285079	0.000448	20.949945
48.016214	-2.998600	3.872100	-11.611000	21.272927	0.000445	20.932100
49.019014	-3.010300	3.872200	-11.655000	21.270086	0.000447	20.937792
50.020278	-2.994900	3.871800	-11.595000	21.275749	0.000447	20.919752
51.015860	-3.015100	3.870700	-11.669000	21.317556	0.000448	20.928385
52.018834	-2.991600	3.871200	-11.580000	21.302365	0.000447	20.942583
53.023852	-3.005200	3.869600	-11.628000	21.320377	0.000446	20.957756
54.019339	-3.024200	3.870300	-11.703000	21.325814	0.000446	20.945653
55.017221	-3.006900	3.870000	-11.636000	21.346992	0.000444	20.925592
56.015710	-2.997900	3.869800	-11.599000	21.329831	0.000446	20.920752
57.022326	-2.998500	3.870400	-11.604000	21.370961	0.000445	20.948622
58.022837	-3.000900	3.870300	-11.613000	21.362979	0.000442	20.926888
59.019796	-2.992500	3.869500	-11.579000	21.373182	0.000444	20.930932
60.018262	-3.002300	3.869300	-11.616000	21.364075	0.000446	20.929407
61.021564	-3.005400	3.868300	-11.625000	21.394381	0.000445	20.930331
62.016318	-2.996700	3.869700	-11.595000	21.399947	0.000444	20.932106
63.022194	-2.988900	3.869000	-11.562000	21.398318	0.000442	20.930951
64.023685	-2.990300	3.869000	-11.569000	21.416577	0.000445	20.939262
65.018398	-3.017200	3.866600	-11.665000	21.427353	0.000445	20.923492
66.016591	-2.997500	3.867900	-11.593000	21.454789	0.000446	20.932925
67.018112	-2.981200	3.868700	-11.533000	21.453566	0.000446	20.942131
68.019928	-2.982400	3.867900	-11.535000	21.456208	0.000444	20.924388
69.020216	-2.984700	3.868200	-11.545000	21.451144	0.000443	20.921218
70.019680	-3.007100	3.867200	-11.628000	21.444085	0.000445	20.905622
71.020443	-2.977200	3.867500	-11.513000	21.479651	0.000447	20.928404
72.020692	-2.965900	3.868100	-11.471000	21.482919	0.000444	20.922191
73.021265	-2.989900	3.867800	-11.564000	21.467229	0.000443	20.931621
74.024171	-3.014400	3.865700	-11.652000	21.504317	0.000442	20.906620
75.022676	-2.999100	3.867200	-11.597000	21.489302	0.000445	20.918622
76.021963	-3.009100	3.866700	-11.635000	21.513993	0.000445	20.906345
77.024022	-2.991100	3.865300	-11.561000	21.524616	0.000443	20.926456
78.023499	-2.980200	3.867200	-11.524000	21.535093	0.000444	20.903277
79.026467	-2.996300	3.866000	-11.583000	21.545196	0.000442	20.909592
80.024187	-2.997700	3.866100	-11.588000	21.560631	0.000444	20.903701
81.027890	-3.002900	3.865200	-11.606000	21.567417	0.000445	20.925187
82.023723	-2.973800	3.867200	-11.498000	21.586844	0.000444	20.919972
83.025288	-2.989200	3.865300	-11.553000	21.583480	0.000447	20.909021
84.028509	-3.013800	3.865200	-11.648000	21.588367	0.000444	20.923393
85.026749	-3.012600	3.864400	-11.640000	21.597819	0.000444	20.902982
86.032112	-3.000200	3.864800	-11.594000	21.597998	0.000444	20.902212
87.027163	-3.006900	3.864900	-11.621000	21.602560	0.000446	20.902036
88.029865	-2.992300	3.864900	-11.564000	21.624331	0.000447	20.909123
89.027421	-3.008900	3.863600	-11.624000	21.599317	0.000446	20.899266
90.028323	-2.991900	3.864700	-11.563000	21.628245	0.000444	20.892179
91.028044	-2.974700	3.863300	-11.490000	21.649566	0.000446	20.889334
92.027194	-2.994300	3.863500	-11.568000	21.626377	0.000444	20.894577
93.028208	-3.000000	3.862700	-11.587000	21.653037	0.000444	20.896600
94.027903	-3.003200	3.863900	-11.603000	21.664508	0.000447	20.889114
95.032830	-3.013400	3.862600	-11.638000	21.673884	0.000445	20.891859
96.030246	-3.007500	3.862200	-11.614000	21.699769	0.000445	20.884574
97.029952	-3.038100	3.861500	-11.731000	21.689547	0.000449	20.898050
98.030246	-3.025100	3.861900	-11.681000	21.708322	0.000448	20.895503
99.034183	-3.000000	3.862300	-11.586000	21.717550	0.000448	20.871075
100.028901	-3.015300	3.862700	-11.647000	21.704909	0.000447	20.893510
101.034649	-2.999400	3.862300	-11.584000	21.722587	0.000449	20.884651
102.031606	-2.988500	3.862200	-11.541000	21.712365	0.000446	20.897653
103.032922	-2.990200	3.861500	-11.546000	21.736280	0.000450	20.872751
104.031699	-2.987400	3.861800	-11.536000	21.744532	0.000448	20.895707
105.033836	-3.012700	3.860300	-11.629000	21.748347	0.000448	20.856854
106.035805	-3.020600	3.860800	-11.660000	21.740519	0.000447	20.875097
107.032911	-3.012000	3.861200	-11.629000	21.756429	0.000448	20.879639
108.032294	-3.003500	3.860400	-11.594000	21.792282	0.000448	20.895608
109.033461	-3.022300	3.860200	-11.666000	21.782934	0.000449	20.915173
110.032768	-2.972600	3.860800	-11.475000	21.797546	0.000451	20.888548
111.035199	-3.021700	3.860600	-11.665000	21.791910	0.000451	20.896658
112.032530	-2.996700	3.860400	-11.568000	21.852198	0.000448	20.888722
113.032956	-3.002600	3.860300	-11.590000	21.823924	0.000449	20.880337
114.033190	-2.993300	3.858900	-11.550000	21.836640	0.000452	20.891167
115.035794	-3.013400	3.859500	-11.629000	21.841653	0.000451	20.882909
116.036445	-3.014700	3.860900	-11.639000	21.833569	0.000451	20.873396
117.035722	-3.003300	3.858900	-11.588000	21.849656	0.000451	20.879540
118.035330	-3.010200	3.859400	-11.616000	21.858282	0.000453	20.888648
119.037150	-2.999000	3.859700	-11.574000	21.825595	0.000450	20.865890
120.038865	-3.017200	3.859400	-11.643000	21.875510	0.000450	20.884554
121.033911	-3.015300	3.857800	-11.631000	21.883758	0.000451	20.882854
122.036679	-3.020500	3.857500	-11.650000	21.900192	0.000451	20.871328
123.033910	-3.000000	3.859000	-11.576000	21.899743	0.000453	20.847173
124.035839	-2.999600	3.857500	-11.570000	21.916146	0.000452	20.867858
125.036362	-2.979600	3.859000	-11.497000	21.930233	0.000454	20.881009
126.040222	-2.971900	3.857900	-11.464000	21.931803	0.000454	20.863616
127.036154	-2.980400	3.857100	-11.495000	21.950651	0.000453	20.846448
128.036282	-2.982500	3.858100	-11.506000	21.975654	0.000455	20.871000
129.034098	-2.971000	3.858400	-11.462000	21.960471	0.000451	20.885199
130.035690	-2.979600	3.856900	-11.491000	21.990414	0.000455	20.866336
131.036710	-2.966800	3.858200	-11.445000	21.983106	0.000453	20.900269
132.037307	-2.993500	3.856200	-11.542000	21.987545	0.000455	20.875791
133.039853	-3.009500	3.857800	-11.609000	21.986223	0.000454	20.885847
134.036866	-3.011700	3.857100	-11.615000	21.983555	0.000452	20.874168
135.038054	-3.022500	3.856000	-11.653000	21.976125	0.000455	20.855826
136.038650	-3.014600	3.857200	-11.626000	22.019352	0.000451	20.881553
137.038567	-2.991900	3.857500	-11.541000	22.026481	0.000455	20.892482
138.041286	-2.991300	3.855600	-11.532000	22.030218	0.000456	20.864931
139.041728	-2.998000	3.855400	-11.557000	22.017928	0.000456	20.856895
140.038750	-2.989600	3.854400	-11.522000	22.038394	0.000457	20.871693
141.041914	-2.996000	3.856100	-11.551000	22.032983	0.000455	20.880026
142.046824	-3.014300	3.855700	-11.621000	22.022488	0.000455	20.887063
143.042764	-2.993300	3.855600	-11.540000	22.056114	0.000454	20.846285
144.046132	-2.986600	3.854300	-11.511000	22.056340	0.000457	20.863580
145.042442	-2.986700	3.854400	-11.510000	22.062819	0.000456	20.862954
146.043829	-2.979000	3.855000	-11.483000	22.075657	0.000456	20.873909
147.043501	-2.990800	3.854900	-11.529000	22.078424	0.000458	20.879050
148.046446	-2.995000	3.854100	-11.542000	22.079644	0.000458	20.866996
149.050321	-2.992200	3.854200	-11.532000	22.082112	0.000458	20.872310
150.045601	-3.001300	3.853900	-11.565000	22.092008	0.000459	20.872261
151.045368	-3.000100	3.854000	-11.561000	22.102753	0.000460	20.862155
152.046667	-3.005800	3.854200	-11.584000	22.139193	0.000461	20.870188
153.047025	-2.989500	3.854600	-11.522000	22.127055	0.000458	20.855192
154.048944	-2.997600	3.852800	-11.548000	22.154227	0.000460	20.860584
155.054862	-3.000700	3.852500	-11.559000	22.171673	0.000460	20.862403
156.050807	-2.990300	3.854100	-11.523000	22.165216	0.000460	20.854991
157.054004	-2.997400	3.853300	-11.549000	22.180819	0.000462	20.869664
158.054378	-3.000600	3.851700	-11.557000	22.174087	0.000460	20.864347
159.055324	-3.006900	3.852300	-11.582000	22.184980	0.000461	20.855812
160.055789	-3.009000	3.851500	-11.588000	22.176901	0.000461	20.848673
161.052747	-3.012000	3.852300	-11.601000	22.147517	0.000462	20.841539
162.053723	-3.003800	3.850900	-11.566000	22.171172	0.000462	20.852419
163.054819	-2.985000	3.852000	-11.497000	22.213518	0.000465	20.866841
164.053628	-3.007600	3.851900	-11.585000	22.206015	0.000461	20.869761
165.058896	-3.009200	3.851600	-11.589000	22.205239	0.000462	20.864716
166.055122	-2.993500	3.852100	-11.530000	22.235027	0.000464	20.846178
167.056715	-3.010800	3.851700	-11.596000	22.237417	0.000463	20.866114
168.056447	-2.992400	3.851900	-11.526000	22.214485	0.000461	20.849792
169.059141	-3.006600	3.850000	-11.574000	22.249528	0.000463	20.848370
170.056668	-3.029900	3.849900	-11.663000	22.232530	0.000465	20.852213
171.056203	-2.991400	3.849700	-11.515000	22.284744	0.000463	20.854233
172.056523	-2.993200	3.850600	-11.524000	22.251147	0.000466	20.827706
173.059276	-2.984900	3.851200	-11.494000	22.292795	0.000465	20.860871
174.058847	-3.000600	3.849600	-11.550000	22.307251	0.000466	20.852113
175.058862	-3.002400	3.849800	-11.557000	22.332144	0.000465	20.860918
176.065031	-3.015100	3.848500	-11.603000	22.306274	0.000465	20.830273
177.060112	-3.021900	3.848800	-11.630000	22.311684	0.000467	20.851810
178.058850	-3.022900	3.848900	-11.634000	22.325289	0.000465	20.845046
179.058521	-2.998300	3.848500	-11.538000	22.347297	0.000466	20.856177
180.058707	-3.002600	3.849800	-11.558000	22.356541	0.000467	20.831770
181.062221	-3.017000	3.848200	-11.609000	22.348492	0.000467	20.864485
182.063060	-2.999300	3.847500	-11.539000	22.362873	0.000468	20.857075
183.061645	-2.990800	3.847600	-11.506000	22.376850	0.000468	20.847838
184.066309	-2.998300	3.846800	-11.533000	22.396263	0.000467	20.864907
185.063939	-3.023600	3.846400	-11.629000	22.395391	0.000469	20.835111
186.062238	-3.006200	3.846500	-11.561000	22.373681	0.000470	20.851778
187.065364	-2.992300	3.846900	-11.510000	22.374306	0.000468	20.829645
188.063144	-2.980400	3.848600	-11.470000	22.389037	0.000471	20.852930
189.061948	-2.980400	3.847700	-11.466000	22.395765	0.000470	20.850184
190.062544	-2.999500	3.848000	-11.541000	22.422278	0.000469	20.851130
191.062823	-3.000600	3.847200	-11.543000	22.446700	0.000470	20.868474
192.065713	-3.010200	3.846900	-11.579000	22.433192	0.000472	20.857318
193.063316	-2.992500	3.845600	-11.507000	22.429655	0.000471	20.834336
194.063077	-2.982600	3.846800	-11.473000	22.436884	0.000472	20.833989
195.062784	-2.998900	3.845400	-11.531000	22.429955	0.000470	20.847913
196.064643	-3.017200	3.843900	-11.597000	22.478549	0.000472	20.858170
197.065001	-3.014400	3.844400	-11.587000	22.470250	0.000473	20.835635
198.068499	-2.980500	3.845400	-11.460000	22.457595	0.000472	20.842402
199.067068	-2.995900	3.846500	-11.522000	22.451886	0.000473	20.847590
200.066616	-3.000200	3.845800	-11.538000	22.485626	0.000472	20.837283
201.069489	-2.996400	3.845300	-11.521000	22.488767	0.000472	20.825730
202.068197	-2.994600	3.845100	-11.513000	22.518519	0.000472	20.838457
203.070628	-2.998300	3.844500	-11.526000	22.523554	0.000472	20.831646
204.068829	-2.993000	3.845100	-11.507000	22.506108	0.000473	20.833614
205.068992	-3.004300	3.844300	-11.549000	22.499758	0.000475	20.838634
206.070254	-3.026100	3.842800	-11.628000	22.509527	0.000475	20.835141
207.074821	-2.972600	3.843500	-11.424000	22.535665	0.000475	20.825283
208.076219	-2.974300	3.844900	-11.435000	22.539480	0.000477	20.843328
209.075784	-3.002600	3.843600	-11.540000	22.558665	0.000477	20.845947
210.071557	-2.994300	3.843900	-11.509000	22.567115	0.000474	20.837341
211.074839	-2.997800	3.843300	-11.520000	22.563476	0.000476	20.818524
212.073350	-2.993800	3.843400	-11.505000	22.559289	0.000476	20.843728
213.071609	-3.006100	3.842500	-11.550000	22.542023	0.000478	20.816479
214.076722	-2.991300	3.842700	-11.493000	22.544588	0.000480	20.809091
215.070394	-2.996500	3.842200	-11.512000	22.558447	0.000475	20.816806
216.070882	-3.001900	3.840800	-11.529000	22.595646	0.000478	20.828933
217.073198	-3.013000	3.841100	-11.573000	22.602076	0.000478	20.827786
218.073471	-2.998700	3.841200	-11.516000	22.617921	0.000477	20.820423
219.073632	-3.006700	3.839500	-11.544000	22.612240	0.000476	20.835122
220.073061	-3.006100	3.841100	-11.545000	22.564624	0.000478	20.819673
221.074317	-3.025600	3.841100	-11.620000	22.613459	0.000479	20.826386
222.073221	-2.997900	3.840600	-11.513000	22.590540	0.000478	20.802483
223.075307	-3.019000	3.839900	-11.592000	22.617147	0.000478	20.819174
224.071911	-3.012600	3.840500	-11.569000	22.621807	0.000480	20.813884
225.075978	-2.993900	3.840400	-11.497000	22.627763	0.000480	20.821272
226.073078	-3.015500	3.839100	-11.576000	22.620761	0.000479	20.812837
227.074387	-2.997400	3.839300	-11.507000	22.670739	0.000480	20.813584
228.077929	-3.031300	3.839000	-11.636000	22.681305	0.000480	20.816580
229.075027	-3.005300	3.839300	-11.537000	22.674276	0.000481	20.834195
230.078900	-2.998300	3.839100	-11.510000	22.682103	0.000480	20.821647
231.077566	-2.998300	3.839200	-11.510000	22.686562	0.000481	20.818052
232.076306	-2.998500	3.837200	-11.504000	22.708683	0.000482	20.812710
233.079105	-2.990300	3.839100	-11.480000	22.723035	0.000481	20.826612
234.079635	-3.013500	3.836600	-11.560000	22.699989	0.000480	20.813011
235.078874	-3.009900	3.837100	-11.549000	22.704924	0.000482	20.798039
236.082280	-3.013200	3.837500	-11.562000	22.693087	0.000482	20.807994
237.079075	-2.984800	3.836600	-11.450000	22.701610	0.000484	20.795668
238.084692	-3.004500	3.836600	-11.526000	22.709908	0.000483	20.815359
239.082703	-2.986400	3.837000	-11.458000	22.718178	0.000484	20.794720
240.079304	-2.968700	3.836900	-11.389000	22.731407	0.000481	20.791850
241.081352	-3.013700	3.835000	-11.557000	22.730634	0.000484	20.815731
242.079968	-3.004000	3.836300	-11.523000	22.730510	0.000484	20.829357
243.080370	-2.982100	3.837600	-11.444000	22.746155	0.000483	20.806623
244.080332	-2.989900	3.835300	-11.467000	22.750291	0.000484	20.791801
245.077518	-3.017900	3.835000	-11.573000	22.765513	0.000484	20.795194
246.083286	-2.980900	3.835600	-11.431000	22.781133	0.000483	20.788082
247.083142	-3.009700	3.835400	-11.542000	22.828963	0.000486	20.797115
248.081124	-2.980000	3.835900	-11.429000	22.831855	0.000486	20.795745
249.082924	-3.010500	3.835400	-11.546000	22.841643	0.000486	20.812663
250.085944	-3.006900	3.833900	-11.527000	22.857389	0.000486	20.795721
251.081401	-2.998700	3.834500	-11.498000	22.863888	0.000488	20.817405
252.085400	-2.997100	3.833800	-11.489000	22.827543	0.000486	20.796641
253.082739	-2.983600	3.836100	-11.445000	22.820119	0.000488	20.806273
254.081698	-3.006700	3.833900	-11.526000	22.835988	0.000487	20.798464
255.083128	-2.978700	3.833200	-11.417000	22.822463	0.000488	20.770689
256.082723	-2.988600	3.834000	-11.458000	22.839279	0.000489	20.786113
257.086531	-3.005800	3.833200	-11.521000	22.873156	0.000489	20.775481
258.083852	-3.016700	3.833700	-11.564000	22.871414	0.000489	20.791279
259.084226	-3.014300	3.832100	-11.551000	22.855421	0.000491	20.811767
260.084919	-3.003700	3.832300	-11.510000	22.838583	0.000488	20.774036
261.094034	-3.011600	3.833100	-11.543000	22.854824	0.000489	20.791729
262.086799	-3.001900	3.833500	-11.507000	22.901333	0.000490	20.805606
263.087199	-2.990500	3.833300	-11.463000	22.908806	0.000489	20.805032
264.085649	-3.036000	3.832900	-11.636000	22.923252	0.000491	20.796272
265.085240	-2.996700	3.830900	-11.479000	22.953568	0.000491	20.813369
266.089231	-2.993800	3.830700	-11.468000	22.947067	0.000491	20.793578
267.085958	-2.967400	3.832200	-11.370000	22.958799	0.000494	20.787315
268.088624	-3.000600	3.830500	-11.493000	22.977380	0.000493	20.795500
269.085672	-2.978300	3.831000	-11.408000	22.983856	0.000491	20.771643
270.085307	-2.982500	3.830600	-11.423000	22.943556	0.000493	20.783897
271.086578	-2.993900	3.829200	-11.463000	22.953417	0.000493	20.791880
272.086290	-3.000800	3.830800	-11.494000	22.929779	0.000493	20.780051
273.090177	-3.000500	3.829700	-11.490000	22.943429	0.000493	20.784718
274.086771	-3.001300	3.829100	-11.492000	22.957880	0.000492	20.785446
275.086420	-3.002800	3.829700	-11.498000	22.955836	0.000494	20.795726
276.091028	-2.997500	3.830300	-11.480000	22.963157	0.000495	20.785044
277.087605	-3.009400	3.829000	-11.523000	22.994092	0.000497	20.790907
278.088224	-3.002500	3.828900	-11.495000	23.014072	0.000495	20.797650
279.093602	-3.002200	3.828700	-11.493000	23.008740	0.000495	20.785195
280.090549	-3.004000	3.826900	-11.496000	22.976139	0.000496	20.792834
281.091035	-3.000400	3.827300	-11.482000	22.965799	0.000497	20.782474
282.090812	-2.988600	3.828400	-11.441000	22.982139	0.000496	20.801217
283.094815	-2.982900	3.828900	-11.420000	22.985653	0.000497	20.797151
284.093585	-2.977800	3.827800	-11.398000	22.986099	0.000497	20.778631
285.092242	-2.985900	3.829400	-11.433000	23.005053	0.000497	20.808528
286.092356	-2.989700	3.827700	-11.442000	23.008468	0.000499	20.776861
287.093671	-2.998900	3.827500	-11.477000	23.029587	0.000500	20.789962
288.092834	-3.014100	3.827000	-11.534000	23.037158	0.000499	20.802290
289.097277	-2.998000	3.825500	-11.467000	23.066272	0.000499	20.798270
290.093834	-3.007300	3.825500	-11.504000	23.060198	0.000499	20.788864
291.095097	-3.020100	3.824900	-11.550000	23.082513	0.000498	20.800793
292.093764	-2.976300	3.825900	-11.386000	23.102161	0.000501	20.772117
293.096261	-2.996600	3.826200	-11.465000	23.106296	0.000499	20.760139
294.095411	-2.996500	3.824800	-11.459000	23.123232	0.000503	20.785644
295.097150	-3.024400	3.822900	-11.561000	23.123581	0.000500	20.769873
296.095833	-3.009600	3.824400	-11.509000	23.129133	0.000502	20.790609
297.096878	-3.031200	3.823500	-11.589000	23.111056	0.000500	20.783400
298.102495	-3.005600	3.824500	-11.493000	23.127741	0.000502	20.804861
299.097622	-3.007600	3.824700	-11.502000	23.131678	0.000501	20.789366
300.100898	-3.008000	3.823600	-11.501000	23.139249	0.000503	20.762339
301.099458	-2.999300	3.823300	-11.466000	23.151526	0.000503	20.798824
302.100062	-2.997000	3.824200	-11.460000	23.180791	0.000504	20.803968
303.100391	-2.980300	3.823600	-11.395000	23.150960	0.000503	20.800627
304.098947	-2.978300	3.823700	-11.387000	23.172250	0.000505	20.791615
305.102906	-2.973200	3.824400	-11.370000	23.175138	0.000502	20.783130
306.102173	-2.985800	3.823200	-11.414000	23.179399	0.000504	20.788823
307.103095	-3.025100	3.822400	-11.562000	23.169735	0.000505	20.780561
308.103817	-2.996500	3.822100	-11.452000	23.162316	0.000504	20.786402
309.105495	-3.009200	3.822000	-11.499000	23.191677	0.000508	20.776944
310.102971	-2.976900	3.823800	-11.382000	23.202812	0.000504	20.774827
311.108356	-2.982600	3.822600	-11.401000	23.234934	0.000506	20.792318
312.110475	-2.992800	3.820900	-11.434000	23.224456	0.000504	20.796517
313.105149	-2.985500	3.821400	-11.408000	23.237354	0.000505	20.780045
314.105779	-3.000200	3.821100	-11.463000	23.236411	0.000505	20.768668
315.105536	-3.004600	3.820000	-11.477000	23.212231	0.000507	20.772886
316.106143	-3.008600	3.821100	-11.494000	23.222470	0.000506	20.765602
317.106626	-3.007100	3.819700	-11.485000	23.244787	0.000506	20.777536
318.107844	-3.026700	3.818700	-11.557000	23.263811	0.000507	20.787119
319.106874	-2.989400	3.819700	-11.418000	23.258133	0.000507	20.777635
320.109559	-2.978500	3.821000	-11.380000	23.241777	0.000506	20.767882
321.108255	-2.996200	3.818700	-11.440000	23.247106	0.000505	20.783653
322.108746	-2.996100	3.817900	-11.438000	23.246586	0.000506	20.788348
323.107122	-2.985800	3.819700	-11.404000	23.236551	0.000508	20.781611
324.107387	-2.981300	3.819600	-11.387000	23.234708	0.000507	20.792566
325.109194	-2.996700	3.819100	-11.444000	23.248979	0.000508	20.791695
326.107164	-2.987400	3.817600	-11.404000	23.242138	0.000508	20.775355
327.112625	-3.016600	3.817700	-11.514000	23.270003	0.000508	20.780522
328.108320	-3.008700	3.817500	-11.485000	23.276998	0.000510	20.783739
329.109930	-2.997000	3.817300	-11.440000	23.314178	0.000508	20.778327
330.109471	-2.997100	3.819200	-11.446000	23.276901	0.000509	20.777478
331.111392	-3.021300	3.816400	-11.530000	23.292289	0.000510	20.767295
332.111615	-3.021900	3.816900	-11.533000	23.303822	0.000510	20.795449
333.113823	-2.994900	3.817800	-11.434000	23.308325	0.000511	20.765823
334.110693	-3.016900	3.816300	-11.512000	23.318488	0.000511	20.775060
335.111366	-2.987000	3.817200	-11.401000	23.333900	0.000513	20.784342
336.112066	-3.014400	3.815000	-11.498000	23.318788	0.000512	20.771094
337.112962	-2.991000	3.816600	-11.415000	23.302452	0.000512	20.796921
338.115633	-2.983600	3.815100	-11.382000	23.308804	0.000512	20.800442
339.111649	-3.006100	3.814900	-11.466000	23.329219	0.000511	20.786289
340.112649	-2.998800	3.814200	-11.437000	23.349366	0.000513	20.778032
341.114190	-2.981600	3.814600	-11.373000	23.373766	0.000514	20.802961
342.128249	-3.013500	3.814300	-11.492000	23.359551	0.000514	20.787292
343.115077	-3.013500	3.813800	-11.492000	23.346605	0.000512	20.794231
344.114324	-3.009500	3.813000	-11.474000	23.391523	0.000512	20.796103
345.117086	-3.000600	3.813200	-11.441000	23.406664	0.000513	20.793735
346.116241	-2.986300	3.815000	-11.392000	23.406463	0.000514	20.792111
347.118589	-2.996900	3.813400	-11.427000	23.410349	0.000514	20.788420
348.117587	-3.002400	3.813300	-11.447000	23.377484	0.000513	20.778713
349.120267	-3.009300	3.812400	-11.472000	23.366554	0.000515	20.796207
350.118979	-2.979900	3.813600	-11.363000	23.365187	0.000516	20.781561
351.117083	-2.993200	3.812400	-11.411000	23.380675	0.000516	20.765790
352.117199	-3.015600	3.811300	-11.492000	23.420712	0.000516	20.786953
353.116586	-3.006000	3.811400	-11.456000	23.415512	0.000517	20.782688
354.121319	-2.988700	3.812400	-11.393000	23.412423	0.000518	20.797136
355.118174	-3.003900	3.810600	-11.445000	23.417277	0.000517	20.793467
356.116758	-3.014700	3.811100	-11.489000	23.425944	0.000517	20.800257
357.118585	-3.013500	3.811000	-11.482000	23.438045	0.000517	20.785834
358.118435	-3.015400	3.810400	-11.489000	23.427264	0.000518	20.799684
359.119637	-2.983600	3.810700	-11.368000	23.481119	0.000518	20.783965
360.122528	-2.987200	3.810700	-11.383000	23.463196	0.000516	20.776431
361.120009	-2.986400	3.809700	-11.376000	23.459087	0.000517	20.786537
362.120817	-2.981800	3.809700	-11.359000	23.439417	0.000518	20.798115
363.122743	-2.985700	3.810300	-11.375000	23.468375	0.000518	20.798691
364.120441	-3.017500	3.809000	-11.493000	23.440666	0.000518	20.787987
365.130098	-2.998600	3.809700	-11.422000	23.479453	0.000520	20.781346
366.123416	-2.981900	3.809600	-11.358000	23.493671	0.000520	20.805081
367.121859	-2.970000	3.809400	-11.313000	23.524068	0.000518	20.816585
368.124825	-2.991600	3.808300	-11.392000	23.519861	0.000521	20.812367
369.126208	-3.006000	3.808400	-11.447000	23.491130	0.000521	20.794948
370.127012	-3.018100	3.805900	-11.485000	23.484183	0.000520	20.802209
371.126681	-2.983900	3.808500	-11.364000	23.461257	0.000518	20.804359
372.126090	-3.016000	3.806500	-11.480000	23.458565	0.000520	20.813040
373.130952	-3.017400	3.806400	-11.485000	23.508533	0.000519	20.805754
374.131012	-3.037800	3.806000	-11.561000	23.541375	0.000520	20.798846
375.125427	-3.022900	3.805300	-11.501000	23.552576	0.000520	20.791582
376.127479	-3.008000	3.807200	-11.451000	23.571273	0.000520	20.808902
377.126144	-3.015000	3.806600	-11.475000	23.586582	0.000522	20.819981
378.124720	-3.021600	3.806100	-11.499000	23.590789	0.000523	20.809500
379.126544	-3.020100	3.806600	-11.495000	23.584316	0.000519	20.812494
380.126395	-3.013100	3.805600	-11.466000	23.583818	0.000522	20.812469
381.133096	-2.979700	3.806900	-11.343000	23.568809	0.000522	20.798372
382.125910	-3.028500	3.804500	-11.521000	23.553621	0.000522	20.802587
383.126127	-3.000300	3.806000	-11.418000	23.566218	0.000524	20.798620
384.128322	-2.987800	3.804700	-11.367000	23.565368	0.000524	20.817208
385.126511	-2.999800	3.803000	-11.408000	23.590962	0.000523	20.798294
386.127434	-3.003100	3.803700	-11.423000	23.604803	0.000519	20.800315
387.130658	-2.984900	3.804900	-11.356000	23.627530	0.000522	20.821202
388.129078	-2.998500	3.803000	-11.402000	23.650056	0.000523	20.823397
389.129564	-2.993500	3.803900	-11.386000	23.628374	0.000523	20.819678
390.130322	-3.009100	3.802800	-11.442000	23.613214	0.000524	20.803058
391.128839	-3.006500	3.802400	-11.431000	23.671939	0.000524	20.823998
392.133139	-3.007400	3.802400	-11.434000	23.678808	0.000524	20.826142
393.131347	-3.003500	3.801800	-11.417000	23.677216	0.000524	20.802261
394.128094	-2.983100	3.802500	-11.343000	23.651228	0.000526	20.813666
395.129265	-3.008400	3.802100	-11.437000	23.689114	0.000526	20.834103
396.130389	-2.995700	3.801700	-11.387000	23.685778	0.000525	20.817009
397.131986	-3.009500	3.800200	-11.436000	23.633802	0.000527	20.829861
398.130325	-2.996800	3.800000	-11.386000	23.629543	0.000527	20.800935
399.135515	-2.992900	3.801500	-11.377000	23.643559	0.000528	20.817357
400.131714	-2.978700	3.801300	-11.321000	23.625635	0.000527	20.819303
401.132185	-3.018100	3.799700	-11.467000	23.666088	0.000528	20.827140
402.132539	-2.997100	3.799400	-11.386000	23.671389	0.000525	20.826291
403.135398	-2.975800	3.801000	-11.309000	23.706065	0.000527	20.809373
404.134631	-3.002900	3.800400	-11.411000	23.737378	0.000527	20.820378
405.133282	-2.993000	3.798800	-11.369000	23.751513	0.000527	20.822696
406.136450	-3.012400	3.798500	-11.442000	23.767991	0.000525	20.820725
407.136754	-3.004300	3.799800	-11.414000	23.737801	0.000527	20.828389
408.137947	-3.007500	3.797400	-11.420000	23.704822	0.000528	20.821404
409.139099	-3.014400	3.796700	-11.443000	23.724086	0.000529	20.839768
410.135471	-3.002000	3.798300	-11.402000	23.745244	0.000528	20.817360
411.134773	-3.011900	3.797500	-11.437000	23.755277	0.000526	20.825522
412.139992	-3.008400	3.796300	-11.420000	23.770534	0.000527	20.830862
413.137129	-3.023200	3.796300	-11.475000	23.753759	0.000530	20.809776
414.139709	-2.995800	3.796600	-11.373000	23.759858	0.000531	20.812571
415.136653	-3.014400	3.796400	-11.443000	23.754309	0.000529	20.840672
416.135197	-2.985400	3.797100	-11.335000	23.779000	0.000528	20.845513
417.135673	-2.981900	3.796000	-11.319000	23.784202	0.000529	20.813746
418.136025	-2.984100	3.797100	-11.330000	23.792167	0.000529	20.832163
419.138120	-2.991600	3.794900	-11.351000	23.811654	0.000531	20.812822
420.136394	-2.998100	3.794500	-11.375000	23.789753	0.000532	20.838751
421.134451	-2.967800	3.796700	-11.266000	23.811583	0.000531	20.850682
422.136077	-2.994400	3.794900	-11.363000	23.834381	0.000532	20.846514
423.137039	-2.992800	3.795400	-11.358000	23.848765	0.000532	20.824902
424.138517	-3.013300	3.794000	-11.431000	23.826366	0.000529	20.848435
425.136714	-2.984100	3.794900	-11.323000	23.814866	0.000531	20.857292
426.137199	-2.986100	3.793800	-11.328000	23.824324	0.000530	20.858240
427.138170	-3.027200	3.792600	-11.480000	23.835351	0.000530	20.839426
428.137532	-3.002300	3.793500	-11.388000	23.846299	0.000533	20.835231
429.139537	-2.986800	3.793000	-11.328000	23.875614	0.000532	20.832383
430.140984	-3.017000	3.792000	-11.440000	23.882264	0.000530	20.844267
431.140128	-3.015100	3.793100	-11.435000	23.874146	0.000532	20.838023
432.139786	-3.016500	3.791900	-11.437000	23.876087	0.000532	20.857986
433.143711	-2.985500	3.791500	-11.318000	23.843783	0.000530	20.825122
434.143194	-2.985900	3.793100	-11.325000	23.862099	0.000531	20.846332
435.144947	-2.970500	3.792500	-11.264000	23.875614	0.000531	20.858461
436.139783	-3.012600	3.792200	-11.424000	23.883603	0.000532	20.848454
437.141400	-3.000300	3.790600	-11.371000	23.877508	0.000532	20.858463
438.141606	-2.984400	3.791000	-11.313000	23.886861	0.000529	20.843661
439.141814	-3.004500	3.790700	-11.389000	23.911026	0.000532	20.831383
440.145805	-3.007200	3.790800	-11.398000	23.902440	0.000532	20.863075
441.145445	-2.991500	3.791000	-11.339000	23.939770	0.000531	20.863998
442.142523	-3.007300	3.790800	-11.399000	23.941414	0.000532	20.838147
443.141821	-3.010100	3.788300	-11.401000	23.972772	0.000532	20.831187
444.146583	-3.008500	3.789000	-11.398000	23.981629	0.000532	20.850025
445.142916	-2.993600	3.789100	-11.342000	24.002087	0.000533	20.864376
446.145302	-2.999000	3.788100	-11.359000	23.972921	0.000532	20.864051
447.144350	-2.994100	3.789100	-11.343000	23.988175	0.000533	20.846632
448.144871	-3.002300	3.789400	-11.376000	24.016469	0.000534	20.854144
449.144221	-2.995300	3.788200	-11.346000	24.011518	0.000533	20.863403
450.144978	-2.998900	3.788700	-11.361000	23.999522	0.000533	20.857063
451.148775	-2.997100	3.788400	-11.352000	23.979166	0.000533	20.858461
452.143368	-3.010000	3.788100	-11.401000	23.972497	0.000534	20.861730
453.143541	-2.988400	3.788400	-11.321000	23.967101	0.000536	20.861060
454.144076	-2.990000	3.786600	-11.321000	23.976857	0.000534	20.856145
455.145333	-3.000600	3.787400	-11.363000	23.990965	0.000533	20.863654
456.147211	-2.982800	3.786600	-11.294000	23.996119	0.000536	20.875460
457.155151	-3.016300	3.785000	-11.415000	23.992856	0.000535	20.849430
458.145214	-2.980700	3.785400	-11.282000	24.028069	0.000534	20.864354
459.146995	-2.992900	3.786100	-11.330000	23.998434	0.000534	20.854075
460.150749	-3.000700	3.783500	-11.353000	23.988483	0.000535	20.861639
461.146069	-2.988600	3.785500	-11.312000	23.994429	0.000537	20.866179
462.149199	-2.992200	3.784500	-11.323000	23.952301	0.000535	20.871822
463.146402	-2.977200	3.785000	-11.267000	23.932414	0.000539	20.864208
464.146947	-3.004300	3.783100	-11.364000	23.948592	0.000535	20.880904
465.147418	-2.990800	3.783900	-11.316000	23.962354	0.000537	20.870049
466.145819	-2.994600	3.783100	-11.329000	23.971860	0.000537	20.871521
467.147675	-3.001300	3.782500	-11.351000	23.983807	0.000535	20.862640
468.148378	-3.007000	3.781700	-11.371000	24.018844	0.000535	20.865060
469.146024	-3.009400	3.781800	-11.380000	24.032605	0.000537	20.870325
470.146914	-2.987700	3.781600	-11.298000	24.023820	0.000538	20.868153
471.150849	-2.979900	3.782200	-11.270000	24.055200	0.000537	20.879708
472.147400	-2.979700	3.781000	-11.265000	24.067292	0.000536	20.885670
473.150205	-2.999200	3.781200	-11.339000	24.114047	0.000536	20.869027
474.151250	-3.004100	3.780800	-11.358000	24.101755	0.000536	20.856225
475.150452	-3.015800	3.780900	-11.402000	24.112554	0.000537	20.879383
476.150777	-3.006900	3.780900	-11.368000	24.078611	0.000538	20.887539
477.152130	-3.012400	3.781200	-11.390000	24.098544	0.000537	20.889039
478.158622	-2.987100	3.780600	-11.293000	24.132108	0.000536	20.894251
479.152182	-3.006900	3.779900	-11.365000	24.101900	0.000538	20.885293
480.153337	-2.998100	3.780600	-11.333000	24.098291	0.000537	20.871717
481.152738	-3.009900	3.779800	-11.375000	24.125437	0.000537	20.897518
482.157988	-2.966800	3.778800	-11.210000	24.122050	0.000538	20.882743
483.156162	-2.994800	3.778300	-11.315000	24.139968	0.000538	20.873214
484.164692	-2.989500	3.779900	-11.299000	24.086071	0.000536	20.900710
485.157724	-3.000100	3.778700	-11.336000	24.067135	0.000537	20.886936
486.156305	-2.997200	3.779200	-11.325000	24.093935	0.000539	20.883942
487.163742	-2.998800	3.777500	-11.327000	24.083583	0.000538	20.874509
488.158759	-2.986200	3.777900	-11.281000	24.107840	0.000539	20.879396
489.162303	-3.011300	3.775800	-11.369000	24.090521	0.000538	20.889052
490.158560	-2.988900	3.777400	-11.289000	24.119085	0.000536	20.906319
491.162689	-3.015800	3.776000	-11.387000	24.152700	0.000538	20.885508
492.161179	-2.995300	3.777400	-11.313000	24.174872	0.000538	20.888780
493.161842	-3.007400	3.776600	-11.357000	24.226693	0.000538	20.896186
494.161726	-2.999500	3.775000	-11.322000	24.179470	0.000541	20.896236
495.165949	-3.009300	3.775800	-11.362000	24.185813	0.000539	20.887426
496.160618	-2.991400	3.775600	-11.293000	24.165958	0.000537	20.894538
497.162272	-2.990600	3.774400	-11.287000	24.194418	0.000538	20.897953
498.165321	-3.012600	3.775700	-11.373000	24.198599	0.000539	20.890767
499.163014	-3.004600	3.773500	-11.337000	24.212234	0.000538	20.927199
500.167105	-2.996100	3.774300	-11.307000	24.169089	0.000539	20.910952
501.164085	-2.986300	3.774700	-11.270000	24.193547	0.000539	20.892338
502.164100	-2.996700	3.773700	-11.307000	24.169262	0.000537	20.905437
503.164476	-2.997600	3.774100	-11.313000	24.173868	0.000542	20.914798
504.164040	-2.997900	3.774600	-11.315000	24.167124	0.000538	20.887172
505.167269	-2.994200	3.774700	-11.302000	24.162847	0.000539	20.895685
506.164174	-3.001500	3.772000	-11.321000	24.172425	0.000537	20.915721
507.165080	-3.001900	3.772300	-11.323000	24.214100	0.000538	20.922433
508.165454	-2.992600	3.772900	-11.290000	24.228584	0.000538	20.929848
509.165310	-3.005200	3.771000	-11.331000	24.271773	0.000539	20.913428
510.164780	-2.986400	3.771700	-11.262000	24.298493	0.000540	20.889973
511.169215	-3.008200	3.772700	-11.348000	24.276849	0.000538	20.904770
512.165427	-3.004600	3.772100	-11.333000	24.273966	0.000537	20.916576
513.164708	-3.005100	3.771200	-11.331000	24.274763	0.000539	20.923538
514.170215	-3.013900	3.770600	-11.363000	24.251777	0.000539	20.911862
515.168270	-3.005300	3.771500	-11.333000	24.261209	0.000539	20.932701
516.170654	-3.008200	3.769300	-11.338000	24.275763	0.000539	20.909845
517.173114	-2.975700	3.770600	-11.219000	24.244686	0.000538	20.921818
518.169755	-3.009800	3.770400	-11.347000	24.277583	0.000540	20.917833
519.169857	-3.001800	3.768600	-11.312000	24.322589	0.000540	20.917461
520.171476	-2.996000	3.768500	-11.290000	24.293706	0.000539	20.908403
521.174000	-2.987400	3.769400	-11.260000	24.287243	0.000538	20.925151
522.172720	-3.009100	3.769100	-11.340000	24.298788	0.000538	20.921560
523.172239	-3.010200	3.768100	-11.342000	24.285107	0.000538	20.928699
524.171014	-3.012200	3.766200	-11.343000	24.301651	0.000542	20.914002
525.176567	-3.025700	3.766700	-11.396000	24.322576	0.000540	20.924085
526.173653	-3.031100	3.766300	-11.416000	24.330268	0.000536	20.903354
527.173558	-3.008300	3.766600	-11.331000	24.299448	0.000540	20.929333
528.172625	-3.004500	3.766900	-11.317000	24.269020	0.000540	20.908296
529.173027	-3.014900	3.766800	-11.355000	24.241831	0.000540	20.918481
530.173941	-2.992900	3.766800	-11.273000	24.259871	0.000539	20.931833
531.174235	-2.981700	3.766300	-11.229000	24.256438	0.000539	20.923650
532.178428	-2.982800	3.767300	-11.236000	24.238055	0.000540	20.941244
533.175219	-3.031000	3.765500	-11.412000	24.253556	0.000541	20.918388
534.178905	-3.012800	3.765400	-11.343000	24.291176	0.000542	20.930993
535.173998	-3.001600	3.765400	-11.301000	24.316577	0.000541	20.936558
536.177465	-2.992100	3.765500	-11.266000	24.322079	0.000540	20.938284
537.179440	-2.992600	3.763800	-11.263000	24.328150	0.000539	20.914030
538.181326	-2.990400	3.766200	-11.261000	24.321483	0.000539	20.947167
539.180829	-3.025500	3.763900	-11.386000	24.375919	0.000537	20.928284
540.178334	-3.015500	3.765000	-11.352000	24.359574	0.000539	20.922319
541.181312	-3.006200	3.763100	-11.312000	24.350967	0.000539	20.918901
542.179163	-2.974900	3.763900	-11.196000	24.338928	0.000540	20.935745
543.184431	-2.998700	3.762200	-11.281000	24.357065	0.000540	20.937344
544.179180	-3.021500	3.763100	-11.370000	24.375702	0.000540	20.920007
545.181842	-3.006700	3.762800	-11.312000	24.376548	0.000542	20.935079
546.181078	-3.009500	3.761200	-11.318000	24.411131	0.000542	20.923306
547.181624	-3.002300	3.762400	-11.295000	24.436255	0.000539	20.910580
548.185153	-2.992500	3.761700	-11.256000	24.458740	0.000540	20.925076
549.181418	-2.971300	3.763100	-11.180000	24.439788	0.000539	20.897531
550.186494	-2.999200	3.762700	-11.284000	24.465408	0.000538	20.910905
551.181962	-2.981300	3.761900	-11.215000	24.478444	0.000540	20.908336
552.181156	-2.976400	3.761500	-11.194000	24.473594	0.000541	20.920065
553.184540	-3.006100	3.760800	-11.304000	24.457528	0.000539	20.914853
554.183105	-3.008200	3.760700	-11.312000	24.454050	0.000540	20.903303
555.181065	-3.016000	3.760900	-11.342000	24.443751	0.000540	20.938012
556.182063	-2.997600	3.760600	-11.272000	24.475518	0.000540	20.927210
557.185963	-2.994200	3.759800	-11.257000	24.470369	0.000539	20.915407
558.184100	-2.987200	3.760000	-11.231000	24.460647	0.000541	20.904233
559.185550	-2.986900	3.760300	-11.231000	24.437316	0.000540	20.901689
560.183531	-2.978500	3.759800	-11.198000	24.419282	0.000540	20.897347
561.185098	-2.999800	3.758700	-11.275000	24.432145	0.000539	20.896975
562.193643	-3.006000	3.757900	-11.295000	24.455631	0.000540	20.916268
563.186405	-3.019000	3.757200	-11.342000	24.475730	0.000540	20.913674
564.187382	-3.014500	3.757400	-11.326000	24.443123	0.000540	20.908462
565.189547	-2.999100	3.757400	-11.269000	24.449242	0.000539	20.885205
566.185793	-2.995200	3.756800	-11.251000	24.452804	0.000539	20.893045
567.187216	-3.021800	3.755300	-11.347000	24.454521	0.000540	20.890501
568.196388	-3.013100	3.756700	-11.317000	24.489071	0.000540	20.894344
569.185976	-2.992300	3.757100	-11.241000	24.525714	0.000542	20.887960
570.188745	-3.015100	3.756900	-11.326000	24.492904	0.000538	20.885862
571.187047	-3.026100	3.755100	-11.362000	24.526340	0.000542	20.906131
572.188883	-2.992900	3.755800	-11.240000	24.500045	0.000540	20.890182
573.187919	-2.981400	3.756500	-11.197000	24.476916	0.000540	20.913441
574.188954	-2.989600	3.755000	-11.225000	24.450199	0.000540	20.873364
575.192862	-2.995800	3.754900	-11.248000	24.471868	0.000538	20.888939
576.190037	-3.007700	3.754100	-11.289000	24.494281	0.000541	20.888666
577.190088	-3.012900	3.755000	-11.312000	24.529729	0.000539	20.874446
578.188613	-3.000000	3.754100	-11.261000	24.528706	0.000540	20.887643
579.190437	-3.027200	3.753400	-11.361000	24.535100	0.000541	20.869878
580.190442	-3.009800	3.754600	-11.300000	24.553432	0.000539	20.890166
581.195310	-2.993800	3.753500	-11.236000	24.538485	0.000540	20.890816
582.191701	-2.989200	3.752700	-11.217000	24.490380	0.000541	20.892812
583.192871	-3.000800	3.753500	-11.263000	24.521395	0.000540	20.867033
584.191977	-2.980200	3.753400	-11.185000	24.490902	0.000539	20.886224
585.194259	-3.007200	3.750200	-11.277000	24.482395	0.000542	20.881009
586.200101	-2.996000	3.751900	-11.240000	24.492045	0.000540	20.872199
587.192659	-3.009900	3.752400	-11.293000	24.475927	0.000542	20.884002
588.194273	-2.984400	3.751500	-11.195000	24.473514	0.000538	20.877789
589.194452	-3.015600	3.751000	-11.311000	24.495205	0.000541	20.868257
590.198843	-3.002300	3.751200	-11.262000	24.499233	0.000538	20.868505
591.196549	-3.001400	3.750600	-11.256000	24.454758	0.000541	20.870352
592.203139	-2.998900	3.751000	-11.248000	24.458437	0.000539	20.875465
593.196494	-2.999400	3.749500	-11.245000	24.539850	0.000540	20.871325
594.200341	-3.010600	3.750700	-11.291000	24.530668	0.000539	20.884870
595.202212	-2.995000	3.750600	-11.233000	24.510374	0.000540	20.869726
596.200504	-2.999400	3.750100	-11.247000	24.533509	0.000537	20.866385
597.208498	-2.999700	3.749100	-11.245000	24.502241	0.000538	20.871998
598.199845	-2.996000	3.748100	-11.227000	24.530473	0.000536	20.883252
599.201934	-2.999100	3.749000	-11.243000	24.560866	0.000540	20.876764
600.198603	-2.990400	3.749500	-11.210000	24.559872	0.000537	20.862964
601.200998	-2.998200	3.748400	-11.237000	24.569323	0.000539	20.874817
602.203825	-3.012200	3.748200	-11.289000	24.563553	0.000537	20.881356
603.203267	-2.985300	3.748100	-11.188000	24.519458	0.000538	20.868409
604.202251	-2.993500	3.747100	-11.215000	24.483516	0.000539	20.868384
605.204926	-2.998300	3.747800	-11.235000	24.486429	0.000538	20.866091
606.204717	-3.017800	3.746200	-11.305000	24.495754	0.000539	20.863119
607.204239	-3.014700	3.747100	-11.296000	24.554830	0.000536	20.859803
608.206686	-3.000100	3.745700	-11.237000	24.571698	0.000537	20.856339
609.204095	-2.986200	3.747200	-11.189000	24.623629	0.000536	20.859134
610.208974	-2.984600	3.746600	-11.181000	24.603708	0.000538	20.859533
611.211540	-3.005200	3.745600	-11.256000	24.569813	0.000537	20.856819
612.207237	-2.998100	3.746800	-11.232000	24.570511	0.000537	20.875536
613.214157	-3.017900	3.744600	-11.299000	24.544125	0.000539	20.856174
614.206405	-3.021000	3.745500	-11.315000	24.526389	0.000535	20.867776
615.206570	-2.976000	3.746500	-11.149000	24.519927	0.000537	20.860345
616.211335	-2.978900	3.744400	-11.153000	24.533308	0.000538	20.852434
617.206618	-2.996500	3.745000	-11.222000	24.534478	0.000537	20.845548
618.211506	-3.010900	3.743500	-11.271000	24.566712	0.000537	20.854181
619.210488	-2.991600	3.743500	-11.198000	24.586859	0.000537	20.844999
620.208554	-3.002800	3.743000	-11.238000	24.575095	0.000538	20.840307
621.207453	-3.007300	3.743400	-11.257000	24.586936	0.000538	20.853611
622.210835	-3.018200	3.742900	-11.295000	24.612704	0.000537	20.853388
623.210858	-3.005900	3.743500	-11.252000	24.590893	0.000537	20.853313
624.210649	-3.025400	3.741700	-11.319000	24.632576	0.000536	20.850094
625.208969	-3.003500	3.741800	-11.237000	24.626331	0.000536	20.822492
626.207991	-2.983700	3.743700	-11.169000	24.613350	0.000538	20.841234
627.211701	-3.000000	3.742700	-11.228000	24.627900	0.000539	20.849669
628.211556	-2.988400	3.742500	-11.183000	24.652771	0.000539	20.850444
629.211396	-3.027800	3.739800	-11.323000	24.648244	0.000538	20.860125
630.209475	-2.977200	3.742800	-11.142000	24.631180	0.000539	20.836840
631.210213	-2.994000	3.740800	-11.199000	24.673460	0.000538	20.841807
632.210656	-3.021600	3.740500	-11.301000	24.660925	0.000537	20.850565
633.210953	-3.000400	3.739900	-11.221000	24.644457	0.000536	20.843524
634.210600	-2.990200	3.740200	-11.183000	24.641054	0.000539	20.842480
635.212965	-3.019000	3.739000	-11.287000	24.632347	0.000538	20.852709
636.210487	-3.001300	3.740600	-11.226000	24.628493	0.000538	20.838885
637.211549	-2.996300	3.738900	-11.202000	24.663186	0.000536	20.843351
638.212808	-3.024400	3.737300	-11.302000	24.701833	0.000536	20.838984
639.211771	-2.976800	3.739700	-11.131000	24.718991	0.000535	20.848142
640.214645	-2.973600	3.739200	-11.118000	24.696682	0.000537	20.843298
641.212514	-3.000300	3.737700	-11.214000	24.654405	0.000536	20.859195
642.213593	-3.001500	3.738400	-11.219000	24.656196	0.000536	20.838708
643.226131	-2.998700	3.738700	-11.210000	24.686339	0.000537	20.837187
644.232724	-3.004800	3.736500	-11.227000	24.665947	0.000536	20.846595
645.238145	-2.990800	3.737100	-11.176000	24.679696	0.000536	20.849487
646.234859	-2.981400	3.737000	-11.140000	24.693624	0.000536	20.833592
647.233617	-2.986900	3.736800	-11.161000	24.703865	0.000537	20.831541
648.233745	-3.001300	3.736700	-11.214000	24.669897	0.000536	20.834438
649.237838	-3.001900	3.736400	-11.215000	24.704115	0.000537	20.840800
650.233262	-3.001900	3.737300	-11.218000	24.722966	0.000537	20.848337
651.236170	-3.030300	3.735000	-11.317000	24.756834	0.000537	20.835858
652.234619	-2.987700	3.734700	-11.157000	24.743827	0.000534	20.852675
653.235162	-3.011000	3.735700	-11.248000	24.765886	0.000537	20.837829
654.237213	-3.012200	3.734800	-11.249000	24.752035	0.000533	20.830094
655.237442	-2.985400	3.736000	-11.152000	24.733309	0.000535	20.845439
656.245143	-3.020500	3.733900	-11.276000	24.706771	0.000536	20.831612
657.239139	-3.026800	3.733800	-11.301000	24.695132	0.000535	20.823725
658.239080	-3.003600	3.733900	-11.214000	24.711595	0.000534	20.847358
659.240303	-3.013900	3.734600	-11.255000	24.734322	0.000536	20.818482
660.239805	-2.993400	3.734000	-11.176000	24.723010	0.000533	20.836527
661.240193	-2.987600	3.734400	-11.156000	24.732654	0.000534	20.835774
662.242200	-3.017900	3.732800	-11.264000	24.677022	0.000534	20.818829
663.239738	-3.018900	3.732400	-11.266000	24.704675	0.000534	20.819551
664.242418	-3.006700	3.733500	-11.225000	24.678313	0.000533	20.831978
665.241069	-2.990800	3.732000	-11.161000	24.685824	0.000534	20.829084
666.242462	-3.017100	3.732400	-11.260000	24.706960	0.000534	20.819948
667.246738	-3.000000	3.731900	-11.196000	24.735261	0.000531	20.834597
668.242475	-3.000700	3.731700	-11.197000	24.732080	0.000531	20.818603
669.244124	-3.002100	3.731700	-11.202000	24.719492	0.000534	20.831575
670.243760	-2.998900	3.730800	-11.187000	24.744037	0.000532	20.844826
671.241542	-2.995800	3.731100	-11.177000	24.760649	0.000532	20.842530
672.245752	-2.980500	3.731500	-11.120000	24.794963	0.000530	20.836190
673.244093	-3.010900	3.729700	-11.229000	24.773773	0.000529	20.848115
674.243975	-3.002200	3.729900	-11.198000	24.783948	0.000530	20.820868
675.243754	-3.006100	3.730400	-11.213000	24.779122	0.000531	20.817447
676.245935	-3.029900	3.728900	-11.297000	24.782800	0.000532	20.816397
677.245733	-3.019900	3.728700	-11.259000	24.797150	0.000531	20.827953
678.247579	-3.018800	3.727900	-11.254000	24.792774	0.000530	20.824036
679.249249	-3.005100	3.729400	-11.206000	24.812364	0.000531	20.846540
680.246627	-3.003000	3.728100	-11.195000	24.787302	0.000531	20.839407
681.250248	-3.013600	3.727700	-11.233000	24.748383	0.000530	20.823109
682.248616	-3.004400	3.728300	-11.200000	24.723239	0.000530	20.832490
683.251554	-2.982500	3.729000	-11.121000	24.702603	0.000530	20.826955
684.249529	-2.988600	3.728900	-11.143000	24.733612	0.000530	20.847640
685.249548	-3.012300	3.726100	-11.223000	24.766411	0.000527	20.823184
686.250352	-3.000700	3.726800	-11.182000	24.754503	0.000529	20.822613
687.250442	-3.009000	3.726300	-11.212000	24.747889	0.000531	20.833044
688.254629	-3.021700	3.725900	-11.258000	24.782451	0.000529	20.833116
689.252747	-3.006400	3.725800	-11.200000	24.802918	0.000529	20.821414
690.253986	-2.995300	3.725600	-11.158000	24.820248	0.000530	20.828374
691.254086	-2.993000	3.724900	-11.148000	24.834100	0.000531	20.821414
692.258354	-2.987600	3.725800	-11.130000	24.859591	0.000530	20.821392
693.252950	-3.015300	3.725500	-11.232000	24.817191	0.000530	20.821513
694.253667	-3.006600	3.724300	-11.197000	24.783328	0.000528	20.812659
695.253986	-3.019600	3.724500	-11.246000	24.759083	0.000530	20.837166
696.254709	-3.016200	3.723500	-11.230000	24.755677	0.000528	20.807670
697.255301	-3.011400	3.724600	-11.215000	24.760201	0.000527	20.825012
698.252827	-3.009900	3.724100	-11.207000	24.718276	0.000526	20.819449
699.258346	-2.999800	3.723700	-11.169000	24.700271	0.000527	20.802804
700.253330	-2.979900	3.724200	-11.097000	24.719573	0.000527	20.798466
701.253890	-2.994600	3.724000	-11.151000	24.768211	0.000527	20.799860
702.253389	-2.992900	3.723600	-11.144000	24.771769	0.000526	20.813387
703.255080	-2.997700	3.722900	-11.158000	24.824960	0.000527	20.818879
704.254588	-2.997700	3.723300	-11.161000	24.874220	0.000527	20.824221
705.257479	-3.014700	3.722200	-11.221000	24.882875	0.000527	20.801614
706.254532	-3.007900	3.722000	-11.194000	24.864695	0.000525	20.798066
707.254618	-2.997300	3.722100	-11.155000	24.866862	0.000525	20.803560
708.258276	-2.999000	3.721600	-11.160000	24.820238	0.000526	20.837373
709.256076	-3.014000	3.720700	-11.213000	24.819395	0.000526	20.819932
710.259286	-2.988800	3.722000	-11.124000	24.803208	0.000528	20.797997
711.258933	-2.988900	3.722000	-11.124000	24.842422	0.000526	20.822653
712.256353	-2.999900	3.720800	-11.161000	24.859578	0.000524	20.812371
713.256727	-3.012000	3.721500	-11.208000	24.883548	0.000524	20.811298
714.256862	-3.001600	3.719600	-11.164000	24.877036	0.000525	20.790538
715.261493	-3.010700	3.721200	-11.203000	24.822260	0.000523	20.783927
716.259038	-2.993300	3.719200	-11.132000	24.831858	0.000523	20.803517
717.256826	-2.993000	3.719000	-11.130000	24.823329	0.000522	20.804440
718.264509	-2.972700	3.719800	-11.057000	24.879003	0.000524	20.789193
719.260324	-2.990000	3.719600	-11.121000	24.850506	0.000524	20.787619
720.258492	-2.966300	3.719800	-11.033000	24.851376	0.000523	20.793234
721.262994	-3.005700	3.717800	-11.174000	24.822260	0.000525	20.800049
722.257755	-3.017200	3.718000	-11.217000	24.794061	0.000523	20.815370
723.257364	-2.993800	3.718000	-11.129000	24.775662	0.000522	20.802122
724.260440	-3.000300	3.717200	-11.151000	24.757412	0.000520	20.804669
725.258841	-2.995600	3.718700	-11.139000	24.810350	0.000522	20.803743
726.262550	-2.998700	3.718200	-11.149000	24.834794	0.000521	20.796981
727.259481	-2.982700	3.718300	-11.089000	24.864537	0.000521	20.784157
728.260666	-2.990500	3.717200	-11.116000	24.895393	0.000521	20.789047
729.259556	-2.991300	3.717700	-11.120000	24.899147	0.000520	20.800402
730.258936	-3.001000	3.717400	-11.155000	24.843400	0.000521	20.794238
731.262200	-3.016900	3.714300	-11.205000	24.856335	0.000522	20.783038
732.259141	-3.028200	3.715400	-11.250000	24.849249	0.000520	20.784460
733.258786	-3.026900	3.715700	-11.245000	24.864617	0.000521	20.801307
734.258445	-2.999800	3.716900	-11.148000	24.912854	0.000522	20.786658
735.262871	-3.005300	3.716100	-11.167000	24.918177	0.000520	20.776827
736.258888	-2.995400	3.715300	-11.128000	24.903658	0.000519	20.795920
737.260554	-3.012200	3.715500	-11.191000	24.893713	0.000519	20.793525
738.259933	-2.985500	3.715700	-11.092000	24.880315	0.000521	20.794777
739.265227	-3.004000	3.713900	-11.155000	24.931639	0.000521	20.788442
740.260472	-3.011800	3.714200	-11.185000	24.959063	0.000519	20.789890
741.262299	-3.011700	3.714400	-11.186000	24.937181	0.000519	20.804911
742.266358	-2.999400	3.713600	-11.138000	24.913412	0.000521	20.792908
743.263357	-3.010000	3.713500	-11.177000	24.905214	0.000518	20.805069
744.262836	-2.996900	3.714000	-11.130000	24.965232	0.000519	20.794185
745.262664	-2.989000	3.713000	-11.097000	24.968791	0.000519	20.794439
746.264170	-2.988900	3.714000	-11.100000	24.927544	0.000523	20.790023
747.263127	-3.021200	3.712700	-11.216000	24.928045	0.000518	20.784835
748.268414	-2.993700	3.713500	-11.116000	24.910615	0.000519	20.794368
749.267986	-2.994500	3.712800	-11.117000	24.863128	0.000518	20.781795
750.268252	-3.002500	3.710400	-11.139000	24.886577	0.000518	20.769293
751.266283	-3.018900	3.712500	-11.206000	24.920047	0.000521	20.777282
752.267460	-3.009000	3.712700	-11.170000	24.899832	0.000517	20.768847
753.270126	-3.026900	3.711600	-11.233000	24.918161	0.000517	20.795303
754.265751	-3.015400	3.710700	-11.188000	24.929403	0.000516	20.754429
755.265557	-2.996500	3.711100	-11.119000	24.931240	0.000519	20.778085
756.265030	-2.979100	3.712300	-11.058000	24.908839	0.000519	20.789266
757.265216	-3.007400	3.711700	-11.161000	24.942930	0.000517	20.779861
758.267410	-3.018300	3.710100	-11.197000	24.917173	0.000517	20.765388
759.265941	-3.036600	3.708900	-11.262000	24.938209	0.000516	20.788399
760.269595	-3.028500	3.709400	-11.233000	24.943977	0.000515	20.765738
761.268637	-3.007000	3.709500	-11.154000	24.983559	0.000515	20.794563
762.266043	-2.987400	3.710900	-11.085000	24.994998	0.000517	20.785182
763.265717	-3.017000	3.707400	-11.184000	24.981796	0.000515	20.772878
764.266552	-3.019100	3.709000	-11.197000	24.959942	0.000516	20.759478
765.268499	-2.998900	3.709500	-11.124000	24.978193	0.000514	20.765468
766.267538	-3.000500	3.709300	-11.129000	24.980904	0.000514	20.772457
767.270358	-3.019400	3.706900	-11.192000	24.927921	0.000516	20.759580
768.267936	-3.006800	3.708000	-11.149000	24.902086	0.000513	20.782015
769.270578	-3.021600	3.708100	-11.203000	24.893882	0.000513	20.782789
770.269491	-3.018500	3.706600	-11.188000	24.877647	0.000513	20.763175
771.269435	-3.018900	3.706800	-11.190000	24.840346	0.000514	20.765093
772.270957	-3.003100	3.706400	-11.130000	24.842461	0.000513	20.770535
773.271468	-2.999800	3.707300	-11.120000	24.864020	0.000514	20.756611
774.272776	-3.011200	3.705700	-11.157000	24.877147	0.000515	20.770260
775.273455	-2.990500	3.707200	-11.085000	24.904245	0.000512	20.770430
776.272654	-3.012900	3.705800	-11.165000	24.931598	0.000513	20.761849
777.272410	-2.974800	3.705700	-11.023000	24.967328	0.000512	20.783487
778.273325	-2.974700	3.707700	-11.029000	24.949899	0.000511	20.762673
779.270169	-3.014000	3.703900	-11.162000	24.968100	0.000510	20.767666
780.275181	-2.964100	3.705900	-10.983000	24.951986	0.000512	20.767139
781.273291	-2.996400	3.704000	-11.098000	24.900595	0.000510	20.765344
782.275193	-3.000700	3.703800	-11.112000	24.891718	0.000510	20.758331
783.279367	-3.005300	3.704500	-11.132000	24.926056	0.000512	20.783313
784.272743	-3.016800	3.703800	-11.172000	24.893484	0.000511	20.789028
785.277596	-3.019400	3.703100	-11.180000	24.878542	0.000511	20.776402
786.273872	-2.988500	3.704900	-11.072000	24.878320	0.000511	20.785662
787.276338	-3.002400	3.703900	-11.120000	24.886049	0.000511	20.780143
788.273063	-3.003100	3.702900	-11.119000	24.942766	0.000507	20.762152
789.273508	-3.001600	3.702100	-11.111000	24.966661	0.000510	20.799413
790.275189	-3.025200	3.702200	-11.199000	25.021034	0.000512	20.777651
791.276109	-3.014400	3.702900	-11.160000	25.038138	0.000510	20.767319
792.275208	-3.006400	3.702600	-11.131000	25.049577	0.000508	20.772163
793.273908	-3.004800	3.702800	-11.125000	25.045872	0.000508	20.785988
794.274412	-2.995800	3.702400	-11.091000	25.072225	0.000508	20.772612
795.274398	-2.972400	3.701800	-11.002000	25.080625	0.000510	20.775355
796.280991	-2.985100	3.701800	-11.050000	25.077245	0.000508	20.771013
797.274950	-2.997700	3.700100	-11.091000	24.998582	0.000509	20.758908
798.277514	-2.995600	3.701300	-11.087000	24.989657	0.000506	20.767018
799.278863	-3.006200	3.700600	-11.124000	25.021136	0.000509	20.773486
800.275856	-2.976700	3.700300	-11.014000	25.053229	0.000508	20.781519
801.276398	-3.006600	3.701100	-11.127000	25.074630	0.000509	20.788303
802.279861	-3.015000	3.700500	-11.155000	25.076970	0.000505	20.773108
803.279408	-3.004900	3.701000	-11.121000	25.084203	0.000508	20.801706
804.277213	-2.992400	3.699000	-11.068000	25.045072	0.000508	20.772857
805.279991	-3.010500	3.698800	-11.135000	25.032714	0.000509	20.776573
806.283391	-3.002200	3.699000	-11.104000	25.045912	0.000506	20.747620
807.284166	-2.994000	3.698700	-11.074000	25.055859	0.000504	20.775150
808.280107	-3.004700	3.697400	-11.109000	25.069854	0.000505	20.806268
809.281425	-2.989500	3.699000	-11.058000	25.096802	0.000506	20.784481
810.287130	-2.986300	3.698200	-11.043000	25.082530	0.000507	20.796707
811.280364	-3.003400	3.696200	-11.101000	25.083249	0.000505	20.759022
812.283766	-3.021100	3.695900	-11.164000	25.035468	0.000503	20.797355
813.283139	-2.986100	3.696900	-11.038000	25.020475	0.000506	20.784677
814.282558	-2.997400	3.696300	-11.079000	25.038200	0.000506	20.789666
815.280550	-3.016100	3.696200	-11.147000	25.047746	0.000506	20.790714
816.283339	-2.982300	3.696300	-11.022000	25.088420	0.000505	20.779387
817.282138	-2.998600	3.695700	-11.081000	25.116702	0.000504	20.801613
818.285179	-3.011200	3.696400	-11.129000	25.074540	0.000503	20.772565
819.284407	-3.000800	3.695500	-11.089000	25.051617	0.000504	20.795074
820.284197	-2.997700	3.696500	-11.081000	24.998885	0.000504	20.780549
821.286039	-2.997800	3.695800	-11.079000	24.983028	0.000502	20.801142
822.283371	-2.993200	3.695600	-11.061000	25.003658	0.000503	20.785340
823.288248	-2.996300	3.693800	-11.067000	25.023618	0.000504	20.804901
824.283607	-2.995400	3.693500	-11.062000	24.991895	0.000502	20.760730
825.284635	-2.987900	3.694500	-11.038000	24.992787	0.000502	20.797188
826.283211	-3.014800	3.693600	-11.134000	24.965688	0.000503	20.781841
827.284441	-2.988700	3.693900	-11.039000	24.943112	0.000501	20.793320
828.286417	-3.001500	3.694300	-11.088000	24.991540	0.000502	20.788349
829.286051	-3.014800	3.692700	-11.131000	24.996764	0.000503	20.788377
830.284450	-2.998000	3.694500	-11.075000	25.044100	0.000502	20.807917
831.285560	-2.995000	3.692800	-11.059000	25.064880	0.000503	20.787051
832.289813	-3.004100	3.692700	-11.092000	25.049543	0.000500	20.795362
833.285734	-2.992600	3.693300	-11.052000	25.034949	0.000499	20.802050
834.290225	-2.992200	3.693400	-11.050000	25.024134	0.000501	20.787875
835.283520	-3.001300	3.691800	-11.079000	25.039651	0.000500	20.791597
836.287371	-3.001300	3.691500	-11.079000	25.025678	0.000501	20.803649
837.287405	-2.991800	3.691000	-11.042000	25.097250	0.000498	20.790621
838.288219	-3.011300	3.691400	-11.114000	25.102171	0.000500	20.802673
839.292744	-3.010000	3.691600	-11.111000	25.101677	0.000500	20.797436
840.289725	-2.988300	3.691600	-11.031000	25.098991	0.000497	20.806593
841.289649	-3.003400	3.690200	-11.082000	25.127281	0.000497	20.796586
842.290914	-2.991600	3.689700	-11.037000	25.159822	0.000497	20.814080
843.289806	-2.991900	3.689800	-11.038000	25.184332	0.000499	20.813083
844.290821	-2.993700	3.689600	-11.045000	25.176874	0.000497	20.802276
845.296699	-2.979700	3.690300	-10.995000	25.140133	0.000499	20.815178
846.291449	-2.983000	3.689100	-11.003000	25.125593	0.000499	20.819547
847.292815	-2.985700	3.688400	-11.011000	25.155648	0.000497	20.798037
848.294308	-2.997100	3.690000	-11.059000	25.140976	0.000499	20.831196
849.293110	-3.008500	3.687800	-11.093000	25.165440	0.000498	20.799332
850.298089	-3.013900	3.686500	-11.110000	25.154898	0.000494	20.811508
851.293678	-3.002300	3.688300	-11.072000	25.090514	0.000497	20.802351
852.294033	-2.967600	3.688100	-10.944000	25.091307	0.000497	20.808837
853.297405	-3.003100	3.688500	-11.076000	25.122012	0.000496	20.819745
854.293979	-2.995900	3.688100	-11.048000	25.150551	0.000496	20.814731
855.294569	-2.982900	3.687100	-10.998000	25.170086	0.000497	20.795462
856.296812	-2.997100	3.686900	-11.049000	25.121190	0.000493	20.803748
857.297859	-3.013300	3.687000	-11.109000	25.136629	0.000494	20.809289
858.295242	-3.002200	3.687200	-11.069000	25.149576	0.000493	20.804269
859.293746	-2.998900	3.686700	-11.055000	25.192281	0.000496	20.815373
860.296095	-3.015900	3.685100	-11.113000	25.199517	0.000493	20.815525
861.296714	-2.992300	3.686900	-11.031000	25.193726	0.000494	20.809711
862.295096	-2.992300	3.685800	-11.028000	25.155497	0.000493	20.826808
863.295246	-3.015200	3.685100	-11.111000	25.165909	0.000493	20.810235
864.295955	-2.988900	3.684800	-11.013000	25.142917	0.000491	20.806119
865.296260	-3.005000	3.684700	-11.071000	25.144705	0.000492	20.816922
866.296937	-3.019800	3.683500	-11.122000	25.135533	0.000490	20.816250
867.296452	-3.006900	3.684600	-11.078000	25.133171	0.000491	20.840431
868.296826	-3.014300	3.683800	-11.103000	25.126710	0.000491	20.813557
869.303013	-3.020200	3.684100	-11.126000	25.152990	0.000491	20.807696
870.300415	-3.013700	3.684300	-11.102000	25.138991	0.000491	20.829678
871.298461	-2.997800	3.684500	-11.044000	25.112917	0.000491	20.825788
872.300059	-2.985000	3.684100	-10.997000	25.131758	0.000489	20.835218
873.298685	-3.006200	3.683600	-11.072000	25.098522	0.000492	20.812286
874.298740	-2.994000	3.683500	-11.027000	25.089424	0.000491	20.827335
875.302098	-2.975700	3.682000	-10.956000	25.099469	0.000491	20.846427
876.300970	-3.033300	3.680600	-11.162000	25.132134	0.000489	20.835597
877.302488	-2.980400	3.681500	-10.972000	25.155676	0.000492	20.823669
878.298903	-3.000000	3.682800	-11.047000	25.150703	0.000491	20.824366
879.299954	-2.967600	3.682700	-10.927000	25.127809	0.000491	20.841212
880.299687	-2.995500	3.682700	-11.029000	25.102847	0.000491	20.841757
881.297801	-3.004100	3.680600	-11.056000	25.125793	0.000490	20.832550
882.299213	-3.007100	3.681400	-11.069000	25.160198	0.000489	20.835795
883.299866	-2.993000	3.680400	-11.015000	25.152416	0.000490	20.824189
884.299010	-3.013900	3.678900	-11.087000	25.171135	0.000490	20.835869
885.301020	-2.990600	3.680200	-11.005000	25.186697	0.000489	20.822569
886.301103	-3.025100	3.679300	-11.129000	25.183638	0.000490	20.831351
887.301777	-3.012700	3.679000	-11.083000	25.205338	0.000490	20.821369
888.306995	-2.967700	3.680200	-10.920000	25.151944	0.000489	20.833198
889.302349	-2.993900	3.678800	-11.012000	25.119128	0.000490	20.821118
890.302159	-2.993500	3.678800	-11.012000	25.114880	0.000488	20.814957
891.303431	-2.959300	3.679400	-10.887000	25.138071	0.000489	20.838711
892.305277	-2.985800	3.679100	-10.985000	25.151246	0.000489	20.820170
893.305717	-2.987900	3.678900	-10.991000	25.165712	0.000488	20.848916
894.305014	-3.016700	3.677400	-11.092000	25.193877	0.000487	20.843053
895.305256	-3.003600	3.677200	-11.043000	25.206876	0.000485	20.841878
896.306376	-2.988900	3.678600	-10.994000	25.200112	0.000486	20.840304
897.312763	-3.002800	3.678100	-11.044000	25.204610	0.000486	20.832966
898.305358	-2.993800	3.676900	-11.007000	25.201008	0.000484	20.836461
899.307717	-3.011800	3.675100	-11.067000	25.204462	0.000486	20.843248
900.307633	-2.986300	3.675600	-10.975000	25.208935	0.000487	20.842049
901.307309	-3.005300	3.676100	-11.047000	25.203616	0.000484	20.845718
902.310515	-3.011100	3.675500	-11.067000	25.205551	0.000484	20.857143
903.307469	-3.018200	3.674800	-11.091000	25.238167	0.000482	20.847689
904.310551	-3.006200	3.675800	-11.049000	25.237870	0.000482	20.840753
905.310297	-2.970900	3.676100	-10.920000	25.236401	0.000482	20.845916
906.306448	-3.011600	3.675000	-11.066000	25.174133	0.000484	20.831766
907.315018	-2.993500	3.675300	-11.001000	25.192077	0.000482	20.841720
908.310656	-3.022800	3.674000	-11.105000	25.262024	0.000482	20.850304
909.315300	-2.964800	3.675200	-10.896000	25.268660	0.000481	20.859812
910.314345	-2.991100	3.675400	-10.992000	25.253671	0.000481	20.843815
911.314300	-2.985200	3.672900	-10.962000	25.226551	0.000482	20.839821
912.315676	-3.018200	3.672500	-11.083000	25.201820	0.000478	20.868095
913.318696	-2.993900	3.673600	-10.997000	25.231897	0.000482	20.849455
914.315967	-3.009800	3.671600	-11.050000	25.244868	0.000481	20.866744
915.313853	-3.010900	3.673400	-11.059000	25.275071	0.000483	20.852498
916.314580	-3.007000	3.673400	-11.045000	25.265602	0.000479	20.866223
917.315185	-3.026000	3.672200	-11.111000	25.235596	0.000482	20.852694
918.317849	-3.000900	3.671500	-11.017000	25.201718	0.000479	20.851872
919.316478	-2.993900	3.671800	-10.992000	25.248625	0.000478	20.863403
920.318632	-2.994500	3.671200	-10.992000	25.227517	0.000477	20.885833
921.316206	-3.003100	3.670300	-11.021000	25.227144	0.000477	20.870286
922.319874	-3.010000	3.670800	-11.048000	25.223715	0.000477	20.852145
923.319411	-2.980100	3.670800	-10.938000	25.267639	0.000478	20.865898
924.318695	-3.004600	3.670900	-11.029000	25.288937	0.000477	20.870211
925.318909	-2.985700	3.670100	-10.956000	25.261771	0.000476	20.870438
926.320364	-3.019400	3.669700	-11.080000	25.238083	0.000479	20.867993
927.320871	-3.005900	3.668600	-11.027000	25.221998	0.000476	20.877447
928.319651	-3.012000	3.668800	-11.050000	25.210889	0.000477	20.858234
929.323186	-3.030400	3.668800	-11.117000	25.184138	0.000476	20.880215
930.322718	-2.999500	3.669300	-11.005000	25.188268	0.000476	20.871085
931.329317	-2.983400	3.669000	-10.944000	25.229802	0.000476	20.871058
932.324209	-2.981600	3.669600	-10.941000	25.270417	0.000475	20.861575
933.330799	-3.007600	3.668200	-11.032000	25.272877	0.000477	20.876846
934.324858	-2.984200	3.667800	-10.944000	25.259975	0.000475	20.858678
935.324122	-2.970100	3.668800	-10.896000	25.264401	0.000473	20.882086
936.328724	-3.017100	3.666200	-11.060000	25.250529	0.000473	20.858678
937.326151	-3.016700	3.666700	-11.060000	25.262407	0.000473	20.887670
938.327974	-3.000300	3.666600	-10.999000	25.282393	0.000473	20.855108
939.326754	-3.009600	3.667000	-11.035000	25.272750	0.000472	20.893787
940.327318	-3.007900	3.666400	-11.028000	25.305333	0.000474	20.885724
941.325767	-3.004700	3.667000	-11.017000	25.302200	0.000473	20.865511
942.328698	-3.019600	3.666800	-11.071000	25.306774	0.000473	20.861569
943.326958	-3.011700	3.666600	-11.042000	25.317312	0.000474	20.877364
944.327100	-3.031900	3.665600	-11.113000	25.332198	0.000473	20.897999
945.330377	-2.992800	3.667000	-10.974000	25.309605	0.000472	20.911348
946.328372	-2.999400	3.665600	-10.994000	25.329315	0.000469	20.905061
947.329937	-3.012200	3.664500	-11.038000	25.361526	0.000472	20.905160
948.329314	-2.991400	3.665000	-10.962000	25.355658	0.000473	20.890735
949.327143	-3.002200	3.663800	-10.999000	25.354865	0.000471	20.870974
950.327197	-3.006200	3.664500	-11.015000	25.346513	0.000470	20.886769
951.327237	-2.992300	3.663100	-10.959000	25.340846	0.000471	20.903363
952.330189	-3.004800	3.663500	-11.006000	25.324763	0.000469	20.887215
953.329624	-2.995500	3.663600	-10.974000	25.282881	0.000470	20.875985
954.327263	-2.999200	3.663500	-10.987000	25.312238	0.000468	20.877485
955.327225	-2.996000	3.663900	-10.977000	25.293147	0.000472	20.879654
956.330382	-3.019300	3.662700	-11.058000	25.307710	0.000469	20.885740
957.332860	-3.010900	3.663500	-11.030000	25.280026	0.000470	20.880230
958.329487	-2.983100	3.663100	-10.926000	25.250940	0.000467	20.900813
959.326828	-3.006500	3.661000	-11.006000	25.278131	0.000468	20.864104
960.327336	-2.988800	3.661400	-10.943000	25.296823	0.000470	20.924592
961.326398	-2.999700	3.661500	-10.983000	25.291876	0.000469	20.899713
962.326946	-2.984400	3.662600	-10.930000	25.350211	0.000467	20.915135
963.330662	-2.977100	3.661700	-10.900000	25.371007	0.000468	20.912309
964.335386	-3.002400	3.661200	-10.991000	25.385899	0.000469	20.892176
965.328053	-2.966500	3.661500	-10.861000	25.396658	0.000468	20.896815
966.328985	-3.002200	3.659400	-10.984000	25.390618	0.000469	20.888855
967.334064	-2.987700	3.660300	-10.934000	25.365736	0.000467	20.899431
968.328442	-2.993900	3.658300	-10.952000	25.353804	0.000466	20.914475
969.331612	-2.995400	3.660700	-10.965000	25.367974	0.000467	20.891247
970.331012	-2.993400	3.659200	-10.952000	25.367276	0.000466	20.895762
971.332189	-3.006000	3.658900	-10.998000	25.391183	0.000468	20.889422
972.335151	-3.005200	3.658900	-10.995000	25.387134	0.000465	20.914751
973.332050	-3.014900	3.658400	-11.028000	25.389094	0.000465	20.916245
974.336922	-2.985800	3.659100	-10.924000	25.385739	0.000464	20.894860
975.335387	-3.003900	3.656900	-10.984000	25.348233	0.000463	20.901771
976.332299	-3.016000	3.656600	-11.027000	25.389143	0.000465	20.915820
977.335835	-2.988400	3.657600	-10.930000	25.353628	0.000465	20.915247
978.335489	-2.982600	3.657500	-10.908000	25.364733	0.000464	20.929715
979.335628	-2.998800	3.656100	-10.963000	25.357551	0.000464	20.914919
980.341307	-3.002400	3.655500	-10.975000	25.319251	0.000461	20.919136
981.339228	-2.992400	3.656600	-10.942000	25.302473	0.000460	20.899921
982.337640	-3.012100	3.655700	-11.011000	25.287907	0.000461	20.904736
983.339846	-3.014100	3.654800	-11.015000	25.304957	0.000462	20.888666
984.338879	-2.974200	3.656700	-10.874000	25.282833	0.000462	20.916236
985.344784	-2.993400	3.655000	-10.940000	25.318853	0.000461	20.915892
986.337746	-3.002100	3.655100	-10.972000	25.289895	0.000460	20.931385
987.341537	-2.990000	3.654500	-10.925000	25.329733	0.000459	20.941512
988.338806	-2.996800	3.654200	-10.951000	25.363539	0.000460	20.906707
989.339130	-2.984900	3.654500	-10.908000	25.414389	0.000460	20.922204
990.343991	-2.992300	3.654100	-10.933000	25.443440	0.000460	20.916288
991.343319	-3.010700	3.653300	-10.998000	25.385357	0.000458	20.920552
992.340371	-3.005100	3.653700	-10.979000	25.373057	0.000457	20.950399
993.346376	-3.005300	3.653000	-10.977000	25.368934	0.000457	20.933932
994.341426	-3.007900	3.652900	-10.987000	25.397961	0.000459	20.918984
995.338669	-2.994500	3.653400	-10.939000	25.371616	0.000458	20.946581
996.342971	-3.010400	3.650700	-10.989000	25.357400	0.000457	20.940842
997.342667	-3.008400	3.651100	-10.983000	25.390455	0.000455	20.934679
998.341621	-2.987300	3.651600	-10.907000	25.445529	0.000456	20.913171
999.344432	-3.038400	3.650400	-11.090000	25.450794	0.000456	20.942163
1000.344369	-2.995200	3.651600	-10.936000	25.411605	0.000457	20.936476
1001.345390	-3.045900	3.649800	-11.116000	25.365999	0.000454	20.939519
1002.342183	-2.999200	3.650000	-10.947000	25.376462	0.000454	20.921578
1003.343675	-3.001700	3.649800	-10.954000	25.393807	0.000454	20.942785
1004.341841	-2.996000	3.651300	-10.938000	25.415105	0.000454	20.950421
1005.344326	-3.014100	3.649200	-10.997000	25.414485	0.000454	20.935101
1006.352759	-3.014400	3.648400	-10.997000	25.440653	0.000454	20.939092
1007.349857	-3.015600	3.649200	-11.003000	25.473483	0.000454	20.941713
1008.343740	-3.020100	3.648800	-11.018000	25.458371	0.000452	20.947399
1009.345335	-3.035100	3.648000	-11.071000	25.527285	0.000455	20.930310
1010.352883	-3.007500	3.647900	-10.970000	25.512522	0.000456	20.937295
1011.346208	-2.987200	3.648700	-10.898000	25.516771	0.000455	20.933976
1012.348177	-2.995300	3.648600	-10.928000	25.514086	0.000454	20.952614
1013.350504	-2.999400	3.646500	-10.937000	25.506007	0.000452	20.935495
1014.346211	-2.984300	3.648400	-10.887000	25.475767	0.000450	20.937843
1015.347155	-2.994600	3.648100	-10.924000	25.490253	0.000453	20.918253
1016.349792	-2.978700	3.647000	-10.862000	25.461846	0.000449	20.929554
1017.353187	-3.011000	3.646300	-10.978000	25.439110	0.000453	20.942758
1018.348022	-3.019400	3.647600	-11.012000	25.454788	0.000452	20.932898
1019.351689	-2.979600	3.646800	-10.865000	25.455510	0.000451	20.939786
1020.362176	-2.985800	3.646100	-10.886000	25.431728	0.000451	20.923493
1021.350569	-3.009700	3.643700	-10.965000	25.472829	0.000449	20.928730
1022.351022	-2.990300	3.645500	-10.900000	25.436573	0.000450	20.934047
1023.359128	-3.002300	3.645400	-10.944000	25.409809	0.000450	20.943207
1024.351338	-3.012900	3.644500	-10.979000	25.407473	0.000451	20.924742
1025.351655	-2.994000	3.644000	-10.909000	25.442415	0.000449	20.932802
1026.353116	-2.985000	3.645600	-10.881000	25.449720	0.000448	20.916431
1027.354116	-3.004100	3.644400	-10.947000	25.438836	0.000450	20.921622
1028.355784	-2.991500	3.643800	-10.899000	25.401433	0.000448	20.915359
1029.351564	-2.998400	3.642800	-10.921000	25.362341	0.000448	20.921151
1030.351894	-2.988900	3.642400	-10.885000	25.363980	0.000448	20.909521
1031.354233	-2.981500	3.642600	-10.859000	25.394727	0.000447	20.920952
1032.354860	-2.969000	3.641700	-10.811000	25.467864	0.000447	20.906202
1033.355118	-2.999300	3.641200	-10.919000	25.496468	0.000446	20.934450
1034.351663	-3.009600	3.641000	-10.957000	25.502060	0.000447	20.888861
1035.359866	-2.990900	3.641000	-10.889000	25.502360	0.000445	20.941314
1036.359082	-2.999700	3.640300	-10.919000	25.508723	0.000444	20.909775
1037.354722	-3.000700	3.640300	-10.922000	25.521471	0.000445	20.908827
1038.359733	-2.993700	3.641600	-10.900000	25.501171	0.000445	20.921631
1039.354791	-2.988400	3.641000	-10.879000	25.458256	0.000445	20.906986
1040.359013	-2.978300	3.639400	-10.838000	25.476844	0.000442	20.899100
1041.360909	-2.983400	3.640700	-10.860000	25.446054	0.000444	20.937403
1042.357356	-2.962300	3.641200	-10.785000	25.424237	0.000444	20.905068
1043.360448	-2.999500	3.639400	-10.915000	25.380893	0.000443	20.902322
1044.359850	-3.023000	3.638300	-10.998000	25.340634	0.000443	20.923536
1045.358888	-2.997300	3.639100	-10.907000	25.394717	0.000443	20.912408
1046.358016	-3.015400	3.639300	-10.973000	25.340513	0.000443	20.896391
1047.358911	-2.987600	3.637300	-10.867000	25.406226	0.000443	20.900258
1048.360076	-3.009900	3.638500	-10.950000	25.427823	0.000440	20.901556
1049.361955	-2.995400	3.637400	-10.894000	25.480809	0.000440	20.885065
1050.358756	-3.011700	3.637100	-10.954000	25.466150	0.000439	20.897844
1051.358846	-3.001100	3.637300	-10.915000	25.519455	0.000442	20.900165
1052.363941	-3.003100	3.636500	-10.920000	25.505639	0.000440	20.900989
1053.359277	-3.003400	3.636400	-10.920000	25.478855	0.000440	20.889266
1054.363007	-3.001000	3.636400	-10.912000	25.466406	0.000439	20.914221
1055.362141	-3.009400	3.634900	-10.938000	25.453728	0.000440	20.888216
1056.360014	-2.993900	3.635300	-10.882000	25.439343	0.000439	20.902693
1057.361897	-3.013800	3.633500	-10.949000	25.412879	0.000439	20.895560
1058.361919	-3.002500	3.635300	-10.915000	25.464798	0.000437	20.896486
1059.363344	-3.015900	3.634000	-10.959000	25.448071	0.000439	20.889173
1060.401513	-2.999000	3.635600	-10.902000	25.493356	0.000435	20.868743
1061.363523	-3.003700	3.635100	-10.917000	25.481429	0.000436	20.891850
1062.383031	-2.989300	3.634500	-10.862000	25.499248	0.000435	20.883192
1063.392103	-3.005600	3.632500	-10.917000	25.488020	0.000435	20.887091
1064.384003	-3.008300	3.632700	-10.928000	25.481089	0.000435	20.882027
1065.393503	-3.005000	3.632300	-10.914000	25.494535	0.000434	20.874667
1066.386207	-2.994500	3.631200	-10.873000	25.468442	0.000434	20.873121
1067.368595	-3.005000	3.632500	-10.915000	25.502293	0.000433	20.887673
1068.369164	-2.979700	3.633300	-10.826000	25.470093	0.000434	20.872882
1069.369399	-2.981000	3.632300	-10.827000	25.480058	0.000434	20.880044
1070.371306	-3.014200	3.630400	-10.941000	25.489804	0.000432	20.876080
1071.370139	-3.014100	3.630400	-10.940000	25.519528	0.000432	20.863257
1072.370005	-3.032100	3.629400	-11.003000	25.537939	0.000430	20.871314
1073.369834	-2.971400	3.631100	-10.787000	25.526938	0.000432	20.871172
1074.370263	-3.006300	3.629800	-10.912000	25.552088	0.000433	20.869876
1075.372899	-3.003900	3.629100	-10.900000	25.524210	0.000430	20.852786
1076.390719	-3.001600	3.628800	-10.891000	25.498769	0.000431	20.869436
1077.395873	-3.009200	3.630000	-10.922000	25.529138	0.000429	20.863425
1078.391792	-2.998400	3.629500	-10.882000	25.545342	0.000432	20.856939
1079.386187	-2.998500	3.628700	-10.879000	25.567138	0.000431	20.868869
1080.374606	-3.020400	3.628000	-10.956000	25.590898	0.000430	20.863809
1081.391028	-3.016300	3.627000	-10.939000	25.562324	0.000431	20.855501
1082.399731	-3.001000	3.628800	-10.889000	25.570128	0.000427	20.849588
1083.394982	-2.993300	3.627100	-10.855000	25.553779	0.000427	20.864463
1084.413109	-2.990100	3.627800	-10.846000	25.518498	0.000427	20.861274
1085.393614	-3.009200	3.626200	-10.911000	25.469174	0.000428	20.856787
1086.398447	-3.016300	3.627200	-10.940000	25.488533	0.000427	20.862477
1087.395573	-2.989500	3.627100	-10.843000	25.474544	0.000427	20.858386
1088.377301	-2.983000	3.627700	-10.821000	25.512968	0.000425	20.850506
1089.378914	-2.981100	3.626100	-10.809000	25.464412	0.000426	20.863385
1090.382695	-2.983400	3.626300	-10.819000	25.454101	0.000423	20.872945
1091.379101	-2.991400	3.625700	-10.845000	25.469591	0.000426	20.855309
1092.397083	-2.991900	3.625300	-10.846000	25.466560	0.000425	20.871705
1093.393092	-2.991300	3.624200	-10.840000	25.442754	0.000426	20.851594
1094.377912	-2.999900	3.624400	-10.871000	25.452923	0.000424	20.874132
1095.381359	-3.007100	3.623400	-10.895000	25.484537	0.000424	20.869843
1096.394053	-2.995900	3.623400	-10.854000	25.470474	0.000423	20.859041
1097.395271	-2.985400	3.623800	-10.818000	25.471221	0.000421	20.845093
1098.396727	-2.989200	3.624300	-10.832000	25.475177	0.000422	20.838161
1099.402243	-2.991800	3.623300	-10.839000	25.467351	0.000422	20.869655
1100.398448	-2.984300	3.622400	-10.810000	25.447649	0.000420	20.844182
1101.401325	-2.998800	3.623000	-10.864000	25.442585	0.000420	20.853795
1102.397075	-3.004300	3.620300	-10.876000	25.435780	0.000419	20.849807
1103.403712	-3.025100	3.620900	-10.953000	25.475493	0.000420	20.852701
1104.401237	-3.009600	3.619800	-10.893000	25.511680	0.000421	20.842574
1105.405246	-3.004200	3.621000	-10.878000	25.527137	0.000420	20.873269
1106.380979	-3.001300	3.620900	-10.866000	25.524607	0.000418	20.826634
1107.404811	-2.996800	3.621100	-10.851000	25.553235	0.000417	20.833572
1108.379728	-3.009600	3.620100	-10.894000	25.581344	0.000420	20.834301
1109.379432	-2.987000	3.619800	-10.812000	25.545567	0.000417	20.844837
1110.400751	-2.999000	3.618900	-10.852000	25.584958	0.000417	20.823706
1111.396729	-2.976700	3.619600	-10.773000	25.559865	0.000417	20.832169
1112.398077	-3.015000	3.617900	-10.907000	25.583499	0.000418	20.832197
1113.398102	-2.992000	3.619900	-10.830000	25.610388	0.000415	20.831228
1114.397146	-3.004600	3.617200	-10.867000	25.571653	0.000417	20.815085
1115.397966	-2.996400	3.618100	-10.841000	25.534209	0.000417	20.846707
1116.400620	-3.021200	3.617700	-10.929000	25.486599	0.000414	20.822130
1117.402783	-2.999000	3.616600	-10.845000	25.490827	0.000414	20.831117
1118.384151	-3.023600	3.617300	-10.935000	25.494956	0.000415	20.834789
1119.380724	-2.991300	3.617700	-10.821000	25.506415	0.000414	20.834443
1120.379259	-2.992700	3.617500	-10.825000	25.513525	0.000413	20.833048
1121.400865	-2.997100	3.616800	-10.840000	25.554852	0.000414	20.806273
1122.404862	-2.984100	3.617200	-10.793000	25.514152	0.000412	20.835574
1123.397673	-2.997600	3.614600	-10.834000	25.513060	0.000414	20.808874
1124.383523	-2.988800	3.615600	-10.805000	25.511372	0.000414	20.823300
1125.402394	-3.005500	3.614300	-10.861000	25.542213	0.000413	20.822503
1126.403289	-3.005400	3.614300	-10.862000	25.554964	0.000411	20.800222
1127.382870	-2.990300	3.616200	-10.811000	25.543682	0.000412	20.832513
1128.392192	-3.003000	3.614000	-10.852000	25.576463	0.000414	20.828925
1129.386029	-2.996400	3.613700	-10.827000	25.582425	0.000411	20.820688
1130.384389	-2.993500	3.613800	-10.816000	25.533777	0.000410	20.801230
1131.383702	-2.991800	3.613200	-10.809000	25.565935	0.000410	20.806024
1132.386008	-2.994300	3.613300	-10.818000	25.564691	0.000410	20.806197
1133.399967	-2.996900	3.612400	-10.824000	25.564868	0.000411	20.813486
1134.405132	-2.978500	3.613400	-10.760000	25.524263	0.000408	20.817280
1135.404725	-2.991500	3.613200	-10.807000	25.545313	0.000410	20.821823
1136.386862	-3.000600	3.611800	-10.837000	25.536839	0.000409	20.813787
1137.387376	-3.023200	3.611700	-10.918000	25.575004	0.000410	20.812287
1138.389516	-3.005100	3.611900	-10.853000	25.583083	0.000407	20.791003
1139.387927	-3.022100	3.610700	-10.911000	25.544569	0.000408	20.826766
1140.387022	-3.012600	3.611200	-10.878000	25.560150	0.000408	20.809697
1141.387846	-2.999600	3.609700	-10.826000	25.498394	0.000407	20.810741
1142.392023	-2.998700	3.609600	-10.823000	25.491092	0.000408	20.829961
1143.388841	-2.999500	3.609500	-10.826000	25.513728	0.000407	20.809545
1144.415208	-3.001600	3.609000	-10.832000	25.539675	0.000407	20.790557
1145.389541	-2.983000	3.609500	-10.766000	25.533435	0.000407	20.829809
1146.390137	-2.982600	3.610000	-10.766000	25.513682	0.000406	20.816611
1147.392745	-2.987100	3.609500	-10.781000	25.459157	0.000405	20.812117
1148.390390	-2.987700	3.609800	-10.784000	25.463132	0.000406	20.832703
1149.395471	-3.002200	3.607800	-10.831000	25.513305	0.000404	20.830457
1150.388815	-2.988400	3.607300	-10.779000	25.514672	0.000403	20.823769
1151.390405	-2.997700	3.607600	-10.814000	25.570434	0.000404	20.818129
1152.395133	-2.991900	3.607200	-10.792000	25.566358	0.000403	20.807871
1153.391181	-3.000900	3.605700	-10.819000	25.564691	0.000404	20.825637
1154.390924	-2.988200	3.606300	-10.775000	25.554030	0.000402	20.807818
1155.399311	-2.974700	3.608500	-10.732000	25.517949	0.000402	20.791973
1156.391823	-3.010800	3.606500	-10.857000	25.522396	0.000401	20.797861
1157.394198	-3.013700	3.604600	-10.862000	25.461188	0.000401	20.808940
1158.397703	-2.984200	3.606300	-10.761000	25.493394	0.000400	20.805720
1159.392315	-3.004700	3.605500	-10.833000	25.519186	0.000402	20.797957
1160.414093	-2.993200	3.604400	-10.788000	25.554421	0.000402	20.812953
1161.394175	-2.997200	3.605400	-10.805000	25.599421	0.000401	20.827326
1162.411947	-3.000900	3.603700	-10.814000	25.644867	0.000399	20.808484
1163.419504	-2.991700	3.605100	-10.785000	25.589951	0.000399	20.823979
1164.417903	-2.995100	3.603600	-10.792000	25.601757	0.000400	20.820663
1165.396640	-3.000000	3.602700	-10.807000	25.584881	0.000399	20.799447
1166.412838	-2.996000	3.603300	-10.794000	25.590120	0.000399	20.817511
1167.394575	-2.986500	3.602500	-10.758000	25.553766	0.000398	20.814666
1168.412607	-3.002700	3.602800	-10.817000	25.549242	0.000396	20.805855
1169.420163	-3.001400	3.600400	-10.806000	25.502200	0.000396	20.807925
1170.410809	-3.016100	3.602100	-10.863000	25.481051	0.000396	20.803757
1171.414551	-3.013900	3.600400	-10.851000	25.513655	0.000396	20.813265
1172.423991	-2.991400	3.601000	-10.771000	25.550853	0.000396	20.806050
1173.410718	-3.006000	3.600200	-10.822000	25.585991	0.000395	20.810519
1174.420802	-2.995100	3.600800	-10.784000	25.573064	0.000394	20.789002
1175.413674	-2.986300	3.599900	-10.749000	25.577641	0.000396	20.806875
1176.419346	-3.012200	3.599400	-10.841000	25.610813	0.000393	20.787558
1177.398328	-3.001700	3.598900	-10.802000	25.568421	0.000393	20.805201
1178.424356	-3.013400	3.598800	-10.843000	25.559693	0.000394	20.806868
1179.422661	-2.970400	3.599300	-10.691000	25.575697	0.000394	20.788326
1180.395756	-3.001300	3.598200	-10.798000	25.593637	0.000392	20.792594
1181.416415	-2.992900	3.597800	-10.767000	25.582285	0.000393	20.790202
1182.418156	-3.027100	3.597100	-10.888000	25.587500	0.000392	20.780266
1183.417425	-3.000500	3.597800	-10.795000	25.594356	0.000392	20.782884
1184.400203	-2.980300	3.598600	-10.724000	25.606381	0.000391	20.780737
1185.401130	-3.008200	3.595800	-10.816000	25.622038	0.000391	20.793142
1186.399951	-3.003400	3.596600	-10.801000	25.658266	0.000390	20.795863
1187.400630	-3.007400	3.595500	-10.812000	25.660102	0.000389	20.811932
1188.398959	-2.999400	3.597600	-10.790000	25.638364	0.000390	20.804798
1189.417323	-3.014900	3.594800	-10.838000	25.579350	0.000391	20.796263
1190.400654	-2.985900	3.596100	-10.736000	25.591301	0.000389	20.775075
1191.401121	-3.002800	3.596000	-10.797000	25.580668	0.000388	20.790000
1192.406130	-2.986300	3.594800	-10.735000	25.548788	0.000390	20.793545
1193.403627	-3.000200	3.595200	-10.785000	25.539892	0.000389	20.792197
1194.404056	-3.011900	3.593500	-10.822000	25.525107	0.000389	20.782091
1195.417348	-2.994000	3.594100	-10.760000	25.505551	0.000389	20.790428
1196.421867	-3.011000	3.593300	-10.819000	25.508631	0.000387	20.804900
1197.419414	-3.032100	3.592900	-10.892000	25.558136	0.000387	20.792027
1198.406672	-2.983100	3.593600	-10.718000	25.587380	0.000386	20.785361
1199.423593	-3.001600	3.592100	-10.781000	25.604030	0.000386	20.795920
1200.408009	-2.993800	3.592700	-10.755000	25.608029	0.000387	20.782866
1201.405170	-2.999500	3.591700	-10.773000	25.619184	0.000385	20.776525
1202.427632	-2.993100	3.591400	-10.748000	25.647905	0.000385	20.761274
1203.407152	-3.002900	3.591600	-10.784000	25.673774	0.000387	20.771136
1204.405781	-2.979800	3.591900	-10.702000	25.700732	0.000384	20.789678
1205.424171	-2.989100	3.591000	-10.733000	25.655983	0.000385	20.762750
1206.405759	-2.988600	3.589900	-10.728000	25.670026	0.000384	20.775432
1207.405475	-2.994800	3.589800	-10.750000	25.636631	0.000384	20.783142
1208.423176	-2.993600	3.589700	-10.744000	25.609865	0.000385	20.774753
1209.411643	-3.031600	3.588500	-10.877000	25.597865	0.000383	20.781193
1210.404330	-2.992600	3.588900	-10.740000	25.615506	0.000382	20.783737
1211.406084	-2.982400	3.588300	-10.701000	25.553506	0.000383	20.774576
1212.427933	-2.994600	3.589000	-10.747000	25.570580	0.000382	20.772283
1213.407332	-3.006000	3.588400	-10.786000	25.573808	0.000381	20.775524
1214.436551	-3.002000	3.588200	-10.771000	25.561385	0.000384	20.763521
1215.427355	-3.006400	3.587700	-10.784000	25.609340	0.000381	20.763320
1216.430582	-2.997700	3.587100	-10.752000	25.626139	0.000381	20.799158
1217.425729	-2.984100	3.588500	-10.708000	25.578501	0.000380	20.784505
1218.431886	-2.992300	3.588100	-10.735000	25.599919	0.000382	20.802222
1219.424849	-3.005000	3.587400	-10.779000	25.584593	0.000381	20.783036
1220.424686	-3.013400	3.585400	-10.804000	25.542052	0.000378	20.779668
1221.430202	-3.008900	3.585000	-10.786000	25.547587	0.000378	20.780960
1222.439785	-3.041100	3.585500	-10.903000	25.521570	0.000377	20.776643
1223.425035	-3.029100	3.585900	-10.861000	25.526341	0.000378	20.773847
1224.426210	-2.981600	3.585300	-10.689000	25.518610	0.000378	20.784102
1225.430567	-2.983800	3.585300	-10.697000	25.510334	0.000379	20.781954
1226.434818	-2.969100	3.584700	-10.642000	25.534635	0.000377	20.758943
1227.433331	-2.973300	3.585300	-10.659000	25.535629	0.000380	20.769424
1228.434214	-3.019100	3.583500	-10.818000	25.578393	0.000378	20.759739
1229.432439	-2.984100	3.584300	-10.695000	25.595188	0.000377	20.770444
1230.441812	-3.001100	3.583000	-10.752000	25.572128	0.000374	20.757241
1231.432607	-2.999800	3.583600	-10.749000	25.596580	0.000375	20.761410
1232.421522	-2.999500	3.583600	-10.748000	25.622592	0.000377	20.788957
1233.416827	-2.979800	3.583300	-10.676000	25.641078	0.000375	20.771488
1234.415520	-3.003000	3.581500	-10.755000	25.603631	0.000375	20.776078
1235.418430	-3.017100	3.581600	-10.805000	25.680357	0.000373	20.788179
1236.419373	-3.013900	3.580400	-10.790000	25.707762	0.000374	20.778247
1237.439857	-2.996500	3.580500	-10.728000	25.734297	0.000372	20.775501
1238.431747	-2.969300	3.581000	-10.632000	25.718095	0.000372	20.772504
1239.454543	-3.021200	3.580100	-10.815000	25.672699	0.000373	20.786651
1240.430820	-3.003500	3.579800	-10.751000	25.626980	0.000371	20.757802
1241.439831	-3.031600	3.578400	-10.848000	25.631447	0.000373	20.763711
1242.440170	-3.007900	3.579200	-10.765000	25.626057	0.000371	20.775367
1243.447989	-2.998600	3.579500	-10.732000	25.603075	0.000371	20.792589
1244.437802	-3.007300	3.579500	-10.763000	25.605086	0.000372	20.753831
1245.440267	-2.996300	3.577700	-10.718000	25.614945	0.000372	20.776535
1246.420734	-3.011300	3.577600	-10.773000	25.643200	0.000369	20.789266
1247.438023	-2.992000	3.577800	-10.704000	25.642380	0.000369	20.777536
1248.419074	-2.982200	3.577300	-10.667000	25.682177	0.000370	20.782894
1249.420362	-2.988600	3.576400	-10.687000	25.679847	0.000368	20.773917
1250.421015	-2.998700	3.577500	-10.727000	25.609878	0.000369	20.802741
1251.440453	-3.015900	3.576100	-10.784000	25.547576	0.000371	20.774784
1252.440613	-2.997300	3.575600	-10.716000	25.542657	0.000366	20.794500
1253.445599	-3.004300	3.576300	-10.743000	25.531051	0.000367	20.781896
1254.437912	-2.994000	3.576200	-10.706000	25.539151	0.000367	20.797144
1255.440565	-3.017700	3.574200	-10.785000	25.562061	0.000367	20.770365
1256.442790	-2.996600	3.575700	-10.714000	25.606811	0.000367	20.795393
1257.446488	-3.011900	3.573800	-10.763000	25.626146	0.000365	20.777353
1258.438509	-3.005200	3.574600	-10.742000	25.658171	0.000365	20.756412
1259.423695	-2.975200	3.574500	-10.634000	25.704780	0.000364	20.792796
1260.423557	-3.005800	3.574800	-10.744000	25.684654	0.000365	20.772580
1261.422598	-2.996800	3.574200	-10.710000	25.674642	0.000364	20.786706
1262.427533	-2.978200	3.575000	-10.647000	25.661747	0.000364	20.773755
1263.422779	-3.004800	3.571500	-10.731000	25.620446	0.000364	20.803871
1264.423754	-2.985300	3.573200	-10.666000	25.579319	0.000362	20.794335
1265.425291	-3.008100	3.570900	-10.740000	25.569087	0.000362	20.774102
1266.448509	-3.015500	3.573200	-10.774000	25.555466	0.000363	20.787924
1267.445749	-2.996200	3.572800	-10.704000	25.541400	0.000361	20.780436
1268.447519	-3.000800	3.571000	-10.714000	25.555762	0.000360	20.778738
1269.441106	-2.974300	3.572300	-10.625000	25.558718	0.000362	20.768904
1270.440289	-3.003900	3.570900	-10.727000	25.621982	0.000359	20.797354
1271.439003	-2.985100	3.571200	-10.659000	25.691253	0.000360	20.791063
1272.431686	-3.011900	3.570800	-10.753000	25.666955	0.000361	20.773296
1273.425820	-2.989800	3.570600	-10.674000	25.670581	0.000359	20.797326
1274.425508	-3.007400	3.570400	-10.737000	25.690189	0.000358	20.778140
1275.445720	-3.001100	3.569100	-10.710000	25.687279	0.000359	20.802244
1276.441883	-3.005900	3.568600	-10.726000	25.704024	0.000360	20.795355
1277.427589	-2.987100	3.569200	-10.660000	25.670309	0.000359	20.789467
1278.447625	-3.011400	3.567800	-10.744000	25.652345	0.000356	20.792761
1279.426798	-3.016900	3.568100	-10.764000	25.667279	0.000356	20.785475
1280.426371	-3.009300	3.567100	-10.733000	25.639827	0.000357	20.807689
1281.443186	-2.978600	3.567800	-10.626000	25.617687	0.000358	20.806316
1282.445854	-3.025100	3.566000	-10.787000	25.641592	0.000355	20.804246
1283.450636	-2.994300	3.566400	-10.678000	25.607850	0.000356	20.789325
1284.427076	-3.010600	3.566700	-10.737000	25.601889	0.000354	20.794717
1285.434638	-2.979900	3.566800	-10.628000	25.643085	0.000357	20.781565
1286.429708	-2.973400	3.567100	-10.605000	25.693056	0.000356	20.795718
1287.431726	-3.003000	3.565900	-10.707000	25.727569	0.000355	20.796719
1288.450643	-3.002300	3.565000	-10.702000	25.721081	0.000354	20.790676
1289.455642	-2.980300	3.565200	-10.625000	25.681951	0.000354	20.784565
1290.457060	-3.045100	3.563200	-10.849000	25.651864	0.000352	20.798917
1291.448491	-3.014900	3.564600	-10.746000	25.645033	0.000352	20.802961
1292.466100	-2.997700	3.563500	-10.682000	25.674599	0.000353	20.799465
1293.452832	-3.007100	3.563700	-10.715000	25.645058	0.000353	20.801563
1294.433194	-2.996100	3.564200	-10.677000	25.626846	0.000353	20.798446
1295.433603	-3.010000	3.563700	-10.726000	25.612260	0.000352	20.799918
1296.433096	-2.976100	3.562600	-10.602000	25.614198	0.000352	20.814192
1297.437646	-3.002700	3.562900	-10.697000	25.615914	0.000349	20.805958
1298.433612	-2.999200	3.563700	-10.687000	25.609526	0.000350	20.809500
1299.436531	-3.015100	3.561400	-10.737000	25.583761	0.000350	20.811598
1300.455703	-3.025300	3.562200	-10.775000	25.590176	0.000350	20.786747
1301.460123	-2.997900	3.560800	-10.674000	25.574170	0.000350	20.801966
1302.434747	-3.014600	3.561200	-10.735000	25.599193	0.000352	20.797225
1303.434125	-3.019000	3.560000	-10.747000	25.660464	0.000346	20.789062
1304.432608	-3.013800	3.560100	-10.728000	25.635471	0.000349	20.798099
1305.436326	-2.958400	3.560400	-10.532000	25.660668	0.000348	20.803017
1306.433680	-2.979600	3.559900	-10.606000	25.679974	0.000348	20.815295
1307.434978	-3.002000	3.558800	-10.682000	25.714954	0.000348	20.820083
1308.437331	-2.992100	3.557400	-10.642000	25.735950	0.000347	20.814620
1309.436002	-3.011400	3.559900	-10.719000	25.722985	0.000349	20.796382
1310.438479	-2.996800	3.558600	-10.663000	25.732377	0.000347	20.811031
1311.434684	-3.005700	3.558700	-10.695000	25.702285	0.000346	20.805936
1312.435134	-2.990700	3.556700	-10.635000	25.680668	0.000344	20.829268
1313.436536	-3.006600	3.557600	-10.695000	25.650927	0.000345	20.821682
1314.435865	-3.013400	3.556700	-10.717000	25.668993	0.000346	20.796679
1315.437459	-3.013000	3.556200	-10.713000	25.709715	0.000345	20.821459
1316.437404	-3.001400	3.556900	-10.675000	25.673837	0.000345	20.828571
1317.434660	-2.981200	3.557500	-10.605000	25.689666	0.000344	20.823133
1318.456000	-3.002200	3.555900	-10.675000	25.683603	0.000343	20.793810
1319.455120	-3.002600	3.556000	-10.676000	25.687179	0.000344	20.821109
1320.454076	-2.979800	3.555700	-10.594000	25.736298	0.000342	20.812125
1321.459685	-3.007400	3.555200	-10.691000	25.706287	0.000342	20.812801
1322.454741	-2.979000	3.555200	-10.590000	25.664047	0.000342	20.817790
1323.452373	-3.005300	3.554900	-10.683000	25.686012	0.000341	20.808084
1324.467969	-3.001600	3.553000	-10.664000	25.655024	0.000342	20.817263
1325.453734	-3.003800	3.554200	-10.675000	25.652417	0.000341	20.806584
1326.470376	-2.999400	3.553200	-10.657000	25.692791	0.000343	20.836229
1327.455783	-3.011000	3.552700	-10.696000	25.752620	0.000340	20.821406
1328.459595	-2.994000	3.551700	-10.633000	25.743573	0.000341	20.815639
1329.461085	-2.991300	3.552200	-10.625000	25.800764	0.000340	20.823774
1330.443819	-3.015700	3.551100	-10.708000	25.829385	0.000338	20.818385
1331.460367	-3.015000	3.551000	-10.704000	25.801486	0.000339	20.817387
1332.442285	-2.992300	3.550200	-10.623000	25.756991	0.000339	20.817263
1333.440229	-2.976900	3.551800	-10.572000	25.737859	0.000339	20.824124
1334.447968	-3.008300	3.551600	-10.683000	25.677758	0.000338	20.823501
1335.441673	-3.002700	3.550100	-10.658000	25.637131	0.000338	20.832008
1336.442216	-2.982000	3.550800	-10.587000	25.635718	0.000338	20.822528
1337.442231	-3.006500	3.548800	-10.668000	25.645012	0.000337	20.814793
1338.440885	-2.994200	3.548600	-10.624000	25.631293	0.000336	20.836576
1339.442335	-2.995900	3.547700	-10.628000	25.652463	0.000336	20.839346
1340.440510	-2.970500	3.549600	-10.542000	25.653682	0.000336	20.817811
1341.441594	-3.000900	3.548200	-10.647000	25.633332	0.000336	20.848107
1342.463736	-2.984700	3.548100	-10.590000	25.680443	0.000335	20.813395
1343.442111	-2.994800	3.548300	-10.625000	25.623023	0.000335	20.830641
1344.443201	-2.997800	3.547800	-10.635000	25.593530	0.000332	20.833263
1345.445474	-3.009400	3.547700	-10.676000	25.615022	0.000333	20.832563
1346.443189	-2.990900	3.545900	-10.605000	25.661739	0.000333	20.824481
1347.446096	-3.013500	3.547400	-10.689000	25.704627	0.000331	20.831996
1348.446961	-3.020200	3.546000	-10.709000	25.725250	0.000333	20.829477
1349.445410	-2.997400	3.546800	-10.630000	25.697546	0.000332	20.829625
1350.445280	-2.988500	3.545400	-10.595000	25.727536	0.000332	20.831773
1351.445250	-3.018500	3.545400	-10.701000	25.719687	0.000332	20.845700
1352.447281	-2.999400	3.545400	-10.632000	25.681449	0.000329	20.845700
1353.447491	-2.997500	3.544700	-10.624000	25.686198	0.000333	20.824866
1354.445450	-3.020500	3.543600	-10.702000	25.721085	0.000332	20.810595
1355.450116	-3.009700	3.543500	-10.664000	25.729981	0.000331	20.845133
1356.446546	-3.022800	3.542600	-10.708000	25.743001	0.000333	20.848254
1357.444276	-2.985000	3.544600	-10.580000	25.694279	0.000332	20.828715
1358.448283	-2.989100	3.543000	-10.590000	25.689263	0.000330	20.838849
1359.444170	-3.001100	3.542200	-10.630000	25.719077	0.000331	20.842716
1360.444109	-3.006600	3.544000	-10.654000	25.709093	0.000329	20.837429
1361.461696	-2.995500	3.541000	-10.606000	25.683150	0.000330	20.857839
1362.444043	-3.027200	3.542100	-10.721000	25.624688	0.000331	20.847960
1363.447916	-3.015400	3.540900	-10.677000	25.599095	0.000330	20.851179
1364.447459	-3.000500	3.541100	-10.624000	25.659102	0.000329	20.847910
1365.445542	-3.002400	3.540100	-10.628000	25.669417	0.000329	20.849261
1366.445768	-3.017400	3.539600	-10.679000	25.710512	0.000329	20.855450
1367.445601	-2.989400	3.539300	-10.580000	25.684950	0.000328	20.851586
1368.445259	-2.995700	3.540000	-10.604000	25.649315	0.000330	20.849934
1369.448682	-3.005300	3.539500	-10.636000	25.672376	0.000327	20.851285
1370.466069	-2.997400	3.539900	-10.610000	25.662861	0.000327	20.841728
1371.465737	-3.016600	3.539300	-10.676000	25.680102	0.000330	20.871846
1372.474158	-3.030600	3.538500	-10.722000	25.721919	0.000327	20.836088
1373.465993	-2.998900	3.538100	-10.610000	25.742965	0.000326	20.836364
1374.475780	-2.986600	3.538700	-10.567000	25.729222	0.000326	20.867130
1375.446668	-3.009000	3.537200	-10.642000	25.732252	0.000324	20.836035
1376.468183	-3.005100	3.536000	-10.625000	25.760329	0.000326	20.835313
1377.467185	-2.984800	3.537400	-10.558000	25.765095	0.000324	20.870919
1378.447165	-3.009000	3.536100	-10.639000	25.715431	0.000326	20.863234
1379.463786	-2.995600	3.536100	-10.592000	25.757644	0.000323	20.853953
1380.469725	-2.997000	3.536900	-10.599000	25.752103	0.000326	20.852180
1381.474484	-3.004600	3.535500	-10.622000	25.799927	0.000325	20.855174
1382.447049	-2.997500	3.535200	-10.595000	25.801192	0.000323	20.873513
1383.463329	-2.994500	3.535600	-10.586000	25.751927	0.000325	20.875236
1384.465937	-2.981000	3.536300	-10.541000	25.749764	0.000322	20.856943
1385.469447	-2.985700	3.535400	-10.555000	25.719253	0.000322	20.866599
1386.467020	-3.011800	3.533300	-10.641000	25.713391	0.000322	20.846488
1387.465195	-3.014700	3.533300	-10.651000	25.774582	0.000321	20.839199
1388.467377	-2.989400	3.534500	-10.565000	25.835924	0.000322	20.858143
1389.449001	-3.006500	3.533700	-10.623000	25.879866	0.000320	20.856766
1390.452238	-2.994700	3.532000	-10.575000	25.834677	0.000321	20.852149
1391.450407	-3.016000	3.531000	-10.648000	25.837013	0.000319	20.884839
1392.449010	-2.973600	3.532500	-10.503000	25.804225	0.000319	20.860439
1393.450140	-2.989000	3.531600	-10.556000	25.766212	0.000320	20.863507
1394.449044	-2.993200	3.530800	-10.567000	25.743279	0.000320	20.867024
1395.450047	-2.991400	3.531100	-10.562000	25.748397	0.000319	20.871691
1396.452464	-3.004500	3.529100	-10.602000	25.781493	0.000320	20.864158
1397.449040	-2.997500	3.529100	-10.578000	25.847474	0.000318	20.854098
1398.450377	-3.012000	3.529500	-10.630000	25.859450	0.000319	20.861861
1399.452939	-2.997400	3.529300	-10.578000	25.891969	0.000319	20.870820
1400.450179	-3.004300	3.528700	-10.600000	25.907742	0.000319	20.888087
1401.452431	-2.981700	3.528500	-10.520000	25.913335	0.000317	20.865732
1402.450462	-3.030500	3.527500	-10.689000	25.896615	0.000318	20.875487
1403.471346	-2.998900	3.527500	-10.578000	25.900813	0.000316	20.870222
1404.470968	-3.024600	3.526700	-10.667000	25.887847	0.000316	20.882326
1405.475301	-3.002200	3.527500	-10.589000	25.826413	0.000315	20.873244
1406.467930	-2.997800	3.528700	-10.577000	25.808575	0.000314	20.881403
1407.469128	-2.988800	3.527100	-10.540000	25.801445	0.000316	20.877086
1408.476045	-3.002400	3.526400	-10.586000	25.810565	0.000314	20.871549
1409.452846	-2.994900	3.526100	-10.560000	25.864621	0.000316	20.884124
1410.470299	-3.009900	3.524600	-10.607000	25.851976	0.000313	20.904135
1411.473675	-3.003200	3.525900	-10.587000	25.794343	0.000312	20.892711
1412.473389	-2.988300	3.526300	-10.537000	25.795090	0.000313	20.880659
1413.457545	-2.992800	3.524900	-10.548000	25.777279	0.000312	20.889321
1414.456600	-2.997100	3.524500	-10.562000	25.755886	0.000312	20.880635
1415.462671	-2.994500	3.524300	-10.553000	25.748037	0.000313	20.911629
1416.461051	-3.010300	3.523900	-10.607000	25.785029	0.000313	20.868184
1417.461642	-2.993700	3.523600	-10.548000	25.784261	0.000310	20.906764
1418.458064	-2.982900	3.523400	-10.508000	25.821699	0.000310	20.872776
1419.460167	-2.997000	3.523100	-10.558000	25.832855	0.000312	20.885878
1420.468191	-2.996300	3.523700	-10.557000	25.817328	0.000310	20.886402
1421.478706	-3.011300	3.523100	-10.608000	25.837850	0.000309	20.887576
1422.477578	-2.976300	3.521800	-10.481000	25.850119	0.000312	20.886625
1423.485998	-3.002800	3.522400	-10.576000	25.767190	0.000309	20.893411
1424.481577	-3.003300	3.520600	-10.573000	25.752430	0.000308	20.891861
1425.475482	-2.980700	3.522600	-10.498000	25.770195	0.000308	20.892636
1426.479157	-2.995200	3.521400	-10.546000	25.745575	0.000307	20.911052
1427.477890	-3.000800	3.520500	-10.563000	25.733922	0.000310	20.910727
1428.482155	-2.989500	3.519900	-10.522000	25.771686	0.000307	20.911201
1429.481953	-3.014400	3.518800	-10.605000	25.713845	0.000307	20.887718
1430.478974	-3.017100	3.518000	-10.612000	25.721768	0.000306	20.894728
1431.484789	-2.988600	3.519900	-10.519000	25.759159	0.000308	20.918058
1432.485563	-2.994600	3.518500	-10.535000	25.775378	0.000306	20.881247
1433.487624	-2.976300	3.519900	-10.475000	25.769421	0.000307	20.898022
1434.483174	-3.008200	3.518000	-10.582000	25.756743	0.000306	20.924639
1435.489944	-3.020300	3.515700	-10.618000	25.785713	0.000309	20.922920
1436.465349	-3.025500	3.516700	-10.638000	25.807920	0.000307	20.897813
1437.465108	-2.987500	3.518100	-10.509000	25.847968	0.000306	20.915755
1438.464081	-3.026900	3.516100	-10.642000	25.801587	0.000303	20.918950
1439.466114	-2.989100	3.517200	-10.512000	25.793661	0.000305	20.899137
1440.486120	-2.993100	3.515900	-10.523000	25.788838	0.000305	20.894293
1441.483011	-2.994600	3.515100	-10.526000	25.822106	0.000303	20.921069
1442.470367	-3.000200	3.515500	-10.547000	25.814078	0.000304	20.929126
1443.466827	-3.004000	3.515000	-10.558000	25.840064	0.000303	20.907342
1444.486622	-2.991700	3.514300	-10.513000	25.856636	0.000303	20.919722
1445.467217	-2.997700	3.514600	-10.535000	25.847739	0.000304	20.900354
1446.468131	-3.002600	3.512900	-10.547000	25.834177	0.000302	20.932246
1447.469455	-3.023700	3.511600	-10.616000	25.842054	0.000302	20.913608
1448.469125	-3.020300	3.511900	-10.606000	25.822476	0.000303	20.915752
1449.471953	-3.020100	3.511600	-10.604000	25.845407	0.000303	20.916502
1450.470833	-2.998300	3.511900	-10.529000	25.884382	0.000302	20.918671
1451.468863	-3.017500	3.511800	-10.596000	25.851268	0.000301	20.938035
1452.485267	-2.997600	3.513200	-10.530000	25.792541	0.000302	20.914131
1453.485351	-3.001800	3.510000	-10.535000	25.827569	0.000300	20.925609
1454.485153	-2.998100	3.512600	-10.530000	25.848908	0.000301	20.931871
1455.474212	-2.980700	3.511200	-10.465000	25.846428	0.000301	20.924165
1456.471846	-3.014200	3.509800	-10.578000	25.817956	0.000300	20.928754
1457.471207	-2.992700	3.509600	-10.502000	25.790903	0.000298	20.932398
1458.471066	-2.988900	3.510800	-10.493000	25.826829	0.000302	20.940985
1459.470456	-2.993400	3.509100	-10.503000	25.855773	0.000298	20.921699
1460.471794	-2.998200	3.508400	-10.518000	25.847900	0.000297	20.921377
1461.498746	-3.011300	3.509500	-10.568000	25.784847	0.000298	20.943384
1462.493702	-3.009600	3.508200	-10.558000	25.812200	0.000297	20.924395
1463.492024	-2.992500	3.508400	-10.498000	25.877932	0.000297	20.929734
1464.501034	-3.005200	3.507200	-10.539000	25.837417	0.000297	20.916537
1465.470879	-3.003800	3.507700	-10.536000	25.887379	0.000296	20.906983
1466.492662	-2.991900	3.508300	-10.495000	25.856125	0.000297	20.942913
1467.472638	-3.005600	3.507000	-10.539000	25.816127	0.000295	20.927391
1468.472718	-2.984100	3.505900	-10.460000	25.759708	0.000296	20.909128
1469.475998	-2.994500	3.507500	-10.503000	25.732903	0.000294	20.931513
1470.473193	-2.954600	3.506400	-10.359000	25.720556	0.000296	20.932861
1471.475028	-2.987900	3.507000	-10.478000	25.736729	0.000296	20.921606
1472.474128	-3.019800	3.505100	-10.583000	25.758718	0.000296	20.912400
1473.472592	-2.990200	3.504000	-10.477000	25.759638	0.000295	20.931814
1474.499816	-3.019300	3.503000	-10.575000	25.790394	0.000293	20.926199
1475.503613	-3.007500	3.504600	-10.539000	25.839833	0.000294	20.908059
1476.499478	-3.016000	3.502700	-10.563000	25.834761	0.000292	20.911498
1477.479523	-3.008700	3.501500	-10.533000	25.831707	0.000292	20.907482
1478.478315	-2.990500	3.502500	-10.473000	25.814369	0.000294	20.917092
1479.476686	-2.981900	3.503500	-10.446000	25.852426	0.000294	20.909329
1480.475512	-3.008700	3.502600	-10.536000	25.876921	0.000291	20.913073
1481.475863	-2.989100	3.503400	-10.470000	25.884917	0.000293	20.949550
1482.500213	-3.012900	3.501400	-10.549000	25.897735	0.000292	20.899844
1483.499757	-2.983100	3.501700	-10.445000	25.912295	0.000288	20.922530
1484.499302	-2.993300	3.501000	-10.479000	25.873688	0.000291	20.908402
1485.501426	-3.014600	3.500500	-10.551000	25.831281	0.000289	20.912744
1486.499687	-3.013000	3.499100	-10.541000	25.817047	0.000289	20.912669
1487.499274	-2.969700	3.501100	-10.396000	25.849390	0.000289	20.886841
1488.498830	-3.006300	3.500300	-10.522000	25.820125	0.000288	20.894427
1489.498559	-2.980800	3.500600	-10.434000	25.799110	0.000289	20.895127
1490.506908	-2.994100	3.500700	-10.480000	25.764077	0.000288	20.894077
1491.496566	-3.024900	3.499200	-10.584000	25.804700	0.000289	20.894105
1492.494027	-3.000900	3.497700	-10.496000	25.788225	0.000291	20.913115
1493.506961	-3.014100	3.498500	-10.544000	25.769417	0.000288	20.893277
1494.500232	-2.990100	3.499400	-10.463000	25.735004	0.000287	20.904228
1495.501605	-3.023900	3.497400	-10.575000	25.754309	0.000287	20.894222
1496.500635	-3.016400	3.496300	-10.545000	25.802851	0.000285	20.890352
1497.499113	-2.984500	3.497600	-10.438000	25.806304	0.000287	20.911361
1498.503561	-2.986800	3.495900	-10.441000	25.872956	0.000287	20.879695
1499.483332	-3.001400	3.496400	-10.493000	25.891071	0.000287	20.885564
1500.486549	-3.011500	3.495400	-10.525000	25.867020	0.000287	20.895068
1501.484619	-2.989100	3.496300	-10.450000	25.868236	0.000285	20.891073
1502.484065	-3.013300	3.495100	-10.531000	25.898764	0.000285	20.915101
1503.486064	-2.990400	3.494900	-10.450000	25.836259	0.000285	20.891194
1504.487131	-2.988700	3.493900	-10.441000	25.821303	0.000286	20.892765
1505.485833	-3.001300	3.494600	-10.487000	25.875979	0.000283	20.885576
1506.486761	-3.001100	3.492900	-10.482000	25.841596	0.000282	20.878538
1507.486791	-3.009300	3.493900	-10.514000	25.833248	0.000283	20.882954
1508.488628	-3.011100	3.493200	-10.517000	25.848772	0.000282	20.892383
1509.487477	-3.021500	3.493200	-10.554000	25.856176	0.000282	20.896028
1510.486815	-3.011400	3.492500	-10.516000	25.813321	0.000281	20.891386
1511.487160	-3.000700	3.493100	-10.481000	25.840445	0.000282	20.894450
1512.488546	-2.991000	3.491700	-10.443000	25.896659	0.000283	20.903979
1513.488859	-3.007800	3.490500	-10.498000	25.825735	0.000280	20.887261
1514.490133	-2.998500	3.491700	-10.470000	25.843873	0.000279	20.888411
1515.488448	-2.988800	3.491800	-10.435000	25.877829	0.000281	20.883167
1516.510777	-3.013000	3.490300	-10.515000	25.876339	0.000281	20.887834
1517.487949	-2.977500	3.490600	-10.392000	25.886948	0.000280	20.882371
1518.507143	-2.976100	3.491600	-10.390000	25.854704	0.000279	20.878903
1519.512718	-2.996800	3.489800	-10.457000	25.818482	0.000279	20.882346
1520.495573	-2.981600	3.489700	-10.403000	25.816622	0.000280	20.872892
1521.512943	-3.010600	3.489500	-10.505000	25.823527	0.000276	20.858491
1522.513116	-2.999200	3.489200	-10.464000	25.804674	0.000279	20.875114
1523.509572	-3.008800	3.487600	-10.492000	25.795233	0.000276	20.885070
1524.500049	-2.989200	3.488300	-10.426000	25.842559	0.000276	20.874764
1525.496069	-3.013700	3.486900	-10.507000	25.865958	0.000275	20.881200
1526.494250	-3.001000	3.487500	-10.465000	25.878903	0.000276	20.883772
1527.492398	-2.994300	3.486500	-10.439000	25.879899	0.000277	20.874342
1528.496758	-3.000800	3.485400	-10.458000	25.864277	0.000276	20.879511
1529.494238	-3.022000	3.485200	-10.531000	25.864943	0.000277	20.858845
1530.494198	-3.009700	3.487300	-10.494000	25.887229	0.000278	20.848990
1531.495430	-3.006600	3.485500	-10.478000	25.869321	0.000275	20.854234
1532.494936	-2.981100	3.485800	-10.390000	25.894115	0.000279	20.848321
1533.512786	-2.975300	3.485000	-10.368000	25.908820	0.000275	20.879214
1534.512094	-3.008700	3.483900	-10.481000	25.949089	0.000274	20.875573
1535.513422	-3.016000	3.484700	-10.508000	25.948867	0.000273	20.875824
1536.515767	-3.019700	3.483300	-10.518000	25.954056	0.000275	20.865390
1537.518556	-2.986300	3.482100	-10.398000	25.920472	0.000276	20.871479
1538.515290	-2.994600	3.484900	-10.435000	25.892551	0.000275	20.854811
1539.528535	-3.007400	3.482800	-10.473000	25.873495	0.000274	20.860797
1540.536076	-3.016600	3.481600	-10.502000	25.834566	0.000273	20.855830
1541.521456	-2.989400	3.482900	-10.411000	25.827017	0.000274	20.862471
1542.522776	-3.013000	3.483000	-10.493000	25.835584	0.000274	20.861120
1543.518099	-3.021300	3.480300	-10.514000	25.818866	0.000272	20.861870
1544.519163	-2.999700	3.482300	-10.445000	25.803138	0.000273	20.867881
1545.526028	-2.991700	3.480700	-10.412000	25.827510	0.000273	20.853958
1546.521811	-3.004700	3.480500	-10.457000	25.876697	0.000271	20.853583
1547.527147	-3.005500	3.480100	-10.459000	25.882386	0.000272	20.855979
1548.520700	-3.024900	3.479100	-10.523000	25.813349	0.000273	20.839734
1549.523662	-3.003100	3.478600	-10.446000	25.782393	0.000272	20.842303
1550.507483	-3.016100	3.478900	-10.492000	25.801619	0.000270	20.845969
1551.502117	-2.995700	3.480100	-10.424000	25.766840	0.000271	20.858922
1552.506673	-2.998700	3.479100	-10.432000	25.770268	0.000272	20.863313
1553.503207	-3.003200	3.478500	-10.446000	25.818686	0.000270	20.862638
1554.504773	-2.990200	3.477900	-10.399000	25.841442	0.000268	20.830970
1555.507405	-3.010400	3.476800	-10.465000	25.914802	0.000268	20.859620
1556.518840	-3.019600	3.476000	-10.495000	25.950946	0.000268	20.844249
1557.505541	-2.981700	3.477500	-10.368000	25.987657	0.000268	20.859319
1558.504064	-3.002100	3.477600	-10.439000	25.950323	0.000269	20.860692
1559.505175	-3.012800	3.477200	-10.475000	25.908490	0.000271	20.845219
1560.509325	-3.021800	3.475300	-10.500000	25.876145	0.000267	20.835959
1561.505351	-3.030200	3.475500	-10.530000	25.887229	0.000266	20.852309
1562.506056	-3.022200	3.475100	-10.502000	25.879251	0.000268	20.861364
1563.508387	-3.009600	3.475700	-10.460000	25.857043	0.000264	20.850434
1564.506073	-3.004100	3.474900	-10.438000	25.859751	0.000267	20.853155
1565.505154	-3.007400	3.474800	-10.450000	25.808947	0.000267	20.836734
1566.530519	-2.992000	3.474300	-10.394000	25.780575	0.000267	20.845219
1567.528315	-3.010400	3.474200	-10.458000	25.755532	0.000265	20.843772
1568.525352	-2.995100	3.473600	-10.402000	25.782710	0.000264	20.842148
1569.537160	-2.999000	3.473800	-10.417000	25.790115	0.000265	20.837732
1570.529227	-3.006300	3.473200	-10.441000	25.846011	0.000266	20.839353
1571.522246	-2.994500	3.473400	-10.400000	25.915492	0.000267	20.849883
1572.527284	-2.992100	3.472000	-10.388000	25.954792	0.000268	20.839105
1573.532370	-2.998200	3.472300	-10.409000	25.956008	0.000263	20.829895
1574.532786	-2.983100	3.473000	-10.360000	25.893559	0.000263	20.846815
1575.531553	-3.000600	3.470700	-10.413000	25.925009	0.000265	20.847115
1576.528182	-3.007300	3.471000	-10.436000	25.899843	0.000264	20.842696
1577.528974	-3.024800	3.471400	-10.500000	25.934547	0.000262	20.837258
1578.531641	-2.981300	3.470200	-10.345000	25.948086	0.000261	20.833790
1579.528076	-2.992100	3.470500	-10.384000	25.963334	0.000262	20.842944
1580.523952	-2.988200	3.469300	-10.366000	25.978116	0.000259	20.846415
1581.528433	-3.005500	3.469300	-10.426000	25.978961	0.000261	20.851057
1582.534896	-3.022700	3.469600	-10.486000	25.909184	0.000261	20.856347
1583.530554	-2.987700	3.468700	-10.363000	25.909557	0.000260	20.834438
1584.527120	-3.006400	3.468100	-10.426000	25.897458	0.000262	20.846939
1585.538815	-3.003500	3.468000	-10.415000	25.925851	0.000260	20.844642
1586.528558	-2.989500	3.468600	-10.369000	25.929204	0.000259	20.831890
1587.525089	-2.980200	3.468000	-10.335000	25.962313	0.000260	20.839073
1588.544803	-2.980800	3.467600	-10.336000	25.993933	0.000259	20.838125
1589.511837	-3.001400	3.467400	-10.406000	25.961344	0.000258	20.827669
1590.530884	-2.995200	3.467900	-10.385000	25.908286	0.000259	20.849281
1591.514163	-2.978900	3.467700	-10.328000	25.887339	0.000259	20.854317
1592.513020	-3.000000	3.466500	-10.399000	25.877156	0.000259	20.843613
1593.512221	-3.022800	3.464400	-10.472000	25.918265	0.000258	20.839392
1594.516779	-3.015900	3.464600	-10.448000	25.918515	0.000257	20.831583
1595.513713	-3.008900	3.466400	-10.430000	25.916747	0.000255	20.835971
1596.534162	-2.994100	3.465600	-10.376000	25.915504	0.000254	20.833774
1597.533323	-3.003000	3.464200	-10.402000	25.945390	0.000257	20.832029
1598.531436	-3.003800	3.463500	-10.403000	25.939652	0.000254	20.834325
1599.512063	-3.017100	3.463100	-10.448000	25.984633	0.000254	20.833523
1600.540788	-3.003800	3.463900	-10.403000	25.998890	0.000255	20.831725
1601.532692	-3.004600	3.463500	-10.406000	25.944294	0.000253	20.844205
1602.533452	-2.998800	3.462900	-10.384000	25.985401	0.000253	20.829079
1603.518352	-2.987300	3.463000	-10.345000	26.020722	0.000254	20.827582
1604.528871	-3.006400	3.462900	-10.410000	26.030707	0.000254	20.821967
1605.514801	-3.006500	3.461600	-10.406000	26.048464	0.000251	20.831747
1606.531230	-2.999200	3.462400	-10.384000	26.008748	0.000253	20.828828
1607.515662	-2.981300	3.462100	-10.321000	25.969305	0.000254	20.834245
1608.514071	-2.997700	3.460000	-10.371000	25.988081	0.000252	20.840780
1609.517842	-2.990800	3.460300	-10.347000	26.015010	0.000253	20.831800
1610.517826	-2.979800	3.460200	-10.310000	25.968114	0.000252	20.826885
1611.517147	-2.968700	3.460000	-10.271000	25.948859	0.000253	20.816075
1612.538105	-2.997900	3.458900	-10.368000	25.923719	0.000253	20.819741
1613.535686	-3.017800	3.458900	-10.437000	25.920045	0.000253	20.827904
1614.538843	-2.985100	3.460100	-10.328000	25.967587	0.000251	20.824932
1615.540183	-3.013700	3.457900	-10.420000	25.966544	0.000249	20.826255
1616.546018	-2.972100	3.459800	-10.281000	25.939371	0.000251	20.827405
1617.541305	-2.991100	3.457800	-10.342000	25.926899	0.000249	20.812505
1618.522355	-2.996100	3.458200	-10.360000	25.978812	0.000249	20.830519
1619.527538	-2.974500	3.458300	-10.286000	25.940885	0.000249	20.805219
1620.522824	-3.003300	3.455300	-10.376000	25.933105	0.000250	20.805938
1621.518970	-2.998400	3.456200	-10.362000	25.941798	0.000249	20.811826
1622.526433	-3.003800	3.455000	-10.377000	25.965449	0.000248	20.844121
1623.521924	-3.014000	3.454200	-10.410000	26.016968	0.000248	20.820965
1624.521822	-3.007200	3.454600	-10.387000	25.983062	0.000249	20.800651
1625.522761	-2.995500	3.455500	-10.350000	25.983034	0.000248	20.822434
1626.523259	-3.032600	3.454900	-10.476000	26.029883	0.000247	20.788423
1627.524140	-3.007500	3.454700	-10.389000	26.021832	0.000247	20.825378
1628.540858	-3.001400	3.454100	-10.365000	25.987307	0.000245	20.809183
1629.547645	-2.978400	3.454200	-10.287000	26.003578	0.000245	20.830272
1630.537858	-3.012000	3.454400	-10.404000	25.971708	0.000244	20.824805
1631.525695	-2.999200	3.454400	-10.359000	25.944059	0.000245	20.818839
1632.522091	-3.023700	3.451300	-10.435000	25.948906	0.000245	20.807587
1633.525337	-3.015500	3.452600	-10.410000	25.929802	0.000245	20.825852
1634.523560	-2.998600	3.452400	-10.351000	25.884294	0.000243	20.820913
1635.525759	-2.964300	3.452600	-10.233000	25.854931	0.000244	20.823184
1636.526619	-2.981200	3.452500	-10.291000	25.884269	0.000243	20.796706
1637.529736	-3.003600	3.452000	-10.368000	25.901138	0.000245	20.805117
1638.529096	-2.983200	3.450700	-10.293000	25.908788	0.000242	20.812328
1639.524580	-3.001800	3.450700	-10.357000	25.942298	0.000242	20.817544
1640.525255	-2.970200	3.451700	-10.251000	25.954992	0.000243	20.807063
1641.524045	-2.985700	3.449300	-10.298000	25.931471	0.000242	20.812831
1642.528231	-3.004800	3.449400	-10.363000	25.945158	0.000243	20.811408
1643.524950	-3.001600	3.449600	-10.353000	25.982044	0.000242	20.792042
1644.554018	-2.996500	3.449900	-10.336000	25.965674	0.000240	20.788872
1645.526095	-2.996600	3.449600	-10.336000	25.958274	0.000243	20.808938
1646.527057	-2.997300	3.448900	-10.336000	25.978469	0.000242	20.796985
1647.529056	-3.003000	3.448000	-10.353000	25.903254	0.000240	20.801079
1648.527108	-3.021800	3.447800	-10.418000	25.941632	0.000239	20.799331
1649.534623	-2.993600	3.447800	-10.320000	25.943865	0.000239	20.807265
1650.530025	-2.982500	3.447700	-10.281000	25.941780	0.000239	20.789523
1651.549027	-3.005500	3.447800	-10.361000	25.969326	0.000240	20.803447
1652.555203	-2.995900	3.446500	-10.323000	25.931073	0.000238	20.808638
1653.530259	-3.023500	3.445700	-10.417000	25.898978	0.000237	20.803896
1654.534592	-3.006400	3.445100	-10.356000	25.909411	0.000237	20.803946
1655.532806	-2.981200	3.446000	-10.272000	25.892071	0.000239	20.794112
1656.532078	-3.001800	3.445900	-10.343000	25.948338	0.000237	20.794215
1657.534791	-3.030100	3.444800	-10.437000	25.940537	0.000235	20.817197
1658.533076	-2.990300	3.445500	-10.302000	25.967784	0.000238	20.815173
1659.531777	-3.008100	3.443900	-10.358000	25.920640	0.000234	20.782035
1660.560967	-3.003000	3.443900	-10.341000	25.911126	0.000235	20.786228
1661.560026	-2.973400	3.443500	-10.237000	25.872469	0.000237	20.786275
1662.550651	-2.986000	3.443300	-10.281000	25.854558	0.000234	20.790093
1663.558934	-3.026300	3.441800	-10.415000	25.925085	0.000234	20.794088
1664.551823	-2.986400	3.442700	-10.280000	25.973250	0.000235	20.792690
1665.556260	-3.032600	3.440500	-10.433000	25.976628	0.000234	20.790394
1666.534162	-3.031300	3.440800	-10.429000	25.992597	0.000235	20.791264
1667.539163	-2.999600	3.441800	-10.322000	26.021808	0.000233	20.795008
1668.537281	-3.003300	3.441400	-10.335000	26.094532	0.000234	20.787471
1669.537012	-2.986600	3.440300	-10.273000	26.028964	0.000235	20.795085
1670.537368	-2.991600	3.440300	-10.291000	25.967037	0.000231	20.768430
1671.537052	-3.006500	3.440200	-10.342000	25.924857	0.000232	20.787694
1672.537499	-2.992800	3.440700	-10.296000	25.902797	0.000233	20.794930
1673.536764	-2.999700	3.439200	-10.316000	25.915192	0.000232	20.779881
1674.536253	-3.004100	3.439400	-10.331000	25.946913	0.000232	20.784248
1675.535977	-2.998200	3.438500	-10.309000	25.931063	0.000231	20.794403
1676.538139	-2.991700	3.440100	-10.291000	25.957616	0.000230	20.785992
1677.535786	-3.037400	3.437600	-10.440000	25.927583	0.000234	20.775734
1678.536175	-3.005800	3.437300	-10.331000	25.925100	0.000229	20.786516
1679.540959	-2.972800	3.438000	-10.219000	25.878620	0.000229	20.774436
1680.537247	-2.993600	3.437800	-10.290000	25.887687	0.000231	20.772164
1681.539203	-2.980700	3.437200	-10.245000	25.904253	0.000230	20.774107
1682.537625	-3.028000	3.436700	-10.405000	25.955173	0.000228	20.765519
1683.539806	-2.979200	3.436800	-10.238000	25.975341	0.000229	20.788152
1684.537761	-2.978200	3.436400	-10.234000	25.989499	0.000227	20.782462
1685.536586	-2.992000	3.435700	-10.279000	26.037911	0.000227	20.787005
1686.537906	-2.999300	3.435500	-10.303000	26.031227	0.000229	20.779341
1687.540431	-3.000700	3.434800	-10.306000	25.959242	0.000226	20.768185
1688.539615	-2.988500	3.436000	-10.267000	25.937207	0.000226	20.773075
1689.538720	-2.993700	3.434800	-10.282000	25.954840	0.000226	20.756175
1690.540387	-2.998000	3.434700	-10.296000	26.026008	0.000226	20.759873
1691.561634	-3.010000	3.432600	-10.331000	26.023867	0.000227	20.786646
1692.555438	-2.990100	3.433700	-10.267000	26.028886	0.000224	20.780782
1693.575552	-2.990300	3.434000	-10.267000	25.962662	0.000225	20.785846
1694.557842	-3.014900	3.433400	-10.350000	25.910918	0.000226	20.806408
1695.541353	-2.992200	3.433700	-10.273000	25.905723	0.000225	20.787439
1696.563758	-3.006400	3.432200	-10.318000	25.889108	0.000225	20.781179
1697.544837	-2.996200	3.433400	-10.285000	25.922813	0.000224	20.784693
1698.543855	-2.979500	3.432000	-10.225000	25.910221	0.000224	20.771568
1699.541771	-2.980000	3.432500	-10.227000	25.899686	0.000223	20.760037
1700.542233	-3.005700	3.430600	-10.310000	25.944397	0.000222	20.775083
1701.542176	-3.009200	3.429500	-10.318000	25.961240	0.000223	20.774460
1702.543944	-2.977100	3.430300	-10.212000	25.978579	0.000222	20.792354
1703.542958	-2.994500	3.430100	-10.270000	25.969905	0.000223	20.773208
1704.547327	-3.010200	3.431700	-10.329000	25.985803	0.000223	20.773059
1705.543556	-2.981600	3.430200	-10.227000	25.975247	0.000222	20.777627
1706.546670	-3.003600	3.429000	-10.299000	25.967971	0.000221	20.775058
1707.543454	-3.016100	3.429600	-10.343000	25.994869	0.000223	20.795444
1708.548794	-2.992800	3.430400	-10.265000	26.016825	0.000221	20.776251
1709.545141	-3.000100	3.428200	-10.284000	26.007756	0.000220	20.766191
1710.545352	-2.985300	3.428100	-10.234000	26.015754	0.000220	20.778969
1711.559987	-3.004200	3.426700	-10.294000	26.022704	0.000220	20.784054
1712.559054	-3.027600	3.426900	-10.374000	26.026282	0.000222	20.793339
1713.563916	-2.997500	3.427700	-10.274000	26.029163	0.000220	20.785328
1714.562283	-3.000800	3.426600	-10.282000	25.995381	0.000220	20.788371
1715.567753	-3.007600	3.426700	-10.305000	25.981543	0.000218	20.777788
1716.564530	-3.005800	3.426200	-10.297000	26.012392	0.000220	20.773694
1717.547400	-3.000000	3.426700	-10.279000	25.984276	0.000217	20.773421
1718.561292	-2.992000	3.425100	-10.247000	25.960256	0.000218	20.789118
1719.564403	-3.013800	3.424200	-10.319000	26.014357	0.000217	20.787522
1720.572334	-2.983500	3.424800	-10.218000	26.004295	0.000218	20.784051
1721.563542	-3.007400	3.424500	-10.298000	26.038197	0.000218	20.785396
1722.572123	-3.014100	3.424000	-10.319000	26.085342	0.000216	20.802893
1723.572274	-2.986300	3.424200	-10.225000	26.068924	0.000216	20.778811
1724.579585	-2.977500	3.423000	-10.191000	26.034619	0.000216	20.787491
1725.563528	-3.026300	3.421600	-10.353000	26.041846	0.000214	20.805658
1726.568892	-3.010400	3.422300	-10.302000	25.956276	0.000216	20.778008
1727.576321	-3.012300	3.421300	-10.305000	25.943706	0.000214	20.782923
1728.550450	-2.987800	3.420800	-10.219000	25.929846	0.000215	20.783224
1729.572928	-3.013200	3.420600	-10.305000	25.987524	0.000214	20.769572
1730.578373	-3.027300	3.422100	-10.358000	26.045276	0.000215	20.772120
1731.569516	-3.019200	3.420200	-10.326000	26.048798	0.000215	20.783719
1732.551968	-2.989000	3.422000	-10.228000	26.017781	0.000214	20.768676
1733.549109	-2.990100	3.420600	-10.228000	26.033650	0.000215	20.778931
1734.547750	-3.008400	3.420600	-10.290000	26.045998	0.000214	20.781854
1735.576154	-3.009100	3.420600	-10.292000	26.007324	0.000212	20.787568
1736.569262	-2.987500	3.420300	-10.217000	25.987829	0.000212	20.789320
1737.567410	-3.004400	3.419000	-10.272000	26.022676	0.000212	20.795880
1738.568999	-2.994600	3.419300	-10.238000	26.053527	0.000213	20.775668
1739.569731	-3.008100	3.418700	-10.283000	26.046525	0.000210	20.785703
1740.552755	-3.025900	3.417400	-10.340000	26.000075	0.000210	20.811106
1741.569018	-2.979400	3.418700	-10.184000	25.997447	0.000209	20.776697
1742.571250	-2.978200	3.418100	-10.179000	26.017093	0.000211	20.782685
1743.574214	-3.009000	3.416500	-10.279000	25.984082	0.000209	20.786977
1744.565929	-3.006400	3.417000	-10.272000	25.959022	0.000210	20.788353
1745.573433	-2.994400	3.416400	-10.229000	25.979316	0.000211	20.811586
1746.574414	-3.016100	3.415500	-10.301000	26.008678	0.000208	20.789403
1747.571803	-2.997100	3.416300	-10.238000	25.997232	0.000209	20.793076
1748.568516	-2.998100	3.415500	-10.240000	26.010717	0.000209	20.798564
1749.570889	-3.023300	3.414200	-10.320000	26.036603	0.000208	20.784268
1750.572742	-3.024200	3.414600	-10.324000	26.018743	0.000208	20.772015
1751.556651	-2.999500	3.414400	-10.241000	25.993117	0.000208	20.784675
1752.555315	-2.981900	3.415500	-10.184000	25.983083	0.000206	20.801620
1753.556618	-2.973900	3.415600	-10.157000	25.997442	0.000208	20.794235
1754.582678	-2.996200	3.414800	-10.231000	26.021116	0.000207	20.789571
1755.570060	-2.996100	3.414100	-10.227000	26.022979	0.000207	20.803771
1756.576311	-2.993900	3.413300	-10.218000	25.999462	0.000206	20.811438
1757.575273	-2.983700	3.412800	-10.182000	25.973435	0.000207	20.803781
1758.578722	-2.996900	3.412700	-10.227000	25.979422	0.000205	20.786088
1759.589743	-3.020200	3.412000	-10.305000	25.944926	0.000203	20.797899
1760.587193	-3.019100	3.411500	-10.299000	25.957500	0.000204	20.802945
1761.573004	-3.002400	3.412200	-10.244000	25.920587	0.000204	20.777715
1762.580138	-2.992200	3.411800	-10.208000	25.927272	0.000204	20.779215
1763.574080	-2.980200	3.411500	-10.166000	25.963990	0.000203	20.784335
1764.573669	-2.980400	3.412000	-10.167000	25.974750	0.000203	20.793248
1765.558023	-3.004400	3.409800	-10.244000	25.984069	0.000202	20.802611
1766.556695	-3.005600	3.409200	-10.246000	25.989636	0.000201	20.775488
1767.562199	-3.003800	3.410400	-10.243000	26.008697	0.000200	20.778042
1768.555783	-3.004100	3.408300	-10.238000	26.032617	0.000201	20.778842
1769.558649	-2.995800	3.410000	-10.215000	26.031205	0.000202	20.788328
1770.559476	-2.984100	3.408600	-10.170000	26.051603	0.000200	20.790805
1771.582556	-2.986000	3.410400	-10.182000	26.076469	0.000201	20.776434
1772.562325	-3.010100	3.408300	-10.258000	26.051264	0.000199	20.798999
1773.563794	-3.014300	3.406900	-10.268000	26.004349	0.000199	20.780312
1774.561749	-3.003700	3.408000	-10.236000	25.931350	0.000201	20.771458
1775.559091	-2.986300	3.408000	-10.177000	25.995540	0.000198	20.786160
1776.581051	-3.001700	3.407400	-10.228000	26.035531	0.000200	20.809744
1777.560588	-2.971800	3.407300	-10.125000	26.050738	0.000199	20.791358
1778.563468	-3.000200	3.406500	-10.218000	26.110349	0.000198	20.802416
1779.570090	-3.011100	3.405200	-10.253000	26.092843	0.000199	20.795731
1780.563142	-2.984700	3.405000	-10.162000	26.053477	0.000198	20.788421
1781.565863	-3.018200	3.405600	-10.277000	26.042355	0.000195	20.790996
1782.565240	-3.017400	3.404600	-10.272000	26.034857	0.000200	20.803851
1783.568643	-3.005000	3.404500	-10.229000	26.051702	0.000195	20.786637
1784.565959	-2.967300	3.406000	-10.105000	26.110119	0.000197	20.790805
1785.579071	-2.987900	3.405400	-10.174000	26.087398	0.000197	20.794053
1786.584506	-2.996200	3.402900	-10.194000	26.115693	0.000196	20.787397
1787.591301	-2.991900	3.404600	-10.185000	26.136333	0.000194	20.787273
1788.562455	-2.981200	3.404400	-10.149000	26.128385	0.000196	20.787821
1789.566586	-2.990800	3.403100	-10.178000	26.134424	0.000195	20.781562
1790.568059	-3.004200	3.402000	-10.220000	26.135347	0.000197	20.806196
1791.565627	-2.987200	3.401900	-10.161000	26.117693	0.000196	20.786561
1792.572517	-2.979800	3.402300	-10.137000	26.099335	0.000196	20.798935
1793.567221	-3.005400	3.401600	-10.222000	26.098768	0.000194	20.793150
1794.571357	-2.992300	3.402500	-10.180000	26.087594	0.000192	20.794724
1795.567506	-2.999700	3.401400	-10.202000	26.052405	0.000192	20.796826
1796.574408	-2.972500	3.402500	-10.113000	26.042420	0.000194	20.793433
1797.567681	-3.006600	3.400100	-10.222000	26.051115	0.000194	20.806436
1798.567619	-3.003000	3.399900	-10.208000	26.036313	0.000191	20.796306
1799.568050	-2.993100	3.398500	-10.171000	26.040691	0.000191	20.776996
1800.568274	-3.009300	3.398700	-10.227000	26.025934	0.000193	20.782559
1801.571829	-2.999800	3.399400	-10.197000	26.051894	0.000192	20.803425
1802.568274	-2.990700	3.399200	-10.165000	26.064413	0.000191	20.794193
1803.569378	-3.008500	3.397900	-10.221000	26.082131	0.000191	20.802037
1804.571195	-2.981500	3.399600	-10.135000	26.113054	0.000190	20.812720
1805.569493	-3.017000	3.398500	-10.252000	26.152122	0.000190	20.805034
1806.594754	-2.966300	3.398500	-10.080000	26.067903	0.000191	20.787742
1807.588168	-3.021600	3.396700	-10.263000	26.105585	0.000189	20.796206
1808.594901	-3.021300	3.395500	-10.258000	26.087237	0.000189	20.801478
1809.589458	-2.987500	3.396100	-10.145000	26.123974	0.000191	20.814683
1810.587832	-2.994400	3.396800	-10.170000	26.132521	0.000189	20.791503
1811.589806	-3.006300	3.396600	-10.210000	26.130063	0.000189	20.805154
1812.586166	-3.007900	3.396000	-10.214000	26.103295	0.000189	20.785845
1813.572541	-2.982400	3.394700	-10.124000	26.074833	0.000189	20.803714
1814.570236	-2.995600	3.394300	-10.167000	26.034150	0.000186	20.804089
1815.587588	-3.004500	3.395200	-10.199000	26.031522	0.000189	20.789121
1816.586093	-3.006500	3.394400	-10.204000	26.015131	0.000186	20.800154
1817.569099	-2.982700	3.395200	-10.126000	26.006939	0.000187	20.826062
1818.569417	-3.005500	3.393900	-10.199000	25.992760	0.000188	20.793799
1819.569814	-3.006100	3.392700	-10.197000	25.965686	0.000188	20.786513
1820.571898	-3.025800	3.392800	-10.265000	26.017104	0.000185	20.802610
1821.569522	-2.994400	3.392500	-10.158000	26.042391	0.000189	20.782497
1822.570082	-3.038400	3.392300	-10.306000	25.991031	0.000187	20.784475
1823.574658	-2.978400	3.393200	-10.106000	25.998983	0.000185	20.815224
1824.570601	-2.989600	3.390400	-10.136000	26.017762	0.000187	20.789521
1825.575922	-2.997700	3.391800	-10.167000	26.057428	0.000185	20.802822
1826.595699	-2.979600	3.391400	-10.104000	26.046976	0.000187	20.806070
1827.602755	-3.006100	3.391400	-10.194000	26.058848	0.000186	20.804248
1828.596647	-2.981100	3.390700	-10.108000	26.090691	0.000185	20.803526
1829.590505	-3.018100	3.390200	-10.231000	26.122262	0.000185	20.808222
1830.598203	-2.982700	3.390900	-10.114000	26.165133	0.000183	20.801513
1831.598197	-2.986900	3.389900	-10.124000	26.166428	0.000183	20.805660
1832.593192	-3.018300	3.388500	-10.227000	26.150681	0.000181	20.798845
1833.598379	-3.021200	3.388900	-10.238000	26.116885	0.000183	20.805663
1834.591510	-3.005200	3.388400	-10.182000	26.140306	0.000182	20.797904
1835.613947	-3.003000	3.389000	-10.176000	26.166760	0.000180	20.823536
1836.595665	-3.007600	3.388000	-10.189000	26.187377	0.000181	20.802528
1837.602410	-2.998000	3.388400	-10.158000	26.227266	0.000181	20.822697
1838.595226	-2.970200	3.389100	-10.065000	26.242590	0.000182	20.829562
1839.594930	-2.995600	3.386600	-10.144000	26.260045	0.000180	20.809170
1840.594622	-2.996500	3.386000	-10.146000	26.273685	0.000179	20.820981
1841.612604	-3.011500	3.386900	-10.199000	26.252432	0.000178	20.822383
1842.597814	-2.979700	3.385900	-10.088000	26.253122	0.000178	20.806955
1843.576578	-3.000700	3.387900	-10.165000	26.244414	0.000178	20.816696
1844.578142	-3.011900	3.385500	-10.196000	26.242855	0.000178	20.812758
1845.577477	-2.999100	3.385700	-10.154000	26.294012	0.000177	20.797787
1846.578587	-2.995900	3.384700	-10.139000	26.298882	0.000177	20.809793
1847.579965	-2.995300	3.384700	-10.138000	26.283566	0.000177	20.817634
1848.581323	-2.995600	3.383300	-10.134000	26.238024	0.000176	20.816913
1849.579173	-3.002300	3.382800	-10.155000	26.141198	0.000175	20.806386
1850.579762	-3.006400	3.383400	-10.171000	26.084796	0.000176	20.835061
1851.583106	-2.987200	3.384000	-10.108000	26.108793	0.000175	20.821240
1852.604159	-3.008600	3.382400	-10.175000	26.135870	0.000177	20.810041
1853.608115	-3.012100	3.382800	-10.189000	26.172328	0.000177	20.827709
1854.598665	-3.002800	3.382800	-10.157000	26.176899	0.000176	20.812862
1855.595610	-3.000700	3.381000	-10.144000	26.159295	0.000175	20.835001
1856.602633	-2.994900	3.382700	-10.130000	26.174719	0.000175	20.810671
1857.602147	-3.008100	3.382000	-10.173000	26.189350	0.000175	20.837227
1858.599237	-3.040300	3.380500	-10.277000	26.239915	0.000175	20.813124
1859.606682	-2.965600	3.383000	-10.032000	26.252211	0.000174	20.825954
1860.597914	-3.016000	3.379700	-10.192000	26.272500	0.000175	20.828799
1861.600582	-3.006900	3.380400	-10.163000	26.227454	0.000176	20.814352
1862.600501	-2.980000	3.381200	-10.074000	26.190104	0.000175	20.829450
1863.601919	-3.033300	3.378900	-10.248000	26.202401	0.000174	20.825685
1864.604849	-3.001400	3.379600	-10.143000	26.196168	0.000174	20.830802
1865.603851	-2.984900	3.379300	-10.086000	26.188372	0.000173	20.830554
1866.604785	-2.992000	3.379500	-10.111000	26.145059	0.000172	20.833024
1867.600633	-3.007700	3.379700	-10.164000	26.157479	0.000172	20.836495
1868.607896	-3.018500	3.375900	-10.189000	26.236356	0.000173	20.821401
1869.586180	-3.018600	3.377700	-10.196000	26.219616	0.000172	20.838717
1870.604978	-3.006800	3.377900	-10.156000	26.171138	0.000171	20.833626
1871.604003	-3.003700	3.378700	-10.147000	26.191580	0.000172	20.828088
1872.602557	-2.995900	3.377100	-10.116000	26.206552	0.000171	20.832228
1873.585082	-3.015300	3.376100	-10.179000	26.240504	0.000171	20.835052
1874.590429	-2.995500	3.376200	-10.113000	26.250610	0.000169	20.844732
1875.586195	-2.995300	3.376700	-10.113000	26.248004	0.000168	20.831683
1876.589421	-2.996000	3.375500	-10.112000	26.244451	0.000169	20.845656
1877.590056	-2.997500	3.375400	-10.118000	26.283366	0.000168	20.844934
1878.586526	-3.004500	3.373500	-10.136000	26.239265	0.000169	20.842815
1879.592883	-3.005100	3.375500	-10.143000	26.221356	0.000169	20.839991
1880.587451	-3.014000	3.373400	-10.166000	26.217331	0.000169	20.845904
1881.592009	-3.012200	3.373400	-10.161000	26.203901	0.000168	20.855641
1882.587499	-3.008200	3.373300	-10.146000	26.198313	0.000169	20.838172
1883.587936	-2.996200	3.373700	-10.107000	26.142481	0.000170	20.842762
1884.614617	-3.013200	3.373100	-10.163000	26.195707	0.000167	20.841718
1885.590475	-3.013800	3.373700	-10.166000	26.249346	0.000169	20.857686
1886.589952	-3.015000	3.372400	-10.167000	26.289799	0.000166	20.840968
1887.588237	-3.035000	3.370700	-10.229000	26.305943	0.000167	20.827795
1888.592014	-2.999700	3.370900	-10.110000	26.305549	0.000165	20.842097
1889.588983	-2.988800	3.372800	-10.079000	26.345623	0.000167	20.854870
1890.590638	-2.998100	3.371300	-10.107000	26.272691	0.000165	20.845585
1891.590075	-2.984500	3.372000	-10.063000	26.221888	0.000165	20.844319
1892.590722	-3.001900	3.370300	-10.117000	26.233032	0.000164	20.835130
1893.593102	-3.018800	3.369200	-10.170000	26.238025	0.000164	20.861483
1894.590947	-3.005100	3.369000	-10.124000	26.220148	0.000164	20.878605
1895.606898	-2.993600	3.369800	-10.087000	26.265613	0.000165	20.849378
1896.608102	-3.000900	3.370700	-10.114000	26.259335	0.000164	20.863457
1897.610865	-3.015600	3.367900	-10.155000	26.220789	0.000161	20.881619
1898.607200	-3.006400	3.368100	-10.125000	26.252472	0.000161	20.875526
1899.614618	-3.010500	3.367200	-10.136000	26.213588	0.000162	20.865375
1900.608876	-3.038700	3.366800	-10.229000	26.213884	0.000162	20.859034
1901.611602	-3.017800	3.366800	-10.159000	26.203007	0.000160	20.868966
1902.599834	-2.995300	3.368300	-10.087000	26.238444	0.000163	20.863326
1903.593106	-3.009300	3.366000	-10.129000	26.254835	0.000160	20.864625
1904.598400	-3.001600	3.367500	-10.107000	26.296208	0.000159	20.880596
1905.593670	-3.014300	3.366600	-10.148000	26.271099	0.000160	20.862951
1906.594755	-3.013700	3.365600	-10.142000	26.268715	0.000161	20.872883
1907.591555	-2.991000	3.366900	-10.070000	26.242342	0.000162	20.849226
1908.593114	-3.021000	3.364600	-10.164000	26.237652	0.000159	20.871064
1909.592759	-3.000600	3.364800	-10.095000	26.212866	0.000159	20.876977
1910.592514	-2.969800	3.365900	-9.995200	26.238194	0.000159	20.858808
1911.594439	-3.004700	3.365000	-10.109000	26.300873	0.000158	20.865371
1912.593741	-3.018300	3.364500	-10.154000	26.314456	0.000158	20.856264
1913.596642	-3.003500	3.364200	-10.104000	26.304696	0.000160	20.869214
1914.595372	-3.001700	3.363900	-10.097000	26.293820	0.000157	20.872982
1915.595264	-2.995100	3.363700	-10.073000	26.266159	0.000156	20.868892
1916.613826	-2.979400	3.363600	-10.020000	26.299486	0.000157	20.867296
1917.617271	-3.003900	3.362300	-10.099000	26.269015	0.000156	20.887881
1918.624059	-2.976100	3.364600	-10.012000	26.285799	0.000154	20.879620
1919.596995	-2.988700	3.362700	-10.049000	26.228909	0.000157	20.864175
1920.599421	-2.968500	3.362800	-9.981200	26.239318	0.000153	20.880324
1921.617619	-3.016800	3.361000	-10.139000	26.270307	0.000156	20.892025
1922.600644	-3.009200	3.361500	-10.114000	26.317791	0.000154	20.886166
1923.617804	-2.992600	3.360500	-10.055000	26.310017	0.000154	20.898740
1924.598936	-2.985300	3.361200	-10.034000	26.238948	0.000155	20.914089
1925.603373	-2.991900	3.360900	-10.054000	26.283029	0.000154	20.887266
1926.601305	-2.998200	3.361000	-10.075000	26.316379	0.000155	20.900393
1927.601880	-3.023400	3.357900	-10.151000	26.332297	0.000154	20.883201
1928.606149	-3.013700	3.358900	-10.121000	26.340363	0.000153	20.871868
1929.600111	-3.013600	3.358900	-10.121000	26.338508	0.000154	20.881382
1930.603233	-2.985300	3.358500	-10.025000	26.351123	0.000155	20.884103
1931.603509	-2.989800	3.359000	-10.042000	26.326565	0.000153	20.885027
1932.608876	-3.011400	3.358300	-10.112000	26.346532	0.000156	20.897032
1933.623644	-3.005500	3.357000	-10.088000	26.397706	0.000155	20.898203
1934.605179	-2.991100	3.357600	-10.041000	26.461195	0.000153	20.888048
1935.604406	-2.990800	3.356400	-10.037000	26.494196	0.000153	20.903199
1936.607491	-3.008100	3.356900	-10.097000	26.523393	0.000151	20.887978
1937.622810	-2.986300	3.356500	-10.023000	26.510062	0.000152	20.898285
1938.631379	-3.023700	3.354400	-10.142000	26.545690	0.000153	20.899010
1939.628479	-2.974600	3.356100	-9.982000	26.530969	0.000152	20.890377
1940.623785	-3.012300	3.353700	-10.102000	26.536531	0.000150	20.896441
1941.607188	-2.975500	3.355600	-9.983100	26.550140	0.000152	20.928136
1942.609510	-3.008900	3.354200	-10.091000	26.520193	0.000151	20.903726
1943.607277	-2.982000	3.355200	-10.004000	26.535689	0.000149	20.896544
1944.609930	-2.988500	3.355100	-10.026000	26.543659	0.000152	20.896969
1945.607671	-3.015200	3.352900	-10.108000	26.513347	0.000148	20.924343
1946.607742	-2.995900	3.353300	-10.045000	26.496065	0.000149	20.894174
1947.609409	-3.006600	3.353200	-10.081000	26.447354	0.000150	20.900213
1948.627487	-3.015900	3.352500	-10.110000	26.390648	0.000145	20.923823
1949.633931	-2.979300	3.354700	-9.993600	26.405917	0.000148	20.913092
1950.627976	-2.997900	3.352500	-10.050000	26.432061	0.000148	20.909497
1951.609282	-3.027700	3.350900	-10.145000	26.479456	0.000146	20.901660
1952.609880	-2.996400	3.352200	-10.044000	26.471617	0.000145	20.915590
1953.609104	-2.994700	3.353100	-10.040000	26.459299	0.000147	20.907003
1954.609675	-3.003100	3.351900	-10.065000	26.491757	0.000145	20.919712
1955.662241	-2.986500	3.351200	-10.007000	26.497787	0.000147	20.903964
1956.633264	-2.994400	3.351000	-10.033000	26.488673	0.000144	20.903812
1957.629843	-2.994500	3.349800	-10.030000	26.446446	0.000146	20.896930
1958.614542	-2.997800	3.349800	-10.041000	26.446220	0.000144	20.920883
1959.629424	-2.993500	3.351300	-10.030000	26.476764	0.000145	20.907488
1960.637246	-3.006000	3.350300	-10.070000	26.533275	0.000144	20.903600
1961.633553	-2.988900	3.349800	-10.012000	26.521975	0.000144	20.897458
1962.633517	-3.006600	3.349700	-10.070000	26.571085	0.000142	20.910786
1963.631504	-3.036000	3.347200	-10.161000	26.579379	0.000145	20.911062
1964.615081	-2.969000	3.348400	-9.940400	26.553464	0.000142	20.925314
1965.617182	-2.974900	3.349300	-9.962100	26.481665	0.000142	20.884915
1966.615992	-2.995400	3.347400	-10.026000	26.447728	0.000142	20.875936
1967.614303	-3.015600	3.346700	-10.091000	26.460441	0.000143	20.892031
1968.630749	-2.994500	3.346100	-10.019000	26.505977	0.000142	20.895601
1969.624301	-3.022700	3.345400	-10.111000	26.501809	0.000143	20.899946
1970.642331	-3.002500	3.345500	-10.044000	26.511690	0.000142	20.913670
1971.634358	-2.982700	3.345500	-9.977600	26.496845	0.000141	20.891639
1972.617489	-2.983200	3.344800	-9.977300	26.454836	0.000142	20.890666
1973.618495	-3.015200	3.344100	-10.082000	26.492079	0.000142	20.891589
1974.618686	-2.990600	3.345200	-10.003000	26.585927	0.000141	20.878767
1975.619022	-3.003000	3.344100	-10.042000	26.603478	0.000139	20.882659
1976.642087	-2.951800	3.345000	-9.873200	26.609240	0.000139	20.880391
1977.619198	-2.976900	3.344100	-9.953700	26.648166	0.000137	20.904348
1978.618351	-3.006500	3.343900	-10.052000	26.620856	0.000140	20.883059
1979.620375	-3.013100	3.342300	-10.070000	26.572604	0.000138	20.884814
1980.636751	-3.015100	3.343500	-10.080000	26.553257	0.000137	20.876273
1981.635576	-3.012300	3.342500	-10.068000	26.517591	0.000136	20.879302
1982.643559	-3.001400	3.342700	-10.032000	26.523998	0.000135	20.898543
1983.648869	-3.009000	3.341800	-10.055000	26.486954	0.000135	20.878852
1984.635606	-3.019800	3.341700	-10.090000	26.529335	0.000139	20.883519
1985.648657	-3.034600	3.340900	-10.137000	26.529634	0.000137	20.857743
1986.635431	-2.996000	3.341800	-10.012000	26.555106	0.000134	20.886191
1987.635179	-2.996900	3.341700	-10.014000	26.525192	0.000138	20.863235
1988.647747	-3.005600	3.340500	-10.039000	26.506893	0.000135	20.857644
1989.619587	-2.982600	3.340100	-9.960900	26.537329	0.000136	20.879228
1990.622699	-2.992200	3.340800	-9.995600	26.498328	0.000137	20.862311
1991.640343	-2.998900	3.339300	-10.014000	26.497754	0.000133	20.878803
1992.640000	-3.002500	3.338000	-10.021000	26.484374	0.000134	20.869621
1993.645829	-3.000500	3.338800	-10.017000	26.523973	0.000134	20.878605
1994.620493	-3.005300	3.337600	-10.029000	26.561111	0.000134	20.868521
1995.620739	-2.991900	3.339100	-9.988800	26.614387	0.000135	20.873237
1996.627693	-2.991800	3.338500	-9.987400	26.612824	0.000135	20.854124
1997.623131	-3.008400	3.336300	-10.036000	26.637921	0.000133	20.869869
1998.625478	-2.995300	3.337700	-9.996200	26.622426	0.000132	20.887956
1999.622115	-3.004700	3.337600	-10.027000	26.585016	0.000132	20.866472
2000.625198	-3.013600	3.336800	-10.056000	26.596685	0.000131	20.864452
2001.626885	-3.001900	3.337200	-10.017000	26.628287	0.000130	20.863978
2002.625188	-2.992700	3.337000	-9.986700	26.596160	0.000132	20.865347
2003.626531	-2.987300	3.335200	-9.961100	26.577669	0.000134	20.878053
2004.625590	-3.015500	3.334200	-10.053000	26.617660	0.000130	20.860407
2005.645049	-2.973700	3.335400	-9.918300	26.629472	0.000131	20.854265
2006.660064	-2.987500	3.334700	-9.961800	26.603904	0.000131	20.875975
2007.627036	-3.011500	3.334500	-10.042000	26.589081	0.000132	20.867239
2008.628102	-2.985900	3.334500	-9.955500	26.631187	0.000130	20.855514
2009.627556	-2.991600	3.332900	-9.969700	26.678795	0.000129	20.866864
2010.629466	-3.015200	3.332900	-10.049000	26.719162	0.000129	20.864774
2011.627954	-2.991200	3.333800	-9.971700	26.630785	0.000128	20.857481
2012.626980	-3.007100	3.332700	-10.021000	26.645283	0.000126	20.848349
2013.629122	-3.034400	3.332200	-10.110000	26.646100	0.000128	20.858178
2014.633525	-2.966000	3.333300	-9.885800	26.674948	0.000127	20.859204
2015.631476	-3.012400	3.332200	-10.037000	26.681752	0.000126	20.849449
2016.649593	-2.993600	3.331400	-9.971400	26.670376	0.000126	20.854608
2017.640076	-2.994100	3.332200	-9.976100	26.705080	0.000128	20.860099
2018.632777	-2.986300	3.331200	-9.947200	26.722858	0.000126	20.880342
2019.634185	-2.977000	3.331400	-9.915400	26.660619	0.000127	20.859497
2020.632779	-2.982500	3.330300	-9.932000	26.632475	0.000128	20.851119
2021.636201	-2.979000	3.330200	-9.919400	26.623759	0.000124	20.858953
2022.633685	-3.011800	3.329800	-10.028000	26.643889	0.000123	20.846947
2023.635947	-2.993800	3.329300	-9.965800	26.664449	0.000123	20.858132
2024.636755	-3.006300	3.329400	-10.008000	26.633267	0.000122	20.850018
2025.636106	-3.008400	3.328600	-10.013000	26.623562	0.000123	20.850694
2026.635806	-3.001000	3.326900	-9.983700	26.623238	0.000123	20.851791
2027.637228	-2.983900	3.327900	-9.929500	26.641014	0.000120	20.863970
2028.636386	-3.010400	3.327700	-10.016000	26.567535	0.000122	20.856961
2029.635969	-3.001000	3.326600	-9.982500	26.557580	0.000119	20.864497
2030.637727	-3.001500	3.327200	-9.985600	26.589799	0.000122	20.836668
2031.638284	-2.996400	3.326500	-9.965500	26.603506	0.000120	20.836223
2032.655466	-3.007000	3.326100	-9.999600	26.658965	0.000120	20.860680
2033.656122	-3.010800	3.325200	-10.010000	26.705140	0.000119	20.862056
2034.642167	-2.993300	3.325600	-9.953800	26.642387	0.000121	20.834058
2035.638563	-3.002000	3.325100	-9.981100	26.624985	0.000120	20.853547
2036.639264	-3.008100	3.325100	-10.002000	26.650307	0.000118	20.836804
2037.639344	-2.975700	3.325100	-9.893600	26.669644	0.000120	20.855769
2038.642475	-3.011800	3.323900	-10.010000	26.652046	0.000118	20.850879
2039.638046	-2.995300	3.324400	-9.956800	26.684586	0.000118	20.857513
2040.642918	-2.999000	3.324000	-9.967800	26.728943	0.000118	20.830038
2041.637650	-3.005300	3.323000	-9.985000	26.752130	0.000120	20.850504
2042.652868	-2.988500	3.323200	-9.930700	26.801775	0.000118	20.840201
2043.660021	-3.006900	3.322800	-9.989600	26.824809	0.000115	20.837281
2044.655003	-3.001200	3.322900	-9.971800	26.817555	0.000117	20.842316
2045.656691	-2.983300	3.321100	-9.906600	26.809690	0.000118	20.850055
2046.663198	-3.021600	3.319900	-10.030000	26.743346	0.000117	20.852103
2047.642910	-2.978300	3.321400	-9.891800	26.752479	0.000116	20.834260
2048.664792	-3.009200	3.320100	-9.990300	26.776432	0.000114	20.834635
2049.641612	-2.985200	3.320400	-9.911200	26.739397	0.000116	20.822530
2050.643467	-2.997200	3.319800	-9.949200	26.750539	0.000115	20.837999
2051.646362	-2.996800	3.319900	-9.948100	26.666368	0.000116	20.826871
2052.640551	-2.987000	3.319500	-9.914000	26.669891	0.000111	20.842267
2053.658230	-2.996900	3.319800	-9.947000	26.643056	0.000112	20.844687
2054.661595	-2.989000	3.319200	-9.920300	26.642609	0.000113	20.848030
2055.661946	-2.992600	3.319500	-9.932800	26.695560	0.000113	20.826822
2056.663049	-3.016400	3.318500	-10.009000	26.711275	0.000110	20.835983
2057.677584	-3.000500	3.318100	-9.954600	26.775911	0.000112	20.833637
2058.669401	-2.998900	3.318800	-9.952300	26.740762	0.000113	20.824851
2059.679379	-3.004700	3.316200	-9.963400	26.744531	0.000113	20.834330
2060.662456	-3.001400	3.317800	-9.955900	26.712440	0.000110	20.820085
2061.647871	-3.011100	3.316700	-9.985600	26.714130	0.000110	20.831740
2062.645326	-3.010200	3.316100	-9.981200	26.712986	0.000110	20.833435
2063.665537	-2.998600	3.317400	-9.946500	26.753369	0.000110	20.846534
2064.662465	-2.960200	3.316800	-9.818400	26.736317	0.000109	20.835554
2065.674965	-3.002500	3.316400	-9.957000	26.748801	0.000112	20.829139
2066.664919	-2.987800	3.315000	-9.903500	26.751954	0.000109	20.830413
2067.673909	-2.981900	3.314600	-9.883100	26.711866	0.000110	20.825672
2068.674809	-3.004900	3.314000	-9.957400	26.776375	0.000111	20.849276
2069.666046	-3.015100	3.314900	-9.993800	26.803752	0.000110	20.813266
2070.664181	-2.985900	3.314200	-9.894800	26.849126	0.000109	20.810998
2071.664973	-3.050500	3.311700	-10.101000	26.885805	0.000109	20.805205
2072.676442	-3.006700	3.313200	-9.960700	26.858332	0.000110	20.831160
2073.650483	-3.004500	3.312200	-9.951400	26.799336	0.000109	20.807403
2074.653014	-2.993000	3.312900	-9.914500	26.788837	0.000108	20.808702
2075.677069	-2.981400	3.313700	-9.877700	26.782408	0.000109	20.832582
2076.664245	-2.992400	3.313000	-9.913200	26.788067	0.000107	20.812194
2077.653584	-2.976700	3.313100	-9.861100	26.834528	0.000109	20.816235
2078.648626	-2.997000	3.311700	-9.924200	26.821943	0.000105	20.818754
2079.649974	-2.991700	3.312300	-9.908200	26.813877	0.000106	20.826765
2080.652225	-3.020200	3.311200	-9.999000	26.803404	0.000105	20.829511
2081.652074	-3.012100	3.311500	-9.973200	26.829489	0.000106	20.816383
2082.654206	-2.971300	3.310400	-9.835600	26.831498	0.000104	20.815559
2083.654741	-3.006000	3.309000	-9.946000	26.818815	0.000103	20.829358
2084.653582	-2.989300	3.310000	-9.893900	26.825716	0.000105	20.812116
2085.653275	-3.013800	3.307200	-9.966800	26.767112	0.000104	20.813411
2086.655990	-2.989500	3.308600	-9.889800	26.816584	0.000101	20.816210
2087.652604	-2.993800	3.308700	-9.904600	26.799504	0.000106	20.811366
2088.659664	-2.994400	3.307600	-9.903400	26.815837	0.000102	20.818779
2089.652466	-2.973600	3.307800	-9.834700	26.825146	0.000101	20.821026
2090.652894	-3.008900	3.307200	-9.950500	26.810059	0.000103	20.803486
2091.654084	-2.979800	3.306000	-9.850700	26.767862	0.000102	20.824596
2092.653846	-3.005000	3.306000	-9.934200	26.760862	0.000101	20.818980
2093.658478	-2.998400	3.306500	-9.913000	26.776551	9.988182E-5	20.821005
2094.655308	-2.977600	3.305100	-9.840500	26.788890	0.000100	20.821083
2095.654586	-3.018400	3.304700	-9.973700	26.808423	0.000101	20.809427
2096.654311	-2.997800	3.305400	-9.907900	26.856294	0.000100	20.824369
2097.654609	-2.991300	3.306200	-9.888800	26.873348	9.885875E-5	20.840094
2098.653573	-3.007100	3.304500	-9.935400	26.889307	9.849572E-5	20.808726
2099.653300	-2.969000	3.305400	-9.813200	26.880126	9.770366E-5	20.821780
2100.668914	-3.000200	3.303300	-9.909400	26.848507	9.776967E-5	20.801366
2101.655246	-2.998100	3.303400	-9.902500	26.839026	9.704362E-5	20.823128
2102.653872	-3.007100	3.303300	-9.931900	26.859402	9.674659E-5	20.829865
2103.655577	-3.008000	3.303600	-9.936100	26.875586	9.717563E-5	20.818638
2104.654286	-3.009700	3.301800	-9.936300	26.871912	9.661458E-5	20.795029
2105.656257	-3.011200	3.302200	-9.942900	26.895395	9.588853E-5	20.819116
2106.656832	-2.999100	3.301500	-9.900900	26.880728	9.430442E-5	20.806264
2107.656091	-3.000900	3.301500	-9.906200	26.860254	9.608655E-5	20.820765
2108.658763	-2.986600	3.301000	-9.857400	26.864473	9.839671E-5	20.808412
2109.660747	-3.012200	3.298900	-9.936600	26.894956	9.394139E-5	20.775052
2110.658879	-2.990600	3.301500	-9.873200	26.912801	9.314933E-5	20.807694
2111.659256	-3.002700	3.301000	-9.911000	26.973287	9.215926E-5	20.804032
2112.659579	-3.021400	3.299300	-9.968100	27.009691	9.476645E-5	20.778527
2113.662260	-2.996400	3.300200	-9.888300	27.053617	9.493146E-5	20.789511
2114.661878	-3.027000	3.297800	-9.981500	27.048627	9.321534E-5	20.805830
2115.658112	-2.998900	3.299900	-9.895000	26.991039	9.087217E-5	20.788694
2116.660146	-3.005500	3.298400	-9.912700	26.991810	9.166422E-5	20.802271
2117.660237	-3.032200	3.297200	-9.997000	27.009825	9.182924E-5	20.783404
2118.657625	-3.016900	3.298600	-9.950200	27.023970	9.324834E-5	20.809482
2119.662170	-2.967400	3.298800	-9.787800	26.980944	9.093817E-5	20.788974
2120.684777	-2.989000	3.297600	-9.855700	26.917145	9.120219E-5	20.804950
2121.678146	-3.010600	3.296600	-9.923800	26.904438	9.163122E-5	20.794544
2122.675950	-3.003600	3.296100	-9.899300	26.894289	9.159822E-5	20.786709
2123.678048	-3.000700	3.296400	-9.890600	26.909875	9.067415E-5	20.802381
2124.681802	-3.007700	3.294700	-9.908800	26.973609	9.004711E-5	20.789183
2125.683885	-2.986300	3.295800	-9.841600	26.974830	9.050914E-5	20.792308
2126.661380	-3.005100	3.295800	-9.902400	27.033123	9.037713E-5	20.776962
2127.661909	-3.016500	3.294800	-9.937300	27.044886	8.998110E-5	20.792584
2128.663622	-3.019700	3.292800	-9.942000	26.996470	8.763793E-5	20.784198
2129.663743	-3.007000	3.294200	-9.904500	27.020274	8.938706E-5	20.769729
2130.667187	-3.000100	3.295100	-9.884500	27.034989	8.757192E-5	20.772199
2131.666858	-2.994900	3.293600	-9.862400	27.050826	8.717590E-5	20.781962
2132.664546	-3.002200	3.291100	-9.879300	27.002882	8.743991E-5	20.776895
2133.670421	-2.991200	3.292900	-9.848600	26.923597	8.668086E-5	20.782040
2134.678335	-3.009500	3.292200	-9.907000	26.897933	8.743991E-5	20.785158
2135.686945	-3.009500	3.290400	-9.901500	26.905555	8.499774E-5	20.776701
2136.691727	-3.022100	3.289500	-9.939900	26.849117	8.572379E-5	20.796290
2137.686231	-3.002000	3.291600	-9.880500	26.848522	8.684587E-5	20.790950
2138.685824	-2.999700	3.289300	-9.865900	26.943483	8.694488E-5	20.781648
2139.664629	-2.999000	3.290300	-9.866800	26.934348	8.734091E-5	20.773410
2140.681587	-2.998900	3.288100	-9.859400	26.940481	8.430469E-5	20.775785
2141.664346	-2.999400	3.288400	-9.862200	26.950978	8.605381E-5	20.759787
2142.665014	-3.006700	3.289200	-9.888300	26.936635	8.470071E-5	20.782823
2143.667047	-2.998200	3.288400	-9.857400	26.957850	8.446970E-5	20.789932
2144.686180	-2.978400	3.288000	-9.792200	26.958428	8.674686E-5	20.761115
2145.685504	-3.004600	3.288100	-9.878800	26.967305	8.295159E-5	20.769093
2146.691029	-2.998900	3.288200	-9.860300	26.937652	8.235754E-5	20.780527
2147.696671	-3.015800	3.285700	-9.908200	26.949190	8.549277E-5	20.756567
2148.683701	-2.993100	3.287400	-9.838900	26.945422	8.466771E-5	20.778383
2149.696156	-2.988400	3.286000	-9.819000	27.033143	8.433769E-5	20.767498
2150.692884	-3.001600	3.286400	-9.863800	27.106069	8.116946E-5	20.768294
2151.696319	-2.992300	3.285000	-9.829100	27.091351	8.446970E-5	20.780045
2152.688181	-2.994000	3.284700	-9.834400	27.061354	8.275357E-5	20.786386
2153.691387	-2.996600	3.285700	-9.845000	27.065720	8.232454E-5	20.762327
2154.700318	-3.001400	3.284500	-9.857400	27.103085	8.017938E-5	20.777621
2155.697543	-3.011500	3.284500	-9.890600	27.090929	8.239055E-5	20.758283
2156.691078	-2.982800	3.283700	-9.793700	27.119188	8.034440E-5	20.769160
2157.691598	-3.013400	3.283500	-9.893400	27.065593	8.116946E-5	20.771209
2158.694485	-3.012000	3.283500	-9.889400	27.105639	8.225854E-5	20.767861
2159.695686	-3.026400	3.282200	-9.932100	27.053725	7.975035E-5	20.779662
2160.689634	-2.995800	3.283100	-9.834700	27.005735	8.037740E-5	20.766014
2161.693051	-2.990700	3.282700	-9.816000	26.976027	8.146648E-5	20.767907
2162.676298	-2.996000	3.281700	-9.830700	26.954337	8.097144E-5	20.749888
2163.695628	-3.005800	3.279800	-9.857800	27.004985	7.816624E-5	20.746767
2164.673527	-3.003700	3.280900	-9.853500	26.985281	7.618609E-5	20.758246
2165.694269	-2.988700	3.280700	-9.803400	27.055734	7.876028E-5	20.750387
2166.674973	-2.975700	3.281100	-9.762400	27.082558	7.479999E-5	20.738958
2167.677981	-3.006600	3.279200	-9.857900	27.108062	7.730817E-5	20.770773
2168.674959	-2.993200	3.279200	-9.813600	27.127765	7.671413E-5	20.754552
2169.677337	-2.990400	3.279400	-9.805800	27.111613	7.645011E-5	20.775766
2170.676422	-3.021800	3.277400	-9.902000	27.117118	7.562505E-5	20.768501
2171.676789	-2.999700	3.279800	-9.837300	27.129302	7.555905E-5	20.765582
2172.677715	-2.988900	3.277700	-9.795400	27.152378	7.628510E-5	20.773144
2173.680482	-2.990000	3.279100	-9.803900	27.174957	7.516302E-5	20.751757
2174.678776	-2.975600	3.276700	-9.749000	27.151784	7.400793E-5	20.745518
2175.696592	-3.006400	3.276200	-9.848700	27.180889	7.357890E-5	20.759619
2176.679918	-3.004500	3.276500	-9.843300	27.198233	7.668113E-5	20.769478
2177.683702	-3.042100	3.274900	-9.961700	27.229518	7.466798E-5	20.751159
2178.682738	-3.011700	3.275900	-9.865400	27.242545	7.159876E-5	20.750985
2179.679155	-3.009000	3.275000	-9.853300	27.270082	7.493200E-5	20.759244
2180.679800	-3.004100	3.275200	-9.838300	27.173695	7.225880E-5	20.769927
2181.694470	-3.026300	3.274200	-9.907900	27.182680	7.232481E-5	20.765688
2182.705571	-3.007600	3.273900	-9.845600	27.228505	7.186278E-5	20.737811
2183.704975	-2.981000	3.273300	-9.755600	27.203025	7.298486E-5	20.751063
2184.698205	-2.991800	3.272900	-9.790500	27.205037	7.275384E-5	20.765416
2185.700277	-3.021900	3.272900	-9.889300	27.185287	7.245682E-5	20.755508
2186.680647	-3.002300	3.273000	-9.825900	27.183426	7.166476E-5	20.748420
2187.699681	-3.017000	3.270000	-9.865200	27.216228	7.080670E-5	20.748222
2188.697622	-2.984400	3.272800	-9.767000	27.273467	6.988263E-5	20.763123
2189.697415	-3.008200	3.272000	-9.842200	27.302122	7.146675E-5	20.754489
2190.681933	-2.963900	3.271700	-9.695200	27.255731	6.846353E-5	20.743385
2191.702389	-2.998500	3.269200	-9.801500	27.234018	6.859554E-5	20.752840
2192.707794	-3.022800	3.269500	-9.882000	27.204520	6.915658E-5	20.752094
2193.702547	-3.005800	3.269600	-9.826800	27.186311	6.605435E-5	20.742787
2194.704662	-2.994500	3.269900	-9.790600	27.230177	6.786948E-5	20.744235
2195.704250	-2.991100	3.269300	-9.778000	27.298577	6.678040E-5	20.726740
2196.705514	-2.991700	3.270100	-9.782400	27.254816	6.773747E-5	20.757165
2197.701202	-3.009100	3.267900	-9.832800	27.230079	6.572433E-5	20.747929
2198.707720	-3.009300	3.269200	-9.837900	27.231226	6.783648E-5	20.754299
2199.708616	-3.005600	3.267500	-9.820400	27.202643	6.915658E-5	20.745937
2200.689522	-3.010400	3.267100	-9.834300	27.191308	6.760546E-5	20.747339
2201.688207	-2.985400	3.269200	-9.758900	27.220531	6.542730E-5	20.776733
2202.685861	-2.997600	3.266900	-9.792000	27.220265	6.565832E-5	20.754653
2203.686981	-3.024000	3.266000	-9.874600	27.171906	6.734144E-5	20.730194
2204.687727	-3.012300	3.265300	-9.834900	27.240830	6.562532E-5	20.737880
2205.689238	-3.027300	3.264200	-9.881400	27.328612	6.450324E-5	20.754109
2206.688723	-2.996600	3.263600	-9.778900	27.337810	6.631837E-5	20.742024
2207.689778	-3.000200	3.264000	-9.791800	27.365078	6.549331E-5	20.734367
2208.693093	-2.939700	3.268100	-9.606000	27.417374	6.503128E-5	20.765641
2209.704852	-3.000800	3.263400	-9.792600	27.401276	6.381019E-5	20.744229
2210.709694	-3.011600	3.262800	-9.824800	27.436051	6.499827E-5	20.731324
2211.715403	-3.013400	3.262600	-9.830300	27.471627	6.308413E-5	20.756211
2212.718693	-3.003500	3.261800	-9.795600	27.439431	6.222607E-5	20.743260
2213.716436	-2.997200	3.261900	-9.775900	27.379771	6.169803E-5	20.741561
2214.712510	-2.976900	3.263400	-9.714000	27.341145	6.301813E-5	20.763398
2215.727605	-3.000800	3.261600	-9.786900	27.359704	6.427222E-5	20.747453
2216.712027	-3.014800	3.260600	-9.829000	27.346855	6.113699E-5	20.738320
2217.720912	-3.018000	3.261000	-9.840500	27.337079	6.301813E-5	20.749350
2218.695018	-3.002300	3.260700	-9.788500	27.302895	6.400820E-5	20.738671
2219.695690	-2.989300	3.259300	-9.742100	27.303613	6.258910E-5	20.752669
2220.721650	-2.991700	3.258200	-9.746400	27.359257	6.374418E-5	20.773557
2221.720284	-2.955900	3.261700	-9.640100	27.404804	6.150002E-5	20.753943
2222.718558	-3.008100	3.257800	-9.798800	27.420132	6.344716E-5	20.774106
2223.698565	-3.011400	3.256100	-9.804600	27.418026	6.331515E-5	20.734053
2224.696697	-3.009400	3.257300	-9.801900	27.383074	6.021292E-5	20.771912
2225.697389	-3.002800	3.258000	-9.781700	27.310634	6.222607E-5	20.751197
2226.699823	-2.992400	3.256900	-9.745500	27.353003	6.275411E-5	20.747351
2227.696949	-3.012200	3.256400	-9.807500	27.381631	6.272111E-5	20.733950
2228.698041	-3.011400	3.254700	-9.799700	27.365237	5.955287E-5	20.769616
2229.696513	-2.987000	3.255700	-9.724000	27.327751	6.060895E-5	20.748501
2230.697446	-3.028800	3.253100	-9.852200	27.341940	5.899183E-5	20.738593
2231.698378	-3.009900	3.254700	-9.795600	27.235385	6.067496E-5	20.741413
2232.701671	-2.995900	3.254200	-9.747900	27.280909	5.704469E-5	20.743108
2233.695416	-2.994200	3.251900	-9.736200	27.297731	5.869481E-5	20.756236
2234.696290	-2.983000	3.253800	-9.705900	27.408468	5.806777E-5	20.739137
2235.700410	-3.018600	3.252500	-9.816300	27.388177	5.714370E-5	20.754286
2236.712067	-2.978600	3.252600	-9.687300	27.359851	5.925585E-5	20.756611
2237.702075	-3.007000	3.252400	-9.778800	27.331841	5.773774E-5	20.765893
2238.701841	-3.020400	3.250100	-9.815900	27.301125	5.833178E-5	20.751589
2239.697686	-3.025100	3.251500	-9.834900	27.307175	5.767174E-5	20.775694
2240.697217	-3.002100	3.252100	-9.762300	27.382672	5.740772E-5	20.762025
2241.697373	-3.009300	3.251800	-9.784300	27.404227	5.780375E-5	20.754785
2242.697934	-2.992800	3.250600	-9.727700	27.422140	5.628563E-5	20.749099
2243.696778	-3.022300	3.250600	-9.824000	27.418493	5.767174E-5	20.737368
2244.695568	-3.014700	3.249000	-9.794200	27.418296	5.542757E-5	20.751395
2245.696287	-3.007400	3.249500	-9.771400	27.404304	5.592261E-5	20.743483
2246.698581	-2.993000	3.249600	-9.724700	27.445062	5.687968E-5	20.776427
2247.698452	-3.002600	3.249100	-9.755200	27.497745	5.757273E-5	20.762573
2248.701639	-2.976500	3.247100	-9.664200	27.504888	5.687968E-5	20.748897
2249.697054	-2.994200	3.246800	-9.720300	27.409366	5.542757E-5	20.755213
2250.701895	-2.990700	3.247000	-9.710000	27.402796	5.447050E-5	20.745759
2251.701207	-3.027300	3.246700	-9.827800	27.405271	5.450350E-5	20.757259
2252.700752	-2.983600	3.247100	-9.686600	27.463718	5.430549E-5	20.760107
2253.701828	-2.995800	3.247200	-9.727500	27.513551	5.526256E-5	20.773735
2254.699866	-2.999400	3.246100	-9.735400	27.441513	5.549358E-5	20.765744
2255.701059	-2.990700	3.245900	-9.707000	27.436460	5.374445E-5	20.781049
2256.699261	-3.017200	3.242900	-9.784100	27.476467	5.437149E-5	20.749226
2257.704378	-2.988100	3.244500	-9.693600	27.517247	5.420648E-5	20.766074
2258.703734	-3.000000	3.242800	-9.727400	27.515042	5.295239E-5	20.755794
2259.702439	-2.992200	3.243200	-9.703800	27.556858	5.414048E-5	20.765150
2260.702577	-3.008800	3.243500	-9.758100	27.570770	5.321641E-5	20.780571
2261.719719	-2.985000	3.244500	-9.683500	27.582924	5.407447E-5	20.741116
2262.725510	-2.969700	3.241600	-9.626200	27.556034	5.367844E-5	20.773805
2263.710781	-3.001900	3.240300	-9.727000	27.517317	5.489953E-5	20.746229
2264.708402	-2.986900	3.242100	-9.683000	27.495294	5.258936E-5	20.750624
2265.707113	-2.995100	3.241500	-9.707300	27.467017	5.367844E-5	20.767220
2266.710434	-2.992200	3.241000	-9.696600	27.447021	5.331542E-5	20.762751
2267.717952	-3.001700	3.239500	-9.722400	27.460816	5.077423E-5	20.767620
2268.709410	-3.002500	3.239900	-9.726800	27.472648	5.179731E-5	20.797067
2269.712976	-3.004400	3.239000	-9.730600	27.388086	5.136827E-5	20.771739
2270.709451	-3.001900	3.237200	-9.716900	27.386525	5.166530E-5	20.779651
2271.708354	-2.996800	3.237300	-9.699700	27.422443	5.117026E-5	20.776905
2272.709321	-3.005900	3.236500	-9.727300	27.335468	5.120326E-5	20.767645
2273.709702	-2.995400	3.238200	-9.699000	27.359954	4.958614E-5	20.763352
2274.719704	-2.997600	3.236800	-9.701600	27.406292	4.925612E-5	20.775829
2275.712579	-3.004000	3.236500	-9.721200	27.407038	4.707796E-5	20.765674
2276.709516	-3.001700	3.236500	-9.714700	27.439681	4.968515E-5	20.769117
2277.710508	-2.978000	3.236500	-9.637200	27.437206	4.892610E-5	20.781325
2278.729090	-2.978700	3.234400	-9.633500	27.418152	4.753999E-5	20.770692
2279.712379	-2.999000	3.233900	-9.696900	27.457914	4.965215E-5	20.764226
2280.716574	-3.016400	3.236000	-9.760300	27.440156	4.740798E-5	20.776233
2281.714445	-2.998800	3.233000	-9.693800	27.475131	4.816704E-5	20.781074
2282.714035	-2.979400	3.232900	-9.630800	27.571097	4.780401E-5	20.781849
2283.712794	-2.999300	3.232400	-9.694000	27.649944	4.773801E-5	20.788639
2284.733093	-3.019800	3.232500	-9.761200	27.660585	5.027919E-5	20.781329
2285.736615	-3.001600	3.232100	-9.700600	27.573007	4.793602E-5	20.780451
2286.732650	-2.989700	3.231600	-9.660900	27.561324	4.714396E-5	20.787662
2287.735241	-3.002100	3.230800	-9.697600	27.569368	4.691295E-5	20.759245
2288.716685	-2.986700	3.231200	-9.649600	27.645900	4.866208E-5	20.770345
2289.716849	-2.984600	3.231400	-9.643600	27.669612	4.787002E-5	20.768127
2290.715904	-3.008500	3.229100	-9.714100	27.647691	4.654992E-5	20.773095
2291.723323	-2.998600	3.228700	-9.681100	27.656468	4.506481E-5	20.804212
2292.720393	-2.980100	3.228500	-9.620500	27.612845	4.651692E-5	20.777387
2293.717099	-2.992100	3.229100	-9.660600	27.681691	4.588987E-5	20.782178
2294.743441	-2.988000	3.227400	-9.642600	27.693028	4.687994E-5	20.778414
2295.735736	-3.006900	3.226900	-9.702700	27.726778	4.562585E-5	20.800996
2296.738799	-3.004100	3.227200	-9.694100	27.725737	4.559285E-5	20.796630
2297.733709	-2.985100	3.226600	-9.630200	27.677028	4.285365E-5	20.788866
2298.733827	-2.998400	3.225800	-9.671800	27.693819	4.361271E-5	20.787270
2299.743881	-3.023700	3.224800	-9.749700	27.663888	4.410774E-5	20.789868
2300.733187	-2.995500	3.225300	-9.660200	27.620634	4.516382E-5	20.804665
2301.734912	-2.999400	3.223900	-9.669100	27.612972	4.483379E-5	20.793162
2302.735046	-2.979600	3.224600	-9.607200	27.643802	4.222660E-5	20.801899
2303.732903	-2.988000	3.224900	-9.634400	27.711183	4.443777E-5	20.805218
2304.737881	-2.990000	3.225100	-9.642400	27.709151	4.189658E-5	20.794164
2305.737432	-3.006900	3.223800	-9.693000	27.659303	4.054348E-5	20.795685
2306.741816	-2.990000	3.222400	-9.634400	27.658635	4.107152E-5	20.804970
2307.736434	-3.003000	3.222200	-9.675000	27.722594	4.328268E-5	20.793941
2308.745119	-3.013600	3.219900	-9.702800	27.711904	4.123653E-5	20.805943
2309.739213	-2.994800	3.222200	-9.649200	27.654246	4.084050E-5	20.806244
2310.735044	-2.991200	3.221400	-9.634300	27.620843	4.004844E-5	20.796815
2311.734486	-2.980500	3.221400	-9.600400	27.600822	3.849733E-5	20.799903
2312.720923	-2.994800	3.220200	-9.642300	27.600355	4.031246E-5	20.787579
2313.746465	-2.997400	3.218900	-9.647100	27.620544	3.813430E-5	20.794143
2314.735750	-2.988100	3.218600	-9.616600	27.602465	3.912438E-5	20.792547
2315.740639	-2.979100	3.220700	-9.594100	27.613127	3.793629E-5	20.798534
2316.738302	-3.005900	3.217500	-9.670600	27.659110	4.027946E-5	20.805922
2317.740094	-3.000700	3.218100	-9.655500	27.701501	4.097251E-5	20.811121
2318.719700	-2.988500	3.216100	-9.610800	27.719476	3.975142E-5	20.803131
2319.729091	-2.986000	3.217500	-9.606400	27.701448	3.895936E-5	20.807275
2320.721790	-2.998900	3.215400	-9.642200	27.736618	3.730924E-5	20.799519
2321.722118	-2.999500	3.216700	-9.647500	27.790257	3.763927E-5	20.784746
2322.723661	-2.981600	3.215700	-9.587200	27.764343	3.734225E-5	20.791858
2323.727506	-2.980900	3.216900	-9.588700	27.793755	3.750726E-5	20.812449
2324.722736	-2.994400	3.214100	-9.623400	27.839755	3.691321E-5	20.785723
2325.721534	-3.023800	3.215900	-9.723300	27.803850	3.674820E-5	20.800323
2326.745234	-2.984800	3.214200	-9.592200	27.735634	3.664919E-5	20.783830
2327.723255	-2.987100	3.213200	-9.597700	27.678150	3.681421E-5	20.814176
2328.724357	-3.003100	3.215200	-9.654500	27.624903	3.767227E-5	20.827926
2329.723050	-3.012500	3.211400	-9.672700	27.643579	3.608815E-5	20.796459
2330.726247	-3.001000	3.210700	-9.634100	27.639293	3.592314E-5	20.802103
2331.749602	-2.989200	3.212200	-9.599900	27.649586	3.622016E-5	20.815305
2332.751345	-3.015500	3.209700	-9.678100	27.597059	3.734225E-5	20.805125
2333.759748	-2.993200	3.209400	-9.604100	27.571640	3.909137E-5	20.804680
2334.724163	-2.990600	3.209600	-9.597800	27.617227	3.730924E-5	20.818306
2335.749134	-2.972200	3.210300	-9.541000	27.630544	3.688021E-5	20.823646
2336.740891	-3.005700	3.207900	-9.640800	27.648950	3.793629E-5	20.818459
2337.723681	-3.007300	3.208200	-9.646900	27.620730	3.714423E-5	20.824676
2338.725513	-2.998600	3.208100	-9.618800	27.707654	3.757326E-5	20.826321
2339.725844	-3.013100	3.206300	-9.660300	27.753231	3.767227E-5	20.828090
2340.727793	-3.006700	3.206900	-9.641200	27.714525	3.697922E-5	20.794830
2341.726196	-3.002100	3.206300	-9.625000	27.643275	3.760626E-5	20.835981
2342.727888	-3.013700	3.205100	-9.658400	27.702298	3.598915E-5	20.811450
2343.729634	-2.983800	3.208400	-9.572300	27.785200	3.509808E-5	20.819011
2344.730901	-3.004400	3.206900	-9.633800	27.839008	3.704522E-5	20.818162
2345.728026	-3.026000	3.203800	-9.693100	27.916869	3.387699E-5	20.804065
2346.728046	-2.989000	3.205000	-9.578300	27.908192	3.453704E-5	20.831368
2347.727839	-3.002700	3.205500	-9.624500	27.886444	3.397600E-5	20.800944
2348.727349	-2.978100	3.202700	-9.537000	27.843031	3.351396E-5	20.820788
2349.729679	-3.005100	3.204500	-9.627800	27.789522	3.209486E-5	20.819093
2350.730710	-3.002000	3.202000	-9.611500	27.732708	3.374498E-5	20.813602
2351.729764	-2.991800	3.201600	-9.577600	27.776108	3.249089E-5	20.837836
2352.733104	-2.987300	3.200900	-9.561000	27.817074	3.348096E-5	20.839708
2353.754559	-2.999200	3.200500	-9.598200	27.815935	3.582413E-5	20.801105
2354.746847	-3.002900	3.199000	-9.605100	27.872097	3.077476E-5	20.827282
2355.755655	-2.982300	3.199900	-9.542300	27.817918	3.229287E-5	20.832497
2356.765891	-2.980700	3.199200	-9.535200	27.861540	3.278791E-5	20.824717
2357.748656	-3.000800	3.197700	-9.594500	27.933590	3.212786E-5	20.812835
2358.756649	-2.994300	3.198300	-9.575500	27.957742	3.470205E-5	20.821023
2359.734330	-2.986600	3.197500	-9.549000	27.934884	3.311794E-5	20.834525
2360.756112	-2.997700	3.196300	-9.580200	27.918797	3.117079E-5	20.818334
2361.755226	-3.010800	3.195800	-9.621300	27.950929	3.295292E-5	20.826020
2362.735627	-3.041800	3.195800	-9.718600	27.985072	3.199585E-5	20.839522
2363.735565	-3.018000	3.195500	-9.642800	27.910318	3.186384E-5	20.828291
2364.738605	-2.993100	3.195200	-9.562700	27.837868	3.067576E-5	20.839774
2365.736505	-2.987400	3.194500	-9.542400	27.829093	3.202886E-5	20.831416
2366.737799	-3.017300	3.193600	-9.634900	27.869733	3.103878E-5	20.842445
2367.736912	-3.021000	3.192800	-9.645000	27.946448	3.018072E-5	20.814397
2368.739022	-3.027200	3.192800	-9.663700	27.976773	3.196285E-5	20.826427
2369.739737	-2.996100	3.192900	-9.565600	27.977395	2.975169E-5	20.871148
2370.739931	-2.978100	3.192700	-9.506700	27.953248	2.922365E-5	20.839732
2371.740386	-2.988700	3.191100	-9.536300	27.961035	3.202886E-5	20.825285
2372.737682	-2.976000	3.190700	-9.494500	27.984441	2.800256E-5	20.842680
2373.737565	-2.993600	3.188500	-9.544200	28.010525	3.077476E-5	20.850443
2374.737113	-2.985600	3.190100	-9.522800	28.055126	3.014772E-5	20.843183
2375.738834	-3.029600	3.187600	-9.656200	28.077637	2.777154E-5	20.838817
2376.741651	-3.016100	3.186700	-9.609500	28.057953	2.661646E-5	20.828959
2377.744588	-2.992100	3.187700	-9.537000	28.059071	2.717750E-5	20.837196
2378.745583	-2.993800	3.187200	-9.540600	28.014797	2.892663E-5	20.848105
2379.737744	-3.010500	3.185800	-9.590200	28.009714	2.849760E-5	20.848204
2380.739576	-3.012000	3.185500	-9.593900	27.990601	2.803556E-5	20.836079
2381.756126	-2.979500	3.185700	-9.491300	27.906110	3.077476E-5	20.840651
2382.762282	-2.986900	3.185000	-9.512800	27.865074	2.889362E-5	20.838705
2383.739539	-2.995000	3.183900	-9.534500	27.832271	2.846459E-5	20.845520
2384.754726	-2.989000	3.183600	-9.513900	27.845787	2.833258E-5	20.846794
2385.767132	-2.984600	3.183500	-9.499600	27.921934	2.750752E-5	20.822440
2386.769635	-2.987700	3.183200	-9.509600	27.893422	2.717750E-5	20.849218
2387.767595	-3.012500	3.183800	-9.590600	27.855066	2.882762E-5	20.837641
2388.764325	-2.993800	3.181600	-9.523900	27.906244	2.671546E-5	20.840313
2389.765559	-2.996500	3.180300	-9.529300	27.996446	2.711149E-5	20.856660
2390.768062	-2.991700	3.181100	-9.516500	27.967416	2.648445E-5	20.845458
2391.744776	-2.995800	3.179100	-9.523000	27.913094	2.476832E-5	20.842465
2392.744165	-2.995400	3.180200	-9.525200	27.986308	2.549438E-5	20.860205
2393.747703	-2.988400	3.178500	-9.497600	28.048240	2.787055E-5	20.862329
2394.746980	-2.991500	3.177600	-9.504800	28.078960	2.655045E-5	20.874285
2395.761792	-3.017500	3.176700	-9.585100	28.085730	2.711149E-5	20.846014
2396.767082	-2.998200	3.176900	-9.523400	28.091259	2.532936E-5	20.852054
2397.760063	-2.977300	3.176500	-9.456700	27.984161	2.371224E-5	20.863260
2398.763399	-2.987500	3.175600	-9.484800	27.912979	2.707849E-5	20.868900
2399.770006	-2.999900	3.175200	-9.523700	27.930012	2.658346E-5	20.874664
2400.772079	-2.986500	3.173800	-9.477800	27.967575	2.592341E-5	20.852730
2401.769232	-3.016400	3.173400	-9.571700	28.034945	2.506534E-5	20.865540
2402.763922	-2.992200	3.172000	-9.490800	28.059856	2.394326E-5	20.850314
2403.747304	-3.007700	3.171500	-9.538100	28.066651	2.328321E-5	20.863792
2404.752773	-3.020400	3.171600	-9.579100	28.072603	2.430629E-5	20.858403
2405.747225	-3.002500	3.169200	-9.514200	28.036485	2.457031E-5	20.853340
2406.747439	-2.990400	3.169400	-9.477200	28.029841	2.453730E-5	20.865144
2407.765013	-3.006500	3.168400	-9.525200	28.051165	2.552738E-5	20.881392
2408.764080	-2.988000	3.169400	-9.469500	28.010679	2.374525E-5	20.877624
2409.751503	-3.005500	3.167300	-9.518800	27.979118	2.117106E-5	20.875727
2410.747375	-2.981700	3.167900	-9.445100	28.037136	2.364624E-5	20.856367
2411.747293	-2.996400	3.166900	-9.487800	28.115403	2.166609E-5	20.878729
2412.748150	-3.007900	3.165500	-9.519900	28.155442	2.229314E-5	20.862138
2413.749562	-2.996300	3.166900	-9.488100	28.059704	2.169910E-5	20.863911
2414.748502	-2.987200	3.166300	-9.457200	28.052594	2.110505E-5	20.878564
2415.751842	-2.993000	3.164400	-9.469400	28.017884	2.054401E-5	20.868756
2416.773820	-2.993100	3.163200	-9.466500	28.011191	1.945493E-5	20.876243
2417.771616	-3.010800	3.162200	-9.519600	28.059913	2.229314E-5	20.874078
2418.771508	-2.982300	3.162500	-9.430900	28.086241	2.008198E-5	20.867865
2419.750072	-2.995400	3.160300	-9.466100	28.084607	2.140207E-5	20.870487
2420.750691	-3.005800	3.160300	-9.498200	28.017995	2.193011E-5	20.885935
2421.769474	-2.996200	3.159900	-9.466900	27.963028	2.140207E-5	20.882291
2422.767005	-3.012200	3.158600	-9.513600	27.928819	1.945493E-5	20.867774
2423.770244	-3.004900	3.159200	-9.492200	27.963282	2.113806E-5	20.867848
2424.773306	-3.003900	3.156800	-9.481800	28.061466	2.097304E-5	20.872796
2425.769041	-3.008400	3.156300	-9.494700	28.068605	1.971895E-5	20.868603
2426.769722	-3.026000	3.155700	-9.548700	28.025491	2.097304E-5	20.891583
2427.769608	-3.004500	3.155100	-9.478700	28.018798	2.034600E-5	20.881054
2428.751379	-3.005700	3.155300	-9.483000	28.054724	1.853086E-5	20.888767
2429.753306	-3.002100	3.153700	-9.467100	28.066200	1.866287E-5	20.872346
2430.754160	-2.989300	3.153700	-9.425400	28.056411	1.994997E-5	20.870079
2431.754456	-3.005100	3.153400	-9.474300	28.078648	2.014798E-5	20.890091
2432.753119	-2.982500	3.151300	-9.397900	28.083555	1.777181E-5	20.890763
2433.752958	-3.016600	3.151100	-9.504600	28.110755	1.826684E-5	20.873101
2434.756032	-2.970800	3.151300	-9.360400	28.123517	1.866287E-5	20.895904
2435.755947	-3.000500	3.149100	-9.447400	28.132937	1.836585E-5	20.881206
2436.759513	-3.010900	3.148600	-9.479600	28.164620	1.889389E-5	20.863317
2437.754533	-2.995400	3.147800	-9.427000	28.095801	1.843186E-5	20.875117
2438.757096	-3.008700	3.147800	-9.470200	28.058639	1.790382E-5	20.859994
2439.756016	-2.996400	3.146300	-9.426800	28.128997	1.754079E-5	20.881981
2440.756440	-2.992800	3.145400	-9.412300	28.137352	1.648471E-5	20.878539
2441.756423	-2.987800	3.144200	-9.393200	28.136758	2.001597E-5	20.900224
2442.757655	-2.997900	3.144100	-9.424600	28.134825	1.526362E-5	20.887374
2443.756575	-2.978900	3.144500	-9.366700	28.194193	1.592367E-5	20.891666
2444.757824	-3.026000	3.140700	-9.503100	28.196626	1.681474E-5	20.862823
2445.761941	-2.979700	3.141900	-9.360300	28.151138	1.668273E-5	20.877718
2446.758038	-2.981800	3.141400	-9.366300	28.087650	1.882789E-5	20.883507
2447.760704	-2.976200	3.140800	-9.347200	28.074589	1.688074E-5	20.883160
2448.757974	-3.012200	3.139200	-9.454600	28.081629	1.820084E-5	20.889299
2449.758120	-2.995700	3.139100	-9.402800	28.074216	1.397653E-5	20.852441
2450.763084	-3.004800	3.136300	-9.422300	28.097742	1.569265E-5	20.870433
2451.758415	-3.002200	3.137400	-9.418100	28.127117	1.608868E-5	20.885778
2452.765835	-3.026400	3.136000	-9.489500	28.126273	1.483459E-5	20.870231
2453.759518	-2.981900	3.135800	-9.349500	28.117525	1.450457E-5	20.875175
2454.759409	-2.995700	3.134200	-9.388500	28.111549	1.503261E-5	20.879590
2455.760594	-3.017200	3.134300	-9.455200	28.144220	1.523062E-5	20.869333
2456.760090	-3.002800	3.132800	-9.406400	28.144515	1.384452E-5	20.885750
2457.761727	-3.021000	3.131600	-9.459000	28.208052	1.463658E-5	20.859627
2458.760910	-3.022500	3.130400	-9.460900	28.232616	1.410854E-5	20.884830
2459.760544	-3.004000	3.130100	-9.400900	28.295202	1.466958E-5	20.874350
2460.764938	-2.981700	3.130000	-9.331500	28.309722	1.480159E-5	20.866212
2461.762047	-3.011100	3.126500	-9.413300	28.302937	1.509861E-5	20.870759
2462.767174	-3.001200	3.127400	-9.385000	28.345561	1.539563E-5	20.860097
2463.764551	-3.002800	3.127000	-9.389000	28.362689	1.173236E-5	20.866438
2464.763272	-3.002600	3.125200	-9.382200	28.371067	1.374551E-5	20.852590
2465.764204	-2.996800	3.124400	-9.361900	28.368369	1.450457E-5	20.844657
2466.763406	-2.993100	3.125000	-9.352400	28.329333	1.311847E-5	20.872206
2467.765301	-3.026800	3.123600	-9.452000	28.327478	1.259043E-5	20.865123
2468.766397	-3.013000	3.122000	-9.405200	28.332040	1.173236E-5	20.871138
2469.768854	-3.017300	3.120400	-9.414300	28.394620	1.252442E-5	20.863029
2470.766472	-3.005900	3.121500	-9.382200	28.414921	1.189738E-5	20.848859
2471.767618	-3.015600	3.119300	-9.406100	28.448156	1.103931E-5	20.869522
2472.770934	-3.018800	3.118100	-9.412300	28.414732	1.113832E-5	20.840134
2473.771145	-3.017000	3.118700	-9.408000	28.274006	8.069094E-6	20.839260
2474.771598	-3.007700	3.116000	-9.370900	28.172426	1.344849E-5	20.834667
2475.772642	-2.999400	3.115600	-9.343400	28.118962	8.102096E-6	20.858605
2476.770091	-2.998800	3.115200	-9.340000	28.084779	1.054428E-5	20.828462
2477.768663	-2.988200	3.114700	-9.306400	28.108678	9.191176E-6	20.832132
2478.770854	-2.985800	3.114500	-9.298300	28.182202	9.521201E-6	20.856362
2479.766879	-3.003700	3.112700	-9.349100	28.207196	1.103931E-5	20.854973
2480.771702	-3.011400	3.111200	-9.367900	28.237710	1.153435E-5	20.842547
2481.770635	-3.015500	3.109700	-9.376400	28.318854	1.087430E-5	20.847906
2482.767618	-3.028200	3.109500	-9.414800	28.318093	8.861152E-6	20.858044
2483.778024	-3.001000	3.109200	-9.330000	28.360650	9.356189E-6	20.845420
2484.772497	-3.001100	3.107400	-9.324900	28.323948	9.059167E-6	20.818423
2485.769535	-2.995500	3.106000	-9.303200	28.338768	1.041227E-5	20.836189
2486.771574	-2.979400	3.105800	-9.252600	28.360306	1.196338E-5	20.849341
2487.772261	-2.975600	3.105300	-9.238800	28.306328	9.554203E-6	20.838139
2488.769718	-2.991500	3.103800	-9.284300	28.235810	1.163336E-5	20.839211
2489.773842	-2.991000	3.102700	-9.278700	28.256237	9.191176E-6	20.821371
2490.772659	-3.014200	3.102300	-9.349700	28.221735	1.117132E-5	20.840213
2491.769543	-3.027400	3.100300	-9.384400	28.218315	9.191176E-6	20.837245
2492.777490	-2.991700	3.100100	-9.273300	28.281402	1.084130E-5	20.829164
2493.772421	-2.992300	3.099300	-9.272900	28.319547	1.061028E-5	20.840543
2494.769051	-2.968700	3.099900	-9.202100	28.389485	9.026164E-6	20.820402
2495.771444	-2.992400	3.096500	-9.264900	28.340762	1.037926E-5	20.843413
2496.775074	-3.022600	3.095600	-9.355100	28.351544	7.838077E-6	20.831036
2497.771394	-3.013500	3.094900	-9.325800	28.327306	7.013016E-6	20.833658
2498.773721	-3.014000	3.093300	-9.323200	28.282917	8.993162E-6	20.820258
2499.770759	-2.985300	3.092400	-9.230400	28.327384	8.795147E-6	20.812400
2500.774090	-2.996000	3.092600	-9.264700	28.375686	8.267109E-6	20.830215
2501.771607	-3.004300	3.090300	-9.283100	28.398657	9.191176E-6	20.819681
2502.773145	-2.997400	3.089300	-9.258200	28.360254	8.861152E-6	20.810883
2503.778929	-3.009400	3.087500	-9.291100	28.386820	7.508053E-6	20.812029
2504.774119	-2.987800	3.086800	-9.221800	28.449667	8.201104E-6	20.832165
2505.775266	-2.965000	3.086800	-9.151500	28.398416	7.970087E-6	20.807584
2506.776810	-3.014000	3.083900	-9.294200	28.348035	8.036092E-6	20.833666
2507.775495	-3.000300	3.084800	-9.254500	28.355545	3.151732E-6	20.824159
2508.775520	-2.984800	3.083400	-9.202500	28.360896	7.079021E-6	20.813426
2509.776504	-3.006600	3.082000	-9.265200	28.422017	6.848004E-6	20.828978
2510.775030	-3.029700	3.078700	-9.326500	28.430939	7.277036E-6	20.818997
2511.775945	-2.969900	3.080500	-9.148400	28.461123	8.432121E-6	20.821417
2512.776875	-2.976400	3.080100	-9.166300	28.457856	6.881007E-6	20.816230
2513.775319	-2.996300	3.076900	-9.218700	28.462024	6.715994E-6	20.822324
2514.775206	-2.979100	3.076300	-9.163500	28.446883	6.848004E-6	20.810396
2515.778552	-2.981700	3.075700	-9.169900	28.435361	7.508053E-6	20.827243
2516.775583	-3.028000	3.074100	-9.307200	28.395464	4.966866E-6	20.786594
2517.778014	-2.995800	3.073300	-9.205600	28.471003	5.329892E-6	20.806710
2518.777327	-2.982100	3.073000	-9.162300	28.532736	5.989941E-6	20.822885
2519.777993	-3.019200	3.071800	-9.272600	28.546762	5.791926E-6	20.793389
2520.779088	-2.973900	3.069600	-9.127500	28.545079	4.240812E-6	20.795013
2521.780216	-3.012600	3.069200	-9.244900	28.569811	4.372822E-6	20.800007
2522.779525	-2.980300	3.066800	-9.139100	28.619548	4.900861E-6	20.810743
2523.779088	-2.993100	3.066100	-9.176300	28.568952	3.811781E-6	20.801512
2524.781053	-3.013500	3.065400	-9.237100	28.604957	4.339819E-6	20.803161
2525.779118	-2.980200	3.065300	-9.134000	28.540359	5.065873E-6	20.801165
2526.781251	-3.018500	3.062700	-9.244100	28.492212	5.098875E-6	20.801990
2527.782090	-3.025600	3.061400	-9.261300	28.455932	3.745776E-6	20.798646
2528.782170	-2.990800	3.059900	-9.151000	28.487925	6.848004E-6	20.807630
2529.784770	-2.985800	3.058500	-9.131100	28.487680	3.052725E-6	20.794107
2530.782779	-3.005400	3.056900	-9.186500	28.472867	6.088948E-6	20.787250
2531.783993	-3.015000	3.056800	-9.215200	28.474574	3.745776E-6	20.790392
2532.787683	-2.955600	3.056600	-9.033600	28.432324	4.999868E-6	20.797158
2533.785458	-2.984700	3.055600	-9.119300	28.433638	4.240812E-6	20.787102
2534.787966	-3.002500	3.052700	-9.163800	28.359215	4.240812E-6	20.793715
2535.786397	-3.015200	3.050200	-9.196400	28.366704	3.547761E-6	20.802679
2536.787985	-3.027300	3.049600	-9.230800	28.359342	4.108802E-6	20.778196
2537.789111	-3.002300	3.050500	-9.157500	28.389405	7.541055E-6	20.799933
2538.790407	-3.026600	3.046400	-9.218600	28.460924	4.042798E-6	20.793241
2539.793914	-3.050700	3.044800	-9.287900	28.448440	5.098875E-6	20.807697
2540.788369	-3.007000	3.045300	-9.156400	28.444124	3.316744E-6	20.790549
2541.788658	-3.025500	3.043200	-9.206400	28.437610	4.768851E-6	20.792050
2542.791119	-3.004000	3.043400	-9.142000	28.458136	4.735849E-6	20.793279
2543.790243	-2.985700	3.042700	-9.083800	28.465792	4.042798E-6	20.814739
2544.789754	-3.011800	3.040300	-9.154900	28.602035	4.537834E-6	20.785045
2545.790644	-2.996700	3.040600	-9.111000	28.588206	5.296890E-6	20.793877
2546.791134	-2.971000	3.039000	-9.027300	28.551238	4.273815E-6	20.796948
2547.790125	-3.011700	3.036800	-9.144500	28.518084	4.966866E-6	20.784897
2548.792548	-2.982400	3.036800	-9.056100	28.543091	4.339819E-6	20.792537
2549.790776	-2.982500	3.034700	-9.049300	28.574811	3.118730E-6	20.802671
2550.790250	-3.001600	3.033900	-9.105800	28.520193	1.501611E-6	20.787020
2551.791609	-2.991300	3.032500	-9.069800	28.452691	3.943790E-6	20.781631
2552.796041	-3.021500	3.030500	-9.155700	28.472446	4.834856E-6	20.790146
2553.794797	-3.036700	3.029400	-9.197700	28.541879	3.019722E-6	20.792739
2554.797653	-3.007600	3.027400	-9.104500	28.527877	3.745776E-6	20.785276
2555.792919	-2.977100	3.028700	-9.015800	28.529642	4.372822E-6	20.790372
2556.793538	-2.991500	3.025900	-9.050900	28.576253	6.781999E-6	20.795114
2557.793773	-2.972400	3.025000	-8.990200	28.554297	2.260666E-6	20.799080
2558.791993	-2.995700	3.024300	-9.058100	28.495124	3.877785E-6	20.785483
2559.794047	-2.998700	3.022500	-9.062700	28.459938	3.052725E-6	20.772334
2560.798326	-2.991100	3.021100	-9.035400	28.507489	1.864637E-6	20.774226
2561.794162	-3.010800	3.020300	-9.091800	28.580416	2.623693E-6	20.797885
2562.797470	-2.994500	3.017400	-9.034300	28.551251	3.712773E-6	20.788426
2563.799243	-3.022900	3.015100	-9.112500	28.549167	3.547761E-6	20.775896
2564.797074	-2.985500	3.015700	-9.002900	28.516656	1.501611E-6	20.804795
2565.796850	-3.014600	3.014300	-9.086100	28.507137	3.349747E-6	20.775768
2566.802068	-3.004800	3.012000	-9.049200	28.502678	3.382749E-6	20.782184
2567.796417	-3.004100	3.011100	-9.044700	28.528475	4.273815E-6	20.783982
2568.797315	-2.997000	3.009800	-9.019300	28.584522	3.943790E-6	20.772148
2569.800262	-3.001900	3.008000	-9.028900	28.624588	3.844783E-6	20.794483
2570.796455	-3.018100	3.007000	-9.074700	28.652167	1.831635E-6	20.793337
2571.797335	-2.993200	3.005400	-8.994900	28.693717	3.217737E-6	20.759321
2572.800107	-3.013500	3.004100	-9.052200	28.777576	4.042798E-6	20.788789
2573.797349	-3.001800	3.002100	-9.010500	28.737021	1.996647E-6	20.795827
2574.797064	-2.955800	3.001700	-8.871700	28.767343	2.623693E-6	20.780852
2575.801743	-3.004600	3.000000	-9.013100	28.801034	3.646768E-6	20.802935
2576.795574	-2.989600	2.998800	-8.964200	28.785152	2.953717E-6	20.771764
2577.797791	-3.008300	2.997500	-9.016300	28.798631	3.382749E-6	20.782971
2578.803485	-3.037200	2.996100	-9.099200	28.874284	2.722700E-6	20.801335
2579.797056	-3.014400	2.993400	-9.022500	28.780543	1.534613E-6	20.769966
2580.798974	-3.002900	2.993300	-8.987500	28.721056	5.445401E-7	20.776902
2581.803435	-2.977400	2.992400	-8.908000	28.681636	2.755703E-6	20.767068
2582.799294	-2.985300	2.991300	-8.928300	28.634908	4.702846E-6	20.792549
2583.800983	-3.018200	2.988700	-9.019700	28.617567	2.590691E-6	20.778877
2584.803448	-2.980700	2.989300	-8.909200	28.608966	1.237591E-6	20.797715
2585.800475	-2.982600	2.987400	-8.909400	28.588525	4.108802E-6	20.794672
2586.800867	-3.019400	2.984800	-9.011800	28.565088	2.475182E-7	20.781499
2587.803282	-3.031500	2.982700	-9.040000	28.629464	2.425679E-6	20.789910
2588.802363	-2.995900	2.981300	-8.931000	28.623343	-8.250608E-8	20.764780
2589.802746	-3.014600	2.980600	-8.984500	28.632370	1.666623E-6	20.774346
2590.805370	-2.971800	2.979600	-8.852900	28.662790	2.260666E-6	20.762310
2591.802429	-3.013400	2.977700	-8.971600	28.674391	2.590691E-6	20.783953
2592.802539	-3.016000	2.977000	-8.977800	28.663019	2.854710E-6	20.777240
2593.808111	-2.990900	2.974100	-8.895100	28.703504	1.402603E-6	20.765386
2594.803526	-3.006600	2.973700	-8.939300	28.700930	1.369601E-6	20.781285
2595.804084	-2.981900	2.972900	-8.864000	28.739661	5.115377E-7	20.777624
2596.808495	-2.997000	2.971100	-8.903800	28.678837	1.171586E-6	20.758558
2597.802576	-2.979800	2.968800	-8.846300	28.717115	1.138584E-6	20.760129
2598.804915	-2.940900	2.968400	-8.728800	28.835317	3.019722E-6	20.770141
2599.805626	-3.002700	2.966000	-8.905000	28.903990	2.326671E-6	20.771992
2600.802917	-2.974000	2.966300	-8.820500	28.886776	1.963645E-6	20.751331
2601.804163	-3.005100	2.962300	-8.901100	28.876205	1.105581E-6	20.782882
2602.805802	-3.013300	2.961900	-8.924300	28.790540	-1.650122E-8	20.765812
2603.807998	-3.009300	2.959300	-8.903800	28.717108	1.897640E-6	20.788572
2604.803889	-3.007400	2.957800	-8.894400	28.702666	3.580764E-6	20.755533
2605.808543	-3.007600	2.956700	-8.891300	28.749494	2.062652E-6	20.763821
2606.807125	-2.977200	2.955100	-8.797000	28.763002	1.270594E-6	20.769366
2607.807026	-2.991400	2.953100	-8.832700	28.758913	1.534613E-6	20.757661
2608.808194	-2.988500	2.951900	-8.820500	28.685482	1.303596E-6	20.761932
2609.811762	-2.989900	2.950800	-8.821800	28.631001	1.171586E-6	20.759690
2610.806802	-2.997500	2.949700	-8.840900	28.582608	1.204589E-6	20.767849
2611.810580	-3.000400	2.947200	-8.842100	28.607883	5.115377E-7	20.751105
2612.806168	-3.013900	2.944800	-8.874700	28.665944	1.270594E-6	20.768332
2613.807610	-3.014700	2.944700	-8.875800	28.755238	-1.105581E-6	20.753959
2614.810021	-3.034200	2.941100	-8.923200	28.856320	3.465255E-7	20.746253
2615.807443	-3.007600	2.940700	-8.843700	28.935120	2.062652E-6	20.754042
2616.809458	-3.008200	2.939200	-8.841100	28.853852	-1.650122E-8	20.776959
2617.808539	-2.997300	2.938300	-8.805500	28.806563	3.795279E-7	20.747812
2618.809679	-3.000900	2.936700	-8.810900	28.803219	6.105450E-7	20.762936
2619.808471	-3.052100	2.932700	-8.949200	28.848184	-1.815134E-7	20.759394
2620.809199	-2.989700	2.934000	-8.771600	28.887704	6.105450E-7	20.754637
2621.807819	-2.993100	2.932800	-8.777400	28.921449	1.485109E-7	20.757338
2622.810167	-3.024900	2.929600	-8.860800	28.902496	2.029649E-6	20.746304
2623.810840	-3.023400	2.927600	-8.850600	28.842406	1.699625E-6	20.748832
2624.809620	-2.991400	2.927300	-8.755100	28.888143	9.735717E-7	20.746544
2625.809618	-3.016200	2.925000	-8.822000	28.931423	6.765498E-7	20.748420
2626.813403	-3.000300	2.923100	-8.769000	28.864124	1.765630E-6	20.725190
2627.810247	-2.960800	2.921900	-8.650000	28.843148	-2.805207E-7	20.731561
2628.810436	-2.987700	2.921300	-8.726500	28.845055	-3.465255E-7	20.737276
2629.813353	-3.011400	2.918200	-8.786400	28.922470	-4.455328E-7	20.769746
2630.811784	-3.005600	2.916500	-8.764100	28.979503	1.864637E-6	20.740435
2631.812343	-3.024900	2.914000	-8.812700	29.008264	2.475182E-7	20.766568
2632.812534	-2.987000	2.913500	-8.701700	29.017705	-4.455328E-7	20.732931
2633.811841	-2.988600	2.912000	-8.702200	29.031885	5.445401E-7	20.748642
2634.813902	-2.981800	2.910900	-8.677800	28.998321	2.145158E-7	20.729996
2635.815498	-3.029800	2.907300	-8.806700	28.993623	-1.930642E-6	20.727160
2636.810016	-3.006900	2.905200	-8.735100	28.953301	3.547761E-6	20.749125
2637.810979	-2.992200	2.904700	-8.690100	28.980651	-1.815134E-7	20.735428
2638.821609	-3.004600	2.902400	-8.720400	29.000995	-2.805207E-7	20.732690
2639.810987	-3.002900	2.900600	-8.709300	29.022696	9.075668E-7	20.736063
2640.811458	-2.997300	2.898200	-8.686000	28.997337	2.805207E-7	20.744178
2641.814942	-2.994000	2.897600	-8.674700	28.935346	-2.062652E-6	20.731034
2642.811471	-2.986800	2.895000	-8.646100	28.873175	-7.095522E-7	20.734308
2643.810327	-3.007000	2.893400	-8.699700	28.953783	1.798632E-6	20.746291
2644.814042	-3.006800	2.889900	-8.688500	29.023463	-1.402603E-6	20.726879
2645.810626	-2.998700	2.890300	-8.666500	29.032041	5.775425E-7	20.740738
2646.810529	-2.998300	2.888200	-8.658200	28.913326	-9.735717E-7	20.742989
2647.813064	-2.994100	2.887200	-8.643800	28.852688	3.135231E-7	20.724575
2648.810654	-3.024800	2.884200	-8.722900	28.845211	-1.815134E-7	20.724155
2649.817803	-3.028200	2.881200	-8.724300	28.828148	-6.765498E-7	20.705543
2650.816558	-3.000000	2.881100	-8.642600	28.793071	2.326671E-6	20.726160
2651.812036	-2.943100	2.879200	-8.472200	28.845626	1.815134E-7	20.703709
2652.812123	-2.994200	2.876600	-8.611500	28.917539	4.455328E-7	20.724000
2653.816898	-2.987100	2.875300	-8.588300	29.012762	-2.475182E-7	20.738383
2654.811615	-3.019200	2.873400	-8.674100	29.111668	-6.765498E-7	20.724715
2655.812345	-3.011900	2.872100	-8.649200	29.092375	-3.795279E-7	20.731353
2656.815344	-3.020800	2.869400	-8.666600	29.066497	3.135231E-7	20.720452
2657.812351	-2.994200	2.867800	-8.585500	29.016771	-1.435606E-6	20.717290
2658.813941	-2.994600	2.864900	-8.578600	28.981548	-9.735717E-7	20.721158
2659.816734	-2.978500	2.864400	-8.530600	28.880884	-4.950365E-8	20.750136
2660.813353	-2.981600	2.862200	-8.533300	28.857654	-4.125304E-7	20.739536
2661.813405	-2.985900	2.859100	-8.535700	28.789678	-2.805207E-7	20.733648
2662.815549	-3.008300	2.857600	-8.596000	28.857909	-2.821708E-6	20.715135
2663.813975	-3.006500	2.854800	-8.582200	28.958658	2.475182E-7	20.743615
2664.811698	-3.007100	2.852700	-8.577100	29.045377	-1.435606E-6	20.734734
2665.817067	-2.999800	2.852100	-8.555200	29.078347	-4.950365E-8	20.741876
2666.813100	-2.994000	2.849800	-8.531600	29.136952	-6.105450E-7	20.731700
2667.814850	-3.006700	2.847600	-8.561100	29.211252	-8.250608E-8	20.729759
2668.817789	-2.966100	2.845400	-8.439000	29.232233	5.115377E-7	20.731462
2669.813838	-3.005200	2.842100	-8.540400	29.285399	-6.435474E-7	20.727669
2670.813381	-2.999800	2.841000	-8.521300	29.238501	-4.455328E-7	20.728770
2671.822548	-3.003400	2.839400	-8.527500	29.283130	3.795279E-7	20.732020
2672.815103	-3.027500	2.837000	-8.588300	29.237962	9.405693E-7	20.732494
2673.815691	-3.005100	2.835400	-8.518800	29.180367	-8.085595E-7	20.735620
2674.817684	-2.996600	2.830700	-8.481200	29.135964	-2.854710E-6	20.724541
2675.813656	-3.020300	2.830000	-8.546600	29.086981	-2.805207E-7	20.741093
2676.815207	-2.991200	2.829300	-8.462200	29.006887	-1.402603E-6	20.727721
2677.821503	-3.010700	2.826700	-8.509400	29.034334	1.155085E-7	20.731668
2678.815770	-3.021600	2.824100	-8.532100	29.057271	-1.105581E-6	20.750985
2679.818086	-2.993100	2.821600	-8.444300	29.115597	8.415620E-7	20.735313
2680.818748	-3.004400	2.818500	-8.467500	29.127370	1.798632E-6	20.732951
2681.817982	-2.974000	2.815800	-8.373100	29.083554	-1.105581E-6	20.748545
2682.816689	-3.010400	2.812000	-8.464400	29.117591	-1.815134E-7	20.742064
2683.823936	-2.996600	2.811400	-8.423900	29.056044	1.897640E-6	20.722722
2684.822104	-2.992700	2.808500	-8.403300	29.089833	1.765630E-6	20.747759
2685.820039	-2.997100	2.805900	-8.408900	29.174876	1.501611E-6	20.724870
2686.825275	-2.996400	2.804000	-8.401100	29.241821	-1.815134E-7	20.730219
2687.822928	-2.996900	2.801600	-8.395100	29.285753	2.260666E-6	20.729448
2688.821215	-3.001400	2.797600	-8.396400	29.292169	2.359674E-6	20.735440
2689.825689	-3.031600	2.794600	-8.471000	29.187696	-9.735717E-7	20.724039
2690.821488	-2.990200	2.793500	-8.352500	29.162091	-4.125304E-7	20.738067
2691.823124	-3.015300	2.789500	-8.410500	29.213428	7.425547E-7	20.731004
2692.827374	-2.992900	2.786600	-8.338400	29.276500	-3.795279E-7	20.755686
2693.823164	-3.020600	2.783400	-8.406200	29.283067	1.699625E-6	20.720102
2694.825375	-3.017900	2.781600	-8.393800	29.258925	-1.732628E-6	20.733231
2695.829793	-3.010400	2.779200	-8.365100	29.196298	-8.745644E-7	20.746933
2696.826306	-3.013900	2.775300	-8.363400	29.232606	1.138584E-6	20.739899
2697.828096	-3.021400	2.773300	-8.377900	29.229910	-8.745644E-7	20.737656
2698.830145	-3.004900	2.769500	-8.319900	29.192866	-1.798632E-6	20.734940
2699.827841	-3.027700	2.766300	-8.374700	29.192548	2.145158E-7	20.745050
2700.828541	-3.034400	2.763500	-8.384200	29.201091	2.128657E-6	20.759824
2701.829392	-3.003900	2.761300	-8.293600	29.224940	4.125304E-7	20.742605
2702.826254	-3.008200	2.757400	-8.294400	29.225959	2.953717E-6	20.740787
2703.831983	-3.005700	2.756100	-8.283400	29.336705	1.369601E-6	20.735754
2704.829550	-2.992100	2.751400	-8.231000	29.394839	8.415620E-7	20.727490
2705.826398	-3.022400	2.748600	-8.306800	29.371788	1.930642E-6	20.754993
2706.827659	-2.975800	2.745900	-8.169600	29.303277	1.831635E-6	20.733832
2707.831419	-3.012400	2.741100	-8.255400	29.338439	1.105581E-6	20.730864
2708.830534	-2.980600	2.738900	-8.162300	29.377810	5.115377E-7	20.727396
2709.831375	-2.968000	2.736500	-8.121000	29.422060	1.815134E-7	20.733116
2710.837395	-3.000300	2.732000	-8.195900	29.490490	1.039577E-6	20.740925
2711.831875	-3.011700	2.728500	-8.216300	29.411515	1.699625E-6	20.741928
2712.835276	-3.015200	2.724900	-8.214700	29.389458	2.095654E-6	20.732498
2713.832528	-2.993200	2.722200	-8.147600	29.423853	1.963645E-6	20.719749
2714.830883	-3.024500	2.718000	-8.219200	29.431429	-1.815134E-7	20.748250
2715.833293	-2.996700	2.715200	-8.136100	29.437471	7.095522E-7	20.747701
2716.833213	-3.035700	2.710800	-8.227900	29.394814	1.204589E-6	20.728413
2717.832359	-2.983200	2.707300	-8.074300	29.404791	5.445401E-7	20.754117
2718.833596	-3.014500	2.703600	-8.149400	29.373100	2.260666E-6	20.754419
2719.836011	-2.980800	2.700200	-8.047500	29.416062	2.805207E-7	20.741769
2720.838690	-3.008400	2.694100	-8.104000	29.513906	1.171586E-6	20.753623
2721.832155	-2.981600	2.690900	-8.022500	29.579885	1.666623E-6	20.747113
2722.834895	-2.965300	2.687600	-7.968700	29.624739	2.029649E-6	20.745389
2723.832891	-2.999800	2.683600	-8.048700	29.660018	1.699625E-6	20.743497
2724.834862	-3.012800	2.679200	-8.071100	29.605705	-1.650122E-8	20.761763
2725.834877	-2.992300	2.674400	-8.002000	29.572805	9.735717E-7	20.752778
2726.832835	-2.982800	2.671600	-7.967500	29.521241	1.798632E-6	20.760069
2727.834971	-2.990000	2.666100	-7.970700	29.506316	2.128657E-6	20.753559
2728.837132	-2.995700	2.661300	-7.971600	29.540555	1.435606E-6	20.753460
2729.833559	-3.039500	2.657100	-8.075400	29.500965	2.524686E-6	20.751010
2730.833555	-2.997900	2.652800	-7.951600	29.556896	2.227664E-6	20.768510
2731.835685	-3.005500	2.647900	-7.957200	29.599948	-1.650122E-8	20.759752
2732.834362	-2.993200	2.644200	-7.913400	29.638765	-6.765498E-7	20.767591
2733.834692	-2.998600	2.640100	-7.915400	29.588561	1.930642E-6	20.749222
2734.838333	-3.000200	2.634000	-7.902300	29.590844	-6.435474E-7	20.772387
2735.836742	-3.001200	2.628500	-7.887600	29.615699	2.458681E-6	20.764726
2736.834983	-2.978500	2.625100	-7.817800	29.583764	2.788705E-6	20.739644
2737.837002	-2.983000	2.618400	-7.810300	29.599741	2.689698E-6	20.759544
2738.834537	-2.994000	2.613800	-7.825000	29.679423	2.260666E-6	20.768751
2739.835845	-2.980200	2.609500	-7.775300	29.680143	1.468608E-6	20.743398
2740.834694	-2.984200	2.602900	-7.767100	29.748237	1.798632E-6	20.763688
2741.835955	-2.998600	2.596700	-7.785900	29.810292	7.425547E-7	20.766987
2742.836051	-2.994200	2.592500	-7.761400	29.857067	1.963645E-6	20.763891
2743.838249	-3.014600	2.586900	-7.796900	29.908301	2.128657E-6	20.776199
2744.837399	-2.998500	2.580300	-7.736200	29.903158	6.105450E-7	20.775754
2745.836662	-2.962300	2.574900	-7.626300	29.813094	2.095654E-6	20.751320
2746.837186	-2.974600	2.570200	-7.644300	29.799413	2.392676E-6	20.777354
2747.836761	-3.003500	2.562800	-7.696400	29.890046	4.339819E-6	20.770593
2748.838823	-3.034200	2.556000	-7.754200	29.870247	2.458681E-6	20.742567
2749.839406	-2.982700	2.553100	-7.613900	29.838967	1.534613E-6	20.771719
2750.838522	-2.981500	2.546300	-7.590500	29.845629	4.240812E-6	20.766108
2751.840989	-3.007600	2.539900	-7.637800	29.786407	2.788705E-6	20.766137
2752.839818	-3.035900	2.531700	-7.685000	29.820715	3.646768E-6	20.777497
2753.838559	-2.992600	2.526900	-7.561700	29.836282	1.996647E-6	20.781814
2754.839832	-3.002600	2.521400	-7.569700	29.868533	1.006574E-6	20.769762
2755.841882	-2.988500	2.516000	-7.518200	29.854675	1.237591E-6	20.767643
2756.840052	-2.987700	2.508600	-7.493300	29.802704	1.765630E-6	20.751275
2757.839843	-2.972700	2.503200	-7.440400	29.792564	1.204589E-6	20.768078
2758.840212	-2.974100	2.497100	-7.425100	29.881537	1.204589E-6	20.754900
