LabVIEW Measurement	
Writer_Version	2
Reader_Version	2
Separator	Tab
Decimal_Separator	.
Multi_Headings	No
X_Columns	One
Time_Pref	Absolute
Operator	admin
Description	Clolumns are: time, Current, Voltage, Power, Battery Temp, and Chamber Temp
Date	2024/08/16
Time	13:07:17.8513970375061035156
***End_of_Header***	
	
Channels	6						
Samples	1	1	1	1	1	1	
Date	2024/08/28	2024/08/28	2024/08/28	2024/08/28	2024/08/28	2024/08/28	
Time	16:56:40.1543421745300292969	16:56:40.1602487564086914062	16:56:40.1652445793151855469	16:56:40.1378817558288574219	16:56:40.1378817558288574219	16:56:40.1378817558288574219	
X_Dimension	Time	Time	Time	Time	Time	Time	
X0	0.0000000000000000E+0	0.0000000000000000E+0	0.0000000000000000E+0	0.0000000000000000E+0	0.0000000000000000E+0	0.0000000000000000E+0	
Delta_X	1.000000	1.000000	1.000000	1.000000	1.000000	1.000000	
***End_of_Header***							
X_Value	Untitled	Untitled 1	Untitled 2	Untitled 3	Untitled 4	Untitled 5	Comment
0.000000	0.015505	4.089400	0.063409	20.768728	0.000453	20.651604
1.009704	-2.997100	3.929900	-11.778000	20.762490	0.000450	20.653427
2.020310	-3.005400	3.923900	-11.791000	20.766308	0.000449	20.643493
3.015125	-2.966400	3.920500	-11.628000	20.765957	0.000448	20.647409
4.014096	-2.985000	3.917900	-11.694000	20.776986	0.000451	20.654171
5.018113	-2.996100	3.912600	-11.722000	20.782374	0.000448	20.638220
6.018966	-3.000500	3.911400	-11.736000	20.788162	0.000448	20.652545
7.002823	-2.992400	3.909500	-11.697000	20.792275	0.000447	20.656658
8.000803	-2.994100	3.906800	-11.696000	20.786364	0.000446	20.646953
9.001093	-3.002400	3.905300	-11.724000	20.808993	0.000448	20.651565
10.019568	-3.006600	3.902600	-11.732000	20.799566	0.000445	20.628385
11.019633	-2.982000	3.902700	-11.637000	20.818328	0.000446	20.670386
12.024300	-3.007700	3.899200	-11.726000	20.815656	0.000444	20.639734
13.026554	-2.995800	3.899000	-11.680000	20.833828	0.000443	20.645105
14.021209	-3.002600	3.897700	-11.702000	20.837596	0.000443	20.652194
15.027072	-3.010800	3.896200	-11.730000	20.834597	0.000443	20.663420
16.021835	-3.005700	3.895100	-11.706000	20.832528	0.000442	20.643806
17.025606	-2.990400	3.896200	-11.651000	20.835046	0.000441	20.645850
18.005543	-2.990200	3.895500	-11.647000	20.846826	0.000442	20.640086
19.004698	-2.990000	3.892600	-11.638000	20.873149	0.000444	20.650764
20.021353	-2.984900	3.893500	-11.620000	20.863716	0.000440	20.648917
21.005170	-2.984600	3.891600	-11.613000	20.884405	0.000442	20.671981
22.006812	-2.996700	3.891500	-11.661000	20.881469	0.000441	20.639169
23.023080	-3.004500	3.888900	-11.683000	20.895008	0.000439	20.644649
24.022812	-3.012200	3.890700	-11.719000	20.907563	0.000441	20.649619
25.032003	-3.003300	3.888500	-11.677000	20.903468	0.000438	20.639359
26.025915	-2.992500	3.888500	-11.636000	20.923356	0.000438	20.649767
27.028259	-3.012600	3.886500	-11.708000	20.923731	0.000441	20.634968
28.026114	-2.987200	3.887300	-11.612000	20.935658	0.000439	20.631248
29.027163	-2.986700	3.887400	-11.609000	20.933084	0.000438	20.656177
30.022462	-3.003800	3.886200	-11.672000	20.971934	0.000440	20.653782
31.023547	-3.009000	3.885300	-11.690000	20.949867	0.000438	20.638821
32.023994	-3.006300	3.886300	-11.683000	20.948132	0.000438	20.649890
33.033675	-3.004000	3.884600	-11.668000	20.937122	0.000437	20.650259
34.025424	-2.997000	3.885600	-11.644000	20.972728	0.000438	20.643195
35.009502	-3.004900	3.884000	-11.670000	20.989992	0.000437	20.665679
36.029346	-2.987300	3.883600	-11.600000	21.016613	0.000437	20.669547
37.010136	-2.978300	3.883400	-11.565000	21.010327	0.000436	20.633858
38.010604	-2.991800	3.883400	-11.617000	20.998051	0.000434	20.663782
39.012061	-2.978300	3.883900	-11.567000	21.009527	0.000435	20.647283
40.009450	-2.982500	3.883200	-11.581000	21.031351	0.000436	20.652043
41.017117	-2.968500	3.883300	-11.527000	21.046465	0.000435	20.654358
42.014980	-2.994100	3.882100	-11.623000	21.024135	0.000435	20.662371
43.011645	-2.997400	3.880700	-11.631000	21.041416	0.000435	20.635081
44.013958	-2.988400	3.881900	-11.599000	21.059984	0.000434	20.652707
45.011417	-2.997500	3.881700	-11.634000	21.070905	0.000435	20.652251
46.019205	-2.973000	3.880600	-11.536000	21.077257	0.000433	20.631575
47.012590	-2.993500	3.879100	-11.611000	21.080225	0.000434	20.664419
48.011035	-2.993100	3.879500	-11.610000	21.082374	0.000434	20.653765
49.029755	-3.016900	3.878700	-11.700000	21.090401	0.000432	20.651363
50.027378	-2.972400	3.880400	-11.533000	21.111332	0.000434	20.667559
51.033497	-3.027400	3.877200	-11.737000	21.098828	0.000434	20.652680
52.033756	-2.979300	3.878400	-11.553000	21.123249	0.000435	20.651503
53.041291	-3.027900	3.879100	-11.745000	21.127810	0.000434	20.656541
54.033338	-2.995100	3.877500	-11.613000	21.128383	0.000433	20.642887
55.017914	-2.996700	3.878300	-11.620000	21.147108	0.000433	20.655930
56.015423	-2.990000	3.879100	-11.597000	21.156016	0.000433	20.665315
57.014764	-2.996800	3.877600	-11.620000	21.168986	0.000435	20.644622
58.019462	-3.006300	3.877900	-11.657000	21.166764	0.000435	20.667532
59.014493	-3.008100	3.875800	-11.658000	21.200485	0.000435	20.649579
60.018149	-3.023100	3.875700	-11.716000	21.188536	0.000434	20.660862
61.015181	-3.006400	3.876200	-11.652000	21.198034	0.000434	20.659931
62.031151	-3.004800	3.877300	-11.650000	21.210105	0.000434	20.660152
63.017962	-2.990600	3.876100	-11.591000	21.213725	0.000435	20.663774
64.031426	-3.003200	3.875800	-11.638000	21.222256	0.000434	20.681319
65.015820	-3.007400	3.874100	-11.650000	21.220427	0.000434	20.651511
66.014872	-3.016300	3.874400	-11.685000	21.257545	0.000432	20.659721
67.014721	-2.995300	3.875900	-11.609000	21.261817	0.000436	20.659253
68.019470	-2.985500	3.876300	-11.572000	21.264900	0.000434	20.668028
69.016104	-2.989200	3.874100	-11.579000	21.273905	0.000435	20.661863
70.017388	-2.991900	3.873800	-11.589000	21.270310	0.000435	20.690987
71.036578	-2.979100	3.874400	-11.542000	21.291983	0.000435	20.692279
72.016138	-2.994800	3.873700	-11.600000	21.299664	0.000435	20.656813
73.021646	-2.986900	3.874600	-11.573000	21.296136	0.000435	20.677941
74.020640	-2.994200	3.872800	-11.596000	21.307697	0.000435	20.660107
75.016482	-2.995500	3.873700	-11.603000	21.310723	0.000435	20.664084
76.018212	-2.982700	3.874900	-11.557000	21.326241	0.000436	20.681033
77.017800	-2.990900	3.871900	-11.579000	21.335818	0.000432	20.656472
78.018477	-2.990200	3.873000	-11.580000	21.368519	0.000435	20.677812
79.018569	-3.018500	3.872900	-11.690000	21.371650	0.000435	20.689007
80.017602	-3.003800	3.872500	-11.632000	21.361624	0.000436	20.678026
81.021004	-3.006900	3.872400	-11.643000	21.369909	0.000434	20.682996
82.019650	-3.003100	3.872400	-11.629000	21.391351	0.000435	20.670309
83.018783	-3.003500	3.871000	-11.626000	21.396441	0.000434	20.674928
84.021834	-2.998400	3.871900	-11.608000	21.393745	0.000434	20.693095
85.021691	-2.993400	3.872100	-11.590000	21.412049	0.000434	20.671103
86.018968	-3.021400	3.870900	-11.694000	21.408633	0.000433	20.681911
87.021276	-3.009000	3.870700	-11.646000	21.405414	0.000434	20.683432
88.040874	-2.991800	3.871400	-11.581000	21.436611	0.000434	20.695207
89.046723	-3.000900	3.871200	-11.615000	21.428450	0.000437	20.699369
90.051156	-2.983400	3.871100	-11.548000	21.437910	0.000434	20.690342
91.046006	-3.003100	3.872100	-11.628000	21.454285	0.000433	20.684441
92.045367	-2.986000	3.871700	-11.560000	21.465652	0.000435	20.694867
93.059370	-2.990900	3.870100	-11.574000	21.460766	0.000435	20.701358
94.024113	-2.993100	3.870900	-11.584000	21.491266	0.000437	20.692994
95.044178	-3.006600	3.869800	-11.633000	21.495007	0.000436	20.684410
96.041023	-3.027300	3.868300	-11.709000	21.514078	0.000435	20.698752
97.047259	-2.994900	3.870600	-11.591000	21.503284	0.000435	20.699331
98.046842	-2.982000	3.870900	-11.542000	21.517026	0.000438	20.694589
99.050799	-3.017500	3.869100	-11.674000	21.534707	0.000436	20.659172
100.032640	-2.998600	3.869900	-11.604000	21.525229	0.000438	20.697108
101.030302	-2.987800	3.870000	-11.562000	21.515272	0.000438	20.688091
102.042803	-2.992800	3.869400	-11.580000	21.542755	0.000436	20.693782
103.035016	-2.976500	3.869800	-11.517000	21.546300	0.000439	20.665084
104.027627	-3.010400	3.868500	-11.645000	21.542170	0.000438	20.707895
105.043971	-2.999700	3.868200	-11.603000	21.573671	0.000438	20.684888
106.028320	-2.982500	3.869000	-11.538000	21.612174	0.000440	20.703979
107.028120	-2.983200	3.867700	-11.537000	21.595713	0.000437	20.696989
108.054475	-3.002400	3.867900	-11.612000	21.584913	0.000439	20.704675
109.036127	-3.005000	3.868000	-11.623000	21.594292	0.000441	20.688454
110.036439	-3.002000	3.866800	-11.607000	21.598721	0.000440	20.694784
111.055082	-3.012400	3.867400	-11.649000	21.610714	0.000442	20.688292
112.046232	-2.994700	3.867600	-11.581000	21.644306	0.000440	20.700098
113.046203	-2.983300	3.868600	-11.540000	21.659240	0.000440	20.706983
114.054644	-3.022500	3.867700	-11.688000	21.658963	0.000439	20.687738
115.049926	-3.014100	3.865900	-11.651000	21.638238	0.000442	20.701138
116.032479	-3.012400	3.866800	-11.647000	21.667263	0.000441	20.687035
117.033600	-2.987700	3.867000	-11.553000	21.690244	0.000442	20.701975
118.031329	-3.021300	3.865900	-11.678000	21.683783	0.000442	20.706415
119.037871	-3.011900	3.866000	-11.643000	21.684934	0.000443	20.715628
120.031267	-3.002300	3.866200	-11.607000	21.688268	0.000442	20.697626
121.032155	-2.986900	3.865900	-11.547000	21.693277	0.000442	20.711174
122.032184	-2.998900	3.865800	-11.591000	21.725912	0.000443	20.718705
123.054840	-3.029500	3.865600	-11.709000	21.712769	0.000443	20.714561
124.032590	-2.992000	3.865400	-11.565000	21.715433	0.000443	20.712011
125.037344	-3.008100	3.865500	-11.627000	21.724452	0.000443	20.703493
126.033203	-2.989900	3.864200	-11.553000	21.734542	0.000444	20.702686
127.033616	-2.998700	3.863700	-11.586000	21.755788	0.000442	20.717786
128.038554	-2.978200	3.864900	-11.510000	21.767028	0.000444	20.713389
129.033167	-2.992900	3.865000	-11.567000	21.776097	0.000443	20.721517
130.055380	-2.977400	3.865500	-11.508000	21.785947	0.000441	20.698657
131.049813	-2.986200	3.864200	-11.538000	21.796387	0.000444	20.717643
132.054168	-2.979100	3.864500	-11.512000	21.817035	0.000446	20.699901
133.058949	-3.012600	3.863700	-11.639000	21.806754	0.000444	20.718061
134.054071	-2.992600	3.863500	-11.561000	21.831708	0.000445	20.719329
135.063333	-3.002200	3.864500	-11.601000	21.816499	0.000446	20.717858
136.034742	-3.011700	3.863300	-11.634000	21.847088	0.000445	20.730931
137.043494	-2.992500	3.863300	-11.560000	21.824693	0.000446	20.695237
138.039933	-2.993700	3.863700	-11.566000	21.848847	0.000448	20.715147
139.040075	-2.980900	3.862600	-11.513000	21.855879	0.000446	20.726928
140.036011	-3.013800	3.863300	-11.642000	21.840639	0.000445	20.724002
141.059554	-2.995600	3.864200	-11.575000	21.865469	0.000444	20.716138
142.065668	-2.993900	3.861700	-11.561000	21.872378	0.000447	20.716889
143.052583	-2.976200	3.862600	-11.495000	21.857939	0.000447	20.728990
144.054072	-2.989500	3.863400	-11.548000	21.876260	0.000448	20.718403
145.066121	-3.029000	3.861100	-11.694000	21.891615	0.000448	20.725713
146.040075	-2.984600	3.862100	-11.526000	21.894310	0.000448	20.723195
147.054066	-2.989100	3.861600	-11.542000	21.904756	0.000447	20.736022
148.037120	-3.016100	3.861500	-11.646000	21.916714	0.000448	20.740880
149.063822	-3.015800	3.861100	-11.643000	21.930704	0.000449	20.724537
150.061808	-3.014700	3.859500	-11.634000	21.936511	0.000448	20.722763
151.060932	-3.002100	3.860400	-11.588000	21.932371	0.000449	20.736637
152.056639	-3.014500	3.859900	-11.636000	21.929774	0.000450	20.744470
153.041363	-2.991100	3.862200	-11.551000	21.982359	0.000449	20.749218
154.051988	-3.001100	3.860600	-11.584000	21.985699	0.000451	20.743553
155.042586	-3.003700	3.860000	-11.593000	21.972535	0.000452	20.745548
156.041311	-2.960800	3.862000	-11.433000	21.976805	0.000452	20.735597
157.043612	-2.973900	3.861000	-11.482000	21.982562	0.000451	20.737568
158.040353	-3.010800	3.860000	-11.621000	22.000789	0.000452	20.748228
159.044887	-2.966300	3.861100	-11.452000	22.002653	0.000452	20.742032
160.042115	-2.984900	3.861500	-11.525000	22.025812	0.000452	20.739138
161.041807	-3.003700	3.858300	-11.588000	22.026311	0.000454	20.727782
162.043647	-2.990800	3.859900	-11.543000	22.047361	0.000453	20.733208
163.042250	-2.988700	3.858300	-11.530000	22.058027	0.000454	20.731083
164.042243	-3.001100	3.858900	-11.580000	22.027468	0.000454	20.747908
165.042811	-2.999000	3.858700	-11.571000	22.049428	0.000455	20.734329
166.043322	-3.005900	3.857400	-11.593000	22.051255	0.000454	20.752280
167.048440	-3.019400	3.857500	-11.646000	22.069197	0.000454	20.736577
168.046765	-2.984700	3.858600	-11.516000	22.061767	0.000455	20.743837
169.041884	-3.003600	3.857600	-11.586000	22.067155	0.000455	20.748758
170.050318	-2.982200	3.859400	-11.509000	22.091728	0.000456	20.763875
171.078193	-3.015000	3.857300	-11.628000	22.111048	0.000456	20.761880
172.059277	-2.984800	3.858900	-11.517000	22.090030	0.000457	20.765969
173.045856	-3.002200	3.857000	-11.578000	22.094324	0.000459	20.734705
174.044775	-3.027300	3.855300	-11.670000	22.106287	0.000457	20.746682
175.043533	-3.008900	3.856600	-11.604000	22.127126	0.000456	20.740518
176.046809	-2.995700	3.856100	-11.550000	22.117955	0.000456	20.737500
177.043724	-3.010000	3.855600	-11.605000	22.138991	0.000459	20.747181
178.062407	-2.998100	3.856900	-11.563000	22.149508	0.000458	20.744908
179.048247	-2.999000	3.856200	-11.564000	22.135977	0.000457	20.741318
180.044333	-2.997400	3.855600	-11.556000	22.157289	0.000459	20.780674
181.063854	-3.009300	3.856200	-11.603000	22.151304	0.000459	20.741491
182.063595	-3.012600	3.855400	-11.614000	22.139243	0.000462	20.749804
183.062324	-3.011400	3.855300	-11.609000	22.175801	0.000459	20.752267
184.048477	-2.998200	3.855200	-11.557000	22.179338	0.000458	20.752488
185.047402	-2.997600	3.855200	-11.555000	22.198404	0.000458	20.754508
186.047290	-3.009300	3.855200	-11.601000	22.209148	0.000463	20.767163
187.049732	-2.991700	3.854400	-11.529000	22.208527	0.000461	20.775076
188.046904	-2.996400	3.853600	-11.546000	22.229912	0.000463	20.749071
189.047787	-2.989200	3.856400	-11.526000	22.235317	0.000463	20.751639
190.046883	-3.026600	3.852600	-11.659000	22.226369	0.000462	20.764016
191.066643	-3.008300	3.853800	-11.592000	22.230575	0.000463	20.763960
192.056081	-2.959400	3.854100	-11.405000	22.252531	0.000463	20.757968
193.065315	-2.986000	3.853500	-11.506000	22.254604	0.000463	20.761466
194.067770	-2.988700	3.853900	-11.518000	22.278625	0.000465	20.760863
195.067178	-3.002000	3.852500	-11.564000	22.277696	0.000463	20.763725
196.077535	-3.005200	3.853500	-11.580000	22.266829	0.000466	20.768492
197.050728	-2.984700	3.853300	-11.500000	22.290229	0.000464	20.778646
198.052536	-3.033700	3.851600	-11.684000	22.301545	0.000463	20.757734
199.058246	-3.012000	3.851900	-11.601000	22.297756	0.000464	20.777648
200.055512	-2.999500	3.852100	-11.554000	22.291840	0.000466	20.775517
201.051263	-3.011700	3.852700	-11.601000	22.313924	0.000467	20.758749
202.068306	-3.025200	3.851200	-11.650000	22.312773	0.000467	20.757597
203.069925	-3.006100	3.851600	-11.578000	22.328603	0.000466	20.777241
204.069783	-3.009000	3.851900	-11.590000	22.328922	0.000468	20.789890
205.078034	-2.979600	3.851800	-11.476000	22.320374	0.000466	20.758570
206.073377	-2.991200	3.850900	-11.518000	22.349203	0.000468	20.775110
207.069083	-3.000600	3.851500	-11.555000	22.345913	0.000467	20.765651
208.082607	-2.993400	3.851200	-11.527000	22.365376	0.000467	20.775184
209.067266	-3.019500	3.850300	-11.626000	22.376186	0.000469	20.791699
210.053296	-3.005600	3.851400	-11.575000	22.377908	0.000468	20.783940
211.069597	-2.992600	3.849200	-11.518000	22.383135	0.000467	20.778742
212.054506	-2.990800	3.851000	-11.516000	22.375117	0.000470	20.799162
213.070303	-3.021700	3.849500	-11.630000	22.402432	0.000470	20.783842
214.068135	-2.974400	3.850300	-11.451000	22.402130	0.000472	20.783066
215.072844	-3.030800	3.849700	-11.667000	22.396933	0.000472	20.795879
216.059811	-2.989600	3.850000	-11.509000	22.421474	0.000472	20.808127
217.054357	-2.999900	3.848500	-11.544000	22.412491	0.000474	20.795338
218.053670	-2.971300	3.850000	-11.438000	22.423018	0.000476	20.789758
219.053618	-2.985300	3.850200	-11.492000	22.439694	0.000473	20.807881
220.054465	-3.012900	3.847900	-11.593000	22.448308	0.000473	20.788532
221.058407	-3.004100	3.848700	-11.561000	22.454193	0.000473	20.804383
222.055283	-2.996900	3.850100	-11.537000	22.475443	0.000475	20.784887
223.057721	-2.987200	3.849200	-11.498000	22.482324	0.000476	20.799838
224.057054	-3.000700	3.848100	-11.546000	22.482668	0.000476	20.789277
225.057037	-3.002300	3.847500	-11.551000	22.465967	0.000475	20.788673
226.057056	-2.996700	3.847100	-11.527000	22.487869	0.000473	20.797805
227.081094	-2.992800	3.847900	-11.515000	22.496367	0.000475	20.802522
228.083527	-2.993200	3.846700	-11.513000	22.496564	0.000477	20.806986
229.073793	-3.000300	3.847300	-11.543000	22.508270	0.000476	20.811598
230.075821	-3.014600	3.847100	-11.595000	22.527085	0.000477	20.815743
231.089112	-3.005500	3.845600	-11.556000	22.546212	0.000475	20.808346
232.072659	-2.980300	3.846700	-11.463000	22.545013	0.000476	20.811887
233.077071	-2.969100	3.847100	-11.422000	22.576063	0.000476	20.799836
234.073824	-2.994400	3.846500	-11.517000	22.561208	0.000477	20.811511
235.059120	-3.002300	3.844900	-11.543000	22.546581	0.000477	20.822940
236.058242	-3.021000	3.845200	-11.615000	22.594716	0.000477	20.829424
237.060658	-2.998400	3.844300	-11.526000	22.623741	0.000479	20.815347
238.062963	-2.966300	3.846000	-11.407000	22.609139	0.000480	20.810205
239.060127	-2.998600	3.843500	-11.524000	22.622542	0.000477	20.801818
240.061378	-2.997200	3.844600	-11.523000	22.622461	0.000480	20.832557
241.075553	-3.012400	3.843300	-11.576000	22.623629	0.000479	20.837520
242.095859	-2.999100	3.843300	-11.526000	22.636706	0.000478	20.801306
243.061780	-2.989000	3.843900	-11.488000	22.618741	0.000481	20.799434
244.062599	-3.009200	3.843000	-11.563000	22.642608	0.000480	20.814330
245.059041	-3.000500	3.844000	-11.533000	22.683220	0.000480	20.818024
246.067834	-3.004600	3.844400	-11.550000	22.675566	0.000480	20.832168
247.060062	-2.986500	3.843600	-11.478000	22.693203	0.000481	20.843671
248.064219	-2.997800	3.842500	-11.519000	22.700980	0.000481	20.822538
249.062831	-2.988500	3.842100	-11.481000	22.701717	0.000482	20.812845
250.062108	-2.986700	3.843300	-11.478000	22.687836	0.000482	20.801311
251.065586	-2.984300	3.843600	-11.470000	22.677330	0.000484	20.833461
252.062177	-3.011900	3.840300	-11.565000	22.705953	0.000483	20.822777
253.065399	-2.989000	3.842900	-11.486000	22.697352	0.000481	20.832654
254.061074	-2.981200	3.842900	-11.455000	22.687682	0.000484	20.835769
255.060965	-3.007000	3.842000	-11.552000	22.699197	0.000484	20.816010
256.061191	-3.007500	3.840500	-11.549000	22.723166	0.000484	20.815363
257.064732	-2.993500	3.840800	-11.496000	22.718039	0.000483	20.848159
258.062603	-3.001000	3.841300	-11.527000	22.733026	0.000482	20.830930
259.065022	-2.983700	3.840900	-11.459000	22.739001	0.000484	20.842604
260.062436	-2.986500	3.839400	-11.465000	22.728293	0.000488	20.831878
261.080543	-2.980100	3.839800	-11.442000	22.737409	0.000487	20.835320
262.079421	-3.009900	3.838400	-11.553000	22.748198	0.000486	20.825739
263.090492	-2.972900	3.839400	-11.413000	22.733924	0.000486	20.835622
264.081572	-3.007200	3.839700	-11.546000	22.740796	0.000486	20.841083
265.084532	-3.012300	3.840400	-11.568000	22.761777	0.000487	20.826065
266.078511	-2.990500	3.839600	-11.482000	22.764919	0.000488	20.836324
267.078824	-3.016000	3.838300	-11.575000	22.762976	0.000488	20.839594
268.063616	-3.008300	3.838700	-11.547000	22.788161	0.000486	20.842063
269.076111	-2.988400	3.839400	-11.473000	22.796109	0.000488	20.833904
270.063933	-2.986400	3.838600	-11.462000	22.806080	0.000488	20.834884
271.062848	-3.012500	3.837000	-11.558000	22.818934	0.000488	20.844914
272.063837	-3.004700	3.836400	-11.526000	22.814649	0.000487	20.851053
273.064019	-3.000900	3.836500	-11.512000	22.854586	0.000488	20.839853
274.067496	-2.998600	3.837700	-11.507000	22.861033	0.000490	20.844890
275.065159	-2.974600	3.837600	-11.415000	22.862060	0.000489	20.836910
276.079728	-2.978800	3.837000	-11.428000	22.850455	0.000490	20.839983
277.098598	-3.022400	3.835900	-11.593000	22.863056	0.000489	20.850235
278.086919	-2.979300	3.837000	-11.431000	22.898651	0.000489	20.839902
279.078340	-3.008100	3.836300	-11.539000	22.886794	0.000489	20.837033
280.082043	-3.022400	3.834800	-11.589000	22.879203	0.000491	20.834170
281.100584	-2.969500	3.836600	-11.392000	22.909893	0.000492	20.824139
282.079274	-3.022200	3.835100	-11.590000	22.922125	0.000489	20.832126
283.066343	-2.982500	3.836400	-11.441000	22.921049	0.000494	20.831048
284.066219	-2.984500	3.836200	-11.448000	22.931282	0.000493	20.840352
285.066256	-3.005700	3.834900	-11.526000	22.928480	0.000493	20.848924
286.082530	-3.015400	3.833900	-11.559000	22.907404	0.000494	20.826387
287.083738	-2.985100	3.835200	-11.448000	22.907379	0.000492	20.835845
288.088796	-3.009100	3.834100	-11.536000	22.912708	0.000493	20.830752
289.084171	-2.991400	3.834100	-11.467000	22.923323	0.000494	20.835697
290.089925	-2.988800	3.835000	-11.462000	22.941111	0.000492	20.827440
291.091112	-2.988000	3.833600	-11.454000	22.942906	0.000495	20.831609
292.085595	-3.011000	3.832300	-11.539000	22.961289	0.000497	20.832483
293.087944	-2.994800	3.833000	-11.479000	22.926422	0.000495	20.826474
294.097310	-2.990000	3.834000	-11.462000	22.926649	0.000497	20.812478
295.067655	-2.991000	3.831500	-11.459000	22.910650	0.000498	20.808302
296.088631	-2.960100	3.834200	-11.349000	22.929065	0.000497	20.833863
297.089973	-3.012700	3.831600	-11.543000	22.930085	0.000496	20.825402
298.071546	-3.010100	3.831000	-11.531000	22.947602	0.000497	20.793167
299.069180	-2.990900	3.831300	-11.458000	22.955107	0.000498	20.794522
300.090822	-3.011700	3.832000	-11.540000	22.983250	0.000497	20.830305
301.093513	-2.998900	3.831500	-11.488000	22.997749	0.000498	20.813537
302.088932	-3.018400	3.830500	-11.560000	23.028337	0.000498	20.814788
303.088694	-3.013500	3.830400	-11.542000	23.012801	0.000500	20.811075
304.088615	-2.988900	3.830000	-11.446000	23.032326	0.000498	20.796025
305.090541	-2.998400	3.831900	-11.488000	23.038484	0.000499	20.813101
306.094394	-3.004400	3.829900	-11.506000	23.066208	0.000498	20.810059
307.103416	-2.992300	3.830700	-11.461000	23.026875	0.000499	20.805736
308.096881	-3.008700	3.830100	-11.523000	23.033906	0.000502	20.806143
309.096615	-3.006300	3.830200	-11.514000	23.068500	0.000502	20.820417
310.103642	-2.999000	3.828000	-11.479000	23.067683	0.000500	20.822917
311.096601	-2.995600	3.828900	-11.469000	23.088234	0.000500	20.802258
312.101320	-3.003700	3.828600	-11.498000	23.041141	0.000501	20.798219
313.099495	-3.000100	3.829000	-11.485000	23.061089	0.000500	20.799715
314.099158	-2.995800	3.828200	-11.467000	23.047944	0.000502	20.794605
315.081606	-3.005800	3.827600	-11.505000	23.061047	0.000501	20.798724
316.099279	-3.013400	3.827700	-11.534000	23.056745	0.000503	20.808639
317.101101	-2.986600	3.828100	-11.432000	23.053457	0.000502	20.808663
318.084034	-2.991300	3.827300	-11.448000	23.071569	0.000502	20.814483
319.077212	-3.014700	3.827600	-11.538000	23.069105	0.000502	20.784513
320.078349	-3.006500	3.827000	-11.504000	23.116904	0.000504	20.793054
321.077896	-2.989100	3.827200	-11.439000	23.109782	0.000502	20.818634
322.080323	-3.009500	3.826300	-11.514000	23.130185	0.000505	20.797827
323.096615	-3.007600	3.825700	-11.506000	23.129890	0.000504	20.805592
324.100456	-3.016200	3.826400	-11.539000	23.126725	0.000503	20.782032
325.095699	-3.021300	3.826000	-11.559000	23.113108	0.000504	20.811061
326.101761	-3.009700	3.824800	-11.511000	23.117594	0.000503	20.776676
327.108585	-2.980300	3.825700	-11.400000	23.138918	0.000504	20.817484
328.088036	-2.987200	3.826100	-11.428000	23.140934	0.000507	20.801486
329.098313	-3.003900	3.823700	-11.485000	23.117502	0.000504	20.785119
330.080923	-2.990200	3.823700	-11.432000	23.123071	0.000504	20.788802
331.079078	-3.031500	3.823900	-11.591000	23.168601	0.000506	20.778002
332.105639	-3.002500	3.824600	-11.482000	23.191337	0.000505	20.772336
333.102037	-3.003900	3.824500	-11.487000	23.209920	0.000506	20.774363
334.107410	-2.975700	3.822900	-11.374000	23.207456	0.000508	20.801765
335.105082	-3.007000	3.824700	-11.499000	23.226364	0.000507	20.792264
336.101790	-3.011300	3.823800	-11.513000	23.243950	0.000508	20.771482
337.087075	-3.019200	3.821500	-11.537000	23.242986	0.000509	20.779525
338.085016	-3.015800	3.823500	-11.531000	23.254618	0.000511	20.798294
339.092602	-3.011500	3.822500	-11.510000	23.247251	0.000506	20.778109
340.108304	-3.003100	3.823000	-11.481000	23.245831	0.000510	20.784747
341.110162	-3.002300	3.821400	-11.472000	23.254827	0.000508	20.776219
342.103766	-3.011300	3.821000	-11.505000	23.247786	0.000509	20.774378
343.085835	-2.991900	3.821600	-11.433000	23.258349	0.000511	20.776429
344.088471	-2.976000	3.822200	-11.374000	23.259376	0.000512	20.766078
345.097296	-2.984200	3.822000	-11.404000	23.261840	0.000512	20.796049
346.084565	-3.009000	3.820300	-11.494000	23.252433	0.000510	20.786147
347.090175	-2.993800	3.820300	-11.436000	23.263346	0.000512	20.776695
348.085246	-2.997600	3.820900	-11.453000	23.251844	0.000512	20.773229
349.091198	-2.992400	3.820700	-11.432000	23.285565	0.000510	20.779522
350.110533	-2.991800	3.819600	-11.427000	23.251556	0.000512	20.788113
351.087141	-2.998100	3.819600	-11.451000	23.289861	0.000512	20.761542
352.088802	-2.991900	3.819700	-11.427000	23.278930	0.000514	20.801323
353.093951	-2.997500	3.819700	-11.449000	23.308466	0.000512	20.782086
354.089580	-2.989700	3.820100	-11.420000	23.320318	0.000512	20.764092
355.088696	-2.991700	3.818200	-11.422000	23.306703	0.000512	20.775103
356.089174	-2.990700	3.817900	-11.417000	23.322912	0.000513	20.777123
357.089858	-3.005100	3.819000	-11.476000	23.316614	0.000512	20.782665
358.109374	-3.006000	3.817700	-11.475000	23.267294	0.000512	20.756944
359.106238	-3.020200	3.817400	-11.528000	23.312419	0.000514	20.786047
360.106446	-2.989100	3.818200	-11.412000	23.306563	0.000513	20.750305
361.090543	-3.004900	3.817300	-11.469000	23.291104	0.000514	20.769427
362.093015	-3.011900	3.816200	-11.493000	23.294675	0.000513	20.779643
363.111308	-2.995700	3.815600	-11.430000	23.317409	0.000515	20.765443
364.110060	-2.980800	3.816800	-11.377000	23.322090	0.000514	20.780093
365.093833	-3.003100	3.816100	-11.459000	23.350465	0.000515	20.764435
366.091823	-2.983800	3.817100	-11.389000	23.401323	0.000516	20.777476
367.097644	-2.995400	3.815500	-11.429000	23.395548	0.000516	20.775481
368.095580	-2.990500	3.816800	-11.413000	23.363816	0.000514	20.761695
369.098050	-3.012900	3.816400	-11.498000	23.390733	0.000517	20.770181
370.104089	-2.982400	3.815300	-11.378000	23.375293	0.000516	20.750912
371.097337	-3.009200	3.813700	-11.475000	23.381843	0.000515	20.743725
372.095306	-3.003600	3.813800	-11.455000	23.392786	0.000517	20.749952
373.129308	-2.983400	3.814900	-11.380000	23.396245	0.000517	20.762903
374.109811	-3.020100	3.813600	-11.516000	23.403740	0.000515	20.759984
375.103647	-3.002800	3.814200	-11.452000	23.374497	0.000516	20.768132
376.102536	-2.979900	3.814800	-11.367000	23.382865	0.000516	20.778890
377.104876	-3.003000	3.811700	-11.446000	23.398722	0.000514	20.767756
378.106893	-3.001600	3.812600	-11.443000	23.415906	0.000518	20.778816
379.100716	-3.009000	3.812700	-11.472000	23.460103	0.000518	20.767640
380.115656	-3.006000	3.812400	-11.459000	23.440358	0.000519	20.757331
381.118836	-3.002900	3.812100	-11.447000	23.438620	0.000518	20.750373
382.116555	-3.003500	3.811800	-11.449000	23.425307	0.000519	20.751255
383.105261	-3.012600	3.810900	-11.479000	23.437736	0.000518	20.758497
384.109774	-3.009500	3.812100	-11.472000	23.434302	0.000518	20.759322
385.115043	-2.993400	3.811100	-11.408000	23.468607	0.000517	20.771422
386.123176	-2.986100	3.810900	-11.378000	23.478425	0.000518	20.768935
387.103623	-3.029900	3.809300	-11.541000	23.424799	0.000519	20.765444
388.120815	-3.007100	3.809800	-11.456000	23.434985	0.000518	20.745307
389.121043	-2.996700	3.810200	-11.416000	23.487118	0.000519	20.741612
390.106236	-2.989700	3.810300	-11.391000	23.508085	0.000517	20.753621
391.127768	-3.009800	3.809400	-11.464000	23.515653	0.000519	20.742241
392.123479	-2.996300	3.810700	-11.417000	23.536589	0.000518	20.735726
393.122180	-3.014400	3.807900	-11.477000	23.563010	0.000521	20.757945
394.119455	-3.014600	3.809600	-11.483000	23.564828	0.000522	20.748862
395.124319	-3.008800	3.809300	-11.461000	23.561647	0.000520	20.759897
396.105094	-3.003700	3.808300	-11.438000	23.511483	0.000523	20.759873
397.105350	-3.014500	3.808500	-11.480000	23.535957	0.000522	20.751689
398.105583	-3.010800	3.807500	-11.463000	23.547481	0.000523	20.755180
399.124608	-2.987800	3.808100	-11.377000	23.552568	0.000523	20.744158
400.128644	-3.008000	3.807000	-11.450000	23.542162	0.000521	20.746055
401.126482	-2.975900	3.808000	-11.331000	23.580027	0.000522	20.758408
402.108834	-2.993900	3.806000	-11.394000	23.597829	0.000524	20.741640
403.131784	-2.987800	3.807200	-11.374000	23.592079	0.000521	20.752472
404.131151	-2.989300	3.807500	-11.380000	23.601612	0.000523	20.752072
405.124779	-3.000500	3.806900	-11.422000	23.577430	0.000522	20.738735
406.133235	-2.975600	3.806600	-11.325000	23.557712	0.000523	20.735563
407.108869	-2.995400	3.805500	-11.398000	23.555606	0.000521	20.736297
408.136313	-3.006500	3.804800	-11.439000	23.541931	0.000524	20.727804
409.138776	-2.999100	3.805800	-11.414000	23.566110	0.000521	20.730231
410.127698	-2.998000	3.805100	-11.407000	23.596406	0.000522	20.749222
411.124412	-2.997400	3.804300	-11.402000	23.608139	0.000522	20.735380
412.125917	-2.995500	3.804600	-11.396000	23.646677	0.000522	20.752204
413.109152	-3.022100	3.802900	-11.492000	23.655646	0.000524	20.744125
414.111722	-2.977000	3.804800	-11.326000	23.635554	0.000523	20.738207
415.132981	-3.006300	3.802700	-11.431000	23.674956	0.000521	20.742622
416.111181	-2.998600	3.803700	-11.405000	23.691565	0.000525	20.725134
417.113379	-2.974500	3.804300	-11.315000	23.678999	0.000524	20.730553
418.111717	-2.997900	3.802500	-11.399000	23.617742	0.000524	20.736472
419.114356	-2.981200	3.801300	-11.332000	23.632999	0.000524	20.726637
420.113408	-2.997300	3.802400	-11.394000	23.656353	0.000523	20.740567
421.113199	-2.987900	3.802500	-11.360000	23.661808	0.000526	20.736552
422.128133	-3.012000	3.801300	-11.449000	23.608958	0.000527	20.721976
423.114699	-3.011500	3.801700	-11.448000	23.614020	0.000524	20.740802
424.115386	-2.996700	3.802700	-11.394000	23.611557	0.000524	20.766783
425.117634	-2.992000	3.801000	-11.372000	23.613449	0.000525	20.742601
426.114285	-3.006700	3.800200	-11.425000	23.623862	0.000525	20.738814
427.115262	-3.012200	3.801200	-11.449000	23.651171	0.000526	20.736794
428.116810	-2.999000	3.801200	-11.400000	23.671582	0.000527	20.738765
429.114746	-2.994100	3.801000	-11.380000	23.661478	0.000526	20.745231
430.116711	-3.002500	3.800000	-11.409000	23.672160	0.000528	20.749776
431.134648	-3.028800	3.799500	-11.508000	23.690237	0.000525	20.728543
432.133296	-3.006500	3.799300	-11.421000	23.673505	0.000527	20.730261
433.119519	-3.017700	3.799000	-11.463000	23.664550	0.000528	20.721283
434.122659	-2.998300	3.798900	-11.390000	23.682498	0.000527	20.740226
435.122514	-3.002900	3.798300	-11.405000	23.702246	0.000526	20.742955
436.120068	-2.983400	3.799400	-11.333000	23.694444	0.000526	20.721856
437.124001	-2.984500	3.798100	-11.334000	23.721188	0.000528	20.718796
438.117123	-2.998500	3.797300	-11.385000	23.751209	0.000528	20.702902
439.116539	-3.001800	3.796900	-11.397000	23.743821	0.000527	20.730110
440.124955	-2.992700	3.797400	-11.363000	23.771355	0.000527	20.728792
441.120374	-2.990300	3.796800	-11.352000	23.751689	0.000528	20.733731
442.116469	-2.999500	3.797300	-11.389000	23.769968	0.000530	20.734514
443.118420	-2.975100	3.796700	-11.294000	23.776859	0.000528	20.729569
444.135606	-3.000400	3.796100	-11.390000	23.762100	0.000528	20.732315
445.118473	-2.992000	3.795800	-11.356000	23.766903	0.000527	20.720534
446.144011	-3.007600	3.794600	-11.411000	23.769495	0.000528	20.724556
447.136611	-3.009100	3.795300	-11.419000	23.771019	0.000530	20.725136
448.140336	-2.992200	3.794800	-11.354000	23.775797	0.000527	20.714753
449.140950	-3.011200	3.793700	-11.422000	23.781220	0.000531	20.748641
450.137618	-3.016700	3.793700	-11.443000	23.804269	0.000530	20.735715
451.137295	-2.995100	3.794900	-11.365000	23.800468	0.000529	20.715782
452.122488	-2.974000	3.795300	-11.285000	23.821178	0.000529	20.718529
453.122393	-2.974600	3.794900	-11.288000	23.823216	0.000530	20.726263
454.122111	-2.990500	3.793500	-11.343000	23.794941	0.000529	20.738690
455.136140	-3.016900	3.791900	-11.439000	23.781461	0.000528	20.718535
456.119531	-2.987600	3.793400	-11.333000	23.785637	0.000528	20.706600
457.137352	-2.998000	3.792400	-11.368000	23.817850	0.000530	20.713295
458.139775	-2.993800	3.792700	-11.353000	23.823875	0.000531	20.707482
459.120696	-3.001000	3.791500	-11.377000	23.865660	0.000530	20.704334
460.131898	-3.003700	3.792100	-11.389000	23.826509	0.000528	20.718184
461.121585	-2.990400	3.792100	-11.339000	23.836170	0.000529	20.705585
462.125007	-2.983900	3.791400	-11.312000	23.820522	0.000529	20.718820
463.121335	-2.999100	3.792000	-11.372000	23.807428	0.000528	20.720390
464.122364	-2.987800	3.792000	-11.330000	23.812403	0.000530	20.691236
465.123271	-2.995800	3.789600	-11.352000	23.799536	0.000530	20.702044
466.150476	-2.993800	3.790400	-11.347000	23.842023	0.000530	20.705290
467.139517	-2.998100	3.789800	-11.361000	23.877642	0.000532	20.718247
468.142028	-2.998200	3.790000	-11.362000	23.861995	0.000529	20.713937
469.148692	-3.005800	3.788400	-11.386000	23.852986	0.000530	20.703481
470.144428	-2.990900	3.789900	-11.335000	23.825086	0.000530	20.705852
471.141894	-3.010300	3.788100	-11.402000	23.841907	0.000531	20.709916
472.151839	-2.997300	3.789000	-11.356000	23.841417	0.000531	20.692827
473.148808	-2.991800	3.788800	-11.335000	23.872006	0.000531	20.719708
474.151353	-3.007800	3.787800	-11.391000	23.888188	0.000532	20.693733
475.151426	-3.003000	3.788500	-11.376000	23.908374	0.000530	20.719666
476.151513	-2.999200	3.786900	-11.357000	23.874728	0.000530	20.719118
477.131381	-3.005300	3.787700	-11.382000	23.884290	0.000530	20.699782
478.150351	-2.999300	3.786300	-11.355000	23.875183	0.000532	20.700133
479.151170	-3.005300	3.785300	-11.375000	23.894871	0.000530	20.708022
480.131171	-3.004500	3.786400	-11.375000	23.904931	0.000530	20.691081
481.148403	-2.989500	3.785500	-11.316000	23.940100	0.000530	20.686992
482.131593	-2.991100	3.786300	-11.324000	23.938958	0.000529	20.702444
483.132375	-2.996600	3.786200	-11.345000	23.945627	0.000531	20.677361
484.133567	-2.972700	3.787200	-11.257000	23.927064	0.000529	20.674867
485.132576	-3.019900	3.784400	-11.426000	23.915347	0.000530	20.692517
486.136253	-3.009600	3.784700	-11.390000	23.882094	0.000533	20.691889
487.133783	-2.996200	3.785000	-11.339000	23.874934	0.000532	20.689451
488.133909	-2.980100	3.785400	-11.280000	23.856671	0.000531	20.675878
489.134539	-2.984300	3.784400	-11.293000	23.878423	0.000532	20.686785
490.133451	-3.009400	3.783800	-11.385000	23.898608	0.000531	20.675731
491.136145	-2.998000	3.783300	-11.341000	23.917197	0.000531	20.693898
492.132931	-2.995800	3.783600	-11.334000	23.941368	0.000531	20.689686
493.133393	-2.978400	3.783800	-11.269000	23.902447	0.000531	20.695703
494.135770	-3.003400	3.783400	-11.362000	23.942222	0.000531	20.700975
495.135353	-2.990400	3.782900	-11.311000	23.971439	0.000533	20.716051
496.133129	-3.009600	3.781000	-11.378000	23.921147	0.000533	20.679366
497.134751	-3.014500	3.781500	-11.398000	23.954050	0.000532	20.686282
498.136650	-3.014300	3.781600	-11.398000	23.952705	0.000531	20.672604
499.135117	-2.991300	3.782300	-11.312000	23.949654	0.000530	20.679503
500.138076	-2.975300	3.782800	-11.254000	23.962421	0.000529	20.678080
501.133403	-2.982600	3.781000	-11.276000	23.970630	0.000530	20.685366
502.134727	-2.992300	3.781000	-11.312000	23.985719	0.000531	20.669201
503.158184	-3.002600	3.780300	-11.349000	24.057640	0.000531	20.681586
504.133309	-2.989100	3.780400	-11.299000	24.055406	0.000535	20.681242
505.137752	-3.002900	3.780800	-11.352000	24.062351	0.000531	20.679672
506.156136	-2.985200	3.779900	-11.283000	24.093978	0.000533	20.672509
507.152647	-3.010200	3.778600	-11.373000	24.084897	0.000534	20.670988
508.156375	-2.993800	3.778800	-11.312000	24.042599	0.000533	20.663180
509.134328	-2.985900	3.779100	-11.282000	24.081668	0.000533	20.678656
510.136299	-3.004300	3.776800	-11.346000	24.044815	0.000533	20.686742
511.151735	-3.001700	3.777600	-11.339000	24.043250	0.000533	20.673317
512.136124	-3.004500	3.779400	-11.354000	24.062886	0.000533	20.683054
513.136978	-2.981600	3.778300	-11.265000	24.064532	0.000533	20.647717
514.141302	-3.009000	3.777600	-11.366000	24.060081	0.000532	20.684034
515.138311	-3.001100	3.777600	-11.336000	24.076555	0.000534	20.690125
516.141552	-2.993600	3.777100	-11.306000	24.080547	0.000532	20.686542
517.159565	-2.999900	3.776000	-11.326000	24.036799	0.000535	20.675383
518.151567	-2.995000	3.777100	-11.311000	24.029658	0.000532	20.665375
519.137773	-2.992300	3.775900	-11.298000	24.044297	0.000532	20.658719
520.158291	-2.988200	3.775800	-11.282000	24.056344	0.000536	20.695935
521.159348	-2.978000	3.775500	-11.243000	24.074580	0.000532	20.672495
522.161873	-2.984800	3.775000	-11.267000	24.059980	0.000534	20.663067
523.165820	-3.013600	3.775100	-11.376000	24.088924	0.000533	20.662224
524.169552	-3.008500	3.774200	-11.353000	24.072304	0.000534	20.676377
525.169286	-3.011900	3.775000	-11.369000	24.078677	0.000533	20.678028
526.161925	-2.992200	3.774600	-11.293000	24.082939	0.000535	20.687044
527.163883	-2.984300	3.774500	-11.263000	24.103538	0.000533	20.671666
528.139114	-2.987100	3.773700	-11.272000	24.092941	0.000534	20.663408
529.140333	-2.986400	3.773800	-11.269000	24.073134	0.000532	20.667725
530.158909	-2.986900	3.773300	-11.269000	24.103685	0.000534	20.694101
531.140579	-2.979000	3.773900	-11.241000	24.110833	0.000534	20.664757
532.144965	-3.007400	3.772300	-11.344000	24.109740	0.000535	20.654177
533.146664	-2.989000	3.771800	-11.273000	24.117084	0.000533	20.674821
534.141384	-3.018300	3.770000	-11.379000	24.166796	0.000534	20.662091
535.151900	-2.998600	3.771900	-11.310000	24.126612	0.000535	20.669678
536.146089	-3.011100	3.771200	-11.355000	24.138848	0.000534	20.657293
537.141331	-2.985100	3.771200	-11.257000	24.144584	0.000535	20.668263
538.148457	-3.003600	3.770900	-11.326000	24.166877	0.000534	20.649842
539.151293	-3.004900	3.771200	-11.331000	24.197636	0.000534	20.649874
540.152998	-2.987100	3.769700	-11.260000	24.215070	0.000535	20.675899
541.152186	-3.005800	3.770600	-11.331000	24.165010	0.000532	20.653186
542.151177	-2.997900	3.769200	-11.299000	24.162223	0.000533	20.676472
543.152591	-2.997100	3.769200	-11.296000	24.190912	0.000532	20.668263
544.150032	-2.990100	3.769500	-11.271000	24.216163	0.000534	20.668933
545.143876	-2.949700	3.771000	-11.122000	24.225029	0.000532	20.650798
546.146654	-2.985000	3.769200	-11.250000	24.226121	0.000534	20.669913
547.147733	-3.020800	3.768800	-11.384000	24.176387	0.000534	20.648950
548.167547	-3.020500	3.767700	-11.380000	24.152897	0.000534	20.663324
549.164636	-2.995200	3.767700	-11.285000	24.162254	0.000534	20.677452
550.166256	-2.996400	3.767400	-11.288000	24.178628	0.000534	20.672537
551.172720	-2.993900	3.766700	-11.275000	24.184074	0.000534	20.655238
552.175835	-3.002400	3.766600	-11.308000	24.194099	0.000533	20.670036
553.169553	-2.985200	3.767300	-11.245000	24.214230	0.000536	20.651346
554.169562	-3.027100	3.766400	-11.401000	24.251802	0.000534	20.658687
555.167044	-3.002900	3.765900	-11.308000	24.227620	0.000533	20.660510
556.165215	-3.001900	3.765600	-11.304000	24.213439	0.000535	20.668572
557.178649	-2.993100	3.765800	-11.270000	24.201319	0.000533	20.676805
558.172884	-3.008200	3.765000	-11.324000	24.193406	0.000536	20.662702
559.168161	-2.998000	3.765000	-11.286000	24.160966	0.000532	20.655768
560.171674	-2.990100	3.765100	-11.258000	24.221678	0.000534	20.686321
561.163417	-2.998900	3.765000	-11.289000	24.170648	0.000533	20.679232
562.166535	-3.001300	3.764300	-11.297000	24.206747	0.000535	20.670869
563.163233	-2.998200	3.764400	-11.285000	24.198049	0.000534	20.666411
564.165087	-3.019600	3.762900	-11.361000	24.212003	0.000534	20.673770
565.180671	-2.979100	3.763000	-11.209000	24.242974	0.000534	20.650306
566.170575	-2.994100	3.763800	-11.267000	24.253822	0.000533	20.684424
567.147522	-2.998200	3.762700	-11.280000	24.240968	0.000534	20.686704
568.148831	-3.028500	3.762600	-11.394000	24.258605	0.000531	20.682584
569.148167	-3.018100	3.762500	-11.354000	24.250219	0.000532	20.678439
570.164760	-3.009400	3.761600	-11.319000	24.255541	0.000532	20.669078
571.150223	-3.011700	3.761600	-11.328000	24.281767	0.000532	20.652234
572.163535	-3.012900	3.761900	-11.333000	24.256721	0.000532	20.677374
573.150172	-2.998000	3.761600	-11.276000	24.252068	0.000534	20.667964
574.174459	-2.991900	3.760800	-11.251000	24.296428	0.000531	20.674529
575.177064	-3.010900	3.760600	-11.321000	24.270055	0.000534	20.682215
576.164848	-3.006300	3.759800	-11.302000	24.309792	0.000533	20.670866
577.169955	-3.006400	3.761000	-11.306000	24.281056	0.000534	20.689458
578.168299	-3.019800	3.759400	-11.352000	24.256974	0.000534	20.675731
579.174572	-2.992800	3.759400	-11.250000	24.265164	0.000532	20.685369
580.151229	-3.019100	3.758000	-11.344000	24.250902	0.000533	20.670588
581.162766	-2.986000	3.759700	-11.226000	24.286158	0.000532	20.666598
582.150059	-2.990400	3.759100	-11.240000	24.329497	0.000532	20.655069
583.159771	-3.000600	3.759200	-11.278000	24.329203	0.000532	20.685597
584.169686	-2.997500	3.759500	-11.268000	24.330026	0.000534	20.659868
585.176347	-2.992100	3.758200	-11.245000	24.306441	0.000532	20.666081
586.169178	-2.991000	3.757900	-11.239000	24.312978	0.000535	20.677856
587.172530	-3.020200	3.757800	-11.349000	24.316221	0.000533	20.691067
588.187489	-3.002000	3.757900	-11.280000	24.325765	0.000531	20.675509
589.180823	-2.997200	3.756800	-11.260000	24.327215	0.000531	20.665108
590.175712	-3.001000	3.757800	-11.277000	24.317394	0.000532	20.690346
591.157674	-2.991500	3.756900	-11.237000	24.335828	0.000532	20.669956
592.180309	-3.013600	3.756000	-11.318000	24.334858	0.000533	20.685106
593.174066	-3.009300	3.755900	-11.302000	24.288259	0.000532	20.675818
594.179721	-3.004600	3.755600	-11.283000	24.244526	0.000531	20.683160
595.167222	-2.989500	3.755300	-11.225000	24.254404	0.000533	20.686904
596.161456	-2.994400	3.754200	-11.241000	24.266319	0.000533	20.694590
597.185431	-2.992000	3.754300	-11.232000	24.305650	0.000532	20.679039
598.174438	-3.002000	3.755300	-11.272000	24.353764	0.000532	20.681786
599.191730	-3.016000	3.754500	-11.323000	24.328020	0.000530	20.703378
600.176928	-3.014600	3.753900	-11.316000	24.381829	0.000531	20.701408
601.184108	-3.005800	3.753100	-11.279000	24.384315	0.000531	20.697263
602.175032	-3.001800	3.755300	-11.272000	24.356761	0.000531	20.698071
603.181528	-2.999200	3.753900	-11.257000	24.375188	0.000529	20.675302
604.178712	-2.993200	3.754100	-11.236000	24.365269	0.000531	20.678154
605.181415	-2.993600	3.754500	-11.239000	24.366614	0.000530	20.686142
606.186997	-3.002400	3.752500	-11.265000	24.369026	0.000531	20.694727
607.180840	-2.987700	3.752300	-11.210000	24.376882	0.000531	20.679847
608.188544	-3.002000	3.753200	-11.266000	24.352963	0.000530	20.688569
609.163857	-2.986300	3.753000	-11.207000	24.366817	0.000530	20.700572
610.161999	-2.989100	3.752300	-11.215000	24.346387	0.000530	20.690034
611.181431	-2.996600	3.752900	-11.244000	24.394629	0.000528	20.700024
612.180869	-2.988400	3.752000	-11.212000	24.390295	0.000531	20.696624
613.187578	-2.996000	3.751400	-11.238000	24.410552	0.000529	20.683754
614.192275	-3.023800	3.750900	-11.341000	24.427045	0.000530	20.708837
615.186962	-3.006500	3.750300	-11.274000	24.439088	0.000529	20.685830
616.162590	-2.989000	3.751400	-11.212000	24.407562	0.000530	20.691660
617.191129	-2.999400	3.749100	-11.243000	24.430802	0.000530	20.679412
618.179583	-3.012500	3.749700	-11.295000	24.438738	0.000527	20.700653
619.183571	-3.006600	3.749500	-11.272000	24.424542	0.000528	20.702058
620.165472	-2.996400	3.748700	-11.231000	24.437002	0.000529	20.696539
621.167293	-3.009600	3.748500	-11.280000	24.400315	0.000530	20.700512
622.168406	-2.991000	3.748300	-11.210000	24.427101	0.000528	20.674751
623.167098	-2.985900	3.747500	-11.189000	24.411161	0.000528	20.713291
624.181219	-3.018900	3.747400	-11.312000	24.404699	0.000527	20.713445
625.187718	-3.016800	3.748100	-11.307000	24.434751	0.000529	20.690962
626.183191	-2.998400	3.747900	-11.237000	24.442085	0.000529	20.709227
627.202613	-3.005100	3.746200	-11.256000	24.450575	0.000528	20.703993
628.187915	-3.014800	3.748300	-11.299000	24.473936	0.000528	20.679539
629.189841	-3.013200	3.746100	-11.286000	24.448986	0.000527	20.708089
630.188652	-2.992900	3.745800	-11.210000	24.426926	0.000529	20.717727
631.168486	-3.001300	3.746200	-11.243000	24.471573	0.000526	20.709887
632.169934	-2.998500	3.746000	-11.230000	24.492375	0.000529	20.717481
633.190300	-3.014300	3.744900	-11.286000	24.477447	0.000528	20.710091
634.170181	-3.013400	3.745800	-11.286000	24.464743	0.000529	20.703034
635.172636	-2.985000	3.745700	-11.180000	24.470187	0.000527	20.714187
636.179017	-3.014100	3.745700	-11.289000	24.483035	0.000527	20.696255
637.171059	-3.008200	3.744000	-11.262000	24.496040	0.000528	20.705511
638.173843	-3.006300	3.744900	-11.257000	24.448625	0.000527	20.717211
639.174161	-3.014400	3.744900	-11.288000	24.436491	0.000526	20.699821
640.177628	-2.989700	3.744500	-11.194000	24.440255	0.000526	20.710709
641.173619	-3.026600	3.743500	-11.329000	24.435903	0.000528	20.720095
642.174619	-2.985800	3.743600	-11.176000	24.439155	0.000527	20.715771
643.191568	-3.020600	3.743600	-11.306000	24.440108	0.000527	20.710562
644.174232	-2.992300	3.742600	-11.198000	24.460185	0.000528	20.696565
645.176279	-2.990900	3.742200	-11.192000	24.503892	0.000527	20.717183
646.175248	-2.963900	3.744000	-11.095000	24.443294	0.000527	20.732251
647.192683	-2.995800	3.741600	-11.208000	24.468594	0.000527	20.683189
648.188298	-2.998500	3.742400	-11.220000	24.457959	0.000527	20.717566
649.179539	-3.026300	3.741700	-11.323000	24.443805	0.000525	20.720910
650.174128	-2.986100	3.742400	-11.174000	24.467933	0.000527	20.710502
651.177560	-2.990500	3.742100	-11.190000	24.461698	0.000525	20.726059
652.182096	-2.985900	3.741000	-11.169000	24.487905	0.000526	20.735757
653.190770	-3.027800	3.740000	-11.322000	24.505275	0.000528	20.719519
654.202863	-2.985400	3.740200	-11.165000	24.486175	0.000527	20.731651
655.198518	-2.989000	3.741900	-11.184000	24.514181	0.000525	20.727981
656.183935	-3.005000	3.740400	-11.240000	24.523038	0.000525	20.732600
657.181723	-2.993100	3.741000	-11.197000	24.503662	0.000525	20.711735
658.196233	-2.994200	3.740100	-11.198000	24.522670	0.000524	20.716109
659.194632	-3.008900	3.739600	-11.251000	24.549380	0.000527	20.719200
660.195794	-2.985100	3.739100	-11.160000	24.549607	0.000526	20.723221
661.177835	-2.992400	3.739600	-11.189000	24.522947	0.000525	20.718283
662.179498	-2.990900	3.737800	-11.179000	24.534012	0.000527	20.742663
663.197775	-3.002000	3.740000	-11.227000	24.556279	0.000526	20.714742
664.197666	-3.007200	3.738700	-11.241000	24.547031	0.000523	20.730120
665.197544	-2.992600	3.738500	-11.186000	24.545232	0.000523	20.715986
666.195814	-3.005200	3.737600	-11.231000	24.531901	0.000525	20.716836
667.179149	-2.999100	3.736400	-11.204000	24.560361	0.000525	20.735909
668.179125	-2.996200	3.736100	-11.193000	24.570180	0.000523	20.731061
669.180578	-2.993000	3.737100	-11.184000	24.611138	0.000524	20.735174
670.196395	-2.980600	3.735900	-11.134000	24.593458	0.000525	20.744935
671.197790	-3.000200	3.737000	-11.211000	24.571720	0.000527	20.738297
672.210306	-2.998100	3.736600	-11.201000	24.547602	0.000524	20.729744
673.199604	-3.000700	3.736700	-11.212000	24.524869	0.000526	20.738230
674.202064	-2.998800	3.736700	-11.204000	24.553738	0.000523	20.742540
675.200522	-2.995000	3.735300	-11.187000	24.558936	0.000524	20.722150
676.197091	-2.990700	3.736000	-11.172000	24.532773	0.000523	20.736678
677.179990	-2.988600	3.735100	-11.161000	24.524267	0.000523	20.739523
678.199292	-2.995600	3.735200	-11.188000	24.510789	0.000522	20.733587
679.180808	-2.992600	3.734800	-11.176000	24.528912	0.000522	20.724742
680.180464	-3.014200	3.734700	-11.256000	24.532308	0.000524	20.751858
681.195658	-2.998700	3.733200	-11.194000	24.537793	0.000522	20.736498
682.199588	-2.998100	3.734900	-11.196000	24.514594	0.000521	20.748311
683.200928	-3.000500	3.733200	-11.200000	24.526189	0.000523	20.768953
684.198256	-3.006900	3.733600	-11.225000	24.587549	0.000521	20.736161
685.202383	-2.996900	3.732600	-11.186000	24.618135	0.000522	20.726548
686.181704	-2.997200	3.732700	-11.186000	24.641094	0.000522	20.743896
687.184900	-3.001400	3.730800	-11.196000	24.619154	0.000523	20.735157
688.183752	-2.997400	3.731900	-11.185000	24.587322	0.000522	20.757745
689.207515	-3.004400	3.731700	-11.210000	24.607771	0.000523	20.755504
690.187403	-2.998800	3.732300	-11.191000	24.565755	0.000520	20.752701
691.184052	-2.976300	3.730400	-11.101000	24.566284	0.000520	20.750861
692.208709	-2.982500	3.732300	-11.131000	24.569820	0.000522	20.755831
693.200925	-2.984600	3.731300	-11.136000	24.561338	0.000522	20.749691
694.202647	-2.989400	3.730800	-11.151000	24.613687	0.000522	20.749586
695.185576	-2.987700	3.730400	-11.145000	24.616504	0.000523	20.744827
696.187449	-3.000800	3.729500	-11.191000	24.606508	0.000521	20.750917
697.200823	-2.992900	3.729700	-11.161000	24.589244	0.000522	20.751613
698.213583	-2.979200	3.730000	-11.111000	24.580916	0.000519	20.759379
699.212556	-3.014100	3.729800	-11.240000	24.573649	0.000520	20.729326
700.203016	-2.999900	3.729900	-11.189000	24.593399	0.000521	20.749618
701.202032	-3.022800	3.728800	-11.271000	24.584900	0.000520	20.769066
702.184784	-3.010300	3.727400	-11.219000	24.606581	0.000518	20.773277
703.204927	-2.996000	3.728600	-11.171000	24.612080	0.000520	20.772631
704.201225	-2.983300	3.727300	-11.119000	24.617425	0.000517	20.769933
705.217624	-2.993500	3.728700	-11.161000	24.644913	0.000520	20.770962
706.209239	-3.011100	3.727300	-11.222000	24.654511	0.000519	20.758781
707.211729	-2.988400	3.727400	-11.138000	24.651357	0.000518	20.770316
708.205031	-3.011900	3.726000	-11.221000	24.669208	0.000519	20.758356
709.214797	-2.997200	3.727100	-11.169000	24.654388	0.000519	20.771461
710.208190	-2.973800	3.726500	-11.081000	24.646754	0.000517	20.791302
711.208302	-2.999300	3.726800	-11.177000	24.642151	0.000517	20.750173
712.189022	-3.001900	3.726200	-11.184000	24.642543	0.000517	20.781861
713.189472	-2.989300	3.726600	-11.139000	24.658413	0.000519	20.749421
714.192642	-3.023800	3.724600	-11.261000	24.656075	0.000520	20.761300
715.189662	-3.007200	3.725900	-11.203000	24.691490	0.000518	20.778345
716.190375	-2.993100	3.726000	-11.151000	24.634412	0.000517	20.762796
717.210374	-2.999600	3.726400	-11.177000	24.632221	0.000517	20.778616
718.205142	-3.001500	3.725400	-11.182000	24.644335	0.000520	20.764219
719.210157	-3.017000	3.725400	-11.239000	24.624041	0.000517	20.759501
720.206026	-2.989600	3.724800	-11.135000	24.617604	0.000514	20.768216
721.210610	-2.996700	3.725400	-11.163000	24.625833	0.000517	20.791646
722.208849	-2.982500	3.724800	-11.109000	24.649159	0.000516	20.771429
723.208230	-2.986000	3.724300	-11.120000	24.651374	0.000515	20.752315
724.207289	-3.010700	3.724000	-11.211000	24.666789	0.000517	20.771103
725.193363	-2.980200	3.723700	-11.097000	24.662935	0.000516	20.776719
726.202295	-2.984600	3.723900	-11.114000	24.643905	0.000516	20.793659
727.214839	-3.005000	3.723600	-11.189000	24.642218	0.000514	20.791966
728.217156	-3.002100	3.722100	-11.173000	24.649648	0.000514	20.766705
729.208378	-3.008700	3.721200	-11.195000	24.600805	0.000513	20.803517
730.214506	-2.979700	3.722500	-11.091000	24.648402	0.000515	20.786318
731.209387	-2.991800	3.721500	-11.133000	24.679418	0.000515	20.790887
732.211942	-3.002800	3.721600	-11.174000	24.711548	0.000515	20.802267
733.227110	-3.014300	3.722600	-11.220000	24.712966	0.000515	20.791836
734.216385	-3.008500	3.721700	-11.196000	24.707940	0.000514	20.788214
735.214143	-3.026300	3.720800	-11.259000	24.695770	0.000513	20.792123
736.216355	-2.985500	3.721000	-11.107000	24.728201	0.000516	20.802857
737.214608	-3.005800	3.721900	-11.186000	24.741382	0.000513	20.794273
738.197435	-3.030400	3.720600	-11.274000	24.719868	0.000512	20.796865
739.220742	-2.989600	3.719200	-11.118000	24.758342	0.000512	20.783792
740.215305	-2.974000	3.721100	-11.066000	24.778977	0.000514	20.798811
741.199394	-3.012700	3.719200	-11.204000	24.798422	0.000512	20.804100
742.199318	-3.010400	3.717800	-11.191000	24.791913	0.000510	20.804680
743.199721	-2.987200	3.718800	-11.107000	24.771523	0.000512	20.810770
744.200894	-3.019800	3.717900	-11.226000	24.745186	0.000514	20.813264
745.201381	-3.013600	3.718400	-11.205000	24.748371	0.000511	20.803184
746.204159	-3.001300	3.717700	-11.157000	24.747150	0.000510	20.811441
747.200632	-2.992400	3.719000	-11.128000	24.681048	0.000511	20.801059
748.221272	-3.000500	3.716700	-11.151000	24.709473	0.000512	20.797813
749.218262	-3.011800	3.718200	-11.197000	24.734792	0.000510	20.811841
750.202052	-2.973300	3.716600	-11.050000	24.719826	0.000512	20.804409
751.201445	-3.007400	3.716200	-11.175000	24.769259	0.000511	20.802808
752.202971	-3.002000	3.717500	-11.160000	24.785876	0.000510	20.807156
753.204579	-3.001600	3.716500	-11.155000	24.811725	0.000509	20.803700
754.204711	-3.010000	3.716200	-11.185000	24.805345	0.000510	20.797771
755.202592	-2.984300	3.716300	-11.089000	24.796214	0.000510	20.807100
756.201674	-3.011300	3.715500	-11.188000	24.780507	0.000509	20.817415
757.209218	-2.995200	3.716800	-11.131000	24.800645	0.000508	20.815814
758.225445	-2.985700	3.716100	-11.095000	24.833895	0.000508	20.802717
759.221260	-2.999600	3.715000	-11.143000	24.862917	0.000510	20.816197
760.221753	-3.005300	3.716100	-11.167000	24.843841	0.000509	20.812224
761.224751	-2.979100	3.715700	-11.069000	24.878336	0.000508	20.806542
762.231357	-2.994900	3.715700	-11.127000	24.871624	0.000510	20.811185
763.217504	-3.012300	3.713700	-11.186000	24.890326	0.000508	20.807195
764.208751	-3.032600	3.713800	-11.261000	24.911976	0.000508	20.829873
765.204687	-2.985800	3.713700	-11.088000	24.856832	0.000506	20.820520
766.204020	-3.002700	3.714900	-11.154000	24.824338	0.000508	20.843384
767.204216	-2.993800	3.713000	-11.114000	24.812772	0.000509	20.817078
768.205371	-2.969200	3.715400	-11.031000	24.807704	0.000505	20.813889
769.207133	-2.995200	3.712700	-11.119000	24.825812	0.000506	20.833484
770.207612	-2.997700	3.713400	-11.131000	24.825731	0.000506	20.813963
771.204820	-2.972400	3.714100	-11.039000	24.861091	0.000508	20.818157
772.208462	-3.011600	3.712800	-11.180000	24.840604	0.000507	20.824148
773.205163	-2.980600	3.712500	-11.065000	24.808208	0.000504	20.838102
774.204813	-2.997400	3.712400	-11.127000	24.784935	0.000505	20.820910
775.207130	-3.017000	3.711700	-11.197000	24.785138	0.000505	20.840080
776.206202	-3.006100	3.712500	-11.160000	24.790262	0.000504	20.841428
777.206226	-2.999000	3.712000	-11.132000	24.803410	0.000505	20.828072
778.231673	-2.984300	3.711600	-11.076000	24.825395	0.000505	20.834962
779.206170	-2.991800	3.711500	-11.104000	24.815596	0.000503	20.853102
780.209804	-2.997200	3.710500	-11.120000	24.837410	0.000501	20.816201
781.208280	-2.985500	3.711800	-11.081000	24.874757	0.000505	20.838036
782.213850	-3.008800	3.710900	-11.165000	24.869284	0.000504	20.832543
783.225422	-3.020400	3.709200	-11.202000	24.873991	0.000504	20.838689
784.210040	-2.988300	3.710300	-11.086000	24.886403	0.000505	20.826966
785.211199	-3.008100	3.709000	-11.156000	24.874691	0.000503	20.817581
786.217180	-3.004200	3.708100	-11.139000	24.856493	0.000505	20.843413
787.212537	-2.997600	3.708700	-11.116000	24.882323	0.000505	20.814336
788.212501	-3.008300	3.709400	-11.158000	24.899932	0.000501	20.837225
789.217597	-3.003600	3.709300	-11.140000	24.867016	0.000501	20.824577
790.213339	-3.007600	3.709100	-11.155000	24.834124	0.000502	20.822386
791.217158	-3.022000	3.707800	-11.205000	24.825938	0.000505	20.819861
792.214980	-3.030400	3.707000	-11.233000	24.860409	0.000503	20.828852
793.214994	-3.022000	3.706500	-11.200000	24.815845	0.000501	20.826801
794.214506	-3.007000	3.706600	-11.145000	24.750602	0.000504	20.815379
795.215248	-3.000400	3.706800	-11.120000	24.756671	0.000502	20.820521
796.215769	-2.957600	3.707300	-10.964000	24.787707	0.000502	20.823219
797.214594	-3.002900	3.706500	-11.128000	24.839979	0.000501	20.814512
798.214239	-2.991700	3.706400	-11.088000	24.848287	0.000502	20.812419
799.230747	-2.978900	3.707200	-11.042000	24.825886	0.000501	20.808429
800.216245	-2.990000	3.707200	-11.084000	24.829935	0.000500	20.812492
801.215317	-3.024600	3.705100	-11.206000	24.825064	0.000502	20.824199
802.241664	-3.007700	3.704600	-11.142000	24.858069	0.000500	20.786200
803.242517	-2.997500	3.704800	-11.104000	24.888434	0.000501	20.817624
804.218173	-3.009500	3.705000	-11.149000	24.890870	0.000499	20.794465
805.219520	-3.007300	3.705000	-11.142000	24.865439	0.000498	20.810192
806.217088	-3.025600	3.704300	-11.206000	24.853750	0.000498	20.818376
807.221275	-2.993200	3.705200	-11.090000	24.821680	0.000498	20.801837
808.219135	-3.000200	3.703900	-11.111000	24.804664	0.000499	20.787131
809.221698	-3.001500	3.703700	-11.115000	24.810358	0.000497	20.782888
810.234073	-2.989200	3.704500	-11.073000	24.826853	0.000498	20.790907
811.242290	-3.008000	3.704400	-11.142000	24.836627	0.000498	20.803562
812.238823	-3.008600	3.703500	-11.142000	24.834835	0.000497	20.788487
813.236144	-2.982800	3.703200	-11.045000	24.844911	0.000497	20.798125
814.238909	-3.018900	3.702400	-11.175000	24.868379	0.000497	20.783745
815.239247	-2.997900	3.701700	-11.097000	24.820816	0.000496	20.791012
816.236798	-3.012000	3.701800	-11.149000	24.845285	0.000496	20.787595
817.220652	-3.001000	3.703100	-11.112000	24.869950	0.000496	20.781529
818.223858	-3.013600	3.700400	-11.151000	24.921070	0.000497	20.786843
819.221758	-3.008800	3.700600	-11.133000	24.912167	0.000497	20.793081
820.221323	-2.994100	3.702000	-11.083000	24.904437	0.000497	20.800970
821.221101	-3.004900	3.700800	-11.119000	24.937727	0.000497	20.781276
822.236931	-2.997600	3.700800	-11.092000	24.929923	0.000495	20.786720
823.241944	-3.019300	3.699700	-11.169000	24.970753	0.000495	20.765587
824.239874	-3.009200	3.700700	-11.135000	24.966795	0.000497	20.775365
825.241362	-3.004800	3.701100	-11.121000	24.928800	0.000495	20.769946
826.245565	-2.955900	3.702000	-10.942000	24.918302	0.000492	20.774108
827.240311	-3.006600	3.699200	-11.121000	24.939998	0.000495	20.779763
828.241404	-2.998000	3.700500	-11.093000	24.964205	0.000496	20.783672
829.242108	-3.014400	3.699700	-11.151000	24.957315	0.000493	20.778653
830.246315	-3.005600	3.699200	-11.117000	24.962267	0.000494	20.794054
831.241280	-3.003100	3.698100	-11.105000	24.931505	0.000493	20.759384
832.244303	-3.019400	3.697700	-11.164000	24.902859	0.000494	20.775677
833.245212	-3.010900	3.698500	-11.135000	24.869096	0.000494	20.762180
834.242514	-3.015700	3.698400	-11.152000	24.870132	0.000495	20.771280
835.226258	-3.013800	3.698300	-11.145000	24.896042	0.000494	20.793492
836.226051	-3.010000	3.698600	-11.131000	24.955167	0.000493	20.770806
837.242098	-2.999800	3.695800	-11.085000	24.909710	0.000494	20.769278
838.242089	-3.003000	3.697200	-11.102000	24.887352	0.000495	20.759166
839.251333	-3.009000	3.696500	-11.122000	24.847741	0.000494	20.758765
840.245883	-2.964200	3.698500	-10.963000	24.865662	0.000495	20.770588
841.247763	-3.030300	3.697000	-11.202000	24.843360	0.000492	20.766222
842.245723	-3.006600	3.695400	-11.110000	24.848721	0.000492	20.746471
843.229460	-2.974200	3.696900	-10.994000	24.874201	0.000491	20.764458
844.234128	-2.997900	3.695100	-11.076000	24.837798	0.000490	20.757321
845.229784	-2.992100	3.696000	-11.057000	24.869175	0.000493	20.777433
846.230018	-2.996100	3.697000	-11.075000	24.917300	0.000490	20.779740
847.231015	-3.004000	3.696100	-11.103000	24.910889	0.000491	20.777573
848.232391	-2.983400	3.696100	-11.026000	24.914742	0.000491	20.763896
849.233221	-3.009900	3.694600	-11.120000	24.891831	0.000489	20.762712
850.236735	-3.000000	3.693800	-11.080000	24.898942	0.000490	20.758469
851.234303	-2.982900	3.694900	-11.021000	24.912341	0.000490	20.765754
852.233570	-2.968900	3.694500	-10.967000	24.924952	0.000490	20.751384
853.235647	-2.972500	3.695400	-10.983000	24.926824	0.000489	20.764169
854.233921	-2.975900	3.693700	-10.991000	24.942431	0.000489	20.752333
855.254666	-3.009300	3.691500	-11.108000	24.907669	0.000489	20.766754
856.254844	-2.985100	3.693300	-11.024000	24.939565	0.000488	20.766052
857.250924	-2.978800	3.693200	-11.000000	24.963307	0.000491	20.775658
858.251127	-2.969300	3.693500	-10.966000	24.988467	0.000488	20.768194
859.255093	-2.982400	3.691600	-11.008000	24.976902	0.000488	20.760853
860.256758	-2.993800	3.691800	-11.052000	25.001165	0.000488	20.768612
861.251082	-3.002400	3.691100	-11.082000	24.971625	0.000488	20.755557
862.256055	-2.998600	3.691400	-11.067000	24.923114	0.000487	20.750014
863.251956	-3.001000	3.692300	-11.080000	24.942777	0.000485	20.762163
864.252653	-3.015600	3.691000	-11.130000	24.936930	0.000486	20.757717
865.252468	-3.000700	3.691500	-11.076000	24.928605	0.000485	20.745567
866.253832	-3.007500	3.691600	-11.101000	24.945702	0.000486	20.762729
867.237638	-3.017100	3.689000	-11.129000	24.968003	0.000486	20.777052
868.241033	-2.992400	3.691200	-11.043000	25.005192	0.000483	20.726660
869.261508	-2.999500	3.689500	-11.066000	25.029552	0.000486	20.735465
870.239151	-3.002400	3.689300	-11.076000	24.990418	0.000485	20.753558
871.241825	-3.009400	3.690400	-11.105000	25.024975	0.000484	20.757899
872.239682	-3.017300	3.688500	-11.129000	25.024146	0.000483	20.746635
873.240974	-2.989200	3.689000	-11.026000	25.015699	0.000483	20.759968
874.240647	-2.996700	3.688900	-11.054000	25.014177	0.000483	20.762707
875.239182	-2.994900	3.688200	-11.044000	25.039563	0.000482	20.747885
876.243759	-2.997800	3.688300	-11.056000	24.989442	0.000483	20.738827
877.245377	-2.996100	3.687700	-11.048000	24.999054	0.000481	20.748001
878.241869	-2.979400	3.688200	-10.988000	24.960024	0.000482	20.757189
879.242057	-3.008900	3.686700	-11.092000	24.935453	0.000480	20.729680
880.248145	-2.998600	3.687800	-11.057000	24.947067	0.000479	20.745605
881.257241	-3.018300	3.686800	-11.126000	24.935705	0.000480	20.751745
882.246861	-3.003000	3.687500	-11.073000	24.931404	0.000482	20.748851
883.264740	-2.955400	3.687600	-10.898000	24.960164	0.000481	20.743105
884.266026	-2.983500	3.688100	-11.003000	25.016451	0.000480	20.747920
885.266229	-3.004900	3.686100	-11.076000	25.030493	0.000481	20.751583
886.258318	-2.990800	3.685300	-11.021000	25.019790	0.000479	20.746529
887.261415	-3.004000	3.684900	-11.068000	24.998200	0.000478	20.727228
888.263572	-2.984700	3.686100	-11.001000	24.992507	0.000478	20.737636
889.260464	-3.024100	3.684100	-11.140000	24.993858	0.000478	20.747053
890.246530	-3.014100	3.685300	-11.107000	24.959017	0.000478	20.752858
891.259001	-3.009200	3.684900	-11.088000	24.957949	0.000478	20.741829
892.261714	-3.003000	3.684100	-11.063000	24.950986	0.000478	20.753333
893.262502	-3.003900	3.684500	-11.068000	24.957330	0.000478	20.744053
894.260897	-3.021800	3.684500	-11.133000	24.948053	0.000477	20.737112
895.262411	-3.000500	3.682900	-11.050000	24.951507	0.000479	20.742950
896.265356	-3.011000	3.683200	-11.089000	24.954863	0.000476	20.754379
897.264752	-3.038400	3.682300	-11.187000	24.944348	0.000477	20.751411
898.269020	-3.030000	3.681700	-11.154000	24.980526	0.000477	20.728454
899.263672	-2.991600	3.683000	-11.017000	24.978532	0.000479	20.720762
900.266902	-3.010300	3.683500	-11.087000	25.021802	0.000477	20.728633
901.264575	-3.010700	3.681300	-11.082000	25.046928	0.000475	20.732518
902.246868	-2.977700	3.682000	-10.963000	25.067484	0.000474	20.756473
903.250839	-3.007900	3.681400	-11.072000	25.077403	0.000475	20.739402
904.247817	-2.975800	3.682800	-10.958000	25.085555	0.000475	20.716765
905.248580	-2.992000	3.682200	-11.016000	25.072127	0.000474	20.729838
906.256485	-2.986700	3.680700	-10.992000	25.056784	0.000476	20.735774
907.249599	-3.010800	3.680100	-11.079000	25.020370	0.000475	20.752802
908.252502	-2.987700	3.681800	-10.999000	25.016192	0.000473	20.734857
909.250415	-2.994800	3.681200	-11.023000	25.014565	0.000474	20.736069
910.250251	-3.000800	3.681100	-11.045000	25.045073	0.000473	20.751994
911.250522	-2.990400	3.680900	-11.006000	25.023792	0.000474	20.718777
912.250019	-3.000500	3.679300	-11.039000	25.019884	0.000473	20.729079
913.249463	-3.001000	3.679800	-11.042000	25.037711	0.000471	20.739862
914.267965	-3.002700	3.679400	-11.047000	25.058691	0.000473	20.741007
915.249611	-2.989100	3.678300	-10.994000	25.094865	0.000471	20.732750
916.273029	-2.984800	3.678800	-10.980000	25.100453	0.000471	20.730772
917.253256	-3.000800	3.679200	-11.040000	25.081168	0.000471	20.725163
918.268851	-2.989300	3.678500	-10.995000	25.091699	0.000471	20.727674
919.269983	-2.994500	3.679100	-11.016000	25.068628	0.000470	20.734386
920.252388	-3.018000	3.677700	-11.098000	25.050531	0.000470	20.726652
921.268701	-3.000300	3.676600	-11.030000	25.070346	0.000472	20.722834
922.266587	-2.989100	3.677300	-10.991000	25.065591	0.000471	20.722328
923.271058	-2.987100	3.677600	-10.985000	25.044188	0.000470	20.711748
924.255206	-2.968800	3.677200	-10.915000	25.027060	0.000467	20.709729
925.256469	-3.010900	3.675300	-11.065000	25.028852	0.000470	20.711527
926.252591	-3.013100	3.675500	-11.074000	25.006766	0.000470	20.715911
927.254491	-2.989900	3.675700	-10.989000	25.033120	0.000467	20.721028
928.258608	-2.990700	3.675600	-10.991000	24.991398	0.000469	20.703803
929.268759	-3.012000	3.674900	-11.067000	24.965416	0.000467	20.731306
930.255728	-2.981900	3.674800	-10.956000	24.985704	0.000468	20.716582
931.272042	-2.979400	3.675400	-10.950000	24.997710	0.000469	20.727210
932.253728	-2.986800	3.674300	-10.973000	24.990575	0.000468	20.722419
933.257013	-2.994600	3.674600	-11.003000	24.992538	0.000468	20.707793
934.254455	-2.983700	3.675400	-10.966000	24.977390	0.000467	20.718668
935.277267	-2.987600	3.674400	-10.977000	24.992710	0.000466	20.709388
936.278757	-2.989700	3.672900	-10.980000	24.984851	0.000467	20.727105
937.270736	-2.992900	3.675300	-10.998000	25.024922	0.000465	20.728921
938.256301	-3.001300	3.674000	-11.025000	25.043768	0.000464	20.708482
939.255863	-3.010900	3.671600	-11.054000	25.042319	0.000464	20.697069
940.256591	-2.988600	3.673400	-10.977000	25.031878	0.000464	20.720256
941.277502	-3.021300	3.673200	-11.097000	25.065317	0.000465	20.709725
942.272445	-2.988000	3.671200	-10.969000	25.074114	0.000464	20.729462
943.274181	-3.022500	3.671300	-11.096000	25.090124	0.000462	20.722300
944.276596	-3.003400	3.671300	-11.024000	25.077242	0.000464	20.707470
945.271118	-3.005400	3.670900	-11.031000	25.081272	0.000464	20.726216
946.279847	-2.996300	3.670500	-10.997000	25.113066	0.000462	20.716406
947.275594	-3.026600	3.670200	-11.107000	25.085142	0.000461	20.718721
948.273387	-2.995100	3.670600	-10.993000	25.082105	0.000461	20.709981
949.274614	-2.993400	3.671500	-10.990000	25.082682	0.000461	20.732373
950.276351	-3.011200	3.670200	-11.051000	25.108090	0.000461	20.717575
951.261168	-2.996400	3.669500	-10.994000	25.132148	0.000460	20.723708
952.260466	-3.008800	3.669000	-11.038000	25.132816	0.000461	20.724853
953.258799	-3.006600	3.670000	-11.033000	25.124835	0.000460	20.700245
954.260046	-2.994800	3.668000	-10.984000	25.107139	0.000461	20.726104
955.264209	-3.010400	3.668200	-11.042000	25.132718	0.000461	20.703891
956.260017	-2.996600	3.667800	-10.990000	25.187548	0.000459	20.711046
957.261481	-3.000200	3.668000	-11.003000	25.142784	0.000458	20.693132
958.261444	-2.981200	3.668100	-10.934000	25.096195	0.000460	20.703736
959.261707	-3.008900	3.668200	-11.037000	25.105788	0.000461	20.704358
960.261093	-3.013300	3.666800	-11.048000	25.092587	0.000460	20.712918
961.261587	-3.003800	3.666200	-11.011000	25.044898	0.000459	20.705348
962.264962	-3.011800	3.667000	-11.043000	25.069233	0.000457	20.700852
963.264977	-3.002000	3.666800	-11.007000	25.066374	0.000459	20.707466
964.265411	-3.008000	3.665800	-11.026000	25.089918	0.000458	20.703125
965.263273	-3.003800	3.665400	-11.009000	25.096898	0.000456	20.697803
966.281496	-2.997900	3.665800	-10.988000	25.117663	0.000456	20.705847
967.262856	-2.990000	3.666100	-10.961000	25.118097	0.000457	20.713870
968.265918	-3.013100	3.665400	-11.043000	25.133383	0.000456	20.690806
969.264217	-3.027000	3.664500	-11.091000	25.084488	0.000456	20.719486
970.264747	-3.008500	3.665100	-11.025000	25.068813	0.000454	20.682886
971.267016	-3.011600	3.663600	-11.032000	25.042459	0.000457	20.696261
972.270511	-2.991400	3.664900	-10.962000	25.025104	0.000454	20.678839
973.267318	-2.995600	3.663400	-10.973000	25.051304	0.000454	20.692812
974.265735	-2.978300	3.664900	-10.914000	25.060401	0.000455	20.689141
975.277735	-3.000100	3.664100	-10.992000	25.074922	0.000456	20.709409
976.281698	-2.984000	3.663700	-10.932000	25.054432	0.000453	20.685994
977.267891	-2.991100	3.662900	-10.954000	25.044163	0.000455	20.701766
978.268446	-2.999900	3.662000	-10.985000	25.042298	0.000454	20.699893
979.267279	-2.988000	3.662800	-10.944000	25.050842	0.000453	20.681442
980.269244	-3.023200	3.662400	-11.070000	25.058400	0.000452	20.718903
981.267731	-3.002500	3.663400	-10.998000	25.080250	0.000455	20.685833
982.287508	-2.998100	3.663100	-10.981000	25.058736	0.000452	20.679408
983.284456	-3.004400	3.661800	-11.001000	25.074624	0.000452	20.701049
984.271799	-2.997500	3.662000	-10.976000	25.091947	0.000451	20.699472
985.289703	-3.020700	3.661000	-11.058000	25.117110	0.000449	20.690118
986.284595	-3.011300	3.661200	-11.023000	25.103406	0.000451	20.685369
987.270104	-2.998500	3.662100	-10.980000	25.142038	0.000450	20.693332
988.269946	-2.990700	3.661600	-10.950000	25.153993	0.000449	20.700118
989.273643	-2.994400	3.659500	-10.957000	25.141118	0.000449	20.690511
990.284755	-3.001100	3.659000	-10.980000	25.157698	0.000450	20.691035
991.292932	-3.000000	3.659100	-10.976000	25.168530	0.000449	20.684364
992.288836	-2.991500	3.658900	-10.944000	25.195874	0.000448	20.702809
993.272079	-2.987200	3.660000	-10.932000	25.174442	0.000449	20.708794
994.269639	-2.998000	3.658800	-10.969000	25.201779	0.000448	20.696409
995.272008	-2.987000	3.658300	-10.927000	25.219114	0.000449	20.694372
996.269210	-3.001300	3.657800	-10.978000	25.264764	0.000448	20.687571
997.274336	-3.001800	3.657600	-10.978000	25.242801	0.000446	20.670261
998.274271	-2.993000	3.658100	-10.948000	25.230694	0.000448	20.683237
999.290985	-3.025500	3.657100	-11.063000	25.189077	0.000448	20.691716
1000.296535	-2.986000	3.657700	-10.921000	25.191634	0.000447	20.693810
1001.297459	-2.989200	3.657100	-10.931000	25.194695	0.000446	20.702099
1002.284534	-3.004900	3.655600	-10.984000	25.159640	0.000446	20.689665
1003.290003	-2.993000	3.656600	-10.943000	25.144484	0.000444	20.667335
1004.293294	-2.992400	3.656900	-10.942000	25.150446	0.000444	20.685176
1005.292501	-2.979300	3.656800	-10.894000	25.123076	0.000446	20.692788
1006.289403	-2.981900	3.655700	-10.900000	25.126879	0.000445	20.675741
1007.301775	-2.981900	3.656300	-10.901000	25.156886	0.000445	20.691168
1008.289250	-3.009100	3.654800	-10.997000	25.201006	0.000446	20.669552
1009.292736	-2.982400	3.655700	-10.902000	25.194296	0.000445	20.687473
1010.295304	-3.012200	3.653300	-11.003000	25.200037	0.000445	20.685650
1011.300379	-3.016600	3.652700	-11.018000	25.207709	0.000444	20.685766
1012.293375	-2.980800	3.655900	-10.897000	25.233790	0.000442	20.687768
1013.291739	-2.978400	3.653800	-10.882000	25.224222	0.000442	20.680058
1014.293337	-3.007400	3.653000	-10.983000	25.192579	0.000442	20.675790
1015.291039	-2.992700	3.653700	-10.934000	25.185764	0.000441	20.682225
1016.297856	-2.979800	3.652300	-10.882000	25.171619	0.000441	20.683672
1017.296479	-2.999200	3.652100	-10.953000	25.179452	0.000441	20.674940
1018.290397	-2.984100	3.653400	-10.901000	25.224834	0.000440	20.669292
1019.291084	-2.972900	3.652300	-10.857000	25.256875	0.000440	20.686764
1020.293197	-3.008100	3.651200	-10.982000	25.251729	0.000440	20.691555
1021.299879	-3.012800	3.651500	-11.000000	25.252202	0.000440	20.690132
1022.277656	-3.020100	3.650600	-11.025000	25.228563	0.000441	20.682046
1023.294671	-3.002500	3.651100	-10.962000	25.231170	0.000438	20.695095
1024.275872	-2.988100	3.651300	-10.909000	25.220779	0.000441	20.672334
1025.281517	-3.004800	3.650600	-10.969000	25.203305	0.000436	20.690353
1026.276912	-3.001800	3.650700	-10.958000	25.158688	0.000439	20.688710
1027.282716	-2.990900	3.650700	-10.918000	25.156099	0.000439	20.689904
1028.278718	-3.012900	3.648300	-10.991000	25.137329	0.000436	20.677223
1029.278897	-3.016000	3.648600	-11.003000	25.165675	0.000440	20.687189
1030.278211	-2.983600	3.649100	-10.887000	25.184934	0.000437	20.674280
1031.279657	-3.007900	3.649000	-10.975000	25.202441	0.000438	20.693279
1032.296022	-2.993500	3.647900	-10.919000	25.157320	0.000435	20.692078
1033.295275	-2.991600	3.647800	-10.911000	25.110806	0.000435	20.676675
1034.299265	-2.995100	3.646800	-10.921000	25.143648	0.000435	20.681196
1035.303080	-3.000500	3.647800	-10.944000	25.150365	0.000435	20.678456
1036.279704	-2.994900	3.647800	-10.924000	25.136563	0.000435	20.696845
1037.280649	-3.015200	3.645700	-10.992000	25.099746	0.000435	20.683592
1038.279967	-2.986500	3.646800	-10.890000	25.104501	0.000434	20.695478
1039.298168	-3.008500	3.646200	-10.968000	25.107377	0.000435	20.686985
1040.280553	-2.996100	3.646600	-10.924000	25.130374	0.000432	20.701537
1041.304028	-3.007300	3.645200	-10.960000	25.174078	0.000435	20.682348
1042.285439	-2.987000	3.647100	-10.893000	25.200398	0.000434	20.677002
1043.297654	-3.016300	3.645200	-10.993000	25.186873	0.000431	20.671484
1044.300858	-2.992300	3.645800	-10.908000	25.182377	0.000433	20.678825
1045.294944	-3.033800	3.644100	-11.054000	25.214346	0.000431	20.684368
1046.281141	-3.010400	3.643900	-10.969000	25.224631	0.000432	20.683314
1047.282308	-3.005200	3.645300	-10.954000	25.229011	0.000432	20.706206
1048.284576	-2.995200	3.643500	-10.912000	25.259824	0.000432	20.688776
1049.285515	-3.003800	3.644300	-10.946000	25.266265	0.000431	20.685285
1050.282441	-3.010600	3.643100	-10.967000	25.224883	0.000429	20.686887
1051.282078	-2.999600	3.642800	-10.926000	25.204519	0.000429	20.682088
1052.287081	-3.002700	3.643900	-10.941000	25.167883	0.000430	20.690353
1053.282254	-3.008300	3.642500	-10.957000	25.199796	0.000429	20.703901
1054.286167	-2.976400	3.643600	-10.843000	25.236456	0.000428	20.680961
1055.301336	-2.980100	3.643300	-10.856000	25.270011	0.000427	20.694263
1056.285671	-2.993000	3.642000	-10.899000	25.281272	0.000427	20.700354
1057.287639	-2.976700	3.640400	-10.836000	25.300554	0.000428	20.692212
1058.284845	-2.981200	3.641500	-10.855000	25.230610	0.000429	20.717769
1059.286357	-2.985100	3.641500	-10.869000	25.236148	0.000427	20.689662
1060.285495	-3.016700	3.640900	-10.982000	25.264753	0.000426	20.722651
1061.290790	-2.992400	3.641500	-10.896000	25.239129	0.000427	20.707354
1062.287112	-3.021200	3.639900	-10.996000	25.231100	0.000426	20.685067
1063.303030	-3.010000	3.639700	-10.955000	25.225352	0.000427	20.680244
1064.285038	-2.995300	3.639900	-10.902000	25.177700	0.000427	20.696416
1065.289474	-3.007600	3.638200	-10.941000	25.168841	0.000426	20.714077
1066.285376	-3.013700	3.638200	-10.964000	25.173019	0.000424	20.705942
1067.289866	-3.014000	3.637600	-10.962000	25.214979	0.000424	20.701127
1068.289145	-2.993900	3.638800	-10.894000	25.237943	0.000424	20.691938
1069.286068	-2.997600	3.637900	-10.904000	25.249204	0.000425	20.708935
1070.304576	-3.006300	3.636600	-10.931000	25.281563	0.000424	20.709181
1071.285733	-2.991600	3.638400	-10.884000	25.295699	0.000423	20.716262
1072.287847	-2.994500	3.636800	-10.890000	25.285456	0.000425	20.704081
1073.289149	-2.998500	3.636800	-10.905000	25.285229	0.000424	20.716182
1074.289029	-3.015500	3.636300	-10.964000	25.219632	0.000423	20.704376
1075.291624	-3.022100	3.635300	-10.985000	25.219944	0.000420	20.716069
1076.292016	-3.004300	3.636000	-10.922000	25.232426	0.000423	20.706789
1077.288321	-2.999700	3.634800	-10.902000	25.253182	0.000422	20.704394
1078.294770	-3.007700	3.634500	-10.932000	25.280248	0.000422	20.703593
1079.292738	-2.997500	3.634400	-10.893000	25.233584	0.000422	20.711271
1080.288003	-2.989400	3.636200	-10.869000	25.269207	0.000419	20.695827
1081.292468	-2.996800	3.633900	-10.890000	25.237810	0.000419	20.709350
1082.294045	-2.984300	3.634700	-10.845000	25.257149	0.000418	20.707429
1083.290440	-3.010700	3.633600	-10.939000	25.219017	0.000419	20.702810
1084.293202	-2.977700	3.634300	-10.821000	25.209190	0.000418	20.710488
1085.300486	-3.013800	3.632400	-10.947000	25.225598	0.000419	20.734549
1086.295306	-3.007700	3.633500	-10.928000	25.222064	0.000416	20.700179
1087.296898	-3.002000	3.633200	-10.906000	25.211779	0.000417	20.707397
1088.298858	-3.007400	3.632600	-10.923000	25.251573	0.000417	20.705623
1089.296259	-3.006100	3.631200	-10.915000	25.263747	0.000418	20.715476
1090.310497	-3.005200	3.632200	-10.915000	25.272149	0.000418	20.715378
1091.311900	-2.999300	3.631600	-10.891000	25.246420	0.000418	20.718469
1092.313972	-3.024700	3.631600	-10.984000	25.248358	0.000417	20.725631
1093.313750	-2.992400	3.631900	-10.867000	25.279195	0.000417	20.726245
1094.326749	-2.998000	3.630500	-10.883000	25.306592	0.000416	20.727201
1095.323189	-2.994900	3.630700	-10.873000	25.261844	0.000414	20.729688
1096.329621	-3.022800	3.629700	-10.971000	25.235747	0.000414	20.721029
1097.316488	-2.989100	3.629400	-10.848000	25.260543	0.000413	20.759203
1098.315575	-3.028300	3.629500	-10.989000	25.247326	0.000413	20.740717
1099.314693	-2.984100	3.629800	-10.831000	25.301783	0.000413	20.737071
1100.317771	-2.980800	3.630200	-10.820000	25.286443	0.000414	20.719298
1101.315079	-3.002000	3.628300	-10.890000	25.298869	0.000413	20.729877
1102.316448	-2.989200	3.629700	-10.849000	25.295815	0.000411	20.726337
1103.322586	-2.997200	3.628500	-10.874000	25.297127	0.000412	20.733818
1104.314808	-3.010900	3.628300	-10.924000	25.334605	0.000412	20.725455
1105.318746	-3.008200	3.627700	-10.912000	25.311189	0.000409	20.728023
1106.333757	-3.003000	3.626600	-10.890000	25.275071	0.000410	20.720208
1107.313762	-3.003500	3.626700	-10.892000	25.308429	0.000409	20.726674
1108.301850	-3.018500	3.626100	-10.944000	25.312882	0.000409	20.723559
1109.298756	-3.011800	3.626200	-10.920000	25.355726	0.000410	20.750457
1110.298815	-2.982600	3.626200	-10.815000	25.395773	0.000409	20.726657
1111.300467	-3.010300	3.624500	-10.910000	25.394976	0.000408	20.739607
1112.300259	-2.987300	3.625600	-10.829000	25.385207	0.000408	20.748290
1113.300830	-3.001000	3.625200	-10.878000	25.422486	0.000406	20.734040
1114.299794	-2.992600	3.624400	-10.846000	25.408971	0.000407	20.744651
1115.309359	-3.002900	3.623900	-10.882000	25.410908	0.000406	20.731423
1116.298154	-2.980700	3.625600	-10.806000	25.402636	0.000408	20.731651
1117.315869	-3.001000	3.624400	-10.875000	25.398036	0.000406	20.741732
1118.324527	-2.999100	3.623200	-10.865000	25.355586	0.000409	20.736091
1119.305384	-2.982600	3.623300	-10.806000	25.391132	0.000408	20.737643
1120.315991	-3.009300	3.623900	-10.905000	25.391604	0.000405	20.742385
1121.298231	-3.001500	3.622100	-10.871000	25.382405	0.000408	20.738364
1122.308989	-2.998100	3.623100	-10.862000	25.362407	0.000404	20.731560
1123.320618	-2.995200	3.622300	-10.848000	25.343291	0.000404	20.749824
1124.315988	-2.988600	3.620700	-10.820000	25.311511	0.000404	20.736881
1125.298301	-2.993100	3.620900	-10.837000	25.279839	0.000405	20.760084
1126.336505	-2.991900	3.621300	-10.832000	25.271915	0.000405	20.735532
1127.320732	-3.004500	3.620500	-10.876000	25.305421	0.000404	20.735033
1128.324090	-3.005200	3.621100	-10.880000	25.327910	0.000405	20.732958
1129.326286	-3.002100	3.619600	-10.865000	25.354208	0.000403	20.745613
1130.325063	-2.988100	3.620200	-10.817000	25.396658	0.000404	20.751254
1131.318619	-2.993700	3.620000	-10.836000	25.334252	0.000401	20.745016
1132.307647	-2.983100	3.619700	-10.797000	25.335773	0.000402	20.751285
1133.320775	-2.974200	3.619500	-10.765000	25.362690	0.000400	20.744173
1134.317725	-2.999400	3.620600	-10.859000	25.351927	0.000400	20.749961
1135.321137	-2.993900	3.618700	-10.832000	25.335945	0.000400	20.762838
1136.331113	-2.985400	3.618300	-10.801000	25.314645	0.000400	20.735286
1137.306666	-3.007400	3.617500	-10.878000	25.312585	0.000400	20.741278
1138.304780	-2.982900	3.620100	-10.798000	25.358164	0.000402	20.753379
1139.302335	-3.005300	3.616300	-10.868000	25.362193	0.000399	20.762167
1140.304320	-2.989600	3.617000	-10.813000	25.387987	0.000399	20.753453
1141.322928	-3.011200	3.615900	-10.887000	25.364457	0.000398	20.754956
1142.317240	-3.009600	3.615400	-10.880000	25.313106	0.000399	20.746069
1143.325063	-2.998500	3.616900	-10.845000	25.312910	0.000398	20.740183
1144.320392	-2.986900	3.617200	-10.803000	25.300908	0.000397	20.752314
1145.323586	-2.999000	3.614300	-10.839000	25.307096	0.000398	20.752364
1146.321276	-2.994100	3.615800	-10.825000	25.312014	0.000396	20.756828
1147.332984	-3.003900	3.615600	-10.860000	25.248837	0.000398	20.740811
1148.311225	-2.988600	3.614600	-10.802000	25.281791	0.000397	20.768208
1149.302135	-2.971700	3.614500	-10.740000	25.252363	0.000396	20.746248
1150.305947	-3.005000	3.612800	-10.855000	25.259829	0.000397	20.756589
1151.304370	-3.019600	3.611900	-10.906000	25.307894	0.000397	20.753639
1152.310041	-3.008100	3.613100	-10.867000	25.343189	0.000395	20.769637
1153.302643	-2.977600	3.612500	-10.756000	25.346844	0.000393	20.761928
1154.328871	-2.995300	3.613500	-10.823000	25.396077	0.000395	20.759680
1155.322742	-3.012700	3.611700	-10.879000	25.399837	0.000395	20.777680
1156.329476	-2.992000	3.612300	-10.807000	25.360018	0.000394	20.768517
1157.324129	-3.004900	3.611300	-10.851000	25.331268	0.000393	20.767625
1158.321889	-2.996900	3.610800	-10.820000	25.327742	0.000393	20.787318
1159.319972	-3.008300	3.612600	-10.867000	25.335647	0.000395	20.752107
1160.340424	-3.006900	3.611100	-10.857000	25.338082	0.000393	20.772096
1161.329150	-3.007900	3.610100	-10.858000	25.339082	0.000393	20.772152
1162.310266	-3.001700	3.609600	-10.834000	25.379700	0.000393	20.756511
1163.310397	-3.001500	3.610600	-10.837000	25.407627	0.000392	20.748517
1164.320570	-2.999800	3.609200	-10.826000	25.380417	0.000393	20.772879
1165.336162	-2.983200	3.608900	-10.765000	25.364043	0.000392	20.792948
1166.311894	-2.979400	3.609000	-10.752000	25.359573	0.000391	20.760010
1167.310780	-2.992400	3.608800	-10.798000	25.381442	0.000389	20.779124
1168.328919	-3.006100	3.607500	-10.844000	25.405476	0.000388	20.760582
1169.332512	-3.020000	3.607500	-10.894000	25.347540	0.000388	20.779696
1170.317250	-3.013200	3.607200	-10.868000	25.319140	0.000388	20.782474
1171.337730	-2.987400	3.607600	-10.776000	25.326664	0.000388	20.774856
1172.330962	-3.019300	3.607500	-10.890000	25.370270	0.000390	20.780708
1173.328717	-3.010400	3.607700	-10.859000	25.345885	0.000389	20.763810
1174.328208	-3.006300	3.606800	-10.842000	25.355729	0.000391	20.785548
1175.313083	-2.984700	3.607900	-10.768000	25.352693	0.000386	20.783447
1176.312532	-3.011000	3.605900	-10.856000	25.384712	0.000387	20.777666
1177.314279	-3.039500	3.604800	-10.956000	25.381033	0.000387	20.779187
1178.316914	-2.988500	3.605000	-10.773000	25.348229	0.000388	20.786078
1179.329638	-3.003900	3.606000	-10.831000	25.361679	0.000385	20.785832
1180.333002	-2.988800	3.605300	-10.775000	25.344832	0.000384	20.784090
1181.320712	-3.001500	3.603800	-10.816000	25.338197	0.000387	20.773160
1182.340726	-3.031300	3.603900	-10.923000	25.354700	0.000385	20.788782
1183.325593	-2.987800	3.604300	-10.768000	25.339809	0.000385	20.789004
1184.323775	-2.973200	3.604600	-10.717000	25.364218	0.000384	20.792175
1185.322008	-3.008300	3.601600	-10.834000	25.417284	0.000383	20.769120
1186.338110	-3.007700	3.603100	-10.836000	25.441845	0.000385	20.795680
1187.343946	-3.005000	3.601500	-10.822000	25.466545	0.000383	20.774016
1188.318532	-3.011700	3.601300	-10.844000	25.490779	0.000384	20.781758
1189.316912	-3.005000	3.601400	-10.821000	25.465649	0.000382	20.774540
1190.317731	-2.996900	3.600800	-10.790000	25.424122	0.000383	20.784048
1191.319653	-3.013400	3.601100	-10.851000	25.427630	0.000381	20.794209
1192.319615	-3.004900	3.601500	-10.821000	25.419382	0.000380	20.801574
1193.339470	-3.021800	3.600900	-10.881000	25.454128	0.000378	20.790946
1194.341788	-3.007800	3.600000	-10.827000	25.394069	0.000380	20.806501
1195.338181	-2.998900	3.600400	-10.796000	25.384397	0.000378	20.795842
1196.343773	-3.006000	3.600800	-10.822000	25.439309	0.000380	20.813996
1197.360061	-2.990400	3.600900	-10.766000	25.457668	0.000380	20.799716
1198.336460	-3.006800	3.600600	-10.826000	25.452180	0.000379	20.778558
1199.349697	-3.007900	3.598200	-10.822000	25.437843	0.000379	20.790714
1200.338632	-2.998100	3.598100	-10.787000	25.456657	0.000378	20.794433
1201.339651	-2.977900	3.599100	-10.717000	25.443118	0.000376	20.801226
1202.340695	-2.988200	3.599300	-10.755000	25.437434	0.000377	20.803105
1203.348469	-2.984300	3.598100	-10.737000	25.433852	0.000377	20.791578
1204.336114	-2.996000	3.597600	-10.777000	25.417357	0.000377	20.803807
1205.338784	-2.977400	3.597700	-10.711000	25.427542	0.000377	20.803604
1206.342251	-2.999900	3.597100	-10.790000	25.438410	0.000376	20.825421
1207.340247	-3.018500	3.596600	-10.856000	25.424202	0.000374	20.784128
1208.342681	-3.019200	3.595600	-10.856000	25.415279	0.000374	20.814049
1209.340440	-2.984100	3.596800	-10.732000	25.382347	0.000374	20.817965
1210.342133	-3.009600	3.595300	-10.819000	25.395079	0.000375	20.794240
1211.323523	-3.027300	3.596200	-10.885000	25.370475	0.000373	20.795139
1212.334522	-2.990900	3.596300	-10.755000	25.411288	0.000374	20.810990
1213.324659	-2.991500	3.595800	-10.756000	25.416955	0.000374	20.811938
1214.343043	-2.988000	3.595000	-10.741000	25.424289	0.000374	20.796070
1215.359583	-2.996100	3.594300	-10.768000	25.450088	0.000372	20.827666
1216.344941	-2.983200	3.595500	-10.724000	25.456650	0.000374	20.828090
1217.344600	-2.989800	3.594400	-10.745000	25.452830	0.000372	20.812402
1218.356216	-2.991700	3.594300	-10.752000	25.429179	0.000374	20.820894
1219.356029	-3.010700	3.592000	-10.814000	25.403551	0.000371	20.785677
1220.344504	-3.012300	3.591300	-10.817000	25.388766	0.000371	20.820617
1221.372536	-3.000000	3.591700	-10.774000	25.398560	0.000371	20.814804
1222.347283	-3.022500	3.590700	-10.852000	25.408556	0.000369	20.819626
1223.354858	-3.002500	3.591500	-10.783000	25.415069	0.000372	20.825218
1224.348920	-2.996900	3.591400	-10.762000	25.431050	0.000369	20.827040
1225.360675	-2.996900	3.591900	-10.763000	25.416542	0.000369	20.827170
1226.354086	-3.006800	3.589500	-10.791000	25.430089	0.000367	20.816592
1227.350928	-3.010800	3.590200	-10.809000	25.470451	0.000369	20.809234
1228.330959	-2.999700	3.589800	-10.767000	25.470427	0.000368	20.829123
1229.339798	-3.017600	3.589700	-10.831000	25.459493	0.000367	20.830946
1230.334864	-3.019500	3.589000	-10.836000	25.490510	0.000370	20.830798
1231.331332	-3.000400	3.590600	-10.772000	25.495403	0.000367	20.819591
1232.331067	-3.006500	3.589400	-10.791000	25.483280	0.000368	20.825435
1233.334143	-3.000200	3.589500	-10.768000	25.467405	0.000366	20.846002
1234.338602	-3.003100	3.588500	-10.776000	25.390130	0.000365	20.811555
1235.333935	-2.992800	3.588700	-10.739000	25.407609	0.000363	20.818200
1236.345612	-3.015600	3.587400	-10.817000	25.418273	0.000364	20.827486
1237.331129	-3.004000	3.588000	-10.778000	25.472826	0.000367	20.845282
1238.339541	-2.992900	3.587200	-10.736000	25.503549	0.000365	20.820659
1239.345726	-3.009200	3.587500	-10.795000	25.531154	0.000364	20.830363
1240.334914	-2.996900	3.586800	-10.749000	25.514499	0.000363	20.791827
1241.338552	-3.003600	3.585500	-10.768000	25.470221	0.000364	20.836976
1242.335693	-3.022500	3.585400	-10.836000	25.469129	0.000365	20.843467
1243.335727	-3.017200	3.584600	-10.814000	25.458318	0.000364	20.806059
1244.338664	-3.002900	3.585200	-10.765000	25.398325	0.000361	20.818362
1245.339769	-2.997800	3.586000	-10.749000	25.388287	0.000361	20.828196
1246.342155	-3.006300	3.584000	-10.774000	25.410130	0.000360	20.833534
1247.336616	-2.993700	3.584400	-10.730000	25.446367	0.000363	20.809704
1248.336403	-3.004200	3.583900	-10.766000	25.451162	0.000362	20.817839
1249.338166	-3.002900	3.583100	-10.759000	25.479475	0.000362	20.828726
1250.333107	-3.003900	3.583600	-10.764000	25.501408	0.000362	20.826570
1251.331966	-3.021600	3.583500	-10.827000	25.552253	0.000360	20.823103
1252.335201	-2.975600	3.583900	-10.664000	25.497386	0.000360	20.795504
1253.341427	-3.026000	3.582500	-10.840000	25.455086	0.000360	20.800443
1254.332061	-2.987300	3.582700	-10.701000	25.432876	0.000359	20.812279
1255.332070	-3.010100	3.582100	-10.782000	25.458741	0.000358	20.808854
1256.342624	-2.999500	3.582600	-10.745000	25.459361	0.000358	20.814217
1257.339466	-3.018100	3.580600	-10.806000	25.526897	0.000358	20.808545
1258.338644	-2.999900	3.581600	-10.744000	25.479681	0.000356	20.811864
1259.345390	-3.001900	3.581800	-10.751000	25.482392	0.000356	20.811267
1260.349172	-2.982600	3.580300	-10.678000	25.488376	0.000357	20.803052
1261.337343	-3.015800	3.579600	-10.794000	25.540264	0.000356	20.827184
1262.335950	-3.016200	3.580300	-10.798000	25.506042	0.000356	20.796611
1263.343051	-2.986600	3.579800	-10.690000	25.521273	0.000356	20.799104
1264.343224	-2.997800	3.579500	-10.730000	25.522267	0.000355	20.793464
1265.345320	-3.010900	3.579000	-10.775000	25.543164	0.000358	20.794535
1266.339118	-2.990700	3.578400	-10.702000	25.530010	0.000356	20.787963
1267.343120	-3.009100	3.578600	-10.768000	25.512614	0.000355	20.799417
1268.338031	-2.993500	3.577800	-10.710000	25.485554	0.000355	20.804011
1269.352808	-2.996600	3.577600	-10.720000	25.485970	0.000355	20.791627
1270.338016	-2.990300	3.577500	-10.697000	25.476827	0.000357	20.776282
1271.352923	-2.995600	3.576200	-10.712000	25.468272	0.000353	20.792347
1272.347519	-2.989000	3.576800	-10.690000	25.498816	0.000354	20.768965
1273.343966	-3.011000	3.576000	-10.767000	25.533130	0.000354	20.781139
1274.350379	-3.011200	3.575200	-10.764000	25.543248	0.000352	20.790826
1275.340617	-3.003800	3.575600	-10.739000	25.519039	0.000352	20.787377
1276.340135	-3.008000	3.574700	-10.751000	25.554694	0.000352	20.792364
1277.349067	-2.983800	3.574500	-10.665000	25.522809	0.000351	20.782154
1278.352792	-3.004100	3.573700	-10.735000	25.526936	0.000350	20.774445
1279.343851	-2.986400	3.575000	-10.675000	25.519756	0.000353	20.777191
1280.344398	-2.980100	3.573400	-10.648000	25.481983	0.000351	20.795209
1281.343328	-3.001200	3.572500	-10.721000	25.461323	0.000352	20.782049
1282.348218	-3.033900	3.572200	-10.837000	25.459367	0.000348	20.779611
1283.343564	-3.014900	3.571200	-10.766000	25.494570	0.000352	20.809272
1284.346274	-3.011900	3.571900	-10.757000	25.537911	0.000349	20.794475
1285.343812	-2.991700	3.573200	-10.689000	25.517412	0.000350	20.794279
1286.355730	-2.998100	3.572500	-10.710000	25.536249	0.000348	20.791384
1287.346208	-2.997700	3.573300	-10.711000	25.576300	0.000348	20.787036
1288.355452	-3.016800	3.571000	-10.772000	25.591261	0.000348	20.773138
1289.355702	-3.005900	3.572000	-10.736000	25.623991	0.000349	20.778034
1290.348596	-2.995700	3.571600	-10.698000	25.632237	0.000348	20.772091
1291.346009	-3.010000	3.570800	-10.747000	25.624309	0.000347	20.779302
1292.347354	-3.008000	3.570100	-10.738000	25.624089	0.000344	20.773391
1293.357195	-3.010100	3.570400	-10.747000	25.599165	0.000344	20.765428
1294.347595	-3.001100	3.569000	-10.710000	25.578091	0.000346	20.760385
1295.355484	-2.988100	3.570400	-10.667000	25.562885	0.000347	20.763131
1296.351324	-2.998200	3.568800	-10.699000	25.582984	0.000346	20.763876
1297.353532	-2.990200	3.570100	-10.674000	25.582137	0.000344	20.771087
1298.348862	-3.007900	3.567100	-10.729000	25.557219	0.000341	20.766451
1299.358711	-2.996800	3.567800	-10.691000	25.558506	0.000343	20.789555
1300.363507	-2.978300	3.568600	-10.627000	25.567354	0.000343	20.780897
1301.355389	-2.979300	3.568300	-10.630000	25.575601	0.000342	20.760729
1302.354529	-2.994300	3.566400	-10.678000	25.590286	0.000342	20.759356
1303.356335	-2.984300	3.566800	-10.643000	25.534679	0.000341	20.763729
1304.350081	-2.975100	3.566200	-10.608000	25.464946	0.000342	20.766721
1305.363018	-2.952000	3.567000	-10.528000	25.453320	0.000342	20.783970
1306.352991	-3.022600	3.564800	-10.773000	25.447427	0.000342	20.755766
1307.349400	-3.010500	3.565100	-10.731000	25.477254	0.000341	20.765330
1308.357536	-3.002000	3.565200	-10.702000	25.492308	0.000339	20.775231
1309.350851	-3.021400	3.565200	-10.771000	25.509410	0.000339	20.777708
1310.352908	-2.976600	3.566100	-10.614000	25.495994	0.000342	20.760915
1311.353535	-3.014200	3.564700	-10.743000	25.545661	0.000340	20.762903
1312.354105	-3.002100	3.563300	-10.696000	25.523208	0.000342	20.763114
1313.355041	-2.990400	3.564400	-10.658000	25.506210	0.000338	20.765485
1314.360834	-2.990400	3.563800	-10.656000	25.506927	0.000338	20.780904
1315.355514	-3.031800	3.563400	-10.802000	25.497767	0.000338	20.775024
1316.354345	-2.978800	3.563800	-10.615000	25.506983	0.000339	20.756303
1317.354846	-2.999000	3.562200	-10.682000	25.523491	0.000338	20.761976
1318.353039	-2.985800	3.562800	-10.637000	25.531843	0.000337	20.753767
1319.365707	-2.994100	3.561700	-10.663000	25.568344	0.000337	20.747751
1320.353552	-3.031800	3.560000	-10.793000	25.499093	0.000334	20.768769
1321.355694	-3.005300	3.560600	-10.699000	25.509382	0.000334	20.764877
1322.362272	-3.015500	3.560100	-10.735000	25.510008	0.000335	20.759342
1323.359324	-3.021500	3.560900	-10.758000	25.448773	0.000337	20.758541
1324.360621	-3.003300	3.559900	-10.690000	25.456555	0.000332	20.760666
1325.360165	-2.988200	3.559300	-10.636000	25.483291	0.000333	20.754797
1326.363999	-3.008900	3.559400	-10.709000	25.533770	0.000334	20.762341
1327.358443	-2.972600	3.560400	-10.583000	25.504626	0.000332	20.737814
1328.364279	-3.017400	3.558100	-10.735000	25.454943	0.000334	20.751460
1329.363112	-2.987900	3.557700	-10.628000	25.494532	0.000332	20.752809
1330.372280	-2.978000	3.559500	-10.599000	25.548070	0.000332	20.760107
1331.361073	-2.999800	3.558600	-10.674000	25.544440	0.000333	20.740340
1332.368198	-2.990700	3.558200	-10.641000	25.539075	0.000334	20.752496
1333.360546	-3.001600	3.556900	-10.675000	25.551945	0.000330	20.740290
1334.368797	-3.011100	3.557400	-10.711000	25.493007	0.000329	20.747010
1335.356271	-2.994400	3.557300	-10.651000	25.497508	0.000331	20.748685
1336.357186	-3.012700	3.556300	-10.713000	25.486967	0.000328	20.753746
1337.369278	-2.998500	3.556000	-10.661000	25.463764	0.000331	20.739929
1338.362231	-2.996600	3.555600	-10.654000	25.473305	0.000331	20.760416
1339.359414	-2.993500	3.555800	-10.643000	25.487397	0.000329	20.736634
1340.362125	-3.007400	3.554800	-10.689000	25.491874	0.000329	20.747768
1341.366573	-2.998400	3.554700	-10.657000	25.467940	0.000329	20.745071
1342.366859	-2.999100	3.554500	-10.659000	25.475152	0.000328	20.746623
1343.367623	-2.990800	3.554100	-10.629000	25.487257	0.000327	20.735545
1344.363244	-3.004700	3.555100	-10.681000	25.490832	0.000329	20.743877
1345.363635	-3.026100	3.553500	-10.752000	25.487355	0.000328	20.733747
1346.366460	-3.007100	3.551600	-10.680000	25.515937	0.000329	20.749173
1347.366823	-2.997200	3.553100	-10.648000	25.539852	0.000325	20.743318
1348.367050	-2.987300	3.552300	-10.611000	25.553561	0.000325	20.744284
1349.377994	-2.985700	3.551900	-10.604000	25.582791	0.000326	20.742345
1350.367537	-2.991500	3.553600	-10.630000	25.593031	0.000325	20.727024
1351.365949	-2.973600	3.551700	-10.561000	25.540551	0.000326	20.737856
1352.387137	-2.993300	3.552200	-10.631000	25.554586	0.000325	20.724449
1353.373814	-2.980600	3.551400	-10.584000	25.567211	0.000324	20.735233
1354.367700	-3.017000	3.549900	-10.709000	25.593259	0.000324	20.732468
1355.373655	-2.999800	3.549500	-10.647000	25.647925	0.000323	20.734741
1356.371227	-3.024700	3.549500	-10.735000	25.651849	0.000323	20.744846
1357.369051	-3.005500	3.549500	-10.667000	25.678831	0.000321	20.736859
1358.366004	-3.004900	3.548800	-10.663000	25.639826	0.000323	20.718545
1359.381165	-2.985500	3.549300	-10.595000	25.612948	0.000321	20.728535
1360.376274	-2.986700	3.548000	-10.596000	25.616969	0.000323	20.730203
1361.366153	-2.975800	3.549100	-10.561000	25.598833	0.000320	20.739964
1362.374595	-2.981500	3.549000	-10.581000	25.585289	0.000321	20.731102
1363.383611	-3.007400	3.546800	-10.666000	25.593787	0.000321	20.730154
1364.376527	-3.000700	3.547900	-10.645000	25.610489	0.000322	20.737446
1365.369935	-3.023500	3.546600	-10.722000	25.575699	0.000320	20.736171
1366.367791	-3.024200	3.547300	-10.727000	25.550928	0.000319	20.729785
1367.367559	-3.024900	3.544800	-10.722000	25.531773	0.000320	20.725247
1368.369020	-3.018200	3.545100	-10.700000	25.518154	0.000319	20.714889
1369.371778	-3.001700	3.545900	-10.643000	25.559451	0.000319	20.709420
1370.372384	-3.019400	3.545200	-10.703000	25.534330	0.000320	20.724495
1371.369827	-3.001800	3.544800	-10.640000	25.530787	0.000318	20.736585
1372.369464	-2.988600	3.545600	-10.594000	25.532791	0.000319	20.729114
1373.372066	-2.990200	3.545300	-10.600000	25.498135	0.000319	20.715173
1374.374415	-2.989300	3.544500	-10.595000	25.508368	0.000318	20.720709
1375.373173	-2.989400	3.543500	-10.592000	25.557674	0.000318	20.719490
1376.372434	-3.005600	3.544200	-10.652000	25.508442	0.000318	20.717937
1377.371570	-3.003800	3.543800	-10.644000	25.513433	0.000318	20.711569
1378.373950	-2.997400	3.544100	-10.623000	25.458196	0.000317	20.725802
1379.372882	-2.965700	3.542500	-10.504000	25.489213	0.000315	20.737035
1380.372523	-2.994900	3.542700	-10.608000	25.471938	0.000318	20.720635
1381.377209	-2.994100	3.542400	-10.606000	25.527303	0.000316	20.745890
1382.373193	-2.994300	3.542200	-10.606000	25.502034	0.000316	20.726202
1383.383832	-2.980200	3.541600	-10.553000	25.460655	0.000314	20.716417
1384.381492	-2.995300	3.542000	-10.609000	25.529143	0.000315	20.714544
1385.378131	-2.987500	3.541100	-10.577000	25.580606	0.000316	20.709328
1386.379605	-3.004800	3.541400	-10.641000	25.587411	0.000317	20.717586
1387.376420	-3.001700	3.540300	-10.626000	25.583481	0.000315	20.711741
1388.385231	-3.001000	3.540500	-10.623000	25.603610	0.000315	20.723898
1389.383286	-3.009200	3.539000	-10.648000	25.613224	0.000315	20.708422
1390.380315	-2.992500	3.540500	-10.593000	25.587828	0.000314	20.731755
1391.380356	-2.980800	3.539600	-10.549000	25.568991	0.000314	20.712363
1392.391879	-2.989700	3.539000	-10.580000	25.563326	0.000314	20.731805
1393.377904	-3.009900	3.538100	-10.648000	25.553810	0.000314	20.718454
1394.387146	-2.994400	3.537800	-10.593000	25.523690	0.000313	20.706223
1395.378141	-3.003900	3.536800	-10.623000	25.504357	0.000315	20.729009
1396.384591	-2.980500	3.538000	-10.544000	25.479007	0.000312	20.712086
1397.379111	-3.019500	3.536700	-10.678000	25.518791	0.000313	20.719321
1398.394983	-3.031400	3.535600	-10.716000	25.518773	0.000310	20.730210
1399.387806	-2.986600	3.537700	-10.565000	25.497225	0.000310	20.718528
1400.382220	-3.017500	3.534100	-10.662000	25.501891	0.000310	20.702349
1401.386721	-3.012500	3.536600	-10.653000	25.546126	0.000310	20.719746
1402.381994	-3.005400	3.533700	-10.620000	25.614682	0.000309	20.717000
1403.381813	-3.005400	3.535500	-10.624000	25.556887	0.000311	20.700680
1404.383957	-3.003800	3.535300	-10.618000	25.558206	0.000308	20.712911
1405.383782	-3.016700	3.532900	-10.657000	25.496876	0.000308	20.712960
1406.387620	-2.981800	3.534400	-10.537000	25.478486	0.000308	20.676472
1407.386325	-2.974000	3.534300	-10.510000	25.502965	0.000308	20.724291
1408.396142	-2.998500	3.531900	-10.590000	25.492227	0.000307	20.708766
1409.387603	-3.013900	3.532400	-10.646000	25.486813	0.000307	20.701432
1410.396034	-2.987600	3.532500	-10.552000	25.539694	0.000308	20.696216
1411.388880	-2.987000	3.533600	-10.554000	25.579770	0.000306	20.683356
1412.391520	-3.001300	3.533000	-10.602000	25.617644	0.000306	20.721397
1413.387767	-3.008900	3.531300	-10.624000	25.644009	0.000306	20.700459
1414.387151	-2.995200	3.530900	-10.575000	25.608527	0.000306	20.711292
1415.403291	-3.004100	3.532000	-10.610000	25.605278	0.000306	20.680051
1416.403125	-2.988700	3.531500	-10.554000	25.586117	0.000307	20.701113
1417.392601	-3.011900	3.529700	-10.630000	25.539824	0.000308	20.698717
1418.387882	-2.994200	3.531200	-10.571000	25.557195	0.000304	20.702412
1419.389152	-2.991100	3.530600	-10.559000	25.526954	0.000304	20.698594
1420.392884	-3.013400	3.529500	-10.635000	25.525033	0.000305	20.685759
1421.393263	-3.019200	3.528800	-10.653000	25.570334	0.000302	20.711815
1422.402100	-2.983600	3.528600	-10.527000	25.563203	0.000303	20.693273
1423.396428	-3.010500	3.527800	-10.619000	25.544147	0.000302	20.694997
1424.392631	-2.955300	3.529700	-10.430000	25.553313	0.000303	20.707049
1425.393757	-2.991900	3.527800	-10.554000	25.590604	0.000302	20.689022
1426.393280	-3.017800	3.527200	-10.643000	25.616252	0.000302	20.700083
1427.396676	-3.012600	3.526300	-10.623000	25.603921	0.000302	20.689595
1428.394236	-2.989500	3.525900	-10.540000	25.638931	0.000301	20.691091
1429.409540	-2.994900	3.527700	-10.565000	25.621383	0.000301	20.687217
1430.408259	-3.007400	3.525700	-10.602000	25.582945	0.000301	20.696030
1431.395430	-3.007900	3.525200	-10.602000	25.582963	0.000301	20.679925
1432.397396	-2.991500	3.525300	-10.545000	25.614570	0.000299	20.696023
1433.396868	-3.022900	3.523700	-10.650000	25.633381	0.000299	20.692155
1434.399512	-2.976300	3.524600	-10.489000	25.631608	0.000299	20.699384
1435.393968	-3.006100	3.525100	-10.596000	25.625992	0.000299	20.699908
1436.407023	-3.001000	3.522900	-10.571000	25.624250	0.000299	20.689623
1437.409161	-2.999100	3.524200	-10.568000	25.657468	0.000298	20.679362
1438.405045	-3.005300	3.522300	-10.584000	25.644844	0.000297	20.701773
1439.401787	-2.975800	3.523600	-10.484000	25.612570	0.000297	20.684530
1440.405684	-2.988200	3.523000	-10.526000	25.562665	0.000295	20.688938
1441.397917	-2.988500	3.522800	-10.527000	25.507651	0.000297	20.684424
1442.400516	-3.025200	3.520800	-10.650000	25.550641	0.000297	20.692510
1443.405627	-2.996000	3.521000	-10.548000	25.560328	0.000296	20.691808
1444.405423	-3.008700	3.520900	-10.592000	25.565865	0.000296	20.681719
1445.397795	-3.039800	3.519100	-10.696000	25.556275	0.000295	20.678252
1446.403362	-2.994000	3.521400	-10.542000	25.589307	0.000296	20.681080
1447.399529	-3.000200	3.520700	-10.562000	25.620256	0.000296	20.701734
1448.410613	-3.019400	3.518200	-10.622000	25.596259	0.000296	20.664353
1449.399739	-2.977600	3.520600	-10.481000	25.621526	0.000293	20.663650
1450.404736	-3.019200	3.518200	-10.621000	25.602974	0.000295	20.672520
1451.405809	-3.010200	3.518100	-10.589000	25.577122	0.000293	20.684017
1452.405618	-3.008400	3.518600	-10.585000	25.550064	0.000292	20.672962
1453.406955	-3.011500	3.516600	-10.590000	25.555803	0.000291	20.667820
1454.404555	-3.007900	3.516800	-10.578000	25.528111	0.000293	20.667037
1455.406608	-2.997600	3.516900	-10.540000	25.566753	0.000293	20.682137
1456.402838	-3.000000	3.518300	-10.554000	25.598759	0.000293	20.681565
1457.406432	-3.004800	3.517300	-10.567000	25.630391	0.000292	20.677771
1458.418150	-3.036300	3.515800	-10.673000	25.620428	0.000292	20.683887
1459.409353	-2.979800	3.517600	-10.480000	25.602022	0.000290	20.682471
1460.407776	-2.983500	3.516000	-10.488000	25.589586	0.000293	20.673774
1461.413020	-3.002500	3.516000	-10.556000	25.629244	0.000291	20.692742
1462.404418	-2.997000	3.514400	-10.531000	25.613965	0.000291	20.701579
1463.413923	-3.011900	3.515000	-10.585000	25.660476	0.000290	20.687599
1464.406691	-2.980500	3.514000	-10.473000	25.640078	0.000290	20.671378
1465.406507	-2.981700	3.513500	-10.475000	25.675803	0.000292	20.678337
1466.407453	-2.987900	3.515000	-10.502000	25.677862	0.000290	20.696528
1467.411128	-3.030900	3.512800	-10.646000	25.714188	0.000291	20.685597
1468.411276	-2.995200	3.514300	-10.525000	25.716548	0.000290	20.694607
1469.415688	-2.990400	3.514300	-10.509000	25.668291	0.000288	20.675059
1470.406753	-3.018400	3.511200	-10.597000	25.632216	0.000290	20.669646
1471.430342	-2.992300	3.513200	-10.512000	25.652191	0.000286	20.658413
1472.407178	-3.004900	3.511900	-10.552000	25.654324	0.000288	20.680472
1473.407615	-2.982000	3.511000	-10.469000	25.607807	0.000286	20.684013
1474.420644	-2.983900	3.511200	-10.476000	25.541107	0.000287	20.681986
1475.410808	-2.992000	3.510100	-10.501000	25.534147	0.000286	20.685429
1476.411019	-2.977600	3.511100	-10.454000	25.540212	0.000287	20.684406
1477.410160	-2.977800	3.511000	-10.454000	25.577461	0.000285	20.675822
1478.405947	-2.985300	3.510100	-10.478000	25.610811	0.000288	20.688453
1479.409172	-2.998300	3.509000	-10.520000	25.671281	0.000286	20.677114
1480.413736	-2.996600	3.509200	-10.515000	25.689514	0.000284	20.683574
1481.411515	-3.005500	3.507800	-10.542000	25.648159	0.000287	20.699886
1482.414676	-2.998000	3.508500	-10.517000	25.589747	0.000286	20.683894
1483.413598	-3.013100	3.507000	-10.566000	25.592279	0.000285	20.705405
1484.412146	-3.002500	3.507600	-10.531000	25.611139	0.000284	20.675980
1485.414618	-2.993400	3.507700	-10.499000	25.623120	0.000283	20.698446
1486.412187	-2.975800	3.507900	-10.438000	25.665057	0.000285	20.668965
1487.418140	-3.033500	3.506000	-10.633000	25.656926	0.000286	20.666963
1488.413821	-3.030600	3.506100	-10.625000	25.682118	0.000284	20.677567
1489.417297	-3.011900	3.505000	-10.556000	25.665546	0.000284	20.695064
1490.412542	-3.003100	3.505700	-10.527000	25.649261	0.000282	20.686767
1491.414533	-3.009100	3.505400	-10.547000	25.607569	0.000281	20.682352
1492.413239	-2.995700	3.504700	-10.498000	25.578672	0.000283	20.660914
1493.417835	-3.002900	3.504900	-10.524000	25.614357	0.000282	20.670202
1494.415293	-2.986300	3.505600	-10.467000	25.567113	0.000283	20.695303
1495.419267	-3.004500	3.504700	-10.529000	25.626170	0.000281	20.676377
1496.420786	-3.007300	3.503300	-10.533000	25.663018	0.000279	20.683040
1497.415369	-3.019900	3.504100	-10.582000	25.689577	0.000280	20.668937
1498.418705	-2.990400	3.503600	-10.476000	25.616721	0.000278	20.680638
1499.416421	-2.997600	3.502300	-10.498000	25.618658	0.000280	20.699180
1500.417175	-3.018400	3.502800	-10.572000	25.631510	0.000279	20.694070
1501.419696	-3.001500	3.502200	-10.510000	25.615794	0.000281	20.696778
1502.419412	-3.012000	3.501900	-10.547000	25.626254	0.000279	20.691636
1503.421648	-2.984900	3.501600	-10.450000	25.675897	0.000279	20.671319
1504.415843	-2.983600	3.502400	-10.449000	25.721958	0.000278	20.694351
1505.417285	-2.987600	3.501300	-10.460000	25.752837	0.000282	20.685538
1506.420455	-2.998500	3.500000	-10.494000	25.725622	0.000281	20.664838
1507.420658	-3.004600	3.499900	-10.515000	25.693798	0.000280	20.674125
1508.420518	-3.008200	3.499100	-10.525000	25.626639	0.000276	20.688228
1509.417312	-2.972600	3.500600	-10.404000	25.580462	0.000277	20.674094
1510.420892	-3.008900	3.499900	-10.530000	25.606202	0.000279	20.689514
1511.425003	-3.008500	3.498900	-10.525000	25.628170	0.000277	20.687396
1512.422618	-2.984300	3.498100	-10.439000	25.678758	0.000278	20.680831
1513.424390	-2.982500	3.497500	-10.430000	25.632982	0.000275	20.692229
1514.422080	-2.974600	3.498100	-10.405000	25.626202	0.000275	20.682573
1515.421000	-3.013200	3.496400	-10.535000	25.641872	0.000278	20.676500
1516.421235	-2.989700	3.497300	-10.455000	25.684629	0.000274	20.702851
1517.422735	-3.013300	3.495700	-10.532000	25.721335	0.000275	20.684716
1518.423619	-2.970100	3.497700	-10.387000	25.700239	0.000276	20.700986
1519.423999	-3.002100	3.497200	-10.497000	25.679615	0.000276	20.701608
1520.420446	-3.012300	3.495100	-10.528000	25.721182	0.000274	20.675552
1521.428938	-3.017200	3.494300	-10.542000	25.692256	0.000273	20.695338
1522.424340	-3.006000	3.495200	-10.506000	25.666543	0.000275	20.686107
1523.421381	-3.038200	3.492600	-10.610000	25.610430	0.000273	20.701348
1524.427516	-3.014500	3.494200	-10.532000	25.585740	0.000272	20.683662
1525.425516	-2.992300	3.494500	-10.456000	25.632479	0.000271	20.696466
1526.427078	-2.975400	3.494400	-10.395000	25.630615	0.000271	20.690800
1527.431791	-2.996800	3.494000	-10.469000	25.602649	0.000273	20.694007
1528.431999	-3.008900	3.492300	-10.507000	25.617543	0.000270	20.698060
1529.434190	-3.007900	3.492400	-10.504000	25.619407	0.000270	20.696139
1530.430232	-2.987900	3.493000	-10.436000	25.639928	0.000269	20.699205
1531.432359	-3.028700	3.491700	-10.575000	25.659339	0.000271	20.694994
1532.429462	-3.010900	3.492100	-10.513000	25.697375	0.000270	20.706171
1533.432471	-2.999000	3.490100	-10.466000	25.732259	0.000271	20.705173
1534.430987	-3.009200	3.491700	-10.506000	25.744956	0.000271	20.711288
1535.443297	-3.000900	3.490200	-10.473000	25.687860	0.000269	20.700407
1536.429919	-3.011100	3.489800	-10.507000	25.651192	0.000270	20.708622
1537.431727	-2.988000	3.489600	-10.425000	25.682269	0.000269	20.706645
1538.438940	-2.998200	3.490500	-10.464000	25.618064	0.000269	20.710438
1539.433412	-2.976000	3.489100	-10.382000	25.594784	0.000268	20.707920
1540.431647	-3.007400	3.488500	-10.490000	25.594563	0.000269	20.718131
1541.435299	-2.996800	3.489300	-10.456000	25.641987	0.000266	20.704594
1542.432215	-3.003300	3.487500	-10.473000	25.663011	0.000268	20.702001
1543.432338	-3.020000	3.485800	-10.526000	25.675237	0.000268	20.691994
1544.436321	-2.974200	3.488100	-10.373000	25.691889	0.000266	20.701134
1545.432192	-2.982300	3.487600	-10.399000	25.688626	0.000268	20.708763
1546.435721	-3.011600	3.486400	-10.498000	25.693403	0.000264	20.712613
1547.436337	-3.006400	3.485500	-10.478000	25.678915	0.000267	20.698534
1548.440793	-2.995500	3.486400	-10.442000	25.656874	0.000266	20.719546
1549.433988	-2.990900	3.486600	-10.427000	25.633815	0.000265	20.716775
1550.436318	-3.003300	3.486700	-10.471000	25.571447	0.000268	20.709139
1551.437366	-3.009300	3.484700	-10.485000	25.566376	0.000267	20.723487
1552.435807	-3.010100	3.485000	-10.490000	25.573059	0.000266	20.731148
1553.442788	-2.994900	3.484600	-10.435000	25.586744	0.000262	20.713596
1554.437679	-2.995500	3.484500	-10.437000	25.587737	0.000265	20.723129
1555.439018	-3.000600	3.484000	-10.453000	25.586002	0.000263	20.704790
1556.439464	-2.991100	3.484500	-10.422000	25.574885	0.000263	20.713540
1557.440952	-2.997500	3.483500	-10.441000	25.608031	0.000262	20.709845
1558.439097	-3.012800	3.482500	-10.491000	25.620631	0.000263	20.712543
1559.438845	-3.012400	3.483100	-10.492000	25.647216	0.000263	20.728338
1560.440670	-2.997200	3.483300	-10.439000	25.669673	0.000263	20.700632
1561.440684	-2.997600	3.482900	-10.439000	25.649171	0.000263	20.723189
1562.443332	-3.026500	3.479600	-10.530000	25.649992	0.000261	20.724489
1563.440270	-2.985800	3.483500	-10.400000	25.610825	0.000261	20.718342
1564.439810	-3.007100	3.480900	-10.467000	25.658801	0.000264	20.729543
1565.440296	-3.004000	3.481200	-10.457000	25.712318	0.000261	20.720232
1566.440924	-3.023600	3.479800	-10.521000	25.713133	0.000262	20.724844
1567.444528	-2.987900	3.479300	-10.394000	25.696107	0.000263	20.732399
1568.440098	-2.998900	3.479500	-10.434000	25.741425	0.000259	20.725760
1569.442637	-2.993800	3.479400	-10.416000	25.731382	0.000262	20.728950
1570.451384	-2.988100	3.479000	-10.394000	25.720549	0.000260	20.737035
1571.442441	-2.991100	3.478500	-10.404000	25.725490	0.000258	20.716867
1572.442242	-2.978300	3.478300	-10.359000	25.703174	0.000258	20.723850
1573.441726	-2.981000	3.479300	-10.371000	25.648633	0.000259	20.735452
1574.441755	-2.992600	3.478600	-10.409000	25.621576	0.000257	20.743839
1575.441548	-2.997400	3.477600	-10.423000	25.627266	0.000256	20.744812
1576.444004	-2.988400	3.478500	-10.394000	25.659166	0.000257	20.737022
1577.441958	-2.973700	3.477100	-10.338000	25.689998	0.000257	20.736695
1578.449523	-3.007300	3.477200	-10.456000	25.637344	0.000256	20.724588
1579.440852	-2.996500	3.476300	-10.416000	25.661341	0.000257	20.744423
1580.442554	-2.998700	3.474500	-10.418000	25.697170	0.000256	20.742951
1581.444299	-2.991800	3.476500	-10.400000	25.739810	0.000255	20.749744
1582.442903	-2.993300	3.476400	-10.405000	25.781717	0.000256	20.738258
1583.448589	-2.995600	3.474200	-10.406000	25.744597	0.000254	20.737482
1584.444071	-2.993700	3.474000	-10.399000	25.730386	0.000256	20.747865
1585.448074	-3.024800	3.474500	-10.509000	25.724697	0.000253	20.747840
1586.444344	-3.004900	3.473100	-10.436000	25.710755	0.000256	20.733362
1587.448212	-2.999800	3.474200	-10.421000	25.698237	0.000255	20.762041
1588.448967	-3.018600	3.472200	-10.481000	25.654830	0.000254	20.759694
1589.452415	-3.011100	3.472200	-10.455000	25.669856	0.000254	20.751079
1590.446413	-2.998900	3.473300	-10.416000	25.675626	0.000254	20.735062
1591.448191	-3.011200	3.472500	-10.456000	25.654382	0.000254	20.735536
1592.449127	-3.003900	3.470600	-10.424000	25.693173	0.000252	20.756006
1593.446999	-3.011100	3.471900	-10.453000	25.694485	0.000253	20.748314
1594.450920	-3.007700	3.471700	-10.440000	25.635302	0.000251	20.763790
1595.448368	-2.954500	3.472800	-10.260000	25.698765	0.000253	20.743604
1596.451550	-2.982500	3.471800	-10.354000	25.655480	0.000250	20.762718
1597.456112	-3.005500	3.469700	-10.427000	25.628546	0.000251	20.750840
1598.450436	-2.998500	3.469400	-10.402000	25.673395	0.000251	20.740408
1599.451150	-2.991900	3.470300	-10.382000	25.650182	0.000251	20.756923
1600.451186	-2.996900	3.469500	-10.397000	25.617110	0.000250	20.759269
1601.451957	-3.004300	3.469600	-10.423000	25.668454	0.000250	20.747299
1602.452999	-3.013300	3.469600	-10.454000	25.728222	0.000251	20.747587
1603.452682	-2.986000	3.469500	-10.359000	25.708493	0.000248	20.723503
1604.453966	-2.995800	3.467900	-10.388000	25.695796	0.000250	20.752002
1605.457412	-2.997400	3.467800	-10.393000	25.751125	0.000250	20.760162
1606.453326	-3.003900	3.466700	-10.413000	25.760780	0.000251	20.770334
1607.454993	-3.010300	3.467400	-10.437000	25.762098	0.000247	20.769761
1608.460616	-3.020700	3.466500	-10.469000	25.723732	0.000246	20.744974
1609.463094	-3.002200	3.466900	-10.407000	25.693520	0.000246	20.775321
1610.455523	-2.971700	3.466800	-10.301000	25.725890	0.000247	20.762315
1611.454976	-2.997500	3.465900	-10.388000	25.749818	0.000246	20.757900
1612.455563	-3.017100	3.465700	-10.455000	25.754440	0.000246	20.775820
1613.455169	-2.981500	3.466300	-10.333000	25.747206	0.000246	20.753380
1614.455559	-3.028800	3.464300	-10.492000	25.751080	0.000247	20.754901
1615.456732	-2.986100	3.465800	-10.348000	25.712322	0.000245	20.771447
1616.458013	-2.988200	3.464200	-10.351000	25.713567	0.000246	20.775068
1617.460524	-2.989200	3.463800	-10.353000	25.692072	0.000247	20.759642
1618.465632	-2.987500	3.463200	-10.345000	25.739241	0.000247	20.790899
1619.457839	-3.002800	3.464000	-10.401000	25.716263	0.000246	20.788208
1620.459063	-2.990100	3.463200	-10.354000	25.732541	0.000247	20.789385
1621.460735	-3.007200	3.462600	-10.412000	25.717361	0.000246	20.783147
1622.460384	-2.983400	3.463300	-10.332000	25.726827	0.000248	20.777007
1623.461389	-2.985900	3.463300	-10.340000	25.696909	0.000244	20.785363
1624.461982	-2.987400	3.461600	-10.341000	25.703444	0.000246	20.772961
1625.461045	-2.990300	3.461200	-10.349000	25.706423	0.000244	20.764574
1626.462467	-2.989600	3.461600	-10.347000	25.694241	0.000243	20.773200
1627.459911	-2.993500	3.460000	-10.356000	25.702329	0.000245	20.776582
1628.461841	-2.967000	3.460400	-10.266000	25.679938	0.000243	20.783017
1629.460170	-2.998400	3.461200	-10.377000	25.689870	0.000242	20.780664
1630.460831	-2.979800	3.460100	-10.309000	25.711064	0.000241	20.785356
1631.463339	-3.005700	3.460600	-10.401000	25.755333	0.000244	20.755379
1632.462056	-2.972400	3.459100	-10.281000	25.756577	0.000239	20.786027
1633.462370	-2.992000	3.459600	-10.350000	25.763959	0.000240	20.804821
1634.464184	-3.028600	3.457400	-10.470000	25.778690	0.000242	20.780738
1635.460513	-3.004700	3.458000	-10.388000	25.727499	0.000239	20.790959
1636.465962	-3.008300	3.457500	-10.400000	25.692590	0.000239	20.781974
1637.461703	-2.993800	3.456600	-10.347000	25.721687	0.000239	20.781802
1638.461521	-2.975200	3.458800	-10.289000	25.757165	0.000239	20.786617
1639.462981	-3.007100	3.456300	-10.391000	25.732863	0.000237	20.792553
1640.464831	-3.006600	3.457100	-10.393000	25.712963	0.000238	20.774461
1641.464432	-3.007900	3.457200	-10.398000	25.702651	0.000237	20.772639
1642.462263	-2.997100	3.457500	-10.362000	25.670623	0.000239	20.807326
1643.464529	-3.001900	3.456400	-10.374000	25.693283	0.000237	20.785989
1644.462248	-2.982500	3.457000	-10.309000	25.713183	0.000239	20.799339
1645.465168	-3.003900	3.456000	-10.381000	25.745976	0.000238	20.785336
1646.466911	-3.016700	3.454600	-10.421000	25.762123	0.000238	20.804874
1647.466688	-2.992900	3.454300	-10.337000	25.732164	0.000236	20.793747
1648.464031	-2.987500	3.455100	-10.321000	25.703791	0.000236	20.806975
1649.465558	-3.006900	3.453800	-10.385000	25.719142	0.000237	20.801057
1650.464157	-2.990300	3.452600	-10.323000	25.699794	0.000236	20.810072
1651.464383	-3.014000	3.452000	-10.402000	25.727296	0.000235	20.812566
1652.468512	-3.014900	3.452400	-10.408000	25.740864	0.000233	20.783520
1653.465480	-2.994700	3.451700	-10.336000	25.765288	0.000234	20.818010
1654.466648	-3.004200	3.452600	-10.372000	25.765116	0.000235	20.811674
1655.473119	-3.004000	3.452000	-10.368000	25.753119	0.000233	20.803891
1656.480271	-3.009500	3.450700	-10.384000	25.762186	0.000232	20.800196
1657.469667	-3.009500	3.450900	-10.384000	25.752868	0.000233	20.804586
1658.469523	-3.007600	3.451000	-10.378000	25.745622	0.000230	20.811059
1659.465781	-3.007300	3.450700	-10.376000	25.763976	0.000232	20.838503
1660.465670	-3.033700	3.448800	-10.462000	25.807306	0.000234	20.822758
1661.468379	-2.996700	3.449500	-10.336000	25.821725	0.000232	20.796940
1662.467025	-2.996300	3.449700	-10.336000	25.870464	0.000231	20.806071
1663.470571	-3.028400	3.448000	-10.441000	25.890515	0.000232	20.801084
1664.466353	-3.004600	3.449300	-10.363000	25.837399	0.000233	20.783762
1665.469499	-3.022500	3.448100	-10.421000	25.818868	0.000233	20.808295
1666.472741	-2.990200	3.448900	-10.312000	25.792515	0.000231	20.819755
1667.470493	-2.994700	3.447000	-10.322000	25.787924	0.000230	20.818462
1668.475925	-2.985000	3.448400	-10.292000	25.748836	0.000230	20.796743
1669.471954	-2.980800	3.446700	-10.273000	25.750828	0.000231	20.815340
1670.470278	-2.977400	3.448300	-10.266000	25.730799	0.000229	20.834576
1671.470285	-2.998000	3.447100	-10.333000	25.716368	0.000230	20.812969
1672.471269	-3.001700	3.447800	-10.348000	25.723334	0.000230	20.824707
1673.471253	-3.006300	3.445200	-10.356000	25.723057	0.000231	20.813524
1674.476635	-2.990900	3.446000	-10.306000	25.692992	0.000228	20.827422
1675.473839	-3.016100	3.444600	-10.388000	25.731548	0.000231	20.817784
1676.474417	-3.011800	3.446300	-10.378000	25.795029	0.000230	20.814219
1677.478680	-2.989800	3.444800	-10.299000	25.837609	0.000230	20.831861
1678.475420	-3.003600	3.443600	-10.342000	25.837731	0.000228	20.795475
1679.476946	-2.998400	3.444800	-10.328000	25.869754	0.000228	20.821953
1680.475894	-2.995600	3.444900	-10.319000	25.912502	0.000228	20.817957
1681.476341	-3.014600	3.442500	-10.377000	25.915002	0.000228	20.816201
1682.477958	-3.009400	3.442500	-10.358000	25.932294	0.000228	20.832624
1683.476143	-3.002600	3.443300	-10.338000	25.864426	0.000227	20.823713
1684.477144	-3.012200	3.442700	-10.370000	25.851804	0.000226	20.817198
1685.477642	-2.987700	3.443400	-10.287000	25.849119	0.000225	20.831096
1686.475838	-2.984400	3.442200	-10.272000	25.803708	0.000227	20.821041
1687.474769	-3.003400	3.441000	-10.334000	25.775679	0.000226	20.825603
1688.476274	-2.995500	3.441900	-10.310000	25.816512	0.000224	20.838170
1689.479181	-2.992200	3.441800	-10.298000	25.794229	0.000225	20.804881
1690.479874	-3.013600	3.440600	-10.367000	25.739503	0.000224	20.816766
1691.478395	-3.027700	3.438800	-10.411000	25.713159	0.000223	20.837720
1692.477649	-3.004400	3.440100	-10.335000	25.791666	0.000223	20.854936
1693.481226	-2.995100	3.439400	-10.300000	25.804565	0.000225	20.836600
1694.478431	-2.988400	3.439300	-10.278000	25.805275	0.000222	20.852959
1695.481800	-3.013100	3.439200	-10.361000	25.825449	0.000224	20.853785
1696.480231	-2.997300	3.437500	-10.302000	25.809449	0.000221	20.844351
1697.480181	-2.980700	3.440000	-10.253000	25.783788	0.000222	20.824265
1698.482297	-3.012400	3.437800	-10.356000	25.805306	0.000222	20.843508
1699.481829	-3.006600	3.438400	-10.337000	25.800977	0.000221	20.838212
1700.482562	-2.990400	3.437000	-10.277000	25.826222	0.000219	20.855509
1701.485080	-3.006300	3.437400	-10.332000	25.855081	0.000220	20.847041
1702.480500	-3.041500	3.436100	-10.449000	25.837445	0.000219	20.849714
1703.482869	-3.008400	3.436300	-10.337000	25.889813	0.000220	20.840681
1704.484672	-2.992600	3.436200	-10.282000	25.902483	0.000220	20.824486
1705.482075	-2.990200	3.435800	-10.273000	25.893631	0.000217	20.845465
1706.486754	-3.007000	3.436300	-10.332000	25.887747	0.000219	20.849036
1707.484059	-3.002000	3.436300	-10.314000	25.893086	0.000219	20.819313
1708.484171	-3.017400	3.434300	-10.362000	25.820341	0.000220	20.820205
1709.491190	-3.007800	3.435400	-10.331000	25.805537	0.000218	20.839947
1710.486318	-2.991900	3.434300	-10.273000	25.831278	0.000217	20.826450
1711.488800	-2.974000	3.435200	-10.216000	25.862528	0.000217	20.836979
1712.491784	-3.000100	3.432800	-10.297000	25.886398	0.000216	20.826819
1713.489645	-3.025000	3.432600	-10.383000	25.908434	0.000219	20.838999
1714.489759	-3.002200	3.432400	-10.304000	25.935134	0.000219	20.825994
1715.490871	-3.009000	3.433200	-10.330000	25.920062	0.000216	20.832189
1716.491856	-2.980600	3.433300	-10.233000	25.910892	0.000216	20.828192
1717.492600	-3.008400	3.433200	-10.327000	25.893177	0.000216	20.830784
1718.490898	-2.982300	3.434100	-10.241000	25.818551	0.000216	20.807028
1719.492794	-2.978700	3.432200	-10.222000	25.829977	0.000215	20.800014
1720.495618	-2.981200	3.431900	-10.230000	25.865476	0.000216	20.814337
1721.490970	-2.987900	3.430600	-10.249000	25.906099	0.000215	20.819110
1722.494154	-2.982100	3.431600	-10.232000	25.903560	0.000216	20.820353
1723.495820	-2.999400	3.429800	-10.286000	25.876087	0.000216	20.814565
1724.492443	-3.002200	3.431200	-10.301000	25.828855	0.000216	20.817853
1725.494120	-3.021700	3.429500	-10.362000	25.812807	0.000215	20.812637
1726.494627	-3.011800	3.428800	-10.327000	25.839148	0.000214	20.808752
1727.498169	-3.020600	3.428900	-10.357000	25.841624	0.000213	20.816455
1728.497133	-3.010900	3.428300	-10.321000	25.834170	0.000214	20.811812
1729.495690	-3.004800	3.429000	-10.302000	25.846442	0.000215	20.809915
1730.496790	-2.966200	3.428800	-10.169000	25.832600	0.000215	20.836313
1731.495389	-2.989200	3.428400	-10.248000	25.785030	0.000213	20.826461
1732.495368	-3.004600	3.427800	-10.299000	25.760753	0.000212	20.797334
1733.496165	-2.987800	3.427200	-10.239000	25.718765	0.000212	20.809213
1734.495404	-3.005700	3.426600	-10.297000	25.757400	0.000212	20.801078
1735.495865	-2.999700	3.427200	-10.280000	25.754893	0.000212	20.805198
1736.497728	-2.983400	3.427700	-10.225000	25.783160	0.000212	20.806090
1737.497378	-2.981700	3.427700	-10.220000	25.818261	0.000212	20.800099
1738.501868	-2.983500	3.425900	-10.220000	25.829670	0.000210	20.793541
1739.497980	-2.994700	3.426100	-10.259000	25.855428	0.000210	20.796182
1740.497952	-2.998100	3.424600	-10.267000	25.831950	0.000210	20.798202
1741.496611	-3.007600	3.424100	-10.297000	25.803482	0.000210	20.793787
1742.498006	-3.003100	3.424600	-10.284000	25.796653	0.000208	20.800678
1743.498605	-3.006100	3.424200	-10.293000	25.841292	0.000208	20.796681
1744.501901	-2.994200	3.423500	-10.250000	25.878402	0.000208	20.778484
1745.500697	-2.990200	3.422600	-10.233000	25.848673	0.000209	20.777543
1746.498501	-2.963000	3.424400	-10.146000	25.851799	0.000209	20.791588
1747.499830	-2.986100	3.423000	-10.220000	25.860074	0.000208	20.798005
1748.498883	-3.000200	3.423000	-10.269000	25.892244	0.000208	20.783380
1749.502743	-2.986600	3.422800	-10.222000	25.837100	0.000208	20.788202
1750.501448	-3.023500	3.420100	-10.339000	25.809747	0.000207	20.786330
1751.502487	-2.980300	3.422100	-10.198000	25.833103	0.000206	20.796042
1752.501580	-3.004600	3.421300	-10.278000	25.849372	0.000206	20.798160
1753.502880	-3.003700	3.421300	-10.276000	25.857917	0.000208	20.797735
1754.506610	-3.032200	3.420400	-10.371000	25.867903	0.000208	20.784532
1755.506841	-2.987400	3.421100	-10.220000	25.920374	0.000205	20.787458
1756.505126	-3.015000	3.419300	-10.309000	25.893900	0.000206	20.779829
1757.504909	-3.008700	3.420800	-10.291000	25.921073	0.000206	20.783418
1758.506006	-3.016400	3.418200	-10.310000	25.898320	0.000206	20.795648
1759.506335	-3.014800	3.420000	-10.310000	25.884810	0.000206	20.771645
1760.508393	-2.976300	3.418500	-10.174000	25.886698	0.000205	20.784922
1761.506863	-2.992200	3.419700	-10.232000	25.876964	0.000203	20.782730
1762.507674	-2.997300	3.419300	-10.248000	25.881863	0.000205	20.777693
1763.510801	-2.982600	3.418900	-10.196000	25.909759	0.000203	20.781061
1764.508351	-3.000000	3.418100	-10.253000	25.928442	0.000203	20.777071
1765.510169	-2.972600	3.418700	-10.161000	25.927572	0.000204	20.749169
1766.508049	-3.012400	3.416100	-10.290000	25.902361	0.000204	20.758456
1767.508462	-2.991400	3.417000	-10.220000	25.863462	0.000202	20.765372
1768.509071	-2.995100	3.416800	-10.233000	25.842424	0.000202	20.773636
1769.507843	-2.974200	3.415500	-10.157000	25.877677	0.000201	20.755470
1770.509026	-2.987300	3.416500	-10.205000	25.857909	0.000202	20.775441
1771.521811	-2.996300	3.415000	-10.231000	25.862329	0.000200	20.777036
1772.509492	-2.991300	3.414900	-10.214000	25.865964	0.000199	20.781637
1773.510055	-2.985200	3.416000	-10.196000	25.856322	0.000200	20.755828
1774.520164	-3.001700	3.413700	-10.246000	25.814068	0.000199	20.768385
1775.511170	-2.970100	3.413800	-10.138000	25.768955	0.000200	20.761476
1776.513821	-2.997000	3.414100	-10.231000	25.777574	0.000200	20.768237
1777.516807	-3.046900	3.411800	-10.395000	25.754028	0.000198	20.772087
1778.512263	-3.005300	3.413700	-10.258000	25.745703	0.000198	20.762301
1779.511446	-3.004300	3.413800	-10.255000	25.802624	0.000199	20.732706
1780.512852	-3.010700	3.411900	-10.270000	25.838473	0.000198	20.761606
1781.512427	-2.997900	3.413600	-10.233000	25.848360	0.000197	20.744037
1782.514120	-3.005100	3.413000	-10.254000	25.885606	0.000197	20.757271
1783.513968	-3.015900	3.411700	-10.289000	25.890204	0.000197	20.746242
1784.513027	-2.979600	3.413000	-10.168000	25.890553	0.000196	20.743749
1785.517902	-2.993700	3.410600	-10.210000	25.949704	0.000197	20.762870
1786.522543	-3.005400	3.410200	-10.247000	25.885637	0.000197	20.739284
1787.521043	-3.011900	3.410100	-10.270000	25.856276	0.000197	20.779964
1788.514282	-3.024800	3.409500	-10.312000	25.806218	0.000195	20.772353
1789.520188	-2.989900	3.410100	-10.195000	25.777326	0.000194	20.740960
1790.518061	-2.972400	3.410400	-10.136000	25.755937	0.000193	20.737967
1791.522248	-3.001300	3.408000	-10.228000	25.780605	0.000196	20.755160
1792.519468	-2.986600	3.408500	-10.179000	25.826920	0.000192	20.740517
1793.518610	-2.994200	3.409300	-10.207000	25.838224	0.000195	20.753295
1794.518635	-2.988800	3.407900	-10.185000	25.806599	0.000194	20.744286
1795.516803	-3.005300	3.408600	-10.244000	25.800689	0.000194	20.748782
1796.518053	-3.000600	3.408200	-10.226000	25.765238	0.000194	20.781450
1797.521299	-2.995000	3.407100	-10.204000	25.798060	0.000193	20.764159
1798.523637	-3.002800	3.407500	-10.231000	25.832266	0.000193	20.740671
1799.517947	-2.964600	3.407600	-10.101000	25.810210	0.000195	20.726102
1800.522051	-2.984600	3.406300	-10.165000	25.799556	0.000193	20.741953
1801.519088	-2.990900	3.406200	-10.186000	25.796350	0.000192	20.729249
1802.519085	-2.963600	3.407000	-10.096000	25.815850	0.000193	20.740777
1803.522225	-2.997200	3.406200	-10.208000	25.840818	0.000192	20.751633
1804.518022	-2.995000	3.405400	-10.199000	25.863824	0.000191	20.744872
1805.522190	-2.982900	3.405600	-10.158000	25.857988	0.000188	20.739958
1806.519737	-2.988600	3.406200	-10.179000	25.859705	0.000191	20.754960
1807.524982	-3.005900	3.404000	-10.231000	25.821595	0.000190	20.740383
1808.523919	-2.992600	3.404800	-10.189000	25.824832	0.000187	20.741739
1809.519269	-3.006100	3.402100	-10.227000	25.841297	0.000188	20.748795
1810.521520	-2.988600	3.404100	-10.172000	25.891906	0.000190	20.729934
1811.520316	-2.987700	3.403100	-10.167000	25.883214	0.000187	20.730211
1812.521659	-2.999300	3.402400	-10.204000	25.828738	0.000188	20.743291
1813.524170	-3.000300	3.402700	-10.209000	25.816661	0.000191	20.740643
1814.521396	-3.000500	3.402500	-10.208000	25.816140	0.000190	20.735852
1815.520303	-2.991800	3.402100	-10.178000	25.827199	0.000189	20.744117
1816.527283	-3.034600	3.400800	-10.319000	25.866180	0.000188	20.725901
1817.522939	-2.995000	3.402200	-10.188000	25.872935	0.000188	20.746912
1818.526474	-3.007200	3.400500	-10.225000	25.896737	0.000188	20.735262
1819.528498	-3.023900	3.399900	-10.279000	25.858726	0.000187	20.724103
1820.523624	-3.020000	3.399500	-10.265000	25.824570	0.000188	20.713499
1821.523170	-2.999800	3.400000	-10.198000	25.841293	0.000185	20.731721
1822.524906	-3.014900	3.399300	-10.247000	25.848992	0.000186	20.720014
1823.530972	-3.019200	3.399900	-10.264000	25.858352	0.000184	20.727046
1824.524039	-2.992200	3.398700	-10.169000	25.847031	0.000186	20.752659
1825.524746	-3.011300	3.398800	-10.234000	25.875400	0.000185	20.746069
1826.524323	-3.004400	3.398300	-10.208000	25.910271	0.000184	20.725149
1827.525844	-2.990500	3.397900	-10.160000	25.931069	0.000185	20.739406
1828.528661	-2.991900	3.398200	-10.166000	25.907096	0.000184	20.726702
1829.527425	-2.995300	3.396900	-10.174000	25.958737	0.000184	20.737331
1830.528214	-3.014600	3.397000	-10.240000	25.947980	0.000184	20.734584
1831.526615	-3.015000	3.397600	-10.243000	25.931590	0.000184	20.740878
1832.528453	-2.980200	3.397300	-10.123000	25.926073	0.000184	20.728697
1833.527922	-3.002600	3.395800	-10.195000	25.898618	0.000183	20.728142
1834.531306	-2.957100	3.396600	-10.043000	25.841237	0.000183	20.742571
1835.529626	-3.018400	3.394500	-10.245000	25.836248	0.000183	20.735188
1836.528768	-3.014600	3.395000	-10.233000	25.798804	0.000180	20.714644
1837.529569	-3.010900	3.394000	-10.218000	25.829381	0.000179	20.734454
1838.530106	-2.982600	3.393700	-10.121000	25.806626	0.000181	20.732933
1839.534503	-2.999400	3.393700	-10.178000	25.880455	0.000181	20.726491
1840.531868	-2.993100	3.393200	-10.155000	25.890986	0.000180	20.706723
1841.529771	-2.973300	3.392800	-10.087000	25.923584	0.000181	20.733783
1842.529939	-2.973200	3.394300	-10.091000	25.921616	0.000180	20.728012
1843.531403	-3.003400	3.391300	-10.183000	25.908296	0.000179	20.720794
1844.530968	-2.976300	3.393900	-10.100000	25.947599	0.000177	20.723769
1845.536241	-2.999900	3.391400	-10.174000	25.949609	0.000177	20.724841
1846.532415	-3.008200	3.391800	-10.202000	25.969351	0.000179	20.719070
1847.530923	-2.992900	3.390700	-10.147000	25.976633	0.000178	20.737766
1848.533238	-3.036500	3.391300	-10.297000	25.935670	0.000178	20.723639
1849.532432	-2.982400	3.390900	-10.112000	25.929094	0.000179	20.716084
1850.532592	-2.989500	3.390500	-10.135000	25.968334	0.000176	20.715677
1851.531212	-3.010900	3.389300	-10.204000	25.962076	0.000175	20.713183
1852.530595	-3.001800	3.391700	-10.181000	25.934800	0.000178	20.693839
1853.531619	-2.976300	3.389900	-10.088000	25.958814	0.000176	20.717018
1854.536096	-2.997400	3.389300	-10.158000	25.976479	0.000177	20.703471
1855.535299	-2.994000	3.389500	-10.147000	25.970190	0.000176	20.711377
1856.531825	-2.978100	3.389100	-10.093000	25.907125	0.000177	20.723411
1857.533786	-2.994500	3.389000	-10.147000	25.919665	0.000177	20.710404
1858.540187	-2.998000	3.388900	-10.159000	25.960646	0.000176	20.709850
1859.531834	-2.990200	3.387200	-10.128000	25.995448	0.000175	20.715891
1860.536094	-2.983700	3.387100	-10.105000	26.042023	0.000178	20.711002
1861.536483	-3.008000	3.386700	-10.186000	26.023667	0.000177	20.705835
1862.535294	-3.023200	3.387100	-10.239000	26.018028	0.000175	20.719137
1863.543943	-3.007300	3.386400	-10.183000	25.964918	0.000175	20.723151
1864.537304	-2.988600	3.387200	-10.122000	25.983380	0.000174	20.706137
1865.534612	-3.013600	3.387000	-10.205000	25.997832	0.000173	20.700742
1866.537090	-2.959400	3.386800	-10.022000	26.030567	0.000174	20.701388
1867.537671	-2.963000	3.386500	-10.033000	26.011536	0.000174	20.708346
1868.535599	-2.990300	3.385200	-10.122000	25.978004	0.000172	20.705477
1869.537248	-2.989600	3.384200	-10.116000	25.951256	0.000172	20.720805
1870.538914	-2.988400	3.384800	-10.114000	25.928748	0.000172	20.699614
1871.535943	-2.982200	3.384100	-10.092000	25.929563	0.000174	20.711813
1872.535828	-2.994400	3.384400	-10.133000	25.955399	0.000171	20.721174
1873.538342	-2.992800	3.383700	-10.127000	25.986272	0.000168	20.695290
1874.537023	-2.978000	3.385000	-10.079000	26.019283	0.000172	20.728459
1875.538283	-2.988700	3.383500	-10.111000	26.051350	0.000170	20.695241
1876.539823	-3.008600	3.382900	-10.176000	26.062871	0.000170	20.707293
1877.535935	-3.009300	3.382700	-10.179000	26.066426	0.000170	20.691423
1878.538756	-2.987000	3.382900	-10.104000	26.042561	0.000170	20.716284
1879.538313	-3.006500	3.381500	-10.166000	26.058526	0.000169	20.700081
1880.539517	-2.993600	3.382800	-10.126000	26.091633	0.000168	20.690197
1881.537255	-3.002200	3.382200	-10.154000	26.104448	0.000169	20.686003
1882.538325	-2.982400	3.381900	-10.085000	26.121216	0.000167	20.687679
1883.542421	-3.004800	3.380500	-10.157000	26.165279	0.000168	20.706351
1884.537161	-3.007500	3.380300	-10.165000	26.131377	0.000167	20.681767
1885.538881	-2.989000	3.380200	-10.103000	26.092633	0.000167	20.706850
1886.538194	-2.987900	3.380600	-10.100000	26.099809	0.000166	20.696516
1887.539314	-3.005900	3.381000	-10.162000	26.032301	0.000168	20.694121
1888.540958	-2.994700	3.379500	-10.120000	26.005132	0.000166	20.709498
1889.545682	-2.990300	3.378600	-10.102000	26.008460	0.000166	20.689133
1890.541828	-2.998500	3.378100	-10.128000	26.020136	0.000165	20.686639
1891.547667	-2.985400	3.378700	-10.087000	26.053146	0.000166	20.688037
1892.547337	-2.999100	3.379000	-10.133000	26.009526	0.000165	20.694946
1893.540410	-3.025100	3.376700	-10.214000	26.046392	0.000166	20.706383
1894.542592	-3.006200	3.375900	-10.147000	26.041243	0.000164	20.687457
1895.543085	-2.991200	3.378000	-10.102000	26.002398	0.000165	20.683990
1896.542592	-3.016200	3.374600	-10.178000	26.002828	0.000163	20.692483
1897.544452	-3.000500	3.376000	-10.129000	25.982681	0.000163	20.710176
1898.545725	-3.000200	3.375700	-10.127000	26.008061	0.000164	20.687310
1899.540951	-2.981400	3.376000	-10.064000	25.958409	0.000165	20.687685
1900.547392	-3.004400	3.375700	-10.141000	25.945827	0.000164	20.678363
1901.545792	-3.012800	3.375600	-10.169000	25.965097	0.000161	20.683024
1902.546479	-3.007100	3.374300	-10.146000	26.011795	0.000163	20.672093
1903.546688	-3.007800	3.374000	-10.147000	26.041355	0.000162	20.688992
1904.544343	-3.006900	3.373600	-10.143000	26.087903	0.000160	20.684078
1905.543532	-3.018000	3.373400	-10.180000	26.067954	0.000162	20.682525
1906.544962	-3.003800	3.372200	-10.129000	26.042980	0.000162	20.692996
1907.546321	-2.991000	3.373300	-10.089000	26.046088	0.000161	20.673357
1908.552259	-3.037300	3.371200	-10.238000	26.047228	0.000159	20.692996
1909.546835	-3.012800	3.372900	-10.161000	26.047791	0.000161	20.677439
1910.545556	-2.978500	3.372100	-10.043000	26.051800	0.000159	20.668664
1911.546760	-2.969900	3.371800	-10.012000	26.079000	0.000159	20.702634
1912.551711	-2.972500	3.372000	-10.022000	26.073123	0.000159	20.698626
1913.546087	-2.979000	3.372400	-10.046000	26.093489	0.000158	20.671671
1914.548559	-2.978500	3.371900	-10.042000	26.079153	0.000158	20.676708
1915.547722	-2.996300	3.370400	-10.098000	26.074986	0.000157	20.682005
1916.548237	-3.001900	3.370900	-10.118000	26.101095	0.000159	20.692592
1917.547669	-3.000800	3.369000	-10.109000	26.073050	0.000155	20.664410
1918.550773	-2.993500	3.370600	-10.089000	26.072144	0.000159	20.663975
1919.547831	-3.017500	3.370200	-10.169000	26.088556	0.000156	20.684734
1920.549635	-3.032800	3.368200	-10.214000	26.101661	0.000157	20.676089
1921.548661	-3.014700	3.368900	-10.156000	26.101231	0.000157	20.687987
1922.548245	-2.986100	3.369500	-10.061000	26.092468	0.000155	20.673016
1923.552719	-3.000000	3.368800	-10.106000	26.046570	0.000157	20.680006
1924.551147	-3.012400	3.367300	-10.143000	26.064356	0.000157	20.662313
1925.554448	-3.002800	3.367100	-10.109000	26.101839	0.000156	20.686701
1926.553291	-3.041300	3.365500	-10.235000	26.102115	0.000155	20.676072
1927.553843	-2.993700	3.366600	-10.078000	26.078740	0.000157	20.681035
1928.553944	-2.990800	3.367300	-10.069000	26.083173	0.000154	20.658934
1929.553555	-2.996000	3.365400	-10.082000	26.105401	0.000155	20.682219
1930.554999	-3.020100	3.364900	-10.162000	26.072448	0.000156	20.679928
1931.563856	-2.989500	3.366200	-10.062000	26.100706	0.000153	20.675605
1932.556570	-3.023900	3.363500	-10.170000	26.097092	0.000152	20.660591
1933.556928	-3.002700	3.364300	-10.101000	26.130173	0.000151	20.665857
1934.564138	-3.014200	3.363100	-10.136000	26.141498	0.000153	20.659692
1935.554567	-3.002900	3.364500	-10.103000	26.106684	0.000151	20.672601
1936.557622	-2.991600	3.364100	-10.063000	26.106365	0.000151	20.670385
1937.565212	-3.000800	3.363200	-10.092000	26.104485	0.000150	20.680824
1938.557402	-3.007700	3.363200	-10.115000	26.047255	0.000151	20.662200
1939.559974	-2.975600	3.362700	-10.005000	26.056148	0.000149	20.667817
1940.556831	-3.012500	3.362900	-10.129000	26.074014	0.000151	20.660163
1941.558980	-2.987800	3.361900	-10.044000	26.102272	0.000152	20.692352
1942.563994	-2.997700	3.361900	-10.077000	26.094477	0.000150	20.673138
1943.559172	-2.997300	3.361700	-10.075000	26.092271	0.000150	20.683251
1944.561775	-2.994600	3.362000	-10.067000	26.103953	0.000149	20.668909
1945.560049	-2.993600	3.360300	-10.059000	26.164900	0.000149	20.661870
1946.559990	-2.995100	3.360100	-10.062000	26.205633	0.000148	20.660127
1947.560575	-2.986900	3.361400	-10.039000	26.219586	0.000147	20.684108
1948.559520	-2.995200	3.360200	-10.063000	26.236328	0.000148	20.682914
1949.562026	-2.997900	3.359500	-10.070000	26.228429	0.000147	20.667862
1950.561299	-3.003800	3.359100	-10.090000	26.192201	0.000146	20.673658
1951.566631	-3.019100	3.357500	-10.135000	26.169576	0.000146	20.668466
1952.566715	-3.017100	3.358400	-10.132000	26.127758	0.000146	20.665800
1953.565792	-2.998100	3.359300	-10.070000	26.165654	0.000148	20.672587
1954.561964	-2.997100	3.357400	-10.061000	26.175546	0.000147	20.678260
1955.563602	-2.990600	3.358000	-10.041000	26.207639	0.000146	20.664040
1956.561689	-2.981600	3.357800	-10.011000	26.251968	0.000145	20.669706
1957.562898	-2.972500	3.357800	-9.980500	26.242451	0.000143	20.678635
1958.562235	-2.977900	3.357300	-9.996000	26.228652	0.000145	20.658129
1959.562242	-2.994600	3.356700	-10.051000	26.196713	0.000145	20.664441
1960.570531	-2.993100	3.356300	-10.045000	26.204270	0.000144	20.669190
1961.563622	-3.004900	3.355400	-10.082000	26.231620	0.000144	20.661585
1962.564047	-2.993300	3.355200	-10.043000	26.188437	0.000142	20.662762
1963.567682	-2.997100	3.356000	-10.057000	26.156406	0.000143	20.673725
1964.569059	-2.982600	3.356200	-10.009000	26.174256	0.000144	20.669850
1965.566328	-2.993900	3.355800	-10.046000	26.138230	0.000142	20.672056
1966.564581	-2.977300	3.354700	-9.987000	26.116051	0.000141	20.653562
1967.567242	-2.996700	3.355300	-10.054000	26.160659	0.000141	20.679422
1968.567608	-2.982700	3.353200	-10.000000	26.175822	0.000141	20.658146
1969.565691	-2.996300	3.354500	-10.051000	26.102950	0.000142	20.682127
1970.570431	-2.991300	3.353500	-10.030000	26.119522	0.000141	20.653731
1971.565634	-3.014500	3.351600	-10.102000	26.113069	0.000142	20.678070
1972.565511	-2.973100	3.352900	-9.967800	26.124297	0.000140	20.679394
1973.567022	-2.989900	3.353100	-10.025000	26.142879	0.000142	20.678151
1974.567175	-3.004800	3.350700	-10.068000	26.146035	0.000141	20.659983
1975.566452	-2.983000	3.351100	-9.995300	26.145098	0.000138	20.685597
1976.568779	-2.992600	3.351700	-10.030000	26.135783	0.000139	20.669597
1977.568008	-2.996500	3.352300	-10.044000	26.176322	0.000142	20.687575
1978.570464	-3.010900	3.350700	-10.087000	26.182579	0.000137	20.662565
1979.571785	-2.998000	3.351400	-10.047000	26.167517	0.000139	20.676830
1980.569080	-2.991700	3.349900	-10.021000	26.175840	0.000139	20.671916
1981.577329	-2.991400	3.351000	-10.023000	26.171764	0.000138	20.665923
1982.570914	-2.997800	3.349000	-10.039000	26.140400	0.000138	20.682299
1983.572720	-3.018100	3.348300	-10.105000	26.150733	0.000136	20.691734
1984.572065	-3.017400	3.348400	-10.102000	26.147112	0.000137	20.674343
1985.572415	-3.003900	3.347400	-10.054000	26.174927	0.000137	20.680009
1986.580750	-3.003000	3.348600	-10.055000	26.185259	0.000139	20.682331
1987.577583	-3.009600	3.347900	-10.075000	26.166319	0.000136	20.681316
1988.572501	-3.026500	3.346200	-10.125000	26.173673	0.000135	20.676377
1989.572030	-3.018600	3.345300	-10.097000	26.189870	0.000134	20.665150
1990.574502	-2.991800	3.347100	-10.012000	26.164333	0.000134	20.685485
1991.572591	-2.987800	3.347800	-10.002000	26.207084	0.000136	20.677234
1992.576547	-2.992700	3.347400	-10.017000	26.245880	0.000136	20.675917
1993.573168	-2.989700	3.347100	-10.005000	26.260531	0.000136	20.692064
1994.571888	-3.000300	3.345400	-10.037000	26.235800	0.000135	20.680487
1995.572620	-2.995700	3.345700	-10.022000	26.214200	0.000133	20.690076
1996.572542	-3.029500	3.345100	-10.133000	26.235083	0.000134	20.667912
1997.573822	-3.014400	3.344500	-10.081000	26.223179	0.000132	20.685822
1998.573605	-3.016600	3.343500	-10.085000	26.206406	0.000134	20.681295
1999.574567	-3.008800	3.343200	-10.058000	26.198262	0.000132	20.684965
2000.576972	-3.006400	3.344100	-10.053000	26.182827	0.000134	20.695061
2001.576666	-2.989900	3.344300	-9.998300	26.239050	0.000132	20.662889
2002.577125	-3.013000	3.342700	-10.070000	26.302722	0.000133	20.677090
2003.582823	-2.990000	3.343400	-9.995900	26.317869	0.000130	20.685201
2004.579654	-3.014600	3.342000	-10.074000	26.310271	0.000132	20.683255
2005.578184	-3.016700	3.342100	-10.081000	26.304788	0.000134	20.707144
2006.578018	-2.986500	3.341700	-9.978300	26.289249	0.000132	20.713814
2007.579024	-3.018000	3.341100	-10.082000	26.301803	0.000131	20.687073
2008.580730	-2.973800	3.342600	-9.939400	26.339757	0.000132	20.690129
2009.581512	-3.022700	3.340100	-10.095000	26.316118	0.000132	20.683915
2010.579025	-2.994000	3.341700	-10.005000	26.263942	0.000131	20.676051
2011.578067	-3.002600	3.341600	-10.033000	26.309733	0.000132	20.697888
2012.577502	-3.009900	3.341200	-10.056000	26.291559	0.000130	20.687210
2013.581809	-2.986700	3.340300	-9.975800	26.292503	0.000132	20.696694
2014.583766	-2.999900	3.339900	-10.019000	26.300580	0.000132	20.683947
2015.580166	-3.021500	3.339100	-10.088000	26.309041	0.000130	20.676802
2016.581195	-2.997900	3.339300	-10.010000	26.294918	0.000130	20.715718
2017.586740	-2.991000	3.338300	-9.984300	26.284636	0.000128	20.694003
2018.582207	-2.979700	3.339300	-9.949400	26.311529	0.000127	20.679777
2019.584052	-3.004000	3.337700	-10.026000	26.329929	0.000128	20.707281
2020.582719	-3.014000	3.336900	-10.056000	26.339593	0.000128	20.700396
2021.583346	-2.996500	3.336700	-9.997700	26.348305	0.000128	20.693505
2022.593664	-2.995800	3.335900	-9.993300	26.332596	0.000126	20.703322
2023.583280	-2.998600	3.336000	-10.002000	26.309925	0.000125	20.714678
2024.586895	-2.986900	3.336400	-9.964100	26.317530	0.000127	20.701457
2025.587740	-3.000800	3.336000	-10.010000	26.377171	0.000127	20.698809
2026.585113	-2.976400	3.336900	-9.931300	26.415262	0.000125	20.700583
2027.588592	-2.974200	3.334900	-9.917900	26.453327	0.000127	20.707548
2028.586053	-2.975000	3.336100	-9.923700	26.482201	0.000126	20.700533
2029.588410	-2.997000	3.334100	-9.991700	26.379733	0.000125	20.707074
2030.588817	-3.008400	3.334500	-10.031000	26.336751	0.000125	20.701808
2031.586797	-3.001800	3.334000	-10.007000	26.395479	0.000125	20.706779
2032.587173	-2.992700	3.333400	-9.974400	26.431602	0.000124	20.699462
2033.594652	-3.008000	3.332600	-10.024000	26.440688	0.000123	20.705275
2034.588933	-2.986600	3.334500	-9.958000	26.447184	0.000125	20.700899
2035.591106	-3.016700	3.332200	-10.052000	26.420539	0.000121	20.691187
2036.591544	-2.980800	3.333100	-9.934300	26.402060	0.000123	20.704383
2037.589032	-3.003400	3.331500	-10.005000	26.404450	0.000123	20.716744
2038.591392	-3.007400	3.331900	-10.019000	26.365562	0.000125	20.711324
2039.589553	-2.986700	3.331700	-9.950200	26.381382	0.000124	20.699722
2040.592031	-3.004600	3.331000	-10.007000	26.375249	0.000121	20.714896
2041.592521	-3.006900	3.331000	-10.015000	26.435733	0.000122	20.698872
2042.590559	-2.989700	3.331600	-9.959900	26.458506	0.000122	20.704692
2043.591774	-3.008900	3.329400	-10.016000	26.425337	0.000121	20.719719
2044.590087	-3.004200	3.329000	-10.000000	26.439196	0.000123	20.707569
2045.591212	-3.004100	3.329800	-10.002000	26.427678	0.000121	20.707373
2046.592519	-3.002000	3.328900	-9.992300	26.423555	0.000122	20.712712
2047.597194	-2.992900	3.328400	-9.961200	26.414843	0.000121	20.696842
2048.591118	-2.996200	3.328100	-9.970600	26.357409	0.000117	20.704078
2049.592670	-2.995600	3.327400	-9.967100	26.340278	0.000120	20.716259
2050.591868	-2.991500	3.328800	-9.957200	26.336112	0.000118	20.709227
2051.598695	-2.976700	3.328800	-9.907500	26.423806	0.000120	20.740941
2052.593488	-3.012000	3.326100	-10.017000	26.455494	0.000120	20.707355
2053.593363	-2.977600	3.327400	-9.906600	26.402333	0.000118	20.726470
2054.592589	-3.001500	3.326000	-9.982900	26.351112	0.000117	20.711026
2055.593991	-3.008900	3.325400	-10.005000	26.322567	0.000117	20.735445
2056.596408	-3.009600	3.326400	-10.011000	26.299001	0.000117	20.720295
2057.598113	-3.010800	3.325600	-10.012000	26.290257	0.000115	20.721465
2058.596316	-2.994400	3.324700	-9.954800	26.338625	0.000118	20.734514
2059.600027	-2.987000	3.326400	-9.935000	26.416874	0.000119	20.728757
2060.598698	-2.990000	3.324200	-9.938700	26.478469	0.000115	20.726656
2061.597062	-2.989500	3.325200	-9.939600	26.523241	0.000117	20.713811
2062.599951	-3.002100	3.323600	-9.976600	26.478875	0.000117	20.725167
2063.596589	-2.988900	3.323500	-9.933400	26.468406	0.000115	20.728395
2064.596755	-3.000700	3.322100	-9.967100	26.444469	0.000116	20.727096
2065.596363	-2.997700	3.324200	-9.963900	26.440769	0.000117	20.729540
2066.598418	-2.990200	3.324100	-9.938800	26.423485	0.000114	20.723548
2067.597880	-2.979700	3.322000	-9.897300	26.427284	0.000117	20.736376
2068.598058	-3.013800	3.321400	-10.009000	26.425998	0.000113	20.719909
2069.597533	-2.997000	3.321400	-9.953300	26.402931	0.000115	20.724226
2070.598494	-2.989900	3.321100	-9.928800	26.382669	0.000114	20.733260
2071.597859	-3.035700	3.320300	-10.079000	26.396424	0.000113	20.723376
2072.597250	-2.996500	3.321600	-9.952600	26.405842	0.000114	20.747542
2073.598953	-3.011800	3.320800	-10.001000	26.398465	0.000112	20.736808
2074.599912	-3.001800	3.318700	-9.961500	26.408868	0.000113	20.725452
2075.598618	-3.009200	3.320200	-9.990100	26.372818	0.000111	20.742326
2076.601605	-3.006900	3.319200	-9.980000	26.360209	0.000112	20.740085
2077.601396	-2.987200	3.319500	-9.915400	26.399579	0.000111	20.733186
2078.603300	-3.012500	3.317400	-9.993000	26.412121	0.000112	20.732516
2079.600713	-3.023500	3.317000	-10.028000	26.456270	0.000112	20.729948
2080.601707	-3.017900	3.316900	-10.010000	26.476645	0.000110	20.760860
2081.601286	-2.985500	3.318200	-9.906200	26.526435	0.000112	20.754956
2082.599698	-2.983900	3.318200	-9.900400	26.515285	0.000112	20.726678
2083.600746	-2.997700	3.317200	-9.943000	26.500270	0.000109	20.722965
2084.605471	-3.018300	3.316400	-10.009000	26.420865	0.000108	20.749365
2085.600586	-3.018900	3.316200	-10.010000	26.423143	0.000110	20.735533
2086.602078	-3.008800	3.316800	-9.978800	26.414211	0.000112	20.746470
2087.601963	-2.998300	3.317000	-9.944100	26.393170	0.000110	20.727219
2088.603480	-3.032800	3.315000	-10.053000	26.393258	0.000108	20.753861
2089.604045	-2.998700	3.313700	-9.934900	26.354264	0.000108	20.746439
2090.602295	-2.994200	3.315200	-9.925500	26.436254	0.000108	20.754401
2091.601430	-3.037100	3.313700	-10.063000	26.465607	0.000108	20.753558
2092.603342	-3.001500	3.314700	-9.948000	26.530820	0.000111	20.768848
2093.604784	-2.997000	3.313500	-9.929900	26.556519	0.000108	20.751532
2094.605616	-2.986100	3.313800	-9.894500	26.460834	0.000108	20.754450
2095.606658	-3.013500	3.313000	-9.983600	26.458443	0.000107	20.748255
2096.605564	-3.053000	3.311000	-10.107000	26.413236	0.000107	20.743594
2097.607327	-2.995400	3.313400	-9.924300	26.436076	0.000106	20.746161
2098.606932	-3.006100	3.311100	-9.952700	26.472554	0.000105	20.757222
2099.606896	-3.021100	3.311000	-10.001000	26.470765	0.000108	20.759691
2100.608177	-2.997300	3.311900	-9.925500	26.557040	0.000106	20.751107
2101.607230	-2.983400	3.311900	-9.879300	26.621887	0.000105	20.737110
2102.608429	-3.017000	3.309900	-9.984900	26.638794	0.000105	20.773073
2103.608756	-2.990600	3.310000	-9.898000	26.701295	0.000107	20.745817
2104.608178	-3.007900	3.309100	-9.951900	26.686308	0.000108	20.757303
2105.613615	-2.987000	3.310700	-9.888800	26.713541	0.000103	20.767137
2106.608705	-3.010800	3.309200	-9.962200	26.729796	0.000103	20.772100
2107.609087	-3.007700	3.308800	-9.950800	26.658953	0.000105	20.754932
2108.608717	-3.012600	3.307500	-9.963500	26.644999	0.000103	20.755603
2109.609232	-2.996100	3.307100	-9.907900	26.656123	0.000104	20.764415
2110.610303	-2.978300	3.308900	-9.854200	26.672606	0.000104	20.778141
2111.607905	-2.980800	3.308200	-9.860700	26.685690	0.000103	20.774699
2112.609017	-2.946400	3.309300	-9.749600	26.656895	0.000104	20.774201
2113.627469	-2.977500	3.308600	-9.850300	26.596717	0.000104	20.784829
2114.609733	-2.980800	3.306100	-9.854200	26.623683	0.000101	20.764046
2115.615351	-2.978500	3.305800	-9.845700	26.619040	0.000105	20.757008
2116.611705	-2.996300	3.305300	-9.903200	26.605305	0.000103	20.775444
2117.609531	-3.015100	3.304800	-9.963300	26.605141	0.000102	20.785710
2118.609231	-2.999500	3.305200	-9.912700	26.673801	0.000104	20.768911
2119.610893	-2.987700	3.306000	-9.876400	26.708377	0.000102	20.769059
2120.610374	-3.007900	3.303300	-9.934800	26.728210	0.000101	20.769083
2121.609760	-3.010600	3.303600	-9.944800	26.669483	0.000101	20.776898
2122.611607	-3.018900	3.303500	-9.971200	26.613209	9.941979E-5	20.769164
2123.611171	-3.011600	3.303300	-9.947400	26.616584	9.862773E-5	20.766393
2124.610916	-3.022900	3.303500	-9.985200	26.605442	9.984882E-5	20.764201
2125.612684	-2.993400	3.302900	-9.886400	26.627285	9.958480E-5	20.779522
2126.612202	-3.018800	3.301300	-9.964700	26.619015	9.674659E-5	20.782588
2127.614563	-2.993300	3.301800	-9.882400	26.650868	9.757165E-5	20.795169
2128.611752	-3.008900	3.303100	-9.937900	26.673937	9.740664E-5	20.784221
2129.612702	-3.024700	3.300200	-9.981300	26.759847	9.968381E-5	20.761061
2130.612854	-3.018800	3.300200	-9.962100	26.800306	9.806669E-5	20.766653
2131.617157	-2.999300	3.301200	-9.900500	26.797899	9.753865E-5	20.776087
2132.613984	-3.018700	3.300300	-9.961600	26.829275	9.882575E-5	20.767331
2133.614074	-2.995800	3.300700	-9.887100	26.811925	9.641657E-5	20.767429
2134.615546	-3.006200	3.299900	-9.919400	26.803429	9.536049E-5	20.781173
2135.615891	-3.007700	3.298800	-9.920500	26.751242	9.677960E-5	20.790343
2136.618725	-3.016000	3.297900	-9.944900	26.720654	9.427141E-5	20.788513
2137.619192	-3.024400	3.296700	-9.968400	26.699609	9.466744E-5	20.790115
2138.620010	-3.005500	3.298100	-9.911100	26.751812	9.654858E-5	20.799451
2139.617456	-3.013300	3.298000	-9.936800	26.789149	9.625156E-5	20.782936
2140.616482	-3.001600	3.296600	-9.893700	26.816022	9.450243E-5	20.789093
2141.616697	-3.001700	3.298300	-9.899300	26.748804	9.569052E-5	20.804013
2142.619283	-3.006500	3.297200	-9.912500	26.706536	9.380938E-5	20.801347
2143.618421	-3.014200	3.296700	-9.935100	26.766243	9.489846E-5	20.797839
2144.618722	-3.011100	3.294800	-9.920600	26.775619	9.433742E-5	20.812007
2145.621192	-2.996200	3.294900	-9.871400	26.756608	9.156522E-5	20.802377
2146.617948	-2.978900	3.295700	-9.816000	26.713870	9.255529E-5	20.785486
2147.624395	-3.007600	3.294900	-9.909100	26.760535	9.522848E-5	20.799686
2148.620294	-3.000000	3.294300	-9.881500	26.782051	9.229127E-5	20.792395
2149.619907	-3.020400	3.293300	-9.946300	26.831892	9.272030E-5	20.797937
2150.620787	-3.014900	3.293900	-9.929200	26.844404	9.186224E-5	20.796768
2151.620158	-3.006800	3.293800	-9.903000	26.818143	9.288531E-5	20.810665
2152.624681	-3.016200	3.294300	-9.935600	26.841900	9.466744E-5	20.798517
2153.624052	-2.997100	3.292800	-9.867900	26.899503	9.153221E-5	20.800487
2154.621904	-3.014900	3.290900	-9.920900	26.919982	9.338035E-5	20.841467
2155.623977	-2.989800	3.292600	-9.843100	26.891169	8.925505E-5	20.803013
2156.626189	-3.001500	3.291800	-9.879900	26.805222	8.981609E-5	20.802890
2157.622725	-2.977900	3.291100	-9.799700	26.759826	8.885902E-5	20.817939
2158.627362	-3.015900	3.291100	-9.924900	26.785562	9.087217E-5	20.796399
2159.627964	-2.980900	3.291900	-9.811000	26.766624	9.024512E-5	20.810076
2160.626490	-2.992000	3.290100	-9.842800	26.779902	8.998110E-5	20.819632
2161.623429	-2.979800	3.290500	-9.803700	26.824434	8.684587E-5	20.803715
2162.624028	-3.001500	3.288800	-9.870100	26.832036	8.905703E-5	20.828901
2163.626231	-2.979400	3.289100	-9.798600	26.864273	9.004711E-5	20.811056
2164.626363	-3.001100	3.288900	-9.869400	26.888281	8.819897E-5	20.809117
2165.627763	-3.009100	3.288300	-9.894700	26.889744	8.856200E-5	20.819123
2166.625037	-2.978400	3.288700	-9.794300	26.896810	8.710989E-5	20.816271
2167.627944	-3.014000	3.286600	-9.904900	26.905452	8.710989E-5	20.807891
2168.630086	-3.020000	3.287000	-9.925200	26.917590	8.707689E-5	20.823889
2169.629890	-2.999200	3.286100	-9.855200	26.929224	8.648284E-5	20.805717
2170.626787	-2.990100	3.286500	-9.825300	26.931614	8.598781E-5	20.824715
2171.627831	-2.995600	3.286300	-9.844400	26.925379	8.503074E-5	20.844997
2172.628230	-3.009500	3.285700	-9.886800	26.955613	8.486573E-5	20.815657
2173.627579	-3.025200	3.284400	-9.935400	26.998097	8.503074E-5	20.824241
2174.630905	-3.001700	3.285800	-9.861800	27.006162	8.532776E-5	20.809591
2175.629876	-3.011600	3.284400	-9.890300	27.015623	8.489873E-5	20.842339
2176.630859	-2.997600	3.284600	-9.845000	27.027980	8.318260E-5	20.832954
2177.630496	-2.996100	3.285300	-9.841700	27.029768	8.334762E-5	20.821477
2178.632827	-2.979800	3.283700	-9.783700	27.008079	8.394166E-5	20.835701
2179.632033	-3.007700	3.284500	-9.878100	26.977041	8.404067E-5	20.815868
2180.632049	-3.004900	3.281700	-9.860700	26.917052	8.440369E-5	20.845159
2181.632691	-2.969800	3.281800	-9.745100	26.943944	8.473372E-5	20.828579
2182.632302	-3.026900	3.280500	-9.929200	26.904254	8.143348E-5	20.833239
2183.632490	-3.024800	3.280300	-9.921100	26.943993	8.163149E-5	20.823886
2184.634428	-3.006500	3.281200	-9.863900	26.974268	8.212653E-5	20.822562
2185.632548	-2.992800	3.282700	-9.823300	26.983649	8.314960E-5	20.819668
2186.631848	-3.014800	3.280100	-9.887600	26.935163	8.229154E-5	20.816904
2187.633448	-2.953500	3.280900	-9.689500	26.881058	8.199452E-5	20.799009
2188.633799	-2.997700	3.278800	-9.828200	26.833015	8.057541E-5	20.820403
2189.639791	-2.985300	3.280100	-9.791400	26.871554	8.077343E-5	20.795143
2190.634376	-2.995600	3.279000	-9.821900	26.946651	8.090544E-5	20.811861
2191.635684	-2.993800	3.278400	-9.813400	26.972137	7.902430E-5	20.798135
2192.634234	-2.980600	3.278800	-9.771500	26.944195	7.968435E-5	20.814607
2193.636142	-2.999400	3.276600	-9.827200	26.923717	7.945333E-5	20.806817
2194.636386	-3.010700	3.277700	-9.867600	26.975298	7.968435E-5	20.810323
2195.640745	-2.998500	3.276200	-9.822700	26.952065	8.050941E-5	20.796916
2196.637257	-3.001700	3.276900	-9.835500	26.928171	7.882628E-5	20.792329
2197.638285	-2.981200	3.275800	-9.765000	26.923822	8.100444E-5	20.802181
2198.640546	-2.979800	3.276100	-9.761500	26.927252	7.869428E-5	20.810372
2199.637241	-3.003800	3.275700	-9.838700	26.970754	8.037740E-5	20.802434
2200.644551	-2.992300	3.275900	-9.801900	26.981306	7.932132E-5	20.780802
2201.639744	-2.997700	3.274500	-9.815000	27.012027	7.810023E-5	20.792730
2202.639823	-2.994100	3.275700	-9.806800	27.020978	7.852926E-5	20.797938
2203.638513	-2.998600	3.274100	-9.817300	27.086569	8.037740E-5	20.774761
2204.639089	-2.981500	3.274200	-9.761500	27.042324	7.846326E-5	20.803758
2205.642552	-3.021400	3.272600	-9.887500	27.032000	7.836425E-5	20.793850
2206.642376	-2.995600	3.274100	-9.807100	27.021872	7.684614E-5	20.777026
2207.641225	-3.012700	3.271000	-9.853000	27.046787	7.658212E-5	20.802557
2208.641869	-3.005100	3.271800	-9.831300	27.065702	7.641711E-5	20.788863
2209.642627	-2.997100	3.271400	-9.803200	27.091755	7.767120E-5	20.782348
2210.644275	-2.996300	3.272300	-9.803700	27.056720	7.664813E-5	20.769872
2211.647353	-3.013200	3.271000	-9.855700	27.053137	7.542704E-5	20.801830
2212.643218	-2.999600	3.271200	-9.811700	27.031309	7.255583E-5	20.766128
2213.643507	-2.982600	3.271900	-9.757600	27.040665	7.724217E-5	20.787865
2214.644561	-3.001800	3.270200	-9.815700	27.028871	7.658212E-5	20.806350
2215.643600	-2.988100	3.269000	-9.767200	27.027715	7.516302E-5	20.790963
2216.644649	-3.004900	3.268600	-9.820900	27.043023	7.542704E-5	20.799719
2217.643041	-2.982500	3.268800	-9.748800	27.062175	7.288585E-5	20.781522
2218.643311	-2.995400	3.267600	-9.786400	27.073068	7.615309E-5	20.775407
2219.643867	-2.978300	3.268400	-9.733000	27.101087	7.417294E-5	20.776559
2220.642804	-2.996800	3.267000	-9.789500	27.111710	7.579006E-5	20.764958
2221.645492	-3.002300	3.267400	-9.808400	27.063198	7.291885E-5	20.786345
2222.646748	-2.991000	3.266500	-9.768700	27.113191	7.301786E-5	20.774508
2223.644407	-2.975100	3.265700	-9.714300	27.191131	7.278684E-5	20.781775
2224.647732	-2.994000	3.266100	-9.776500	27.207955	7.281985E-5	20.760290
2225.646107	-2.994900	3.265400	-9.778600	27.213930	7.281985E-5	20.777205
2226.649156	-3.002700	3.264300	-9.800700	27.231096	7.281985E-5	20.777876
2227.644144	-3.020100	3.264100	-9.857100	27.228169	7.407394E-5	20.792951
2228.645042	-2.999100	3.264700	-9.790200	27.232038	7.437096E-5	20.782618
2229.644650	-3.014500	3.263400	-9.836800	27.157880	7.334788E-5	20.779625
2230.644971	-3.007800	3.263700	-9.816000	27.149939	7.456897E-5	20.778751
2231.648510	-3.014300	3.261400	-9.829500	27.133805	7.027866E-5	20.770110
2232.648581	-2.990900	3.262400	-9.757300	27.165667	7.212679E-5	20.770388
2233.646758	-3.009400	3.261900	-9.815300	27.208063	7.126873E-5	20.759450
2234.644462	-3.001100	3.261300	-9.785600	27.234835	7.331488E-5	20.771206
2235.648769	-3.006000	3.260700	-9.799300	27.267239	7.166476E-5	20.766816
2236.645157	-3.016100	3.261000	-9.833800	27.250391	7.176377E-5	20.766465
2237.648157	-3.025400	3.260000	-9.862400	27.224042	7.050968E-5	20.772204
2238.646514	-3.010100	3.260300	-9.812900	27.228082	6.968462E-5	20.765362
2239.645236	-3.007700	3.260100	-9.804500	27.226050	7.070769E-5	20.748618
2240.644634	-3.002700	3.259300	-9.786200	27.220955	6.843052E-5	20.755822
2241.645575	-3.002900	3.258700	-9.784800	27.283894	7.054268E-5	20.746110
2242.649965	-3.029500	3.256800	-9.865500	27.292054	7.077370E-5	20.783242
2243.646173	-3.020200	3.258900	-9.841600	27.317393	7.229181E-5	20.757522
2244.647532	-2.992500	3.258600	-9.750100	27.309177	7.103771E-5	20.760163
2245.646550	-2.995100	3.258200	-9.756300	27.237276	6.876055E-5	20.765126
2246.648822	-3.012300	3.256500	-9.808900	27.204951	6.773747E-5	20.765804
2247.651176	-2.993800	3.256400	-9.746900	27.243330	6.753946E-5	20.771216
2248.646968	-3.001000	3.255800	-9.769900	27.219135	6.859554E-5	20.781493
2249.653312	-2.998100	3.254900	-9.758100	27.203474	7.021265E-5	20.768111
2250.650392	-2.999100	3.257800	-9.769100	27.216226	6.816650E-5	20.762446
2251.647453	-2.998700	3.256300	-9.763800	27.222128	6.839752E-5	20.750837
2252.649274	-2.996600	3.254300	-9.750900	27.220762	6.849653E-5	20.772224
2253.649192	-3.004100	3.252900	-9.771400	27.239374	6.621936E-5	20.756331
2254.647632	-3.012600	3.252300	-9.797000	27.248404	6.651638E-5	20.751189
2255.648539	-3.000400	3.253300	-9.758900	27.237164	6.476726E-5	20.745572
2256.657943	-2.977500	3.253400	-9.686500	27.166403	6.810050E-5	20.766387
2257.652537	-2.995200	3.251800	-9.739400	27.094614	6.641738E-5	20.731642
2258.649804	-3.001500	3.252000	-9.760200	27.119406	6.529529E-5	20.754680
2259.649032	-3.007900	3.250400	-9.775700	27.186269	6.486626E-5	20.747961
2260.649467	-2.996600	3.252700	-9.746300	27.263432	6.588934E-5	20.745442
2261.650263	-2.987000	3.251400	-9.710200	27.246340	6.397520E-5	20.770924
2262.653248	-3.021800	3.250300	-9.819800	27.203142	6.390919E-5	20.739801
2263.654192	-2.965000	3.250700	-9.637900	27.221153	6.295212E-5	20.744641
2264.652225	-2.968000	3.250500	-9.647100	27.224746	6.407421E-5	20.748730
2265.650939	-3.010300	3.248000	-9.776500	27.194161	6.513028E-5	20.743096
2266.657322	-2.986300	3.248500	-9.700200	27.159000	6.447023E-5	20.758940
2267.651639	-2.997900	3.248600	-9.738000	27.145646	6.305113E-5	20.737448
2268.653589	-2.987200	3.247700	-9.700100	27.161884	6.394220E-5	20.745246
2269.655040	-2.975300	3.248800	-9.665000	27.174508	6.103798E-5	20.745140
2270.652647	-2.994100	3.246700	-9.719800	27.181223	6.311713E-5	20.759007
2271.654900	-3.006800	3.246500	-9.760900	27.165177	6.176404E-5	20.771792
2272.653606	-3.007400	3.246100	-9.761900	27.141549	6.027893E-5	20.750872
2273.654550	-2.996900	3.244200	-9.721600	27.176557	6.216006E-5	20.729657
2274.656213	-3.006700	3.245300	-9.756900	27.187473	6.258910E-5	20.768139
2275.657131	-3.003200	3.244500	-9.743500	27.241158	6.239108E-5	20.750064
2276.655494	-3.019800	3.244000	-9.795400	27.230714	5.981689E-5	20.736239
2277.657958	-3.014400	3.243200	-9.775100	27.210248	6.265510E-5	20.758803
2278.655270	-3.008400	3.243100	-9.755600	27.288216	6.397520E-5	20.754725
2279.658116	-3.009700	3.244100	-9.762700	27.257185	6.113699E-5	20.745322
2280.655516	-3.005900	3.245000	-9.753800	27.307762	5.998191E-5	20.737876
2281.659977	-3.020200	3.241400	-9.788400	27.353507	5.912384E-5	20.750229
2282.661605	-3.015200	3.240700	-9.770300	27.328543	6.169803E-5	20.763049
2283.656176	-3.013900	3.241300	-9.768400	27.324001	5.773774E-5	20.760850
2284.658164	-3.015600	3.240900	-9.771900	27.351932	5.889283E-5	20.768560
2285.660338	-2.992000	3.239800	-9.692300	27.332527	5.975089E-5	20.747615
2286.657139	-2.990900	3.240100	-9.689700	27.349771	5.744072E-5	20.754531
2287.659944	-2.965500	3.241100	-9.610300	27.358053	5.836479E-5	20.738206
2288.660208	-3.012400	3.238500	-9.754700	27.394792	5.757273E-5	20.755726
2289.658781	-2.979900	3.239900	-9.654000	27.413328	5.816677E-5	20.762993
2290.657580	-2.989700	3.238600	-9.681400	27.432466	5.839779E-5	20.734830
2291.659924	-2.988000	3.237200	-9.670500	27.436383	5.829878E-5	20.743039
2292.659214	-2.978800	3.238700	-9.646600	27.387488	5.681367E-5	20.748852
2293.661511	-3.015700	3.238300	-9.765600	27.312764	5.737471E-5	20.736744
2294.660205	-3.005400	3.235400	-9.721800	27.320655	5.678067E-5	20.748476
2295.660511	-3.029900	3.235700	-9.802900	27.310310	5.536157E-5	20.757035
2296.659729	-3.025000	3.234800	-9.784300	27.324744	5.635164E-5	20.748795
2297.662560	-2.991000	3.236500	-9.679500	27.358845	5.628563E-5	20.739951
2298.664405	-2.978000	3.235300	-9.633500	27.380680	5.549358E-5	20.724458
2299.664685	-2.981000	3.235700	-9.643900	27.392561	5.470152E-5	20.760119
2300.669059	-3.006400	3.235700	-9.726600	27.428455	5.265537E-5	20.729371
2301.663254	-2.973400	3.234700	-9.617200	27.372238	5.612062E-5	20.733983
2302.663754	-3.008500	3.233400	-9.727000	27.383005	5.532856E-5	20.739125
2303.662958	-2.991000	3.233100	-9.669900	27.343283	5.443750E-5	20.727615
2304.663380	-2.985500	3.231400	-9.647000	27.317652	5.473452E-5	20.738816
2305.665216	-3.021000	3.231700	-9.761500	27.337498	5.390946E-5	20.717527
2306.670007	-3.010900	3.231600	-9.729500	27.332289	5.480053E-5	20.718925
2307.666505	-2.998700	3.230800	-9.687700	27.364805	5.143428E-5	20.736463
2308.668321	-2.991500	3.231100	-9.665200	27.411620	5.229234E-5	20.727608
2309.673023	-2.993300	3.231000	-9.670700	27.466633	5.486653E-5	20.742178
2310.667315	-2.988400	3.229600	-9.650500	27.464870	5.519655E-5	20.731394
2311.672320	-2.979600	3.229000	-9.620100	27.490002	5.278738E-5	20.725385
2312.670084	-3.023800	3.228800	-9.762500	27.496122	5.001517E-5	20.750035
2313.670941	-3.001500	3.228900	-9.690700	27.399652	5.235835E-5	20.732163
2314.671722	-3.004100	3.227800	-9.695500	27.361645	5.285338E-5	20.742293
2315.671399	-3.003100	3.227400	-9.691000	27.328186	5.206132E-5	20.732343
2316.673406	-2.963900	3.228300	-9.567200	27.327561	5.173130E-5	20.732188
2317.672491	-2.998200	3.225600	-9.669800	27.316566	5.146728E-5	20.731085
2318.673638	-2.996000	3.225800	-9.663700	27.338629	5.341442E-5	20.723407
2319.672726	-3.001300	3.224900	-9.678300	27.382212	5.282038E-5	20.729793
2320.673236	-3.014300	3.224400	-9.717900	27.443882	5.196232E-5	20.724503
2321.672670	-3.015900	3.224400	-9.723200	27.513755	5.206132E-5	20.735058
2322.677516	-3.021300	3.223300	-9.737600	27.521141	5.298539E-5	20.732058
2323.673886	-2.999900	3.225500	-9.675300	27.552105	5.117026E-5	20.743772
2324.673664	-3.015700	3.222700	-9.717900	27.573702	5.282038E-5	20.739898
2325.679384	-3.007500	3.223200	-9.693100	27.560109	5.166530E-5	20.715788
2326.674034	-2.992200	3.224200	-9.646400	27.509433	5.117026E-5	20.725493
2327.675631	-3.010700	3.222700	-9.701600	27.496164	5.133527E-5	20.726368
2328.674058	-3.003000	3.222200	-9.675500	27.497204	5.130227E-5	20.733105
2329.674021	-3.003100	3.221500	-9.674000	27.452383	5.387646E-5	20.717408
2330.674119	-2.983200	3.220800	-9.607500	27.449303	5.041120E-5	20.723793
2331.673714	-3.014100	3.220500	-9.705800	27.451489	5.077423E-5	20.710818
2332.676419	-3.008100	3.220500	-9.686800	27.507914	5.268837E-5	20.720172
2333.675611	-2.999700	3.218900	-9.654800	27.452903	5.107125E-5	20.707025
2334.673149	-2.986300	3.219800	-9.614300	27.484008	5.179731E-5	20.700386
2335.673964	-2.984500	3.219400	-9.607200	27.490103	5.041120E-5	20.714106
2336.675339	-3.001500	3.218200	-9.658700	27.529065	5.123626E-5	20.727228
2337.673691	-2.994800	3.218300	-9.637300	27.510888	4.961915E-5	20.711310
2338.675949	-3.008300	3.216700	-9.675400	27.534152	4.991617E-5	20.714327
2339.674849	-3.009800	3.216100	-9.679100	27.588799	4.945413E-5	20.720000
2340.675850	-2.998400	3.215500	-9.639900	27.631001	5.044421E-5	20.682328
2341.680162	-2.997300	3.216000	-9.638900	27.651312	5.146728E-5	20.716045
2342.677426	-2.984000	3.215400	-9.593800	27.652149	5.130227E-5	20.731587
2343.682292	-2.989900	3.214400	-9.609900	27.648502	5.018019E-5	20.711320
2344.676128	-2.996100	3.213400	-9.626600	27.681909	5.077423E-5	20.711271
2345.675688	-2.980600	3.215300	-9.582400	27.697905	4.849706E-5	20.713617
2346.677231	-2.957800	3.214600	-9.507500	27.627493	4.843106E-5	20.711043
2347.677413	-2.999600	3.212500	-9.635800	27.509827	4.783702E-5	20.698861
2348.676970	-2.981400	3.215100	-9.584300	27.465275	4.730898E-5	20.710937
2349.679965	-2.977100	3.212500	-9.562800	27.505708	4.648392E-5	20.722219
2350.676632	-2.983500	3.212000	-9.582800	27.517905	5.018019E-5	20.698454
2351.679726	-3.005400	3.210600	-9.648700	27.590471	4.902510E-5	20.692282
2352.682592	-2.990200	3.212200	-9.604100	27.563879	4.796902E-5	20.702985
2353.676861	-2.995600	3.213800	-9.626100	27.516152	4.961915E-5	20.712813
2354.680591	-3.012200	3.208900	-9.665100	27.466968	4.681394E-5	20.715012
2355.679469	-2.986700	3.210400	-9.588000	27.467285	4.582387E-5	20.703951
2356.678519	-2.999700	3.208200	-9.623200	27.486975	4.975116E-5	20.706690
2357.677518	-2.994600	3.208800	-9.608200	27.526506	4.615389E-5	20.710902
2358.679556	-2.995000	3.209900	-9.612100	27.534664	4.839806E-5	20.713420
2359.683644	-3.013900	3.206500	-9.663000	27.557773	4.753999E-5	20.710118
2360.682373	-3.010900	3.207200	-9.655700	27.515960	4.654992E-5	20.699816
2361.679785	-3.023600	3.205600	-9.691900	27.520390	4.727597E-5	20.712809
2362.678679	-2.994500	3.206800	-9.602300	27.555012	4.602188E-5	20.706866
2363.681341	-2.982800	3.207000	-9.565100	27.524453	4.730898E-5	20.710733
2364.679991	-2.995300	3.207100	-9.605400	27.501598	4.555985E-5	20.697220
2365.680798	-3.002300	3.204400	-9.620000	27.533662	4.701195E-5	20.688702
2366.679060	-2.988700	3.203300	-9.572500	27.544006	4.565886E-5	20.706697
2367.679730	-2.990400	3.204900	-9.583000	27.601302	4.509781E-5	20.710768
2368.684141	-3.005100	3.203500	-9.625800	27.585249	4.579087E-5	20.698882
2369.683126	-2.983200	3.203500	-9.555700	27.552603	4.470179E-5	20.712503
2370.683611	-3.017200	3.200700	-9.655200	27.585786	4.582387E-5	20.708432
2371.681575	-3.013800	3.199600	-9.641700	27.651758	4.440476E-5	20.701319
2372.682890	-3.007200	3.200700	-9.623900	27.648906	4.470179E-5	20.701769
2373.683650	-2.977900	3.200700	-9.530500	27.628937	4.499881E-5	20.715341
2374.682191	-3.006500	3.198700	-9.614900	27.582083	4.440476E-5	20.712767
2375.682207	-3.007200	3.198700	-9.617600	27.589574	4.328268E-5	20.702760
2376.684908	-2.998500	3.198000	-9.588300	27.573000	4.258963E-5	20.688453
2377.683225	-2.999400	3.198300	-9.592100	27.520317	4.249062E-5	20.700880
2378.684107	-3.006500	3.198200	-9.614600	27.599187	4.414074E-5	20.674972
2379.685563	-2.995400	3.196500	-9.574300	27.637649	4.235861E-5	20.695183
2380.681767	-3.014400	3.196600	-9.635400	27.638292	4.351370E-5	20.684449
2381.685921	-2.992700	3.196000	-9.564000	27.633164	4.031246E-5	20.692092
2382.683335	-2.984500	3.196300	-9.537700	27.653915	4.216060E-5	20.693058
2383.682798	-2.999800	3.195000	-9.583700	27.616308	4.229261E-5	20.682243
2384.683683	-2.984200	3.195400	-9.534800	27.648334	4.202859E-5	20.687441
2385.690044	-3.006600	3.194200	-9.603100	27.685008	4.176457E-5	20.681196
2386.684369	-3.000400	3.192400	-9.577900	27.789057	4.239162E-5	20.674951
2387.688714	-3.006100	3.192700	-9.597100	27.795555	4.004844E-5	20.692398
2388.688844	-3.028100	3.191800	-9.664300	27.718853	3.958641E-5	20.685857
2389.684254	-3.015700	3.191500	-9.624100	27.645908	4.044447E-5	20.680258
2390.685012	-3.018300	3.189800	-9.627700	27.604269	4.070849E-5	20.696683
2391.686534	-3.040000	3.190200	-9.697400	27.619942	3.895936E-5	20.702496
2392.694297	-3.015800	3.189400	-9.618100	27.607959	3.985043E-5	20.689963
2393.696451	-3.014200	3.188900	-9.610300	27.623558	4.133554E-5	20.687642
2394.685832	-2.996900	3.189500	-9.558200	27.631342	4.080750E-5	20.670342
2395.687192	-3.011100	3.187000	-9.595500	27.636257	4.067549E-5	20.670546
2396.684343	-3.037700	3.188000	-9.683200	27.641262	3.892636E-5	20.677005
2397.690471	-3.028000	3.185300	-9.644400	27.616312	3.955341E-5	20.684143
2398.686482	-2.991000	3.187200	-9.531900	27.664920	3.928939E-5	20.698917
2399.686210	-3.008200	3.185600	-9.582400	27.734918	3.968542E-5	20.692068
2400.687527	-2.990800	3.185500	-9.525600	27.759726	3.688021E-5	20.686686
2401.686187	-3.012200	3.183600	-9.589000	27.771628	3.760626E-5	20.688232
2402.686997	-3.016000	3.183200	-9.599200	27.718881	3.697922E-5	20.694895
2403.689862	-3.002400	3.183200	-9.556400	27.686166	3.849733E-5	20.678569
2404.687162	-2.996200	3.183900	-9.538900	27.650655	3.651718E-5	20.675551
2405.689738	-3.005000	3.181900	-9.560900	27.703000	3.833232E-5	20.690294
2406.690719	-3.003200	3.181400	-9.553800	27.706274	3.684721E-5	20.676043
2407.690367	-3.005600	3.181000	-9.560000	27.744035	3.744125E-5	20.685120
2408.695027	-2.994200	3.180600	-9.522700	27.763133	3.615416E-5	20.684424
2409.692089	-3.005900	3.180000	-9.557800	27.753709	3.823331E-5	20.668776
2410.693629	-2.992900	3.179900	-9.516200	27.710630	3.645118E-5	20.669520
2411.705633	-3.016800	3.178200	-9.587400	27.716982	3.747425E-5	20.675439
2412.692472	-3.011500	3.179200	-9.573100	27.755294	3.546111E-5	20.667525
2413.693151	-2.995100	3.178600	-9.518700	27.759112	3.704522E-5	20.691758
2414.689858	-2.998300	3.176400	-9.522400	27.808796	3.536210E-5	20.673479
2415.691245	-3.002300	3.176200	-9.534700	27.840142	3.371198E-5	20.685587
2416.689999	-3.018100	3.175200	-9.582000	27.782639	3.638517E-5	20.677975
2417.691909	-2.988500	3.175600	-9.489600	27.768504	3.440503E-5	20.670862
2418.691596	-2.993000	3.174300	-9.499400	27.821761	3.668220E-5	20.662818
2419.693013	-2.991600	3.173500	-9.493100	27.839364	3.605515E-5	20.674845
2420.692907	-3.018300	3.171400	-9.571000	27.838844	3.433902E-5	20.672899
2421.695243	-3.005300	3.171400	-9.530000	27.865025	3.371198E-5	20.659418
2422.695132	-2.994200	3.171800	-9.496700	27.824079	3.443803E-5	20.680325
2423.697879	-3.009000	3.170000	-9.538100	27.865116	3.338195E-5	20.682745
2424.696873	-2.995200	3.169400	-9.493100	27.838042	3.381099E-5	20.682050
2425.696986	-3.000400	3.170900	-9.513100	27.740304	3.344796E-5	20.667139
2426.694632	-3.024000	3.168700	-9.581100	27.739062	3.384399E-5	20.675847
2427.694794	-3.002900	3.168000	-9.511900	27.760589	3.361297E-5	20.686132
2428.696259	-3.013500	3.168300	-9.547000	27.849530	3.242488E-5	20.670378
2429.695628	-3.024700	3.166400	-9.576800	27.840181	3.315094E-5	20.657174
2430.697414	-3.020100	3.166000	-9.561100	27.857784	3.192985E-5	20.677262
2431.694994	-3.018400	3.164300	-9.549300	27.840223	3.460304E-5	20.672865
2432.695403	-3.025100	3.164300	-9.571800	27.878659	3.249089E-5	20.679307
2433.697918	-3.002500	3.164100	-9.499200	27.907372	3.282091E-5	20.695405
2434.696086	-3.004700	3.162200	-9.500400	27.873819	3.173183E-5	20.671590
2435.699450	-3.024700	3.162100	-9.563100	27.808479	3.318394E-5	20.660830
2436.694780	-2.979300	3.163300	-9.424600	27.817773	3.008171E-5	20.679194
2437.695775	-2.994700	3.162200	-9.469200	27.855543	3.179784E-5	20.682120
2438.697478	-3.028100	3.158400	-9.563100	27.850696	3.222687E-5	20.654954
2439.706442	-2.992100	3.160300	-9.455000	27.807952	3.070876E-5	20.675475
2440.701857	-2.973300	3.159900	-9.394300	27.773729	3.136881E-5	20.664266
2441.698719	-3.008900	3.158900	-9.504000	27.750293	3.130280E-5	20.680986
2442.697768	-2.985900	3.158400	-9.428900	27.842289	3.146781E-5	20.679686
2443.696955	-3.001900	3.155900	-9.473100	27.845207	3.103878E-5	20.651800
2444.700737	-3.014500	3.155400	-9.510800	27.842998	2.928965E-5	20.660957
2445.699318	-3.016800	3.154800	-9.516100	27.833080	3.117079E-5	20.678478
2446.707156	-3.000500	3.155500	-9.466300	27.897298	3.027973E-5	20.680997
2447.699569	-2.976700	3.155500	-9.392100	27.844607	3.054375E-5	20.663999
2448.701092	-3.013400	3.153700	-9.502700	27.801580	2.912464E-5	20.689926
2449.705685	-3.014200	3.151100	-9.497700	27.768494	2.820057E-5	20.680336
2450.701989	-2.986500	3.151700	-9.412400	27.754824	2.952067E-5	20.686968
2451.702668	-2.998500	3.151200	-9.447900	27.762914	2.849760E-5	20.676617
2452.698246	-3.003900	3.150200	-9.462200	27.718941	2.998270E-5	20.678359
2453.697767	-2.992400	3.148400	-9.420000	27.755271	3.024672E-5	20.667027
2454.699251	-3.009800	3.148800	-9.476400	27.727513	2.724350E-5	20.670389
2455.700821	-3.011800	3.146300	-9.475400	27.747572	2.648445E-5	20.678721
2456.704016	-2.999600	3.146700	-9.438000	27.848819	2.909164E-5	20.688630
2457.703635	-3.007400	3.145700	-9.459300	27.802519	2.958668E-5	20.673800
2458.700623	-2.988300	3.144900	-9.397100	27.785177	2.711149E-5	20.678633
2459.706743	-3.018900	3.144200	-9.491500	27.741586	2.767254E-5	20.692613
2460.704134	-3.022900	3.142000	-9.497000	27.736574	2.674847E-5	20.670498
2461.702548	-3.004100	3.141900	-9.437400	27.656814	2.839859E-5	20.687439
2462.705204	-2.985500	3.141300	-9.377700	27.664946	2.727651E-5	20.684717
2463.706275	-3.013300	3.141800	-9.466000	27.750127	2.787055E-5	20.684612
2464.701933	-3.007300	3.139100	-9.439500	27.788957	2.612142E-5	20.674851
2465.705000	-3.013300	3.140100	-9.461400	27.810386	2.869561E-5	20.680769
2466.704121	-3.000900	3.138000	-9.416300	27.871179	2.625343E-5	20.691539
2467.707458	-2.981600	3.138400	-9.356800	27.848412	2.843159E-5	20.681581
2468.704695	-3.007900	3.137500	-9.436400	27.825270	2.681447E-5	20.687215
2469.706200	-3.010600	3.136900	-9.443200	27.870872	2.655045E-5	20.686168
2470.703810	-2.976600	3.135800	-9.333000	27.957700	2.697948E-5	20.676832
2471.703734	-3.008900	3.135200	-9.432400	28.037522	2.341522E-5	20.673727
2472.704290	-2.992500	3.132800	-9.373500	27.996547	2.552738E-5	20.681321
2473.708360	-2.999300	3.132500	-9.394600	27.976456	2.671546E-5	20.703299
2474.707725	-2.984000	3.132600	-9.346400	27.963015	2.816757E-5	20.704469
2475.708889	-2.966900	3.132000	-9.291800	27.968832	2.523036E-5	20.705583
2476.712808	-3.024900	3.129900	-9.466800	27.975605	2.381125E-5	20.684897
2477.710015	-3.013300	3.129200	-9.427600	28.022055	2.602241E-5	20.696566
2478.711715	-3.014200	3.128000	-9.428000	28.050837	2.615442E-5	20.686657
2479.711457	-2.991300	3.127700	-9.355100	28.029682	2.579140E-5	20.696658
2480.716036	-3.007300	3.126200	-9.400100	27.961225	2.476832E-5	20.692236
2481.713793	-2.991400	3.125500	-9.347900	27.988321	2.542837E-5	20.685369
2482.712133	-3.011000	3.125400	-9.409700	28.033266	2.384425E-5	20.676556
2483.717550	-2.972500	3.125200	-9.289200	28.084748	2.473532E-5	20.695190
2484.711440	-3.000100	3.122100	-9.365100	28.088541	2.318421E-5	20.702802
2485.714814	-3.014000	3.122400	-9.409800	28.118330	2.470232E-5	20.687270
2486.724534	-2.996300	3.120500	-9.348500	28.110176	2.265617E-5	20.690441
2487.714301	-3.001800	3.121400	-9.368300	28.052858	2.430629E-5	20.701021
2488.713813	-2.977400	3.120700	-9.290200	28.025684	2.265617E-5	20.704962
2489.716128	-2.992800	3.118000	-9.329900	27.985582	2.249115E-5	20.704425
2490.715381	-2.999300	3.119000	-9.353600	28.045821	2.173210E-5	20.695834
2491.718275	-2.983400	3.117800	-9.300400	28.033605	2.364624E-5	20.682588
2492.714175	-2.992100	3.115500	-9.321100	28.032779	2.473532E-5	20.689343
2493.715407	-3.001600	3.114600	-9.347700	28.021920	2.282118E-5	20.702595
2494.714966	-3.008800	3.112900	-9.364800	28.097920	2.519735E-5	20.679525
2495.718791	-2.994000	3.113100	-9.320100	28.000936	2.008198E-5	20.694749
2496.716614	-2.997500	3.112000	-9.327200	27.972512	2.226014E-5	20.721142
2497.715779	-2.993700	3.111300	-9.312800	28.068013	2.087404E-5	20.693516
2498.715558	-2.978500	3.110400	-9.263500	28.107156	2.331622E-5	20.700204
2499.718478	-2.989700	3.108700	-9.293600	28.117609	2.206212E-5	20.698873
2500.717235	-2.990100	3.108000	-9.292700	28.118209	2.080803E-5	20.705642
2501.717675	-2.983200	3.107200	-9.267900	28.075860	2.064302E-5	20.701890
2502.718639	-2.996800	3.106900	-9.310100	28.042466	2.113806E-5	20.689611
2503.719476	-3.006300	3.105400	-9.334900	28.018540	2.146808E-5	20.725747
2504.722852	-3.027400	3.103300	-9.393700	27.989872	2.044500E-5	20.719650
2505.721122	-2.978600	3.104200	-9.245300	28.037620	1.803583E-5	20.706071
2506.717231	-3.000100	3.101900	-9.305100	28.073362	2.133607E-5	20.709334
2507.721751	-3.000300	3.100300	-9.300900	28.116225	2.001597E-5	20.718818
2508.719615	-3.001900	3.099600	-9.304300	28.048747	1.909190E-5	20.700676
2509.727957	-3.007400	3.098900	-9.318300	28.080697	2.057701E-5	20.699647
2510.722329	-2.969000	3.099100	-9.200400	28.145518	2.008198E-5	20.717013
2511.726722	-3.006200	3.096000	-9.306100	28.155084	1.899290E-5	20.695348
2512.725679	-3.011600	3.097200	-9.326400	28.162596	2.084103E-5	20.715713
2513.725267	-3.003400	3.094700	-9.293700	28.102552	2.061002E-5	20.704579
2514.720369	-3.002300	3.094700	-9.290500	28.122719	2.008198E-5	20.704017
2515.725502	-3.006800	3.092800	-9.298700	28.132805	2.117106E-5	20.696153
2516.724475	-3.007300	3.091700	-9.296500	28.221251	2.140207E-5	20.736360
2517.723860	-2.987300	3.091100	-9.233200	28.208058	2.061002E-5	20.732086
2518.724251	-3.021600	3.088700	-9.332100	28.201115	1.981796E-5	20.726518
2519.726502	-3.001900	3.088900	-9.272000	28.196601	1.948793E-5	20.697316
2520.728143	-2.994900	3.087100	-9.244800	28.146702	2.027999E-5	20.717730
2521.730591	-2.993700	3.087800	-9.243400	28.177553	2.037900E-5	20.724134
2522.732754	-2.984700	3.086700	-9.211400	28.241775	2.209513E-5	20.695855
2523.726637	-2.973900	3.084900	-9.173300	28.230644	2.037900E-5	20.728272
2524.734862	-3.002400	3.083900	-9.258900	28.224441	1.869588E-5	20.701637
2525.728190	-3.011800	3.082100	-9.281200	28.281548	1.826684E-5	20.724047
2526.732314	-2.990400	3.081500	-9.213800	28.319264	2.077503E-5	20.704648
2527.728542	-3.005900	3.079500	-9.255700	28.356661	1.866287E-5	20.727605
2528.728780	-2.973100	3.081500	-9.161100	28.394308	2.080803E-5	20.703871
2529.728857	-3.003900	3.077700	-9.244100	28.447460	1.813483E-5	20.703341
2530.729198	-2.983200	3.077700	-9.181100	28.381085	1.958694E-5	20.716636
2531.731547	-3.031100	3.075900	-9.322200	28.310718	1.793682E-5	20.736348
2532.729231	-2.987500	3.075300	-9.186200	28.323035	1.859687E-5	20.725042
2533.730126	-3.010500	3.072500	-9.248700	28.364468	1.691374E-5	20.720768
2534.729024	-2.999200	3.073600	-9.218100	28.360126	1.846486E-5	20.737733
2535.729923	-2.971600	3.070900	-9.124900	28.329266	1.664973E-5	20.730368
2536.732448	-2.994200	3.070000	-9.191000	28.272902	1.697975E-5	20.723402
2537.732908	-2.993500	3.069700	-9.188200	28.267268	1.823384E-5	20.731956
2538.732561	-3.006500	3.068400	-9.224300	28.310074	1.952094E-5	20.721949
2539.736979	-2.978900	3.067200	-9.136200	28.338744	1.747479E-5	20.740386
2540.735581	-2.997400	3.066500	-9.189400	28.346321	1.674873E-5	20.748015
2541.734156	-3.024200	3.063700	-9.264400	28.379253	1.787081E-5	20.728068
2542.737308	-3.007700	3.062800	-9.211300	28.379075	1.453757E-5	20.735950
2543.733603	-2.964900	3.061700	-9.076100	28.413345	1.730977E-5	20.732052
2544.740944	-3.007800	3.060900	-9.205400	28.380523	1.770580E-5	20.742150
2545.736527	-2.976400	3.060700	-9.109100	28.391151	1.697975E-5	20.750956
2546.733846	-2.988000	3.058700	-9.138500	28.359326	1.688074E-5	20.732186
2547.737217	-2.986300	3.056500	-9.127200	28.319219	1.787081E-5	20.728312
2548.733358	-3.001200	3.055200	-9.168000	28.313091	1.579166E-5	20.723564
2549.734523	-2.979500	3.056100	-9.105200	28.332367	1.552764E-5	20.740603
2550.736112	-3.016100	3.052200	-9.204300	28.306785	1.638571E-5	20.748984
2551.734741	-2.988800	3.052600	-9.123000	28.242089	1.526362E-5	20.745011
2552.740021	-3.012800	3.051300	-9.191600	28.235838	1.480159E-5	20.737769
2553.738434	-2.973900	3.050400	-9.070800	28.235611	1.542864E-5	20.745128
2554.733634	-3.020200	3.048100	-9.205500	28.227078	1.839885E-5	20.746494
2555.735720	-3.012900	3.047700	-9.181200	28.255531	1.529663E-5	20.749536
2556.737323	-2.998200	3.047000	-9.133600	28.273873	1.704575E-5	20.742399
2557.738776	-3.013900	3.043600	-9.172600	28.245708	1.381152E-5	20.726369
2558.739812	-2.994700	3.043200	-9.112200	28.188635	1.526362E-5	20.747146
2559.735528	-3.027800	3.041600	-9.208200	28.216000	1.549464E-5	20.757152
2560.739685	-3.001000	3.041200	-9.125200	28.213969	1.559365E-5	20.740409
2561.736734	-3.012000	3.040100	-9.154600	28.236220	1.513161E-5	20.757595
2562.735415	-3.020900	3.039700	-9.182100	28.281626	1.516462E-5	20.756370
2563.738743	-2.994400	3.037200	-9.092500	28.343114	1.486759E-5	20.756166
2564.737645	-2.998600	3.037200	-9.106600	28.334656	1.829985E-5	20.745278
2565.738139	-2.998700	3.035000	-9.100800	28.299404	1.575866E-5	20.744397
2566.738887	-2.956900	3.034600	-8.972100	28.267283	1.618769E-5	20.741454
2567.739768	-3.001900	3.032600	-9.102300	28.274640	1.638571E-5	20.757397
2568.739719	-2.971100	3.032100	-9.008000	28.319940	1.556064E-5	20.770765
2569.738730	-3.005100	3.029800	-9.104200	28.292700	1.592367E-5	20.767994
2570.738782	-3.000200	3.029400	-9.087800	28.270340	1.516462E-5	20.785310
2571.742957	-3.003600	3.026500	-9.089100	28.261490	1.648471E-5	20.756958
2572.739315	-3.010400	3.025000	-9.105800	28.227330	1.519762E-5	20.754335
2573.739815	-2.995200	3.024700	-9.058600	28.224578	1.509861E-5	20.767211
2574.743629	-2.964600	3.024400	-8.965000	28.237434	1.328348E-5	20.765930
2575.740612	-3.001100	3.022400	-9.070300	28.285323	1.493360E-5	20.748238
2576.740214	-3.002900	3.022100	-9.074700	28.379278	1.506561E-5	20.745639
2577.743211	-3.013000	3.019800	-9.098100	28.454471	1.664973E-5	20.760665
2578.738922	-3.002700	3.019300	-9.065600	28.507774	1.546164E-5	20.756496
2579.743238	-3.000800	3.017100	-9.053300	28.554257	1.391052E-5	20.757788
2580.738850	-3.017400	3.016400	-9.100800	28.584309	1.536263E-5	20.757234
2581.739540	-2.995400	3.014500	-9.029300	28.592086	1.694675E-5	20.776921
2582.739815	-2.998800	3.013000	-9.034700	28.584700	1.476859E-5	20.764266
2583.741863	-3.018000	3.011400	-9.087300	28.585543	1.509861E-5	20.777444
2584.743223	-2.978800	3.010800	-8.968300	28.554830	1.618769E-5	20.767849
2585.743536	-2.982100	3.009200	-8.972900	28.571895	1.562665E-5	20.766069
2586.742675	-3.004600	3.006700	-9.032300	28.532573	1.460357E-5	20.787160
2587.743387	-2.983200	3.006400	-8.967800	28.579128	1.529663E-5	20.757232
2588.742903	-2.996200	3.004500	-9.001800	28.592555	1.450457E-5	20.744676
2589.747364	-3.011200	3.002200	-9.039700	28.602912	1.711176E-5	20.767910
2590.745194	-2.990400	3.001800	-8.975800	28.618020	1.499960E-5	20.770323
2591.742965	-2.982100	3.001200	-8.949300	28.509159	1.559365E-5	20.776857
2592.743781	-3.005500	2.998600	-9.011700	28.459616	1.655072E-5	20.781968
2593.744740	-2.991900	2.998800	-8.970900	28.437235	1.443856E-5	20.774602
2594.744460	-2.998200	2.997600	-8.986600	28.443161	1.496660E-5	20.786260
2595.747371	-3.019500	2.996100	-9.045900	28.457500	1.721077E-5	20.784578
2596.744501	-3.008500	2.993700	-9.005000	28.459757	1.486759E-5	20.799652
2597.744103	-3.018300	2.992900	-9.032400	28.493358	1.427355E-5	20.773272
2598.745597	-3.026600	2.990300	-9.049600	28.538282	1.549464E-5	20.780107
2599.746106	-3.001800	2.990000	-8.974500	28.607679	1.417454E-5	20.768443
2600.747126	-3.010000	2.988100	-8.994000	28.645867	1.658372E-5	20.792207
2601.749213	-2.971100	2.986700	-8.872300	28.621478	1.460357E-5	20.797041
2602.746899	-3.000500	2.985100	-8.956400	28.528155	1.496660E-5	20.776073
2603.746403	-3.007700	2.985300	-8.978500	28.566487	1.526362E-5	20.777218
2604.746829	-2.991900	2.983000	-8.924000	28.593249	1.480159E-5	20.793265
2605.747040	-3.010800	2.981200	-8.975200	28.593585	1.513161E-5	20.780801
2606.751189	-2.999000	2.979100	-8.932900	28.603740	1.605568E-5	20.776330
2607.744669	-3.003100	2.978800	-8.944700	28.618432	1.196338E-5	20.789231
2608.746145	-2.997600	2.976800	-8.922700	28.604229	1.189738E-5	20.782987
2609.753388	-2.983100	2.975300	-8.875300	28.536757	1.334948E-5	20.781891
2610.747638	-2.990200	2.973200	-8.890000	28.474479	1.453757E-5	20.779864
2611.749094	-2.989200	2.972800	-8.885900	28.515857	1.463658E-5	20.799249
2612.753840	-3.003100	2.971500	-8.921700	28.534568	1.391052E-5	20.802919
2613.750660	-2.986600	2.970300	-8.869700	28.537393	1.496660E-5	20.797229
2614.751101	-3.001100	2.968100	-8.906100	28.538370	1.328348E-5	20.805800
2615.748464	-3.013100	2.966800	-8.938200	28.538070	1.414154E-5	20.795541
2616.753987	-3.001900	2.965500	-8.900900	28.491703	1.384452E-5	20.797684
2617.752787	-3.001200	2.963300	-8.892800	28.562106	1.387752E-5	20.807894
2618.749021	-3.003000	2.962900	-8.896600	28.610390	1.556064E-5	20.807210
2619.755093	-3.000800	2.960500	-8.882300	28.683108	1.453757E-5	20.802690
2620.748333	-2.959400	2.960200	-8.759100	28.687419	1.559365E-5	20.802290
2621.754735	-3.002100	2.958000	-8.880000	28.698643	1.516462E-5	20.791784
2622.761333	-3.027900	2.954500	-8.943900	28.699603	1.602268E-5	20.800337
2623.752326	-2.973100	2.954900	-8.784500	28.723904	1.625370E-5	20.817228
2624.751372	-3.013100	2.953100	-8.897100	28.750240	1.420755E-5	20.800134
2625.754175	-3.004300	2.949700	-8.861000	28.723628	1.509861E-5	20.794666
2626.752160	-3.012100	2.949300	-8.881900	28.703185	1.691374E-5	20.798730
2627.752140	-2.996100	2.947300	-8.829200	28.671889	1.433956E-5	20.816993
2628.758835	-2.975700	2.946200	-8.766200	28.665591	1.328348E-5	20.801642
2629.753562	-2.984400	2.946500	-8.792700	28.676987	1.450457E-5	20.809327
2630.758920	-3.011700	2.943200	-8.863800	28.648448	1.499960E-5	20.797652
2631.754134	-3.015200	2.940100	-8.864400	28.678993	1.414154E-5	20.796648
2632.754368	-2.985300	2.940200	-8.776100	28.698109	1.480159E-5	20.818747
2633.754867	-3.016700	2.939500	-8.866900	28.726929	1.569265E-5	20.814111
2634.755275	-3.035700	2.936400	-8.913500	28.700335	1.605568E-5	20.819092
2635.754938	-3.008900	2.935400	-8.832000	28.720632	1.532963E-5	20.816303
2636.753319	-2.998400	2.933000	-8.793000	28.770767	1.470258E-5	20.827922
2637.755050	-3.029500	2.932900	-8.884000	28.773322	1.394353E-5	20.798254
2638.758448	-3.033000	2.930600	-8.886800	28.814365	1.701275E-5	20.794553
2639.756275	-3.017700	2.929100	-8.838600	28.812433	1.546164E-5	20.818211
2640.755390	-3.030100	2.925600	-8.863200	28.803905	1.559365E-5	20.821000
2641.757388	-3.030700	2.924700	-8.862400	28.841836	1.331648E-5	20.808476
2642.755997	-2.991500	2.925200	-8.749900	28.867576	1.542864E-5	20.831561
2643.757579	-3.013100	2.921800	-8.802000	28.840044	1.384452E-5	20.830852
2644.755767	-3.017300	2.921500	-8.814200	28.857160	1.447156E-5	20.813956
2645.755990	-2.996900	2.919800	-8.749300	28.890975	1.480159E-5	20.812459
2646.762408	-2.996600	2.918800	-8.746100	28.914825	1.466958E-5	20.814676
2647.759751	-2.983300	2.916700	-8.700500	28.930479	1.450457E-5	20.847989
2648.760273	-2.994100	2.914300	-8.725000	28.981527	1.585767E-5	20.824029
2649.757264	-3.010000	2.911300	-8.762100	29.000962	1.394353E-5	20.819429
2650.763731	-3.005400	2.910100	-8.745200	28.981893	1.655072E-5	20.829614
2651.757258	-3.024000	2.907800	-8.792900	28.941670	1.278844E-5	20.819910
2652.760114	-3.029700	2.906600	-8.805500	28.974308	1.592367E-5	20.826714
2653.758032	-3.015300	2.904500	-8.757600	28.986293	1.483459E-5	20.813185
2654.762365	-3.006900	2.903100	-8.728100	28.999116	1.292045E-5	20.833216
2655.758141	-3.007000	2.901100	-8.722000	28.954706	1.427355E-5	20.848690
2656.763417	-3.055900	2.899000	-8.858100	28.946925	1.608868E-5	20.805764
2657.760184	-3.028700	2.897400	-8.774100	28.959033	1.486759E-5	20.829342
2658.758774	-2.997400	2.897400	-8.684100	28.996634	1.625370E-5	20.809853
2659.762605	-2.993200	2.895200	-8.664600	28.985553	1.490060E-5	20.834724
2660.764207	-3.035900	2.891800	-8.779100	28.918252	1.341549E-5	20.832827
2661.759421	-3.019100	2.890800	-8.726700	28.902372	1.526362E-5	20.843381
2662.761147	-3.001700	2.890100	-8.674100	28.923576	1.582466E-5	20.848147
2663.761207	-3.012500	2.887400	-8.697700	28.890038	1.763980E-5	20.849446
2664.769482	-2.997400	2.885900	-8.649700	28.873955	1.443856E-5	20.845573
2665.766023	-3.000400	2.884300	-8.652600	28.877763	1.579166E-5	20.846090
2666.767060	-2.994700	2.881400	-8.627800	28.938447	1.328348E-5	20.838947
2667.765117	-3.008400	2.879600	-8.662100	28.952890	1.598968E-5	20.854446
2668.770310	-2.992300	2.879600	-8.615300	29.024766	1.427355E-5	20.852420
2669.775280	-2.997600	2.876600	-8.621000	28.994800	1.259043E-5	20.861108
2670.769620	-2.978500	2.873700	-8.558500	28.946637	1.506561E-5	20.851465
2671.765330	-2.990700	2.872900	-8.590700	28.937273	1.618769E-5	20.843454
2672.766655	-2.975700	2.871000	-8.541900	28.961281	1.255742E-5	20.825443
2673.766083	-3.003200	2.868300	-8.613700	28.960334	1.311847E-5	20.859100
2674.769029	-2.994000	2.866300	-8.580700	28.895281	1.387752E-5	20.838134
2675.767891	-2.993700	2.865400	-8.576900	28.951465	1.602268E-5	20.845424
2676.767579	-2.985400	2.864100	-8.548400	28.985124	1.513161E-5	20.865110
2677.771035	-3.001700	2.860700	-8.585700	28.945438	1.480159E-5	20.854525
2678.771110	-3.013900	2.859200	-8.616900	28.906424	1.549464E-5	20.850781
2679.768313	-3.009400	2.857600	-8.599100	28.847168	1.202939E-5	20.856046
2680.776340	-3.016600	2.854900	-8.611300	28.865507	1.219440E-5	20.842752
2681.770940	-3.006100	2.854100	-8.578600	28.893740	1.470258E-5	20.853651
2682.773873	-3.012900	2.851700	-8.591600	28.954820	1.348149E-5	20.841692
2683.772180	-3.024700	2.849700	-8.618900	28.990093	1.381152E-5	20.826021
2684.778046	-3.003400	2.846900	-8.549800	28.925023	1.516462E-5	20.846760
2685.771962	-3.002600	2.845300	-8.543000	28.962852	1.272244E-5	20.841723
2686.774308	-3.019200	2.841800	-8.579100	29.025492	1.417454E-5	20.832290
2687.772116	-3.020500	2.840300	-8.578300	29.094442	1.288745E-5	20.860510
2688.772854	-3.007600	2.839400	-8.539500	29.137294	1.186437E-5	20.831619
2689.772042	-3.012500	2.837700	-8.547700	29.172059	1.183137E-5	20.854796
2690.772388	-2.994000	2.834900	-8.487000	29.142421	1.430655E-5	20.856699
2691.781019	-3.009800	2.832600	-8.525100	29.127974	1.381152E-5	20.849254
2692.776184	-2.985500	2.831000	-8.450900	29.148165	1.216140E-5	20.826453
2693.771865	-2.999700	2.827400	-8.480600	29.161438	1.367951E-5	20.827499
2694.771515	-2.985500	2.826400	-8.437400	29.115990	1.298646E-5	20.836705
2695.777524	-3.009200	2.822800	-8.493200	29.096826	1.259043E-5	20.830671
2696.773879	-3.001200	2.820000	-8.463400	29.073517	1.143534E-5	20.853176
2697.777537	-2.980800	2.818100	-8.399000	29.049872	1.457057E-5	20.820818
2698.779708	-3.019900	2.815400	-8.501700	29.026256	1.278844E-5	20.842068
2699.774861	-2.988800	2.813900	-8.409800	29.070449	1.354750E-5	20.841077
2700.774583	-2.999100	2.810700	-8.428700	29.146283	1.592367E-5	20.842099
2701.777696	-3.002400	2.808900	-8.432300	29.106139	1.410854E-5	20.820141
2702.778894	-2.986500	2.807200	-8.383300	29.017021	1.371251E-5	20.817592
2703.776727	-2.999000	2.804500	-8.409700	29.003325	1.453757E-5	20.819439
2704.775849	-2.999300	2.801200	-8.401000	28.969361	1.235941E-5	20.823152
2705.776670	-3.016600	2.797400	-8.437700	28.964483	1.443856E-5	20.843842
2706.778869	-2.972400	2.796200	-8.310200	28.979867	1.483459E-5	20.798650
2707.776388	-3.000100	2.792200	-8.376000	29.034464	1.387752E-5	20.826157
2708.777028	-2.986600	2.789700	-8.330300	29.024997	1.460357E-5	20.820886
2709.777213	-3.016100	2.787800	-8.407900	29.041046	1.315147E-5	20.812875
2710.778495	-2.969200	2.785600	-8.270300	29.146876	1.493360E-5	20.801920
2711.785197	-2.988600	2.781800	-8.312900	29.195421	1.598968E-5	20.832820
2712.776590	-3.024700	2.778100	-8.402200	29.149082	1.272244E-5	20.823583
2713.782502	-3.019000	2.775800	-8.379700	29.092542	1.549464E-5	20.799802
2714.777867	-2.992400	2.773100	-8.297100	29.107300	1.394353E-5	20.799974
2715.778234	-3.013800	2.770000	-8.347500	29.159410	1.334948E-5	20.816446
2716.776980	-3.035000	2.767100	-8.397200	29.236966	1.476859E-5	20.799297
2717.787194	-3.010000	2.762900	-8.315900	29.250464	1.602268E-5	20.802942
2718.780105	-2.962600	2.762500	-8.182700	29.248582	1.364650E-5	20.799623
2719.782813	-3.017100	2.758400	-8.321400	29.243107	1.628670E-5	20.804537
2720.778827	-2.989900	2.755900	-8.238700	29.263241	1.387752E-5	20.824353
2721.780068	-3.016200	2.752700	-8.301200	29.235757	1.499960E-5	20.793810
2722.783434	-2.983600	2.749600	-8.202500	29.310363	1.631970E-5	20.785546
2723.781382	-3.008200	2.745700	-8.257600	29.303874	1.328348E-5	20.808404
2724.787550	-2.995600	2.742800	-8.215500	29.268960	1.414154E-5	20.807357
2725.784707	-3.003400	2.739300	-8.226800	29.223499	1.430655E-5	20.798053
2726.786756	-2.984800	2.736300	-8.166100	29.237095	1.648471E-5	20.788521
2727.789075	-3.000700	2.733000	-8.199900	29.322522	1.569265E-5	20.783576
2728.794860	-3.000600	2.728900	-8.187400	29.343693	1.351449E-5	20.801594
2729.788173	-3.019200	2.724700	-8.225400	29.401484	1.635270E-5	20.791088
2730.787591	-3.020200	2.721100	-8.217300	29.454221	1.579166E-5	20.789241
2731.788852	-3.033500	2.717200	-8.241300	29.375238	1.318447E-5	20.802092
2732.791935	-2.995800	2.715700	-8.134300	29.394654	1.513161E-5	20.793687
2733.792937	-2.987500	2.712700	-8.103200	29.328962	1.447156E-5	20.795756
2734.788178	-2.975600	2.707200	-8.054700	29.374004	1.509861E-5	20.789943
2735.787363	-3.019100	2.702500	-8.158300	29.348269	1.655072E-5	20.788662
2736.786783	-3.021900	2.700000	-8.158600	29.336239	1.648471E-5	20.795503
2737.792418	-2.982400	2.697100	-8.042500	29.286790	1.714476E-5	20.770324
2738.794383	-3.005100	2.691800	-8.088300	29.347732	1.536263E-5	20.785750
2739.794904	-2.974900	2.687700	-7.994400	29.364888	1.559365E-5	20.784549
2740.792157	-3.058500	2.681500	-8.200500	29.429441	1.641871E-5	20.796507
2741.807583	-3.018100	2.677600	-8.080100	29.467838	1.625370E-5	20.763137
2742.788124	-2.975100	2.675100	-7.958100	29.436547	1.496660E-5	20.766210
2743.802305	-2.972800	2.671000	-7.939500	29.505048	1.364650E-5	20.781679
2744.790637	-3.007900	2.667000	-8.020600	29.519929	1.549464E-5	20.774394
2745.794779	-3.016400	2.662000	-8.028800	29.559001	1.503261E-5	20.787228
2746.795726	-3.007100	2.657700	-7.990600	29.565103	1.625370E-5	20.788637
2747.793210	-3.039100	2.652500	-8.060100	29.564615	1.658372E-5	20.773920
2748.794091	-3.006000	2.647600	-7.957300	29.555134	1.529663E-5	20.772898
2749.794424	-2.993400	2.644600	-7.915700	29.485243	1.450457E-5	20.793010
2750.793345	-3.016500	2.637500	-7.954900	29.386981	1.374551E-5	20.766512
2751.796242	-2.951900	2.635100	-7.777500	29.405944	1.433956E-5	20.784204
2752.798698	-2.966300	2.630100	-7.800600	29.434250	1.414154E-5	20.785233
2753.800508	-2.985800	2.624900	-7.836700	29.476782	1.532963E-5	20.781162
2754.795513	-2.993200	2.620300	-7.842100	29.529789	1.486759E-5	20.772005
2755.796515	-3.012400	2.613700	-7.872800	29.563283	1.549464E-5	20.776371
2756.802094	-3.020500	2.608500	-7.877900	29.667002	1.374551E-5	20.775195
2757.797292	-2.992300	2.604400	-7.792600	29.688245	1.572566E-5	20.746825
2758.802684	-3.000000	2.598100	-7.793500	29.735000	1.450457E-5	20.778791
2759.803027	-2.996900	2.592700	-7.768400	29.760663	1.559365E-5	20.757725
2760.802367	-2.975200	2.587700	-7.698300	29.770668	1.605568E-5	20.749793
2761.796330	-3.012800	2.582700	-7.779500	29.781905	1.674873E-5	20.765392
2762.806455	-2.960500	2.577200	-7.628400	29.729478	1.450457E-5	20.777492
2763.797887	-3.005500	2.571600	-7.729100	29.713641	1.282144E-5	20.775275
2764.797829	-3.011100	2.563900	-7.718900	29.693070	1.476859E-5	20.759751
2765.799467	-3.001300	2.558500	-7.678300	29.693144	1.681474E-5	20.773101
2766.802859	-3.008800	2.552300	-7.679300	29.735299	1.697975E-5	20.755859
2767.801071	-2.992500	2.546600	-7.620000	29.705427	1.483459E-5	20.762725
2768.799842	-3.020500	2.540300	-7.672200	29.599128	1.582466E-5	20.765564
2769.804013	-2.989800	2.535700	-7.579600	29.543461	1.526362E-5	20.761605
2770.804197	-2.976900	2.529100	-7.528400	29.548360	1.480159E-5	20.751370
2771.806261	-3.017300	2.523000	-7.611900	29.560168	1.499960E-5	20.774179
2772.802740	-3.016100	2.516900	-7.589300	29.555544	1.334948E-5	20.770940
2773.805315	-3.005700	2.510600	-7.545400	29.603538	1.463658E-5	20.754363
2774.807282	-3.005900	2.504100	-7.526400	29.681166	1.532963E-5	20.743481
2775.811941	-3.017200	2.497500	-7.534200	29.697132	1.433956E-5	20.765743
