LabVIEW Measurement	
Writer_Version	2
Reader_Version	2
Separator	Tab
Decimal_Separator	.
Multi_Headings	No
X_Columns	One
Time_Pref	Absolute
Operator	admin
Description	Clolumns are: time, Current, Voltage, Power, Battery Temp, and Chamber Temp
Date	2024/08/16
Time	13:07:17.8513970375061035156
***End_of_Header***	
	
Channels	6						
Samples	1	1	1	1	1	1	
Date	2024/09/01	2024/09/01	2024/09/01	2024/09/01	2024/09/01	2024/09/01	
Time	03:18:36.7190341949462890625	03:18:36.7240390777587890625	03:18:36.729034423828125	03:18:36.7027525901794433594	03:18:36.7027525901794433594	03:18:36.7027525901794433594	
X_Dimension	Time	Time	Time	Time	Time	Time	
X0	0.0000000000000000E+0	0.0000000000000000E+0	0.0000000000000000E+0	0.0000000000000000E+0	0.0000000000000000E+0	0.0000000000000000E+0	
Delta_X	1.000000	1.000000	1.000000	1.000000	1.000000	1.000000	
***End_of_Header***							
X_Value	Untitled	Untitled 1	Untitled 2	Untitled 3	Untitled 4	Untitled 5	Comment
0.000000	0.018889	4.090600	0.077268	20.907864	0.000474	20.977081
0.998484	-2.995200	3.927300	-11.762000	20.898588	0.000475	20.974917
2.000433	-2.995900	3.921100	-11.747000	20.922974	0.000473	20.972280
3.001536	-2.992700	3.917100	-11.722000	20.928173	0.000474	20.990752
4.001470	-2.991500	3.913300	-11.706000	20.923751	0.000473	20.983960
5.001121	-3.002200	3.909800	-11.737000	20.923777	0.000471	20.965497
6.001308	-2.997000	3.907400	-11.709000	20.921932	0.000474	20.998734
7.000233	-3.011400	3.904100	-11.755000	20.939164	0.000471	20.967609
8.002470	-3.032100	3.901800	-11.830000	20.950671	0.000472	20.977694
9.001686	-3.000900	3.900400	-11.704000	20.942853	0.000470	20.968928
10.006433	-3.004000	3.899200	-11.712000	20.963774	0.000472	20.973730
11.002051	-3.005800	3.898500	-11.717000	20.972550	0.000468	20.988668
12.003990	-3.010400	3.896400	-11.729000	20.972566	0.000468	20.977781
13.002306	-3.010700	3.895100	-11.726000	20.989349	0.000466	20.990297
14.004848	-2.989100	3.893600	-11.637000	20.995460	0.000469	20.989771
15.003356	-2.998100	3.893100	-11.670000	20.992909	0.000467	20.972050
16.002488	-2.986900	3.892200	-11.624000	21.006045	0.000469	20.989926
17.004203	-3.013000	3.889600	-11.718000	20.990461	0.000466	20.980032
18.004211	-3.008200	3.888300	-11.696000	21.027223	0.000467	20.994986
19.008150	-3.006600	3.889100	-11.692000	21.025697	0.000467	20.990142
20.010564	-3.001600	3.887500	-11.669000	21.044263	0.000465	20.976945
21.006374	-3.012100	3.887300	-11.708000	21.037333	0.000465	20.989452
22.005672	-3.010300	3.885500	-11.695000	21.056424	0.000464	20.991951
23.007216	-3.015100	3.886500	-11.718000	21.073196	0.000463	20.995451
24.007839	-2.991600	3.885200	-11.622000	21.058397	0.000462	21.014310
25.011323	-2.987300	3.884600	-11.604000	21.072093	0.000462	20.997192
26.008116	-2.995900	3.883700	-11.634000	21.085263	0.000464	20.994718
27.008820	-2.982500	3.883800	-11.582000	21.094631	0.000463	21.002665
28.011491	-2.999900	3.883200	-11.648000	21.096475	0.000463	20.999295
29.009181	-3.001200	3.882000	-11.650000	21.123840	0.000460	20.996795
30.012963	-2.999900	3.881900	-11.644000	21.096924	0.000461	21.015387
31.009206	-3.017400	3.880300	-11.708000	21.111438	0.000460	21.001459
32.008750	-3.036500	3.880300	-11.781000	21.111748	0.000459	21.009828
33.008769	-3.018400	3.880700	-11.713000	21.131450	0.000463	21.012940
34.008940	-2.990800	3.880900	-11.606000	21.139128	0.000459	20.991700
35.009128	-2.992700	3.878700	-11.606000	21.145928	0.000459	20.999924
36.012941	-2.992900	3.878600	-11.606000	21.167388	0.000458	21.005268
37.007360	-2.995000	3.878900	-11.616000	21.177480	0.000460	20.999243
38.009749	-3.012700	3.877700	-11.681000	21.171257	0.000459	21.005345
39.011623	-3.001000	3.877700	-11.636000	21.194148	0.000460	21.008802
40.009424	-2.998700	3.878400	-11.629000	21.199094	0.000459	20.979142
41.011714	-3.001000	3.876700	-11.633000	21.207048	0.000457	20.998950
42.009744	-3.002700	3.877000	-11.641000	21.215838	0.000456	20.986408
43.010278	-3.033000	3.874200	-11.749000	21.215864	0.000458	20.995915
44.010279	-3.003800	3.874400	-11.637000	21.232772	0.000458	20.982486
45.010357	-3.008200	3.874200	-11.654000	21.230851	0.000456	20.986253
46.012086	-2.999400	3.875800	-11.624000	21.248491	0.000456	20.991097
47.013124	-3.010600	3.874500	-11.664000	21.255488	0.000457	20.982925
48.010787	-2.978400	3.874800	-11.540000	21.262313	0.000457	20.991649
49.011352	-2.989800	3.875300	-11.585000	21.270052	0.000457	20.969048
50.013932	-3.003800	3.874100	-11.636000	21.279160	0.000456	20.976736
51.012423	-3.005000	3.872800	-11.636000	21.292224	0.000457	20.981271
52.014161	-2.999600	3.874000	-11.619000	21.293878	0.000456	20.981029
53.011336	-3.017200	3.872900	-11.685000	21.288846	0.000455	20.966039
54.012320	-3.027700	3.872600	-11.723000	21.319549	0.000457	20.966410
55.017535	-3.021100	3.873000	-11.700000	21.333319	0.000454	20.973547
56.021644	-3.006800	3.871200	-11.639000	21.335611	0.000455	20.959721
57.018512	-3.012700	3.870800	-11.660000	21.340031	0.000454	20.971254
58.015065	-3.004300	3.872400	-11.633000	21.338600	0.000458	20.965081
59.015249	-2.982700	3.872900	-11.551000	21.340867	0.000457	20.973986
60.016184	-2.998800	3.871900	-11.611000	21.341660	0.000454	20.969564
61.016673	-2.976800	3.871300	-11.524000	21.362529	0.000455	20.967684
62.016500	-3.011100	3.869800	-11.650000	21.360891	0.000454	20.957038
63.019657	-2.996800	3.871600	-11.601000	21.384639	0.000455	20.977001
64.017800	-3.000900	3.870200	-11.613000	21.392360	0.000456	20.973821
65.017604	-2.998900	3.870700	-11.606000	21.401803	0.000456	20.959090
66.018888	-3.005300	3.870000	-11.629000	21.413547	0.000457	20.950927
67.017163	-3.004800	3.870100	-11.628000	21.420759	0.000455	20.951978
68.019326	-2.993900	3.870900	-11.588000	21.429254	0.000454	20.962373
69.018988	-3.004300	3.870200	-11.626000	21.438741	0.000455	20.960486
70.018901	-3.007600	3.869200	-11.636000	21.442290	0.000455	20.953607
71.018300	-3.005900	3.869900	-11.632000	21.457790	0.000454	20.952994
72.019940	-3.018000	3.869300	-11.677000	21.462503	0.000455	20.969562
73.023507	-2.998900	3.869700	-11.604000	21.492099	0.000453	20.963140
74.019990	-3.007700	3.868400	-11.635000	21.471688	0.000452	20.955994
75.020911	-3.002800	3.869000	-11.617000	21.478373	0.000456	20.962209
76.022567	-2.996200	3.867300	-11.586000	21.499456	0.000454	20.956278
77.020119	-3.003100	3.866900	-11.612000	21.512518	0.000454	20.940900
78.024879	-2.990700	3.868200	-11.568000	21.522443	0.000455	20.947512
79.022605	-2.996500	3.867200	-11.587000	21.527207	0.000456	20.957968
80.021298	-2.993600	3.867800	-11.577000	21.532764	0.000452	20.951675
81.022629	-3.000300	3.866900	-11.601000	21.532781	0.000454	20.961648
82.026785	-3.008200	3.865800	-11.628000	21.560625	0.000455	20.945416
83.021347	-2.986200	3.866900	-11.546000	21.561589	0.000454	20.952544
84.026832	-3.009300	3.866900	-11.636000	21.577003	0.000457	20.933831
85.023091	-3.006900	3.866300	-11.624000	21.580182	0.000454	20.930848
86.022583	-2.998000	3.867600	-11.595000	21.581938	0.000456	20.956785
87.026922	-3.009000	3.866500	-11.633000	21.579027	0.000456	20.937753
88.024190	-3.012000	3.865000	-11.641000	21.628779	0.000457	20.951028
89.026211	-3.009100	3.865700	-11.631000	21.597178	0.000456	20.925572
90.022408	-3.001700	3.865000	-11.601000	21.598445	0.000457	20.945329
91.027828	-3.001500	3.865300	-11.601000	21.625263	0.000455	20.954621
92.024235	-2.989100	3.865200	-11.552000	21.624686	0.000454	20.942665
93.024131	-2.978700	3.866500	-11.516000	21.629898	0.000455	20.943614
94.026033	-2.978100	3.865100	-11.509000	21.647239	0.000456	20.926356
95.023095	-3.000000	3.865800	-11.596000	21.639709	0.000456	20.944897
96.023656	-2.991400	3.864000	-11.558000	21.667577	0.000456	20.920157
97.026572	-3.009100	3.863700	-11.624000	21.663012	0.000456	20.931235
98.023524	-2.993100	3.862900	-11.561000	21.660332	0.000458	20.928079
99.028237	-3.003500	3.863600	-11.603000	21.693033	0.000457	20.929984
100.025929	-2.997600	3.863300	-11.580000	21.709399	0.000457	20.926450
101.027875	-2.990400	3.865700	-11.560000	21.720899	0.000457	20.942698
102.029064	-2.999200	3.864400	-11.589000	21.711923	0.000455	20.919493
103.026806	-2.989400	3.864100	-11.551000	21.699888	0.000457	20.953912
104.028398	-2.981400	3.864600	-11.521000	21.738161	0.000459	20.933423
105.027942	-2.984200	3.863800	-11.529000	21.744871	0.000459	20.919277
106.028468	-2.993000	3.862400	-11.559000	21.734103	0.000456	20.936000
107.026806	-2.988100	3.862600	-11.541000	21.746370	0.000458	20.916510
108.028981	-3.005700	3.862100	-11.607000	21.750005	0.000460	20.943853
109.027529	-3.018100	3.861100	-11.653000	21.764553	0.000460	20.937551
110.040377	-2.987500	3.863000	-11.539000	21.766474	0.000457	20.939948
111.027802	-2.990000	3.862500	-11.549000	21.752571	0.000458	20.935991
112.028552	-2.990000	3.863300	-11.550000	21.775630	0.000459	20.955748
113.031932	-2.972200	3.862600	-11.479000	21.789894	0.000461	20.934465
114.027956	-3.006300	3.861000	-11.606000	21.774657	0.000462	20.928698
115.030726	-3.000300	3.860700	-11.582000	21.788921	0.000460	20.943447
116.029079	-2.980500	3.861700	-11.509000	21.813633	0.000460	20.930724
117.028687	-2.998700	3.861900	-11.580000	21.803684	0.000459	20.928353
118.029220	-3.000200	3.861500	-11.584000	21.824020	0.000462	20.916466
119.031288	-2.990500	3.861000	-11.546000	21.844081	0.000462	20.911415
120.031703	-2.989600	3.861100	-11.543000	21.850945	0.000459	20.929663
121.031387	-2.999300	3.861200	-11.580000	21.852978	0.000463	20.934068
122.028715	-3.013100	3.860300	-11.630000	21.871031	0.000464	20.947395
123.029731	-2.988900	3.859900	-11.536000	21.858353	0.000462	20.935181
124.028284	-3.012500	3.859100	-11.625000	21.868456	0.000461	20.925854
125.029034	-3.016700	3.859300	-11.641000	21.892425	0.000460	20.935620
126.032435	-2.998400	3.860300	-11.573000	21.906964	0.000462	20.932630
127.029494	-2.990900	3.861300	-11.547000	21.934162	0.000464	20.946576
128.031960	-2.996000	3.860200	-11.564000	21.938486	0.000462	20.918191
129.031065	-2.988200	3.860100	-11.534000	21.929003	0.000463	20.932878
130.029783	-3.014300	3.857800	-11.628000	21.951343	0.000462	20.909725
131.037026	-2.979800	3.859800	-11.501000	21.960266	0.000463	20.941412
132.033119	-2.993400	3.858600	-11.550000	21.970841	0.000462	20.935404
133.028828	-2.992600	3.858600	-11.546000	21.934816	0.000466	20.916888
134.030652	-3.001300	3.858600	-11.580000	21.964055	0.000463	20.929086
135.032011	-2.999900	3.858900	-11.575000	21.967155	0.000464	20.917491
136.031551	-3.011700	3.857800	-11.618000	21.982355	0.000465	20.910896
137.037192	-3.000200	3.857700	-11.573000	21.982313	0.000462	20.929818
138.032383	-3.007000	3.858100	-11.600000	21.998778	0.000462	20.920697
139.034446	-3.008600	3.857600	-11.605000	21.985619	0.000466	20.932179
140.037066	-3.000700	3.859800	-11.581000	21.996168	0.000467	20.911922
141.032714	-2.994500	3.857200	-11.550000	22.000199	0.000466	20.953410
142.033998	-2.989600	3.857800	-11.532000	22.015933	0.000466	20.927438
143.033635	-3.001100	3.857100	-11.575000	22.010903	0.000465	20.936153
144.034564	-2.991800	3.858400	-11.543000	22.031090	0.000465	20.947350
145.034591	-3.009300	3.855100	-11.600000	22.018852	0.000467	20.914241
146.033753	-3.016400	3.856400	-11.631000	22.049140	0.000467	20.910896
147.035884	-2.997300	3.856600	-11.558000	22.054591	0.000467	20.922516
148.034075	-3.009900	3.856000	-11.605000	22.084249	0.000469	20.920439
149.035066	-3.005400	3.857300	-11.592000	22.077325	0.000468	20.933421
150.034343	-3.013900	3.856200	-11.621000	22.093023	0.000468	20.929222
151.034904	-3.001000	3.855700	-11.571000	22.124110	0.000469	20.924784
152.036363	-2.998200	3.854700	-11.556000	22.125496	0.000468	20.912896
153.038062	-2.991800	3.855600	-11.534000	22.091715	0.000469	20.923171
154.036456	-2.984800	3.855600	-11.507000	22.081640	0.000468	20.920197
155.037086	-2.984900	3.857000	-11.512000	22.099499	0.000470	20.927170
156.038311	-2.975300	3.855200	-11.469000	22.085394	0.000469	20.917318
157.036524	-2.971800	3.856400	-11.459000	22.110315	0.000470	20.919507
158.040263	-3.002700	3.854700	-11.573000	22.104148	0.000472	20.928506
159.036947	-2.998600	3.854700	-11.558000	22.107257	0.000469	20.896534
160.042425	-2.997000	3.853700	-11.549000	22.121991	0.000469	20.926455
161.037231	-3.006600	3.853300	-11.584000	22.149666	0.000472	20.891103
162.038210	-2.993000	3.853900	-11.534000	22.178107	0.000471	20.918627
163.038370	-3.008300	3.854500	-11.594000	22.182808	0.000469	20.914799
164.045555	-3.036200	3.854200	-11.701000	22.174267	0.000470	20.913360
165.040003	-2.985700	3.853700	-11.505000	22.188027	0.000472	20.927135
166.040123	-3.013200	3.853000	-11.609000	22.178185	0.000470	20.911593
167.041085	-2.987900	3.854000	-11.514000	22.183704	0.000473	20.926600
168.042581	-2.987700	3.854000	-11.513000	22.213651	0.000474	20.918653
169.042279	-2.985400	3.854300	-11.506000	22.239301	0.000472	20.906404
170.043256	-2.975600	3.853300	-11.464000	22.245818	0.000472	20.921937
171.043348	-3.004500	3.852200	-11.573000	22.240644	0.000474	20.925765
172.044325	-2.979400	3.854500	-11.484000	22.266310	0.000474	20.909265
173.045074	-2.999200	3.853200	-11.554000	22.268549	0.000475	20.940427
174.045294	-3.026600	3.852000	-11.657000	22.278210	0.000473	20.899844
175.044203	-2.983400	3.852900	-11.493000	22.297582	0.000473	20.923033
176.045094	-3.009100	3.851200	-11.587000	22.285210	0.000474	20.919179
177.048314	-3.022600	3.852000	-11.642000	22.309282	0.000476	20.910567
178.045001	-3.014100	3.851400	-11.607000	22.288869	0.000473	20.916205
179.047014	-3.000200	3.851300	-11.554000	22.291874	0.000475	20.904043
180.046175	-2.986200	3.850500	-11.498000	22.290428	0.000474	20.911128
181.045777	-3.007800	3.850500	-11.581000	22.298736	0.000476	20.898112
182.047135	-3.002700	3.849800	-11.559000	22.314604	0.000476	20.923007
183.045584	-3.022500	3.849500	-11.634000	22.333123	0.000475	20.924007
184.047978	-3.006200	3.850500	-11.575000	22.328336	0.000475	20.920162
185.045645	-3.018700	3.850600	-11.623000	22.327579	0.000476	20.905181
186.045524	-3.001900	3.850200	-11.556000	22.317145	0.000481	20.896630
187.046778	-2.991700	3.851200	-11.521000	22.307906	0.000475	20.906819
188.046490	-3.003800	3.848900	-11.561000	22.319934	0.000476	20.917440
189.048010	-2.981600	3.849700	-11.477000	22.319702	0.000476	20.894924
190.050015	-2.985400	3.850200	-11.494000	22.387672	0.000477	20.913198
191.047497	-2.993900	3.850200	-11.526000	22.373312	0.000478	20.888864
192.047264	-2.995400	3.850100	-11.532000	22.385555	0.000477	20.913924
193.053314	-2.996100	3.848600	-11.530000	22.423238	0.000477	20.910882
194.047539	-2.988600	3.846800	-11.496000	22.421283	0.000479	20.903235
195.054232	-2.996200	3.847700	-11.528000	22.442615	0.000481	20.904209
196.047433	-2.997100	3.847800	-11.531000	22.442547	0.000479	20.907934
197.048404	-3.003900	3.848600	-11.560000	22.417633	0.000480	20.891995
198.047791	-2.997200	3.847900	-11.533000	22.440998	0.000481	20.905908
199.047486	-2.973500	3.848600	-11.442000	22.440344	0.000481	20.893875
200.049987	-3.009000	3.847800	-11.577000	22.468304	0.000481	20.924718
201.048252	-3.004900	3.847300	-11.560000	22.448892	0.000480	20.895797
202.049254	-2.977200	3.847700	-11.455000	22.480675	0.000480	20.889695
203.050289	-2.997200	3.846900	-11.529000	22.477119	0.000482	20.889927
204.051187	-3.004300	3.845900	-11.553000	22.480675	0.000482	20.912452
205.055716	-2.998700	3.846600	-11.534000	22.482543	0.000481	20.902944
206.054586	-3.022100	3.845300	-11.620000	22.496592	0.000483	20.911797
207.050835	-3.003700	3.846200	-11.552000	22.484817	0.000484	20.900954
208.051347	-3.000000	3.846200	-11.538000	22.481863	0.000482	20.888514
209.052775	-3.007900	3.845300	-11.565000	22.492701	0.000483	20.876609
210.052645	-2.983400	3.845200	-11.471000	22.487261	0.000483	20.882067
211.055001	-3.030700	3.844400	-11.650000	22.523501	0.000484	20.889437
212.054188	-2.983400	3.846900	-11.476000	22.536026	0.000483	20.883489
213.052844	-3.012000	3.844100	-11.577000	22.530560	0.000486	20.899825
214.053811	-3.034100	3.843000	-11.659000	22.549833	0.000485	20.887359
215.054137	-3.006800	3.844800	-11.560000	22.547784	0.000486	20.875351
216.056201	-2.997800	3.844500	-11.523000	22.560998	0.000485	20.901386
217.057005	-3.003700	3.843300	-11.543000	22.553166	0.000485	20.893067
218.053530	-3.006300	3.843600	-11.553000	22.552477	0.000487	20.883843
219.054853	-2.988700	3.844500	-11.489000	22.539823	0.000489	20.872119
220.055799	-2.995200	3.844200	-11.513000	22.570811	0.000488	20.878025
221.053399	-3.007200	3.842500	-11.554000	22.571130	0.000487	20.897309
222.058779	-2.988900	3.842700	-11.484000	22.582405	0.000487	20.889162
223.055211	-3.012400	3.841600	-11.572000	22.598140	0.000489	20.886904
224.055209	-2.997400	3.842200	-11.515000	22.609640	0.000489	20.874715
225.057279	-3.027100	3.843100	-11.633000	22.601309	0.000487	20.885336
226.055282	-3.003100	3.843400	-11.540000	22.618609	0.000489	20.890810
227.058279	-3.023000	3.841500	-11.612000	22.620107	0.000489	20.886146
228.055607	-3.009300	3.841600	-11.560000	22.626769	0.000490	20.890448
229.055611	-3.018700	3.840400	-11.592000	22.598623	0.000491	20.880750
230.057080	-3.006000	3.841400	-11.546000	22.630582	0.000490	20.893793
231.056121	-2.995400	3.841200	-11.505000	22.614039	0.000492	20.872483
232.057120	-3.001500	3.841000	-11.527000	22.606732	0.000490	20.877018
233.060558	-3.004400	3.840500	-11.538000	22.623594	0.000491	20.870674
234.057079	-3.010100	3.841300	-11.562000	22.617646	0.000491	20.887948
235.057586	-3.016900	3.840600	-11.586000	22.629851	0.000492	20.914395
236.062586	-2.988600	3.840800	-11.478000	22.649949	0.000494	20.890906
237.059587	-2.999500	3.839100	-11.514000	22.658573	0.000494	20.887690
238.063591	-2.986600	3.839800	-11.467000	22.661017	0.000495	20.890612
239.060588	-2.976300	3.841200	-11.432000	22.672826	0.000493	20.871148
240.063588	-3.004900	3.839700	-11.537000	22.664073	0.000494	20.879924
241.063589	-3.001300	3.839800	-11.524000	22.690927	0.000495	20.867467
242.061590	-2.976600	3.840000	-11.429000	22.689007	0.000494	20.868864
243.062611	-3.014400	3.838900	-11.571000	22.708950	0.000497	20.863710
244.065587	-3.013100	3.838700	-11.566000	22.731954	0.000496	20.857356
245.062588	-3.025100	3.838600	-11.611000	22.718279	0.000495	20.861675
246.063587	-3.013900	3.838300	-11.567000	22.701720	0.000496	20.854572
247.064587	-2.983800	3.837900	-11.450000	22.734855	0.000493	20.849831
248.064588	-2.991800	3.838300	-11.482000	22.718984	0.000495	20.855269
249.068587	-2.994400	3.838000	-11.491000	22.747945	0.000497	20.869106
250.066586	-2.998400	3.838000	-11.507000	22.770037	0.000498	20.849037
251.065588	-3.007800	3.837300	-11.541000	22.763565	0.000497	20.857727
252.069587	-3.002100	3.836700	-11.517000	22.775907	0.000496	20.857288
253.066586	-2.975500	3.837900	-11.419000	22.774436	0.000496	20.864822
254.069587	-3.004900	3.837900	-11.532000	22.776458	0.000497	20.864951
255.067586	-3.004900	3.837300	-11.530000	22.784427	0.000499	20.852547
256.067586	-2.990600	3.837000	-11.474000	22.797870	0.000501	20.852263
257.067586	-2.986300	3.836800	-11.457000	22.802475	0.000498	20.860668
258.067586	-3.003000	3.836400	-11.519000	22.777388	0.000500	20.845021
259.067588	-2.998900	3.835300	-11.501000	22.793137	0.000498	20.847995
260.067587	-2.984800	3.837000	-11.451000	22.834840	0.000499	20.852314
261.069587	-3.014600	3.835300	-11.560000	22.842535	0.000500	20.844850
262.068588	-2.999000	3.836200	-11.503000	22.870537	0.000500	20.851565
263.068588	-3.005300	3.834700	-11.523000	22.862430	0.000502	20.852927
264.070600	-3.003600	3.835300	-11.519000	22.874359	0.000500	20.851127
265.075587	-2.987200	3.835800	-11.457000	22.854316	0.000503	20.865186
266.070588	-2.996000	3.833800	-11.485000	22.866303	0.000502	20.872927
267.070588	-2.991900	3.834200	-11.470000	22.870563	0.000503	20.861074
268.070587	-2.973900	3.834900	-11.403000	22.897859	0.000502	20.869453
269.076587	-2.978500	3.834000	-11.418000	22.903426	0.000503	20.845160
270.072588	-3.010800	3.832900	-11.539000	22.902782	0.000503	20.849256
271.071588	-2.995000	3.833100	-11.479000	22.897215	0.000502	20.857903
272.071588	-3.008100	3.831600	-11.525000	22.921429	0.000503	20.835696
273.073589	-2.994200	3.833100	-11.476000	22.880675	0.000502	20.835644
274.070585	-2.992600	3.832700	-11.468000	22.882646	0.000503	20.830032
275.075701	-2.995300	3.832800	-11.480000	22.902550	0.000506	20.847601
276.071510	-3.006200	3.831700	-11.517000	22.900012	0.000503	20.846956
277.070549	-3.005300	3.832900	-11.519000	22.913599	0.000504	20.849662
278.070630	-3.018200	3.830300	-11.560000	22.910296	0.000505	20.865792
279.070723	-3.010500	3.831600	-11.535000	22.928486	0.000505	20.852723
280.071305	-3.007100	3.832100	-11.522000	22.896828	0.000506	20.856567
281.073666	-3.003000	3.831300	-11.505000	22.936799	0.000507	20.842559
282.070943	-3.011600	3.830400	-11.534000	22.970348	0.000506	20.829232
283.073580	-2.978200	3.830900	-11.408000	22.954869	0.000507	20.849758
284.073825	-2.987900	3.831500	-11.447000	22.963913	0.000506	20.844595
285.072741	-2.990300	3.830400	-11.454000	22.971984	0.000507	20.816646
286.077406	-3.011600	3.830200	-11.534000	22.958356	0.000508	20.845665
287.074371	-2.999600	3.829700	-11.486000	22.937143	0.000507	20.828680
288.075795	-3.019300	3.828400	-11.558000	22.951264	0.000508	20.832396
289.074791	-3.003000	3.829200	-11.498000	22.984082	0.000510	20.827819
290.075793	-2.990300	3.830700	-11.454000	22.994751	0.000508	20.821913
291.078000	-2.985400	3.829000	-11.430000	23.015831	0.000510	20.832603
292.075402	-3.000900	3.828500	-11.488000	23.027980	0.000508	20.808740
293.075294	-2.971500	3.828400	-11.375000	23.005558	0.000510	20.834164
294.077756	-2.995500	3.827600	-11.463000	22.999036	0.000510	20.827155
295.080638	-2.995100	3.828300	-11.466000	23.017483	0.000512	20.830464
296.075607	-2.983500	3.827900	-11.419000	23.017914	0.000512	20.826629
297.077410	-2.994500	3.827500	-11.460000	23.026294	0.000514	20.826016
298.075411	-2.994600	3.828100	-11.463000	23.036843	0.000511	20.822362
299.076353	-2.973400	3.827800	-11.380000	23.031000	0.000513	20.814137
300.078362	-3.006400	3.825800	-11.501000	23.042692	0.000512	20.839602
301.077707	-3.002700	3.827000	-11.490000	23.059255	0.000513	20.822059
302.079376	-3.015600	3.826900	-11.539000	23.089962	0.000514	20.825800
303.079026	-2.993500	3.826200	-11.452000	23.104786	0.000515	20.817421
304.079080	-2.969400	3.828200	-11.366000	23.108735	0.000514	20.810947
305.079479	-2.992100	3.825800	-11.446000	23.110593	0.000513	20.813282
306.079940	-2.984800	3.825900	-11.419000	23.115781	0.000512	20.826542
307.088126	-3.004600	3.825000	-11.491000	23.122062	0.000514	20.805335
308.084096	-2.993400	3.823800	-11.445000	23.103047	0.000515	20.831326
309.079370	-3.001400	3.824000	-11.477000	23.126372	0.000516	20.833835
310.079369	-2.984400	3.825100	-11.414000	23.119825	0.000515	20.812102
311.079107	-3.004900	3.824000	-11.489000	23.112064	0.000517	20.836567
312.080142	-3.027300	3.824200	-11.575000	23.140635	0.000515	20.820627
313.081748	-3.012700	3.824000	-11.520000	23.125683	0.000516	20.811334
314.081751	-3.017200	3.823100	-11.534000	23.120314	0.000516	20.814963
315.080620	-3.001100	3.822900	-11.472000	23.130905	0.000517	20.817514
316.084246	-2.995000	3.823100	-11.449000	23.140378	0.000516	20.808989
317.082363	-2.999300	3.822600	-11.465000	23.150813	0.000517	20.814705
318.084034	-2.983000	3.822100	-11.400000	23.155407	0.000516	20.818834
319.081308	-2.995900	3.822600	-11.451000	23.167039	0.000518	20.811998
320.084023	-3.003600	3.823000	-11.482000	23.186774	0.000517	20.812334
321.083254	-3.010800	3.823500	-11.510000	23.189105	0.000516	20.803290
322.082907	-3.001000	3.821300	-11.467000	23.198017	0.000518	20.816015
323.082176	-2.988900	3.822800	-11.425000	23.209373	0.000518	20.824549
324.085594	-2.977600	3.822500	-11.381000	23.198404	0.000518	20.831574
325.082595	-3.009200	3.821300	-11.498000	23.217725	0.000519	20.813954
326.082223	-2.999700	3.822100	-11.464000	23.239490	0.000518	20.817747
327.082241	-3.014900	3.820400	-11.517000	23.230156	0.000520	20.805548
328.086436	-3.012500	3.821400	-11.511000	23.260565	0.000521	20.821798
329.086559	-2.999500	3.820400	-11.458000	23.263507	0.000520	20.832807
330.084616	-2.990500	3.820100	-11.423000	23.291524	0.000520	20.796401
331.084268	-3.006300	3.820700	-11.485000	23.294543	0.000521	20.835935
332.085896	-3.000300	3.819500	-11.458000	23.340537	0.000520	20.811383
333.085795	-3.019600	3.820200	-11.534000	23.342929	0.000523	20.821366
334.087745	-3.002300	3.818500	-11.463000	23.345191	0.000521	20.803719
335.088744	-3.022800	3.818900	-11.543000	23.340933	0.000522	20.816521
336.085744	-3.018800	3.818300	-11.525000	23.318611	0.000522	20.807426
337.085938	-2.971800	3.821100	-11.355000	23.309751	0.000522	20.819883
338.085198	-2.999800	3.817800	-11.452000	23.332830	0.000524	20.810296
339.086427	-2.981800	3.817800	-11.384000	23.323960	0.000524	20.826063
340.087462	-3.012000	3.817000	-11.496000	23.342256	0.000522	20.796511
341.086595	-2.985100	3.817500	-11.395000	23.317655	0.000524	20.806468
342.086954	-2.987100	3.817400	-11.401000	23.315480	0.000523	20.817564
343.093185	-3.005500	3.818100	-11.474000	23.299893	0.000524	20.825650
344.086186	-2.992500	3.817800	-11.424000	23.297708	0.000525	20.818244
345.089187	-2.994900	3.817000	-11.430000	23.301991	0.000526	20.833443
346.087926	-2.993600	3.817100	-11.426000	23.326696	0.000526	20.814580
347.087467	-2.996600	3.816900	-11.437000	23.331668	0.000526	20.815296
348.089052	-2.975700	3.816700	-11.357000	23.307823	0.000525	20.812735
349.087296	-3.003600	3.815200	-11.458000	23.296340	0.000524	20.832520
350.087926	-2.976600	3.816400	-11.360000	23.334954	0.000526	20.825227
351.091938	-2.995100	3.815400	-11.427000	23.397288	0.000526	20.790028
352.088938	-2.983400	3.816200	-11.385000	23.404703	0.000525	20.805520
353.090401	-3.022300	3.814400	-11.526000	23.359477	0.000527	20.817564
354.095617	-2.996300	3.815100	-11.430000	23.392403	0.000526	20.820692
355.092627	-2.990500	3.814800	-11.407000	23.410801	0.000528	20.823486
356.094831	-3.014000	3.814300	-11.496000	23.420417	0.000528	20.806097
357.096844	-2.996500	3.815200	-11.431000	23.437231	0.000529	20.844761
358.093672	-2.985700	3.813800	-11.386000	23.414869	0.000528	20.810494
359.094515	-3.010500	3.813100	-11.478000	23.426834	0.000529	20.806365
360.093570	-3.007600	3.813400	-11.468000	23.434737	0.000529	20.824244
361.094606	-3.010400	3.814000	-11.481000	23.427461	0.000530	20.831175
362.094357	-2.986200	3.812200	-11.383000	23.404970	0.000530	20.823805
363.094122	-2.996500	3.812700	-11.424000	23.433981	0.000530	20.823960
364.094500	-3.007500	3.812100	-11.463000	23.429981	0.000528	20.830382
365.096533	-3.003800	3.812400	-11.451000	23.456395	0.000530	20.822244
366.095500	-2.981000	3.812400	-11.364000	23.440259	0.000530	20.826460
367.096240	-2.996100	3.811300	-11.417000	23.442496	0.000531	20.826331
368.095247	-3.021900	3.810900	-11.514000	23.475953	0.000531	20.824779
369.094720	-3.013100	3.811600	-11.483000	23.475059	0.000531	20.827201
370.098139	-3.020000	3.811000	-11.507000	23.495579	0.000533	20.832123
371.095139	-2.989100	3.811400	-11.392000	23.507775	0.000533	20.855727
372.098158	-3.001500	3.810500	-11.436000	23.508196	0.000532	20.828175
373.095387	-3.004800	3.809500	-11.446000	23.497265	0.000532	20.827650
374.095383	-3.003400	3.809200	-11.438000	23.495760	0.000531	20.826140
375.096745	-3.018000	3.808600	-11.491000	23.505143	0.000534	20.823218
376.096568	-3.000000	3.810600	-11.431000	23.506012	0.000533	20.819822
377.098570	-3.001100	3.808800	-11.430000	23.532208	0.000533	20.835649
378.101894	-2.999000	3.808300	-11.419000	23.520013	0.000532	20.833382
379.098846	-2.994200	3.808100	-11.401000	23.513297	0.000533	20.825227
380.098603	-3.015400	3.807300	-11.480000	23.484484	0.000532	20.827640
381.100600	-2.991100	3.809200	-11.392000	23.506604	0.000533	20.828950
382.098939	-3.006000	3.808000	-11.446000	23.517226	0.000531	20.838649
383.103210	-2.994700	3.808200	-11.403000	23.528768	0.000533	20.821296
384.098778	-2.994300	3.807300	-11.400000	23.566850	0.000536	20.843348
385.102778	-2.995000	3.807300	-11.402000	23.557045	0.000534	20.840158
386.101231	-3.007300	3.807400	-11.448000	23.537282	0.000534	20.825563
387.101351	-2.986000	3.807400	-11.368000	23.546871	0.000536	20.847502
388.102903	-2.988100	3.806500	-11.373000	23.563960	0.000536	20.826227
389.103016	-3.001100	3.806200	-11.421000	23.590808	0.000533	20.838916
390.106073	-3.014000	3.805700	-11.468000	23.579138	0.000536	20.835752
391.105612	-2.976100	3.806900	-11.328000	23.585123	0.000535	20.829424
392.103903	-3.017000	3.805300	-11.479000	23.610200	0.000535	20.834649
393.108475	-3.005700	3.805200	-11.437000	23.608058	0.000534	20.836294
394.106040	-2.965500	3.807000	-11.289000	23.626668	0.000539	20.854476
395.105011	-3.010900	3.804200	-11.453000	23.660567	0.000536	20.829666
396.107380	-3.006400	3.805000	-11.439000	23.681978	0.000536	20.848286
397.104973	-3.017300	3.804500	-11.479000	23.699194	0.000535	20.839468
398.107010	-3.005700	3.803500	-11.432000	23.687464	0.000535	20.828657
399.109026	-3.012400	3.802700	-11.454000	23.647710	0.000536	20.836691
400.104768	-2.990500	3.804400	-11.376000	23.658090	0.000537	20.851838
401.104826	-2.998400	3.804200	-11.406000	23.666104	0.000537	20.844700
402.104675	-3.013800	3.802000	-11.458000	23.683732	0.000538	20.840562
403.106966	-3.019600	3.802900	-11.482000	23.677928	0.000538	20.856079
404.106019	-2.999600	3.801600	-11.403000	23.701437	0.000538	20.856889
405.108397	-3.020000	3.801300	-11.478000	23.714026	0.000537	20.848648
406.107154	-3.009300	3.802100	-11.441000	23.706038	0.000538	20.859604
407.109190	-2.998500	3.800900	-11.396000	23.683517	0.000540	20.846035
408.110242	-3.023000	3.800200	-11.486000	23.704017	0.000540	20.852363
409.108288	-3.006600	3.801200	-11.427000	23.736598	0.000541	20.827657
410.109342	-2.987900	3.801200	-11.357000	23.743029	0.000540	20.837898
411.107475	-2.971300	3.800200	-11.291000	23.736624	0.000541	20.866561
412.110425	-3.022800	3.799000	-11.483000	23.735488	0.000539	20.860208
413.108556	-2.991100	3.801100	-11.369000	23.717456	0.000540	20.862517
414.111584	-2.997100	3.799300	-11.386000	23.699587	0.000540	20.860250
415.110587	-2.990600	3.800200	-11.365000	23.718987	0.000541	20.865475
416.110651	-2.975100	3.801500	-11.308000	23.749933	0.000540	20.862836
417.109648	-2.981000	3.800600	-11.329000	23.744998	0.000542	20.866423
418.109636	-2.988200	3.800800	-11.355000	23.789417	0.000543	20.857379
419.113790	-3.005800	3.799100	-11.418000	23.786270	0.000541	20.868448
420.113839	-3.009200	3.799000	-11.431000	23.814850	0.000543	20.871026
421.111898	-2.983100	3.799600	-11.334000	23.799511	0.000543	20.874612
422.115893	-2.983300	3.798400	-11.331000	23.787715	0.000542	20.844768
423.113862	-2.997500	3.797200	-11.381000	23.790948	0.000542	20.859388
424.117054	-2.993300	3.797800	-11.367000	23.810526	0.000542	20.863372
425.113158	-2.993300	3.798300	-11.368000	23.804086	0.000541	20.861656
426.113357	-3.018400	3.796200	-11.457000	23.785479	0.000544	20.873819
427.114173	-3.003100	3.797400	-11.402000	23.771266	0.000545	20.846294
428.113695	-3.001800	3.796700	-11.396000	23.800303	0.000542	20.891525
429.114688	-3.001100	3.796200	-11.392000	23.820499	0.000542	20.859147
430.116595	-2.997900	3.797100	-11.382000	23.803655	0.000543	20.863595
431.114597	-3.013000	3.796200	-11.437000	23.827257	0.000544	20.866871
432.116749	-2.992700	3.796100	-11.360000	23.825167	0.000542	20.866672
433.115594	-3.003900	3.794600	-11.397000	23.812949	0.000543	20.864379
434.114596	-3.006200	3.795900	-11.411000	23.792383	0.000544	20.863198
435.116459	-3.014700	3.794500	-11.438000	23.800808	0.000543	20.874964
436.114684	-2.973200	3.794400	-11.281000	23.821538	0.000543	20.859241
437.117700	-2.987700	3.795600	-11.339000	23.829018	0.000544	20.884756
438.115395	-3.010200	3.794500	-11.421000	23.863152	0.000545	20.877257
439.115612	-2.984400	3.794400	-11.324000	23.851381	0.000543	20.884421
440.118788	-3.005300	3.793400	-11.398000	23.889726	0.000544	20.885411
441.115051	-3.002000	3.794100	-11.389000	23.888153	0.000542	20.864395
442.114894	-3.021400	3.792400	-11.458000	23.847872	0.000545	20.884221
443.118267	-2.996400	3.793000	-11.364000	23.859247	0.000544	20.879980
444.118786	-3.017400	3.792300	-11.442000	23.864027	0.000545	20.873868
445.120780	-3.011800	3.791900	-11.419000	23.876373	0.000543	20.882928
446.116783	-3.011600	3.792400	-11.420000	23.879503	0.000545	20.898867
447.116177	-3.004600	3.792700	-11.395000	23.861653	0.000545	20.891401
448.116360	-2.991600	3.791300	-11.342000	23.851054	0.000546	20.889782
449.122359	-2.994400	3.791500	-11.351000	23.845456	0.000546	20.881799
450.118139	-2.989800	3.792600	-11.338000	23.875093	0.000547	20.862205
451.121140	-2.995000	3.790800	-11.353000	23.889639	0.000547	20.877738
452.118230	-3.009800	3.790900	-11.409000	23.889578	0.000548	20.877203
453.120824	-2.991200	3.792300	-11.342000	23.896104	0.000546	20.893229
454.119774	-2.998700	3.790800	-11.366000	23.906842	0.000549	20.900677
455.119481	-2.981100	3.789700	-11.296000	23.865359	0.000548	20.888953
456.122480	-3.000600	3.788600	-11.368000	23.873758	0.000548	20.902590
457.122966	-2.996800	3.789900	-11.357000	23.919909	0.000546	20.884383
458.119974	-2.961300	3.790300	-11.223000	23.959266	0.000547	20.920054
459.119207	-2.986700	3.789000	-11.315000	23.978402	0.000548	20.911269
460.121423	-2.992500	3.789200	-11.338000	23.992441	0.000546	20.908279
461.123046	-2.975700	3.789200	-11.275000	24.001055	0.000549	20.896055
462.120102	-3.019700	3.787000	-11.435000	23.985082	0.000548	20.879090
463.120503	-3.009100	3.786800	-11.394000	23.990695	0.000549	20.920277
464.121509	-2.987100	3.788500	-11.315000	23.982992	0.000547	20.912553
465.121994	-3.017100	3.788100	-11.429000	23.962866	0.000548	20.905174
466.122100	-3.017800	3.787300	-11.428000	23.982879	0.000548	20.908173
467.123021	-2.980600	3.788500	-11.291000	23.997553	0.000548	20.912931
468.128024	-2.988600	3.786000	-11.314000	24.026954	0.000550	20.891683
469.123066	-2.995600	3.787200	-11.344000	24.021847	0.000547	20.896044
470.123440	-2.998300	3.786200	-11.352000	24.035558	0.000549	20.919749
471.124440	-2.985700	3.785800	-11.303000	24.055200	0.000548	20.894880
472.125299	-3.020500	3.785700	-11.434000	24.059635	0.000548	20.930144
473.122980	-3.000700	3.784600	-11.355000	24.029961	0.000549	20.919827
474.123473	-3.002100	3.784900	-11.362000	24.063658	0.000548	20.909525
475.124808	-3.012200	3.783800	-11.397000	24.069039	0.000549	20.913973
476.124423	-3.009800	3.783800	-11.387000	24.088896	0.000548	20.910654
477.126966	-2.995700	3.785200	-11.339000	24.052569	0.000552	20.907413
478.125407	-3.003000	3.784100	-11.362000	24.049620	0.000549	20.933850
479.126408	-3.008300	3.783600	-11.381000	24.033089	0.000548	20.898783
480.126863	-2.989200	3.784000	-11.310000	24.033561	0.000547	20.911110
481.127864	-3.015900	3.783200	-11.408000	24.046404	0.000552	20.924462
482.131196	-3.011900	3.782700	-11.393000	24.011967	0.000550	20.910791
483.130411	-2.973600	3.783600	-11.250000	24.022497	0.000549	20.923246
484.130836	-2.981000	3.782800	-11.276000	24.024009	0.000550	20.917651
485.131679	-2.980500	3.782600	-11.273000	24.032056	0.000551	20.923350
486.132680	-2.973600	3.782800	-11.247000	24.029323	0.000551	20.923927
487.133048	-2.990700	3.781900	-11.309000	23.989778	0.000551	20.921728
488.134502	-3.012500	3.782000	-11.391000	23.981396	0.000551	20.939399
489.134052	-3.001200	3.780000	-11.344000	24.018774	0.000549	20.918090
490.134206	-3.003300	3.780800	-11.354000	24.016840	0.000552	20.946020
491.137278	-3.005700	3.780100	-11.361000	24.003016	0.000550	20.921728
492.135885	-2.990700	3.779700	-11.303000	24.055170	0.000550	20.942734
493.138551	-3.004800	3.780300	-11.357000	24.083124	0.000552	20.938054
494.135553	-2.998900	3.779100	-11.332000	24.112186	0.000551	20.937329
495.136087	-2.999600	3.779300	-11.336000	24.086759	0.000551	20.954499
496.135310	-2.991900	3.779500	-11.307000	24.060103	0.000551	20.923976
497.141108	-2.989000	3.779300	-11.296000	24.061959	0.000552	20.958076
498.140141	-3.008300	3.779600	-11.369000	24.085779	0.000551	20.930760
499.139161	-2.996400	3.778100	-11.320000	24.093076	0.000552	20.938552
500.135162	-2.979600	3.780200	-11.263000	24.091658	0.000552	20.918165
501.135163	-2.978300	3.779000	-11.254000	24.130923	0.000551	20.949956
502.138381	-2.993600	3.776800	-11.305000	24.140472	0.000551	20.943412
503.135416	-2.946400	3.778800	-11.133000	24.162218	0.000554	20.965220
504.141963	-3.003800	3.778000	-11.348000	24.164762	0.000550	20.950705
505.135844	-2.976900	3.776800	-11.242000	24.206784	0.000553	20.922207
506.136190	-2.993900	3.776800	-11.307000	24.190255	0.000551	20.961573
507.140361	-2.994900	3.777200	-11.311000	24.184797	0.000552	20.949937
508.139355	-3.005100	3.776300	-11.347000	24.160524	0.000552	20.947876
509.139568	-2.992200	3.776500	-11.299000	24.182579	0.000552	20.958616
510.137579	-3.002600	3.774900	-11.334000	24.195282	0.000552	20.945755
511.140629	-2.973700	3.776300	-11.229000	24.147956	0.000554	20.970356
512.139628	-2.987200	3.776100	-11.279000	24.155048	0.000555	20.951866
513.138644	-3.005000	3.774800	-11.342000	24.133928	0.000552	20.945384
514.138303	-3.034400	3.775000	-11.454000	24.136929	0.000554	20.958823
515.138012	-2.998800	3.773500	-11.315000	24.163290	0.000554	20.961081
516.139014	-2.986000	3.775400	-11.272000	24.137813	0.000552	20.944065
517.138258	-2.993400	3.773800	-11.295000	24.146847	0.000554	20.979199
518.140134	-3.004000	3.772600	-11.331000	24.194507	0.000553	20.959201
519.139616	-2.974500	3.773700	-11.224000	24.192857	0.000553	20.958020
520.142351	-2.979800	3.772800	-11.242000	24.175813	0.000553	20.987862
521.142161	-2.991800	3.773900	-11.289000	24.176733	0.000553	20.979777
522.141582	-2.998000	3.771100	-11.305000	24.195478	0.000554	20.971553
523.141787	-2.985300	3.771100	-11.257000	24.212290	0.000553	20.964235
524.143786	-2.988300	3.772400	-11.272000	24.225440	0.000554	20.969363
525.144275	-2.996000	3.771500	-11.299000	24.260919	0.000552	20.975078
526.143955	-2.976600	3.771100	-11.223000	24.249635	0.000553	20.980354
527.141644	-2.983800	3.771700	-11.252000	24.230649	0.000552	20.961787
528.142064	-2.994500	3.770700	-11.291000	24.222398	0.000552	20.971527
529.143644	-2.979700	3.770100	-11.232000	24.260764	0.000555	20.991516
530.141254	-2.999500	3.771100	-11.311000	24.311403	0.000553	20.992999
531.148388	-2.980800	3.770600	-11.239000	24.322515	0.000550	20.964322
532.142044	-2.991200	3.771000	-11.278000	24.331788	0.000552	20.963667
533.142686	-2.978600	3.770200	-11.229000	24.327078	0.000553	20.978380
534.146037	-2.992300	3.769500	-11.278000	24.343261	0.000553	20.984182
535.144032	-2.978500	3.770200	-11.228000	24.301055	0.000553	20.984991
536.149971	-2.983800	3.768900	-11.244000	24.302036	0.000554	20.990241
537.147305	-2.995800	3.767700	-11.286000	24.303325	0.000553	20.977786
538.145542	-2.994600	3.767900	-11.283000	24.265828	0.000553	20.989957
539.148541	-2.979400	3.769100	-11.228000	24.313509	0.000553	20.976622
540.147795	-2.969200	3.768500	-11.189000	24.348177	0.000555	20.985794
541.146087	-2.992700	3.766600	-11.272000	24.340116	0.000553	20.992405
542.146868	-2.968200	3.767200	-11.181000	24.345418	0.000554	20.992983
543.149985	-2.995000	3.767700	-11.283000	24.327955	0.000554	20.980682
544.145952	-2.985600	3.767400	-11.247000	24.334505	0.000554	21.002896
545.145228	-2.992900	3.767200	-11.274000	24.335647	0.000553	20.985078
546.146498	-3.016700	3.765900	-11.359000	24.360724	0.000553	20.996008
547.146567	-3.007200	3.765100	-11.321000	24.313888	0.000555	20.993595
548.146600	-3.019600	3.764600	-11.367000	24.338251	0.000555	20.985794
549.147482	-3.011200	3.764600	-11.335000	24.311318	0.000554	21.026099
550.152924	-2.994000	3.765600	-11.273000	24.316405	0.000554	21.010816
551.146464	-3.004200	3.764400	-11.308000	24.336412	0.000554	20.999594
552.150903	-2.983500	3.764300	-11.230000	24.344508	0.000555	20.993492
553.147905	-3.003800	3.765100	-11.309000	24.305302	0.000554	21.008688
554.147903	-3.020800	3.764000	-11.369000	24.324441	0.000554	21.007024
555.147902	-3.015000	3.764400	-11.349000	24.333885	0.000552	21.008911
556.148378	-3.004300	3.763700	-11.306000	24.354820	0.000554	20.999094
557.148111	-2.993600	3.762400	-11.263000	24.376054	0.000557	20.983888
558.147470	-2.997700	3.762900	-11.280000	24.406442	0.000555	21.023374
559.148645	-2.985400	3.763400	-11.234000	24.391282	0.000556	20.982569
560.148155	-2.998300	3.761700	-11.278000	24.384012	0.000554	21.003722
561.149154	-3.009500	3.762600	-11.322000	24.385060	0.000555	20.980122
562.151037	-2.990700	3.762100	-11.250000	24.428569	0.000554	21.006221
563.152062	-3.008200	3.762300	-11.317000	24.437350	0.000553	20.995118
564.150712	-3.011600	3.762200	-11.330000	24.398861	0.000553	20.992542
565.153712	-2.997000	3.761300	-11.272000	24.396816	0.000554	20.999024
566.153192	-2.997600	3.760600	-11.273000	24.357577	0.000550	20.989533
567.150701	-2.996900	3.761700	-11.272000	24.379164	0.000554	20.994593
568.153475	-3.004800	3.761200	-11.301000	24.410822	0.000554	20.995058
569.153473	-3.026400	3.760000	-11.378000	24.435967	0.000551	20.983302
570.152837	-3.006200	3.759700	-11.302000	24.410410	0.000554	21.000333
571.153204	-3.011300	3.759100	-11.319000	24.417766	0.000552	20.973104
572.153448	-3.008800	3.760300	-11.312000	24.381364	0.000555	20.982577
573.155451	-3.002500	3.759900	-11.288000	24.370837	0.000551	20.989085
574.158484	-2.998700	3.759200	-11.272000	24.380393	0.000552	20.965484
575.154194	-3.000900	3.757600	-11.276000	24.402951	0.000552	20.978155
576.155582	-2.997800	3.757700	-11.264000	24.392948	0.000553	20.979026
577.161416	-3.004300	3.758100	-11.289000	24.401662	0.000552	20.964536
578.156824	-2.989300	3.759000	-11.236000	24.391977	0.000552	20.968570
579.160856	-2.999900	3.758000	-11.273000	24.425637	0.000553	20.977681
580.156824	-3.029700	3.756400	-11.380000	24.438295	0.000552	20.947710
581.157005	-3.000000	3.756800	-11.269000	24.463292	0.000553	20.964252
582.156235	-3.026700	3.756600	-11.369000	24.416262	0.000554	20.966380
583.160443	-3.008800	3.755500	-11.299000	24.351037	0.000554	20.959269
584.161421	-3.011300	3.756700	-11.312000	24.408073	0.000553	20.966225
585.157653	-2.999300	3.755700	-11.263000	24.379869	0.000553	20.957847
586.158308	-2.995400	3.754700	-11.246000	24.383367	0.000554	20.972734
587.157826	-3.005000	3.755700	-11.285000	24.374704	0.000552	20.938918
588.157151	-3.009400	3.754300	-11.298000	24.385704	0.000552	20.951374
589.157152	-3.009700	3.753600	-11.296000	24.395939	0.000553	20.958795
590.159187	-2.981600	3.755400	-11.197000	24.394469	0.000553	20.969173
591.159523	-2.983600	3.754800	-11.202000	24.374274	0.000554	20.952709
592.158526	-3.009700	3.754200	-11.299000	24.401292	0.000553	20.956580
593.159630	-2.994000	3.753900	-11.238000	24.436232	0.000553	20.949433
594.159128	-2.995600	3.753300	-11.243000	24.474111	0.000553	20.938125
595.164131	-2.998600	3.752200	-11.250000	24.489269	0.000554	20.950961
596.164501	-3.011100	3.753000	-11.299000	24.465389	0.000555	20.930324
597.161711	-2.999500	3.752600	-11.255000	24.480959	0.000550	20.939780
598.162507	-3.011500	3.752200	-11.299000	24.477178	0.000551	20.947365
599.163505	-3.003500	3.753300	-11.272000	24.515613	0.000551	20.939935
600.167503	-2.990400	3.752200	-11.220000	24.500895	0.000554	20.931807
601.168739	-2.989400	3.752600	-11.218000	24.514703	0.000554	20.950874
602.166010	-2.988100	3.752400	-11.211000	24.509427	0.000553	20.951271
603.166473	-2.998900	3.751900	-11.250000	24.491202	0.000553	20.927772
604.168863	-2.993100	3.751500	-11.227000	24.487241	0.000552	20.922376
605.167869	-2.987000	3.751100	-11.204000	24.510459	0.000553	20.935712
606.169403	-2.983900	3.750800	-11.191000	24.563593	0.000551	20.951564
607.167814	-3.017300	3.749900	-11.314000	24.508276	0.000552	20.920722
608.168995	-3.014500	3.750300	-11.304000	24.485411	0.000551	20.935238
609.171179	-3.014100	3.749900	-11.301000	24.496229	0.000551	20.927601
610.168927	-2.999400	3.749800	-11.246000	24.544099	0.000553	20.911146
611.172234	-3.008200	3.749000	-11.277000	24.565046	0.000553	20.923627
612.168439	-2.986900	3.749900	-11.200000	24.523871	0.000551	20.939212
613.169712	-3.018400	3.748700	-11.314000	24.548008	0.000551	20.932609
614.173719	-3.007500	3.748700	-11.273000	24.518862	0.000553	20.924231
615.171122	-2.996800	3.748100	-11.231000	24.554460	0.000553	20.914429
616.173596	-3.002400	3.747600	-11.251000	24.567435	0.000552	20.915119
617.173646	-3.033900	3.745300	-11.362000	24.567152	0.000552	20.906301
618.173407	-2.989100	3.748500	-11.204000	24.623222	0.000554	20.921308
619.173881	-3.002500	3.747400	-11.251000	24.602198	0.000552	20.926291
620.175231	-2.987400	3.747900	-11.195000	24.603847	0.000554	20.926049
621.174887	-2.994500	3.746800	-11.219000	24.585659	0.000553	20.922498
622.176888	-2.994800	3.747500	-11.222000	24.583528	0.000553	20.921783
623.174965	-2.994100	3.746100	-11.216000	24.581364	0.000551	20.912500
624.175582	-2.993700	3.745700	-11.213000	24.563191	0.000552	20.918921
625.174122	-2.984400	3.746400	-11.179000	24.566447	0.000553	20.917922
626.177345	-3.011000	3.744200	-11.273000	24.586784	0.000553	20.911301
627.177491	-2.986000	3.745000	-11.181000	24.568303	0.000551	20.926420
628.175756	-2.993300	3.744900	-11.209000	24.580753	0.000553	20.909043
629.175970	-3.002500	3.743800	-11.240000	24.613694	0.000552	20.918860
630.175966	-2.991300	3.745300	-11.203000	24.631367	0.000551	20.915732
631.176843	-2.994000	3.743400	-11.206000	24.673705	0.000551	20.917912
632.177843	-2.975500	3.743700	-11.139000	24.643602	0.000551	20.908569
633.176278	-3.000700	3.743200	-11.231000	24.632209	0.000551	20.926533
634.176278	-2.987100	3.742900	-11.179000	24.606383	0.000550	20.920534
635.177750	-2.988900	3.744000	-11.188000	24.653499	0.000550	20.917077
636.177785	-2.999800	3.743400	-11.228000	24.666987	0.000552	20.903586
637.178662	-3.004100	3.743100	-11.244000	24.656068	0.000549	20.936247
638.181504	-3.012800	3.743800	-11.279000	24.612353	0.000548	20.922731
639.182082	-2.998800	3.742200	-11.221000	24.603246	0.000548	20.915964
640.182049	-2.977400	3.741700	-11.140000	24.662047	0.000549	20.927075
641.183088	-3.013600	3.741000	-11.274000	24.658077	0.000550	20.925463
642.183299	-2.988200	3.741900	-11.181000	24.667794	0.000552	20.924782
643.186608	-3.004800	3.740200	-11.238000	24.690054	0.000549	20.920567
644.186250	-2.992500	3.742300	-11.198000	24.677476	0.000550	20.915058
645.184218	-2.982200	3.742200	-11.159000	24.674538	0.000550	20.901206
646.184800	-3.002700	3.740300	-11.230000	24.624794	0.000547	20.928101
647.186924	-3.011400	3.739500	-11.260000	24.622920	0.000549	20.922428
648.187031	-3.012000	3.740700	-11.266000	24.625000	0.000547	20.891801
649.188550	-3.000600	3.738400	-11.216000	24.647630	0.000548	20.923041
650.184790	-2.977600	3.739700	-11.135000	24.692545	0.000549	20.895094
651.185833	-2.993900	3.739700	-11.196000	24.712940	0.000551	20.890430
652.188834	-3.011900	3.739500	-11.262000	24.707434	0.000550	20.915722
653.185225	-2.982600	3.739200	-11.151000	24.685114	0.000548	20.910395
654.191269	-3.005900	3.737500	-11.234000	24.668669	0.000548	20.918549
655.187444	-2.989400	3.739600	-11.178000	24.720311	0.000548	20.893085
656.188114	-3.007800	3.737700	-11.240000	24.730655	0.000549	20.904412
657.190248	-2.998700	3.738200	-11.210000	24.729873	0.000547	20.894620
658.187249	-2.999300	3.737200	-11.208000	24.690234	0.000549	20.911740
659.194515	-3.011400	3.737200	-11.253000	24.674297	0.000548	20.903335
660.188694	-3.009500	3.736300	-11.244000	24.679753	0.000549	20.900748
661.189467	-3.014500	3.736900	-11.264000	24.690861	0.000546	20.914265
662.188395	-2.987100	3.735900	-11.158000	24.700269	0.000545	20.893836
663.190396	-2.995600	3.737000	-11.193000	24.693921	0.000549	20.908327
664.189394	-3.014100	3.735800	-11.259000	24.712038	0.000546	20.897110
665.191395	-3.011500	3.734200	-11.244000	24.729564	0.000547	20.903792
666.191395	-3.013500	3.734100	-11.253000	24.725148	0.000546	20.903628
667.190409	-3.015200	3.734300	-11.259000	24.719925	0.000549	20.910240
668.191393	-2.992700	3.735600	-11.179000	24.761607	0.000548	20.886163
669.190430	-2.987600	3.734300	-11.156000	24.751977	0.000546	20.901628
670.194427	-2.991500	3.734100	-11.170000	24.734161	0.000545	20.898448
671.191427	-2.987400	3.734400	-11.155000	24.730278	0.000543	20.912094
672.191426	-2.991700	3.733400	-11.168000	24.709118	0.000545	20.897026
673.192427	-2.996200	3.733800	-11.187000	24.685338	0.000545	20.892604
674.192427	-3.014800	3.732600	-11.252000	24.669324	0.000545	20.897871
675.195426	-2.995200	3.732800	-11.179000	24.667701	0.000546	20.883441
676.197426	-3.022400	3.732000	-11.279000	24.646669	0.000546	20.883673
677.195427	-3.006200	3.733100	-11.222000	24.661034	0.000544	20.892397
678.194942	-3.013100	3.732900	-11.246000	24.698835	0.000544	20.893819
679.197456	-3.003300	3.733200	-11.211000	24.705682	0.000545	20.875561
680.195971	-2.986700	3.731500	-11.144000	24.714772	0.000546	20.894164
681.197973	-3.011700	3.731200	-11.236000	24.712332	0.000544	20.908310
682.198829	-3.007700	3.731700	-11.223000	24.751575	0.000545	20.876096
683.199010	-3.002100	3.731300	-11.201000	24.753388	0.000545	20.899725
684.198430	-3.008000	3.731600	-11.224000	24.785937	0.000544	20.901095
685.198731	-3.008100	3.730900	-11.223000	24.781341	0.000545	20.889846
686.204964	-3.000600	3.731400	-11.196000	24.759925	0.000543	20.891587
687.199914	-3.006000	3.729800	-11.211000	24.747159	0.000544	20.883518
688.202317	-2.989600	3.728600	-11.147000	24.707951	0.000543	20.884476
689.201715	-3.011800	3.728500	-11.229000	24.709256	0.000542	20.895742
690.200405	-2.974300	3.728700	-11.090000	24.704222	0.000543	20.884527
691.200769	-3.001000	3.728200	-11.187000	24.716774	0.000544	20.885743
692.203002	-2.977900	3.729600	-11.105000	24.691439	0.000542	20.889717
693.205013	-2.983500	3.729300	-11.125000	24.677556	0.000543	20.873890
694.200247	-3.011100	3.727700	-11.223000	24.693277	0.000542	20.897725
695.207247	-3.010400	3.728300	-11.223000	24.721026	0.000542	20.893803
696.202374	-2.986900	3.728200	-11.135000	24.721293	0.000541	20.896441
697.207425	-2.984300	3.728700	-11.127000	24.739068	0.000540	20.890097
698.203708	-2.999300	3.727800	-11.179000	24.742109	0.000541	20.903579
699.202631	-2.999700	3.726500	-11.177000	24.783748	0.000541	20.873770
700.211060	-2.997600	3.727100	-11.171000	24.773774	0.000542	20.895054
701.203887	-3.000900	3.725800	-11.180000	24.802389	0.000542	20.881098
702.211258	-3.006400	3.726000	-11.201000	24.778791	0.000542	20.883020
703.210761	-2.995700	3.726100	-11.162000	24.831527	0.000542	20.882839
704.204731	-2.983100	3.725600	-11.113000	24.834147	0.000541	20.899218
705.206731	-2.994700	3.725400	-11.155000	24.822808	0.000538	20.884046
706.205815	-2.983700	3.724100	-11.111000	24.789745	0.000540	20.885003
707.205411	-2.993200	3.725000	-11.149000	24.813445	0.000541	20.876073
708.205167	-3.000300	3.724700	-11.174000	24.847805	0.000540	20.884004
709.205103	-3.009100	3.722800	-11.201000	24.827937	0.000540	20.878288
710.206311	-2.997700	3.723400	-11.161000	24.821400	0.000543	20.888796
711.210929	-3.001800	3.724500	-11.179000	24.821589	0.000542	20.879504
712.209039	-2.984100	3.724900	-11.115000	24.844653	0.000538	20.894115
713.211703	-2.976100	3.723800	-11.081000	24.842007	0.000541	20.887193
714.208703	-3.006500	3.723300	-11.193000	24.877595	0.000538	20.886400
715.209765	-3.029000	3.722400	-11.274000	24.850830	0.000540	20.855272
716.207767	-3.001800	3.723500	-11.176000	24.809794	0.000538	20.872409
717.208820	-3.003300	3.721400	-11.176000	24.782658	0.000538	20.851341
718.208850	-3.018500	3.723000	-11.238000	24.803086	0.000540	20.879427
719.210649	-2.988100	3.723600	-11.125000	24.781687	0.000539	20.873599
720.208692	-3.003700	3.721500	-11.177000	24.805911	0.000540	20.852866
721.213808	-3.011900	3.722400	-11.210000	24.840934	0.000538	20.858143
722.212906	-3.006100	3.721300	-11.185000	24.840555	0.000537	20.867719
723.208470	-2.996100	3.722100	-11.150000	24.826330	0.000539	20.861978
724.211503	-2.994300	3.721500	-11.142000	24.799692	0.000537	20.875073
725.209849	-3.012900	3.720400	-11.208000	24.845408	0.000540	20.878753
726.209106	-2.999600	3.720300	-11.159000	24.869493	0.000537	20.867365
727.208120	-2.981900	3.720800	-11.095000	24.879218	0.000537	20.882814
728.209485	-2.993500	3.719500	-11.133000	24.862571	0.000536	20.865158
729.212490	-2.989300	3.720400	-11.121000	24.870653	0.000537	20.869003
730.212827	-2.999500	3.719400	-11.154000	24.881931	0.000537	20.853296
731.212028	-2.981400	3.720200	-11.090000	24.874716	0.000538	20.859330
732.211227	-2.992600	3.720600	-11.133000	24.904350	0.000537	20.866787
733.211614	-3.015800	3.719800	-11.217000	24.922440	0.000537	20.862659
734.211271	-3.007400	3.717700	-11.179000	24.926640	0.000535	20.881098
735.215600	-3.005700	3.718500	-11.176000	24.935375	0.000534	20.876115
736.213683	-3.011200	3.717800	-11.194000	24.879131	0.000536	20.845745
737.216807	-2.996000	3.716700	-11.135000	24.871280	0.000536	20.873899
738.217806	-2.987800	3.718000	-11.108000	24.838322	0.000535	20.864529
739.217879	-3.006800	3.717500	-11.176000	24.838579	0.000537	20.851038
740.219570	-2.980400	3.717500	-11.079000	24.811700	0.000535	20.846822
741.217891	-3.008300	3.716500	-11.180000	24.827025	0.000535	20.854141
742.215898	-2.994200	3.716900	-11.128000	24.806375	0.000535	20.864710
743.216571	-2.990900	3.716800	-11.116000	24.793583	0.000534	20.858037
744.220430	-3.028400	3.715200	-11.250000	24.749944	0.000535	20.849331
745.219100	-3.027600	3.715800	-11.248000	24.795026	0.000535	20.875606
746.221099	-3.003900	3.715100	-11.158000	24.841285	0.000535	20.845693
747.219093	-3.018100	3.715400	-11.213000	24.887025	0.000534	20.873580
748.218508	-2.999400	3.715500	-11.143000	24.884971	0.000533	20.855399
749.221710	-2.996500	3.714800	-11.130000	24.841198	0.000533	20.853193
750.219975	-2.995800	3.716100	-11.131000	24.789357	0.000534	20.847158
751.222015	-2.978000	3.714800	-11.062000	24.793686	0.000531	20.866675
752.221659	-3.007900	3.714700	-11.173000	24.841877	0.000533	20.876631
753.219743	-3.010400	3.713200	-11.177000	24.854581	0.000532	20.850503
754.220401	-3.004000	3.713900	-11.156000	24.863455	0.000534	20.840443
755.222183	-2.972300	3.713400	-11.036000	24.885315	0.000534	20.847684
756.230994	-2.974500	3.715300	-11.051000	24.890846	0.000531	20.859399
757.222046	-2.983700	3.714000	-11.081000	24.931346	0.000535	20.849787
758.222715	-3.007200	3.712700	-11.164000	24.942915	0.000531	20.848123
759.223965	-3.001300	3.712500	-11.141000	24.909640	0.000532	20.847916
760.222983	-3.010900	3.711900	-11.175000	24.886964	0.000533	20.861666
761.226983	-2.992500	3.712300	-11.108000	24.884146	0.000531	20.848407
762.226502	-2.993500	3.711600	-11.109000	24.875041	0.000530	20.841640
763.229502	-2.998100	3.711600	-11.126000	24.833029	0.000533	20.838356
764.225742	-3.000500	3.711800	-11.137000	24.821938	0.000531	20.840976
765.225457	-2.985000	3.711500	-11.077000	24.824515	0.000531	20.840717
766.228491	-3.004600	3.710500	-11.148000	24.806176	0.000531	20.846968
767.229006	-3.002200	3.711700	-11.142000	24.867877	0.000531	20.842037
768.226969	-2.996100	3.711600	-11.120000	24.921570	0.000530	20.843295
769.226793	-2.996600	3.711100	-11.120000	24.899212	0.000530	20.834605
770.228379	-2.999300	3.710400	-11.128000	24.931053	0.000530	20.831476
771.227386	-3.029900	3.709500	-11.238000	24.948584	0.000530	20.842433
772.230479	-3.002100	3.709500	-11.135000	24.971603	0.000530	20.838037
773.227449	-3.015500	3.710100	-11.187000	24.994036	0.000529	20.843485
774.228841	-3.005400	3.709700	-11.148000	24.938525	0.000528	20.855571
775.229408	-3.005400	3.709300	-11.147000	24.940415	0.000529	20.838976
776.229786	-2.982900	3.708900	-11.062000	24.954356	0.000529	20.854390
777.228989	-3.012100	3.708800	-11.170000	24.950438	0.000529	20.845243
778.228395	-3.001000	3.708300	-11.128000	24.953170	0.000528	20.808157
779.228513	-3.017100	3.709100	-11.190000	24.959706	0.000529	20.829890
780.229076	-2.990200	3.709000	-11.091000	24.996964	0.000528	20.839786
781.229078	-3.011700	3.708300	-11.168000	24.954218	0.000528	20.826277
782.228321	-2.991600	3.709300	-11.096000	24.954475	0.000528	20.846449
783.230324	-3.006800	3.707600	-11.146000	24.951727	0.000529	20.817614
784.228380	-3.012600	3.707200	-11.166000	24.967994	0.000525	20.846269
785.229382	-2.999200	3.706500	-11.115000	24.963691	0.000525	20.813501
786.232730	-3.010600	3.705200	-11.154000	24.967522	0.000527	20.812605
787.231913	-3.007800	3.706900	-11.148000	24.960805	0.000527	20.820088
788.233613	-2.994100	3.706200	-11.096000	24.953376	0.000525	20.821165
789.230795	-2.995700	3.705400	-11.099000	24.940595	0.000526	20.827303
790.234920	-3.010000	3.705600	-11.153000	24.951512	0.000525	20.826407
791.235922	-3.003400	3.704800	-11.126000	24.941659	0.000524	20.809880
792.232605	-3.017700	3.705800	-11.182000	24.907019	0.000524	20.830587
793.234601	-3.031900	3.703000	-11.226000	24.921793	0.000525	20.824552
794.233194	-2.995700	3.703900	-11.094000	24.887280	0.000525	20.809828
795.234238	-2.995200	3.703400	-11.091000	24.876286	0.000525	20.809225
796.233422	-2.992000	3.702600	-11.078000	24.889909	0.000523	20.820053
797.234472	-2.959000	3.705800	-10.964000	24.883243	0.000523	20.829484
798.235703	-2.993900	3.703700	-11.087000	24.882144	0.000522	20.803725
799.233704	-2.994900	3.703900	-11.092000	24.926860	0.000523	20.845759
800.233862	-2.987600	3.703500	-11.064000	24.911846	0.000524	20.813621
801.236907	-2.989500	3.703800	-11.072000	24.891850	0.000521	20.812518
802.235162	-3.006600	3.701900	-11.129000	24.906116	0.000523	20.819724
803.237129	-3.004200	3.702000	-11.121000	24.875357	0.000523	20.832000
804.236448	-3.011200	3.701700	-11.145000	24.862180	0.000523	20.819250
805.237216	-2.999900	3.701900	-11.104000	24.861940	0.000521	20.823750
806.237935	-3.002900	3.700300	-11.110000	24.877006	0.000522	20.821801
807.237578	-3.001000	3.702000	-11.109000	24.931755	0.000523	20.805155
808.239166	-3.002000	3.701200	-11.110000	24.934779	0.000524	20.811509
809.242218	-3.003600	3.701200	-11.116000	24.990255	0.000522	20.823095
810.241435	-3.004100	3.700200	-11.115000	25.025391	0.000520	20.817112
811.240751	-3.001300	3.700100	-11.105000	25.014604	0.000519	20.820034
812.241799	-3.008900	3.700600	-11.133000	24.974503	0.000520	20.824827
813.242294	-3.014000	3.698900	-11.148000	24.974529	0.000522	20.820586
814.243335	-2.993000	3.700100	-11.073000	24.999109	0.000522	20.818232
815.240993	-3.005900	3.699800	-11.120000	25.005516	0.000519	20.810913
816.241438	-3.015100	3.699400	-11.153000	24.994231	0.000520	20.818077
817.245437	-2.993200	3.698500	-11.069000	25.050691	0.000518	20.817851
818.241436	-2.989600	3.699700	-11.060000	25.005584	0.000518	20.818567
819.244699	-3.008200	3.697600	-11.122000	24.996265	0.000517	20.794989
820.242115	-3.007900	3.698400	-11.123000	24.995896	0.000520	20.825438
821.242159	-2.968800	3.699600	-10.983000	24.971753	0.000519	20.823964
822.242516	-2.984900	3.699600	-11.042000	25.009113	0.000518	20.814997
823.243922	-3.012800	3.697200	-11.138000	25.028060	0.000519	20.814575
824.244921	-3.007500	3.698600	-11.122000	25.047083	0.000517	20.823239
825.245092	-3.018300	3.697000	-11.157000	25.039319	0.000516	20.810230
826.246452	-2.999900	3.697100	-11.090000	25.035222	0.000517	20.811807
827.244641	-2.996700	3.697200	-11.078000	24.970687	0.000516	20.829057
828.246842	-3.006100	3.696700	-11.112000	24.972663	0.000517	20.812549
829.245031	-2.989800	3.696400	-11.050000	24.960577	0.000518	20.808479
830.250861	-3.004500	3.697000	-11.107000	25.025148	0.000518	20.829670
831.246310	-3.027700	3.695300	-11.188000	25.038134	0.000516	20.838437
832.246058	-2.990700	3.696200	-11.054000	25.048809	0.000514	20.811221
833.245237	-3.008900	3.695400	-11.118000	25.073560	0.000518	20.817100
834.247002	-3.031000	3.694500	-11.198000	25.088460	0.000515	20.813091
835.248252	-3.025000	3.695800	-11.178000	25.068596	0.000517	20.837247
836.250564	-2.995100	3.694200	-11.063000	25.046980	0.000514	20.819342
837.248037	-2.996100	3.695100	-11.069000	25.026479	0.000514	20.834799
838.246603	-2.995400	3.695800	-11.070000	25.021000	0.000514	20.819816
839.250950	-3.007300	3.694300	-11.109000	24.995019	0.000515	20.836885
840.250168	-2.999000	3.694500	-11.078000	24.990192	0.000514	20.819239
841.251322	-2.983100	3.694500	-11.020000	25.014078	0.000515	20.823299
842.249329	-2.988800	3.694100	-11.040000	25.044541	0.000514	20.816894
843.251327	-3.014300	3.694400	-11.135000	25.045932	0.000513	20.812127
844.252552	-3.009200	3.693400	-11.112000	25.061176	0.000512	20.823635
845.250785	-3.018400	3.693300	-11.146000	25.056058	0.000514	20.828454
846.254793	-2.999400	3.691900	-11.073000	25.018304	0.000513	20.817110
847.253047	-3.010200	3.691900	-11.112000	24.974870	0.000514	20.837998
848.251580	-2.991300	3.693600	-11.048000	24.977567	0.000512	20.824109
849.255078	-3.004100	3.692500	-11.092000	25.018304	0.000512	20.827067
850.252864	-3.016800	3.692000	-11.137000	25.019506	0.000514	20.823058
851.253083	-3.008100	3.690800	-11.102000	25.031392	0.000512	20.849213
852.255000	-3.012700	3.690500	-11.117000	25.014765	0.000511	20.845326
853.253640	-2.997100	3.690300	-11.059000	25.003436	0.000512	20.848178
854.252343	-3.008900	3.691000	-11.105000	24.989058	0.000510	20.828532
855.255109	-3.009000	3.689600	-11.100000	24.986654	0.000511	20.838920
856.252108	-2.983500	3.690200	-11.009000	25.024985	0.000512	20.850842
857.251418	-2.985400	3.690700	-11.017000	25.046206	0.000510	20.838953
858.251380	-2.989300	3.690500	-11.031000	25.064303	0.000510	20.843368
859.251509	-2.992100	3.690400	-11.041000	25.094944	0.000509	20.815807
860.251320	-2.973700	3.689300	-10.970000	25.123859	0.000510	20.830609
861.252367	-2.993100	3.689100	-11.041000	25.111871	0.000510	20.818575
862.253991	-2.995800	3.688500	-11.049000	25.097778	0.000510	20.830980
863.252574	-2.990400	3.689500	-11.032000	25.109664	0.000509	20.857609
864.254575	-2.995500	3.688000	-11.047000	25.098774	0.000508	20.838618
865.252277	-3.002700	3.687800	-11.073000	25.105078	0.000509	20.830247
866.255279	-3.006500	3.686800	-11.084000	25.092608	0.000509	20.835273
867.259397	-2.998500	3.688000	-11.057000	25.086159	0.000507	20.844446
868.255045	-2.997700	3.686900	-11.052000	25.086699	0.000508	20.840721
869.253651	-3.014400	3.687000	-11.113000	25.053481	0.000508	20.850997
870.253653	-3.007900	3.686900	-11.089000	25.082175	0.000508	20.838075
871.253866	-3.002400	3.687100	-11.070000	25.116251	0.000508	20.831980
872.255894	-2.993500	3.686500	-11.035000	25.116723	0.000507	20.860902
873.256196	-3.013400	3.685400	-11.105000	25.144908	0.000508	20.835144
874.257230	-3.019800	3.684900	-11.127000	25.121867	0.000505	20.837144
875.257792	-2.982800	3.688300	-11.000000	25.115444	0.000505	20.872893
876.259304	-3.000200	3.686300	-11.059000	25.102588	0.000508	20.854773
877.257664	-3.005400	3.683900	-11.069000	25.082741	0.000505	20.835799
878.260856	-3.007400	3.684400	-11.080000	25.055361	0.000504	20.848143
879.258284	-3.026100	3.683900	-11.147000	25.113760	0.000505	20.838963
880.257341	-3.015500	3.685100	-11.111000	25.122751	0.000504	20.847039
881.257432	-3.006100	3.683200	-11.071000	25.105034	0.000503	20.849643
882.257784	-3.004300	3.683300	-11.065000	25.080077	0.000505	20.856832
883.261180	-3.015600	3.682700	-11.104000	25.065675	0.000504	20.850436
884.261668	-3.004700	3.684200	-11.069000	25.085848	0.000504	20.869737
885.264067	-3.014900	3.683200	-11.104000	25.100019	0.000503	20.874952
886.260088	-3.041200	3.682200	-11.197000	25.127449	0.000503	20.837531
887.259088	-3.006700	3.683900	-11.076000	25.126890	0.000504	20.848823
888.267089	-3.014200	3.682500	-11.098000	25.124313	0.000503	20.855720
889.263719	-2.997700	3.681900	-11.036000	25.114841	0.000503	20.863280
890.259759	-3.000100	3.681900	-11.045000	25.164460	0.000501	20.854297
891.260305	-3.010300	3.682500	-11.085000	25.189810	0.000503	20.858409
892.260270	-3.002400	3.680100	-11.049000	25.148118	0.000500	20.854487
893.259416	-2.999900	3.682800	-11.047000	25.128899	0.000500	20.862219
894.259603	-2.966900	3.681400	-10.921000	25.095510	0.000500	20.869004
895.260488	-2.994500	3.680100	-11.019000	25.076376	0.000502	20.864021
896.261488	-2.978800	3.681000	-10.963000	25.069281	0.000500	20.857848
897.260472	-3.012700	3.679200	-11.084000	25.042727	0.000498	20.854426
898.264102	-2.981600	3.681000	-10.975000	25.056219	0.000500	20.863228
899.265224	-2.974400	3.680200	-10.945000	25.063279	0.000499	20.856090
900.264443	-2.981600	3.680700	-10.974000	25.069814	0.000501	20.881616
901.269527	-2.971500	3.680000	-10.934000	25.078420	0.000498	20.879822
902.263641	-2.989600	3.677700	-10.994000	25.084929	0.000499	20.882090
903.263677	-2.973700	3.679400	-10.941000	25.114076	0.000497	20.884322
904.262640	-2.984000	3.678900	-10.977000	25.081880	0.000497	20.873340
905.264825	-2.998300	3.679300	-11.031000	25.057585	0.000498	20.892572
906.263928	-3.012700	3.678200	-11.080000	25.107842	0.000497	20.875694
907.263402	-3.000200	3.678700	-11.036000	25.105497	0.000497	20.880451
908.263598	-3.008000	3.676900	-11.058000	25.093286	0.000497	20.865350
909.263834	-3.004900	3.677700	-11.050000	25.107190	0.000497	20.882625
910.266535	-3.011300	3.676500	-11.071000	25.105121	0.000497	20.871539
911.268536	-2.982300	3.678500	-10.970000	25.084733	0.000498	20.887108
912.265088	-3.017600	3.677400	-11.096000	25.080868	0.000498	20.868530
913.266083	-2.984000	3.676800	-10.971000	25.120682	0.000496	20.872936
914.266440	-2.997500	3.676000	-11.018000	25.105490	0.000494	20.894194
915.266443	-3.003300	3.676000	-11.039000	25.117822	0.000497	20.889504
916.269801	-2.977500	3.677100	-10.948000	25.123464	0.000494	20.889004
917.267982	-3.001800	3.675400	-11.031000	25.115598	0.000494	20.858824
918.267994	-2.989200	3.676000	-10.987000	25.102193	0.000495	20.888039
919.271133	-2.983000	3.675800	-10.964000	25.095314	0.000493	20.885401
920.268100	-2.991200	3.675900	-10.995000	25.115306	0.000494	20.908314
921.271099	-3.008600	3.674100	-11.053000	25.122314	0.000494	20.889272
922.267343	-3.015100	3.673700	-11.076000	25.104272	0.000495	20.911461
923.268359	-2.972500	3.674800	-10.922000	25.137068	0.000495	20.873264
924.269644	-3.011300	3.672900	-11.059000	25.199499	0.000494	20.891367
925.272667	-2.981700	3.673500	-10.952000	25.204780	0.000491	20.882920
926.270139	-2.995300	3.673700	-11.003000	25.262861	0.000495	20.878644
927.272140	-3.006700	3.672700	-11.042000	25.231906	0.000493	20.902565
928.270141	-3.013300	3.672100	-11.065000	25.236577	0.000492	20.884497
929.272192	-3.026200	3.672300	-11.112000	25.186197	0.000491	20.911677
930.273787	-2.987400	3.671800	-10.967000	25.165261	0.000492	20.876911
931.269478	-3.006600	3.672400	-11.040000	25.191993	0.000494	20.901849
932.273402	-2.982200	3.672900	-10.952000	25.185956	0.000490	20.893419
933.270398	-2.999100	3.672400	-11.013000	25.188266	0.000491	20.891945
934.270216	-2.997100	3.670700	-11.000000	25.152165	0.000493	20.896005
935.271906	-2.998900	3.671200	-11.008000	25.163664	0.000490	20.906600
936.269857	-3.009700	3.670800	-11.046000	25.222881	0.000491	20.890187
937.273857	-2.999500	3.672100	-11.013000	25.252326	0.000490	20.921168
938.271873	-2.995800	3.670400	-10.995000	25.253425	0.000490	20.900462
939.272016	-3.004200	3.671000	-11.028000	25.216562	0.000492	20.908022
940.274913	-2.975200	3.671100	-10.921000	25.241824	0.000490	20.895454
941.270916	-3.015200	3.669600	-11.064000	25.261531	0.000487	20.908125
942.270663	-3.006200	3.670600	-11.035000	25.246444	0.000489	20.908151
943.275665	-2.990600	3.669000	-10.972000	25.221490	0.000486	20.912496
944.271933	-3.007200	3.669000	-11.031000	25.262028	0.000486	20.901988
945.271935	-2.995600	3.669700	-10.993000	25.239858	0.000489	20.914341
946.273913	-3.009700	3.668700	-11.041000	25.183132	0.000488	20.914289
947.271127	-3.000800	3.667500	-11.004000	25.210920	0.000489	20.912789
948.276715	-3.006900	3.668000	-11.029000	25.254489	0.000489	20.907220
949.271777	-2.997600	3.667800	-10.994000	25.213461	0.000486	20.930038
950.273070	-2.968500	3.668400	-10.889000	25.213256	0.000488	20.919875
951.272430	-3.009300	3.667400	-11.036000	25.170508	0.000485	20.906358
952.272132	-2.985200	3.667200	-10.946000	25.162633	0.000487	20.925477
953.273126	-3.009000	3.667000	-11.033000	25.209159	0.000485	20.922874
954.275332	-2.990600	3.666400	-10.964000	25.192019	0.000486	20.904246
955.273268	-2.988100	3.666700	-10.956000	25.216045	0.000487	20.924572
956.273492	-3.017900	3.665800	-11.062000	25.230798	0.000487	20.919469
957.276904	-2.989300	3.666800	-10.960000	25.255838	0.000485	20.922323
958.272951	-2.999100	3.665400	-10.992000	25.263179	0.000484	20.915470
959.276820	-3.003900	3.666200	-11.011000	25.268030	0.000485	20.935511
960.273816	-2.998900	3.664400	-10.989000	25.265935	0.000482	20.947631
961.274719	-2.994900	3.663900	-10.973000	25.245731	0.000481	20.898902
962.276004	-2.995400	3.665200	-10.978000	25.207614	0.000484	20.936968
963.275233	-2.996100	3.664400	-10.978000	25.193291	0.000484	20.940606
964.276380	-3.030700	3.663300	-11.101000	25.200452	0.000480	20.937365
965.274387	-3.007300	3.662900	-11.014000	25.148087	0.000484	20.953071
966.275000	-3.002400	3.663000	-10.997000	25.181243	0.000481	20.924719
967.275146	-2.996200	3.663400	-10.975000	25.189178	0.000482	20.926047
968.275652	-3.015600	3.662800	-11.045000	25.181535	0.000480	20.958673
969.275884	-3.019800	3.662600	-11.059000	25.226592	0.000481	20.929944
970.276898	-3.009300	3.662600	-11.021000	25.285153	0.000483	20.939900
971.276112	-3.004300	3.662200	-11.001000	25.313883	0.000481	20.947882
972.276338	-2.996200	3.662900	-10.974000	25.316613	0.000479	20.947778
973.277672	-3.012600	3.661300	-11.029000	25.273844	0.000481	20.935659
974.276672	-3.033000	3.659300	-11.097000	25.227012	0.000480	20.937952
975.279124	-2.989600	3.661500	-10.945000	25.245611	0.000479	20.944770
976.276850	-3.004900	3.662000	-11.003000	25.271621	0.000480	20.950968
977.276655	-2.996800	3.661400	-10.971000	25.322589	0.000478	20.956148
978.276570	-2.992200	3.660700	-10.952000	25.309976	0.000478	20.962449
979.277497	-3.007800	3.659000	-11.004000	25.291421	0.000479	20.935762
980.280495	-2.991900	3.659500	-10.948000	25.313857	0.000478	20.946434
981.277861	-3.014000	3.659100	-11.027000	25.267361	0.000477	20.940055
982.279118	-2.974400	3.660300	-10.886000	25.242151	0.000476	20.953622
983.278513	-3.010000	3.659100	-11.013000	25.240185	0.000475	20.953545
984.278559	-3.008600	3.658800	-11.006000	25.221139	0.000475	20.965242
985.281610	-3.014100	3.658700	-11.027000	25.249974	0.000479	20.954838
986.280834	-3.017600	3.658700	-11.040000	25.286801	0.000475	20.963836
987.283971	-3.024000	3.657900	-11.061000	25.295414	0.000477	20.949726
988.279475	-3.025400	3.657600	-11.065000	25.335005	0.000475	20.958657
989.279475	-2.988900	3.658300	-10.933000	25.345410	0.000475	20.939235
990.286867	-3.002300	3.657800	-10.980000	25.353721	0.000474	20.961802
991.282809	-2.997300	3.659100	-10.967000	25.309915	0.000476	20.945795
992.288983	-3.018700	3.657400	-11.040000	25.338378	0.000474	20.959673
993.283153	-3.022900	3.657100	-11.054000	25.333810	0.000474	20.964095
994.284015	-3.011100	3.655600	-11.007000	25.301303	0.000474	20.961328
995.283229	-3.011700	3.656100	-11.010000	25.308987	0.000475	20.959560
996.285228	-3.005400	3.656300	-10.988000	25.285006	0.000473	20.949234
997.285102	-2.983400	3.656800	-10.909000	25.253605	0.000475	20.961802
998.288295	-2.998400	3.656100	-10.962000	25.229956	0.000472	20.972671
999.288455	-2.986700	3.655900	-10.917000	25.221249	0.000473	20.962982
1000.286449	-2.983700	3.655700	-10.907000	25.239926	0.000473	20.970352
1001.286449	-3.000100	3.655400	-10.965000	25.294313	0.000471	20.977541
1002.297305	-3.011200	3.654700	-11.004000	25.315538	0.000471	20.973248
1003.289087	-2.995100	3.656000	-10.949000	25.306874	0.000473	20.962654
1004.288124	-2.989700	3.653400	-10.921000	25.283185	0.000472	20.969688
1005.290770	-3.016900	3.652600	-11.018000	25.275500	0.000473	20.980462
1006.292829	-3.015500	3.653000	-11.015000	25.276101	0.000470	20.982014
1007.295050	-3.002500	3.654000	-10.971000	25.327971	0.000469	20.980040
1008.290613	-2.987000	3.653900	-10.913000	25.310909	0.000470	20.980453
1009.292613	-3.010000	3.651700	-10.991000	25.274125	0.000469	20.970075
1010.293196	-2.991700	3.654000	-10.930000	25.276358	0.000470	20.986539
1011.292164	-2.997700	3.651600	-10.946000	25.341553	0.000469	20.975661
1012.297062	-2.991300	3.652000	-10.922000	25.359309	0.000469	20.991589
1013.300284	-2.996600	3.652000	-10.943000	25.359334	0.000470	20.971704
1014.295156	-3.008100	3.650600	-10.981000	25.358261	0.000468	20.996701
1015.294213	-3.001700	3.651600	-10.960000	25.296398	0.000467	20.992434
1016.294475	-2.998100	3.651200	-10.945000	25.293976	0.000467	21.003751
1017.295771	-3.008200	3.650300	-10.980000	25.274614	0.000467	20.999010
1018.296828	-2.999000	3.649700	-10.944000	25.300588	0.000466	20.971040
1019.294884	-2.990600	3.650300	-10.915000	25.340728	0.000467	20.996166
1020.295327	-2.986200	3.650700	-10.901000	25.293951	0.000469	20.987607
1021.299335	-3.001400	3.649600	-10.953000	25.348945	0.000466	20.994934
1022.296571	-3.010400	3.648800	-10.984000	25.380103	0.000465	20.981176
1023.299045	-3.004400	3.649600	-10.964000	25.384738	0.000464	20.982038
1024.296986	-3.010900	3.648400	-10.984000	25.399300	0.000465	20.976271
1025.297009	-3.017400	3.647900	-11.006000	25.373508	0.000465	20.971711
1026.298048	-3.006400	3.648300	-10.968000	25.388198	0.000465	20.987882
1027.298966	-2.999200	3.647300	-10.938000	25.399505	0.000465	20.967470
1028.298875	-3.013700	3.647000	-10.990000	25.383296	0.000463	20.987701
1029.298389	-2.994600	3.648500	-10.925000	25.363900	0.000463	20.976288
1030.301075	-3.014900	3.646300	-10.992000	25.335429	0.000463	20.983735
1031.297073	-3.011100	3.646400	-10.978000	25.305369	0.000463	20.972047
1032.298969	-3.002500	3.646900	-10.948000	25.367832	0.000463	20.976917
1033.297271	-3.002300	3.646100	-10.946000	25.383287	0.000461	20.952135
1034.298582	-2.995900	3.645900	-10.921000	25.417594	0.000461	20.960031
1035.297485	-2.999400	3.644700	-10.931000	25.423707	0.000463	20.984657
1036.299033	-2.983900	3.646000	-10.879000	25.339653	0.000458	20.942257
1037.303026	-3.001100	3.644900	-10.938000	25.368279	0.000459	20.993958
1038.298429	-2.987000	3.645600	-10.888000	25.407232	0.000459	20.990398
1039.301553	-3.008400	3.645300	-10.966000	25.436405	0.000459	20.981761
1040.299647	-2.994600	3.644600	-10.913000	25.444853	0.000460	20.959902
1041.299712	-2.995900	3.643400	-10.914000	25.418092	0.000458	20.957212
1042.298636	-2.992000	3.642800	-10.898000	25.429030	0.000459	20.951600
1043.322865	-2.999700	3.643600	-10.929000	25.419174	0.000459	20.942179
1044.306919	-3.014700	3.642700	-10.981000	25.380444	0.000458	20.949282
1045.301954	-2.997000	3.642500	-10.916000	25.371816	0.000458	20.957686
1046.300883	-2.994100	3.642700	-10.906000	25.403050	0.000459	20.950169
1047.300911	-2.964700	3.643700	-10.801000	25.433855	0.000457	20.957393
1048.302383	-2.988500	3.642300	-10.884000	25.442277	0.000456	20.947359
1049.301392	-3.000700	3.641500	-10.926000	25.446337	0.000458	20.931050
1050.299481	-2.987800	3.641100	-10.878000	25.479338	0.000457	20.925309
1051.300869	-2.994000	3.641300	-10.900000	25.468761	0.000457	20.934127
1052.299950	-2.975200	3.641700	-10.834000	25.432669	0.000456	20.949092
1053.301172	-2.997900	3.641000	-10.914000	25.415610	0.000457	20.947134
1054.301435	-2.991200	3.639600	-10.886000	25.417104	0.000454	20.972813
1055.301434	-2.988800	3.641800	-10.884000	25.387158	0.000457	20.933266
1056.302972	-3.005900	3.640300	-10.942000	25.400679	0.000455	20.930722
1057.303973	-2.999500	3.638400	-10.912000	25.388411	0.000457	20.961073
1058.302522	-3.007800	3.638200	-10.942000	25.409240	0.000454	20.958754
1059.302759	-2.992800	3.640700	-10.896000	25.439717	0.000454	20.934360
1060.304696	-3.008600	3.639900	-10.950000	25.495074	0.000454	20.952014
1061.302695	-2.987800	3.638900	-10.871000	25.449161	0.000453	20.925352
1062.304694	-2.983200	3.638900	-10.854000	25.462244	0.000452	20.951763
1063.304003	-2.993300	3.637400	-10.886000	25.484196	0.000452	20.949625
1064.303308	-2.991700	3.638800	-10.886000	25.474547	0.000452	20.929506
1065.306685	-3.007400	3.636800	-10.936000	25.391390	0.000452	20.926136
1066.305684	-3.022000	3.637700	-10.992000	25.376828	0.000449	20.938066
1067.309190	-3.018100	3.636000	-10.972000	25.386032	0.000452	20.932135
1068.305324	-3.010900	3.636600	-10.948000	25.371685	0.000452	20.928635
1069.305372	-3.004600	3.635300	-10.921000	25.359768	0.000451	20.938479
1070.309181	-2.986700	3.636400	-10.860000	25.395081	0.000449	20.941220
1071.310147	-2.995100	3.634700	-10.884000	25.373205	0.000448	20.936798
1072.307996	-3.016000	3.634200	-10.960000	25.407342	0.000448	20.941204
1073.309243	-2.992700	3.634400	-10.876000	25.379919	0.000448	20.933583
1074.309100	-3.014300	3.634400	-10.954000	25.400490	0.000450	20.928635
1075.308335	-2.999100	3.634100	-10.898000	25.396112	0.000446	20.935618
1076.311340	-3.010600	3.633800	-10.939000	25.382427	0.000449	20.940842
1077.309371	-3.019300	3.635000	-10.975000	25.421138	0.000448	20.935618
1078.311411	-3.009600	3.633300	-10.934000	25.406407	0.000447	20.919404
1079.313712	-3.038900	3.631800	-11.036000	25.403075	0.000447	20.912741
1080.311593	-3.016200	3.632800	-10.957000	25.413618	0.000445	20.917163
1081.314594	-2.991100	3.633400	-10.867000	25.388540	0.000446	20.926119
1082.313614	-3.005200	3.631500	-10.912000	25.399083	0.000445	20.941445
1083.313856	-3.001600	3.632600	-10.903000	25.400174	0.000444	20.943489
1084.313444	-2.977100	3.631600	-10.811000	25.343370	0.000443	20.927706
1085.314991	-2.986600	3.632100	-10.846000	25.356438	0.000444	20.924232
1086.312171	-2.995600	3.630800	-10.875000	25.374614	0.000445	20.921620
1087.315793	-2.968700	3.633000	-10.783000	25.425561	0.000443	20.938636
1088.312675	-2.978100	3.629800	-10.809000	25.486215	0.000444	20.916569
1089.312133	-2.997900	3.630100	-10.882000	25.429313	0.000442	20.932447
1090.319641	-2.993800	3.630100	-10.867000	25.476033	0.000443	20.921042
1091.314655	-3.006600	3.629900	-10.912000	25.492327	0.000443	20.913224
1092.316606	-3.005300	3.629400	-10.907000	25.462366	0.000442	20.915379
1093.314975	-3.003500	3.629100	-10.899000	25.455575	0.000440	20.922310
1094.317510	-2.985100	3.629500	-10.834000	25.451136	0.000440	20.915956
1095.314568	-2.990800	3.630100	-10.856000	25.396439	0.000440	20.922197
1096.315826	-2.997500	3.628800	-10.877000	25.438937	0.000438	20.932627
1097.316803	-3.000600	3.628900	-10.888000	25.424170	0.000438	20.917327
1098.315687	-2.999600	3.628500	-10.883000	25.425535	0.000439	20.926283
1099.315196	-2.985800	3.627200	-10.829000	25.418555	0.000438	20.908371
1100.316667	-3.007900	3.627400	-10.910000	25.426480	0.000438	20.917275
1101.318723	-2.999600	3.627100	-10.878000	25.414537	0.000437	20.937049
1102.317244	-3.019400	3.626700	-10.950000	25.420598	0.000439	20.911844
1103.317546	-2.999800	3.627600	-10.881000	25.462366	0.000438	20.925335
1104.316716	-3.006500	3.626000	-10.900000	25.476659	0.000438	20.896544
1105.318185	-3.006000	3.626000	-10.899000	25.468590	0.000435	20.893657
1106.319530	-3.002600	3.625300	-10.884000	25.438756	0.000437	20.918224
1107.318574	-3.004700	3.625500	-10.893000	25.448020	0.000436	20.918517
1108.322659	-3.013000	3.626700	-10.926000	25.481493	0.000436	20.899027
1109.319658	-2.967800	3.626500	-10.761000	25.493589	0.000437	20.918759
1110.321258	-2.999800	3.623400	-10.868000	25.519060	0.000437	20.923474
1111.323742	-2.990700	3.624100	-10.838000	25.554574	0.000436	20.926896
1112.321775	-2.984300	3.625500	-10.818000	25.546685	0.000436	20.934146
1113.322961	-3.007600	3.622600	-10.894000	25.545217	0.000436	20.911337
1114.321182	-3.001900	3.622100	-10.871000	25.544822	0.000435	20.932275
1115.320590	-2.975200	3.623800	-10.780000	25.541784	0.000432	20.935387
1116.321244	-3.000600	3.622100	-10.868000	25.504699	0.000434	20.911424
1117.320465	-2.991700	3.623000	-10.838000	25.521722	0.000433	20.912398
1118.322700	-2.984100	3.621800	-10.806000	25.457061	0.000434	20.908157
1119.321701	-3.009800	3.620900	-10.897000	25.468419	0.000431	20.905338
1120.321106	-2.987200	3.622700	-10.821000	25.507859	0.000433	20.911278
1121.323107	-3.022000	3.620600	-10.940000	25.451687	0.000433	20.927888
1122.322540	-3.016000	3.620100	-10.917000	25.432723	0.000432	20.904580
1123.323589	-2.993200	3.621000	-10.837000	25.437952	0.000433	20.926424
1124.323107	-3.001600	3.620700	-10.868000	25.502880	0.000431	20.893478
1125.323108	-2.980100	3.622400	-10.794000	25.527201	0.000429	20.907943
1126.323109	-3.017900	3.618400	-10.919000	25.542104	0.000432	20.911055
1127.330399	-3.002400	3.620200	-10.869000	25.513980	0.000433	20.888030
1128.325839	-3.004200	3.618500	-10.870000	25.521570	0.000430	20.917460
1129.330221	-2.996000	3.620300	-10.844000	25.541451	0.000430	20.914667
1130.323827	-3.006800	3.617800	-10.877000	25.543186	0.000430	20.908823
1131.324827	-2.993300	3.618200	-10.829000	25.511269	0.000429	20.900005
1132.324518	-3.007300	3.618900	-10.882000	25.477771	0.000431	20.897660
1133.324579	-2.996200	3.617800	-10.839000	25.472054	0.000429	20.884333
1134.324713	-2.979500	3.617600	-10.776000	25.462215	0.000430	20.902427
1135.327975	-2.997100	3.616300	-10.837000	25.507106	0.000430	20.896299
1136.324508	-3.013800	3.616000	-10.897000	25.528378	0.000429	20.903910
1137.324398	-3.000600	3.617300	-10.853000	25.504745	0.000427	20.914789
1138.326648	-3.020100	3.615100	-10.917000	25.487859	0.000425	20.909686
1139.325095	-2.981000	3.616100	-10.779000	25.500582	0.000428	20.895437
1140.330095	-3.024200	3.615500	-10.933000	25.469059	0.000428	20.911195
1141.326453	-2.984300	3.615100	-10.787000	25.501536	0.000425	20.892128
1142.333361	-2.987500	3.615800	-10.801000	25.491973	0.000423	20.907653
1143.327713	-3.004300	3.614800	-10.859000	25.470193	0.000425	20.908541
1144.327593	-3.006800	3.614900	-10.868000	25.516834	0.000425	20.904170
1145.328212	-3.004100	3.614700	-10.858000	25.547240	0.000423	20.892508
1146.328945	-3.010600	3.614300	-10.880000	25.569080	0.000424	20.906853
1147.327605	-3.011700	3.612900	-10.880000	25.588557	0.000422	20.905076
1148.328174	-3.000900	3.614100	-10.843000	25.576393	0.000422	20.890965
1149.328492	-3.017000	3.612200	-10.897000	25.541275	0.000423	20.874665
1150.330493	-3.024100	3.612700	-10.924000	25.465489	0.000423	20.900499
1151.328495	-2.981400	3.614100	-10.774000	25.488609	0.000422	20.881044
1152.328493	-2.985900	3.612100	-10.784000	25.505418	0.000422	20.896026
1153.329734	-3.013800	3.612000	-10.885000	25.509676	0.000423	20.884182
1154.329912	-2.997200	3.613000	-10.828000	25.515282	0.000420	20.899767
1155.332875	-3.018800	3.611300	-10.900000	25.564616	0.000420	20.901422
1156.333879	-3.008400	3.610700	-10.862000	25.585768	0.000419	20.909862
1157.331948	-2.989300	3.611400	-10.795000	25.597674	0.000421	20.890526
1158.330140	-2.987000	3.610400	-10.784000	25.625657	0.000421	20.915783
1159.333726	-2.991600	3.611000	-10.801000	25.634026	0.000417	20.879148
1160.330790	-2.988000	3.610300	-10.786000	25.613469	0.000419	20.906862
1161.333842	-3.008000	3.609200	-10.856000	25.589304	0.000418	20.909146
1162.331179	-2.990400	3.609700	-10.793000	25.555208	0.000416	20.883441
1163.332086	-2.998800	3.609200	-10.822000	25.598387	0.000416	20.893139
1164.332918	-3.001500	3.608800	-10.831000	25.611503	0.000418	20.874071
1165.335062	-2.988400	3.609100	-10.784000	25.637777	0.000417	20.877699
1166.337775	-3.009100	3.607400	-10.854000	25.647743	0.000414	20.881070
1167.334774	-3.011100	3.606800	-10.860000	25.660120	0.000418	20.906301
1168.336025	-3.013700	3.606700	-10.867000	25.641898	0.000416	20.902224
1169.335034	-2.988800	3.607200	-10.780000	25.578111	0.000416	20.899802
1170.336985	-3.007500	3.607000	-10.847000	25.574273	0.000415	20.915387
1171.333210	-2.984900	3.606500	-10.764000	25.600841	0.000416	20.893233
1172.337217	-2.991700	3.605700	-10.786000	25.594533	0.000412	20.918663
1173.334726	-3.010700	3.606100	-10.856000	25.585887	0.000412	20.898603
1174.335081	-2.988800	3.605800	-10.776000	25.561105	0.000412	20.887940
1175.335670	-2.957600	3.606800	-10.668000	25.549697	0.000413	20.884070
1176.334201	-2.974400	3.606300	-10.726000	25.526218	0.000412	20.900319
1177.338842	-2.997000	3.605000	-10.803000	25.518690	0.000410	20.887069
1178.334849	-3.003600	3.603000	-10.821000	25.557955	0.000413	20.902318
1179.335240	-3.020500	3.602300	-10.880000	25.562204	0.000411	20.891888
1180.336454	-3.009800	3.604300	-10.848000	25.569758	0.000410	20.898051
1181.334843	-3.007800	3.603800	-10.838000	25.594729	0.000411	20.890414
1182.339268	-2.995200	3.603900	-10.794000	25.547336	0.000407	20.893552
1183.337266	-3.005800	3.603400	-10.830000	25.534768	0.000408	20.870501
1184.336879	-3.002700	3.602900	-10.818000	25.532588	0.000407	20.883483
1185.336878	-3.007500	3.601700	-10.831000	25.546331	0.000409	20.879267
1186.340934	-2.996500	3.600900	-10.790000	25.522088	0.000407	20.889060
1187.337190	-3.001700	3.601600	-10.809000	25.511967	0.000408	20.887431
1188.341255	-2.987600	3.602000	-10.761000	25.527497	0.000407	20.878845
1189.338582	-3.012600	3.600200	-10.845000	25.547575	0.000406	20.892369
1190.338578	-3.017500	3.601300	-10.865000	25.572238	0.000406	20.873517
1191.341982	-3.019400	3.600400	-10.869000	25.597492	0.000407	20.876594
1192.340019	-3.009500	3.600100	-10.833000	25.570032	0.000406	20.868457
1193.343776	-3.006500	3.600500	-10.825000	25.555370	0.000406	20.865112
1194.338256	-2.964500	3.601000	-10.674000	25.548304	0.000408	20.889783
1195.340299	-2.993600	3.599900	-10.776000	25.513426	0.000405	20.861396
1196.341540	-2.990200	3.598700	-10.759000	25.487036	0.000404	20.875672
1197.343603	-3.000300	3.600300	-10.801000	25.552055	0.000404	20.875533
1198.338939	-2.976100	3.599000	-10.710000	25.572640	0.000405	20.881981
1199.343625	-2.986800	3.598600	-10.747000	25.569242	0.000404	20.870034
1200.340498	-2.993900	3.598200	-10.772000	25.618865	0.000402	20.891895
1201.341504	-2.991200	3.597400	-10.759000	25.618316	0.000402	20.871905
1202.340708	-2.995600	3.596100	-10.772000	25.595379	0.000402	20.861671
1203.343708	-3.012500	3.597700	-10.837000	25.585586	0.000403	20.876017
1204.344708	-2.957000	3.598300	-10.639000	25.638865	0.000402	20.856982
1205.343678	-3.014800	3.595000	-10.837000	25.604359	0.000403	20.862629
1206.342995	-3.003300	3.596300	-10.800000	25.585448	0.000402	20.869715
1207.346409	-2.998400	3.595100	-10.778000	25.564992	0.000400	20.871930
1208.344407	-2.975500	3.596300	-10.699000	25.567748	0.000400	20.878017
1209.344611	-2.993300	3.595200	-10.760000	25.569765	0.000399	20.872930
1210.345148	-2.997600	3.595000	-10.775000	25.592806	0.000399	20.870466
1211.344166	-2.984400	3.594100	-10.725000	25.555026	0.000399	20.873775
1212.345166	-2.986400	3.593400	-10.730000	25.502421	0.000400	20.870259
1213.347220	-2.998100	3.594100	-10.775000	25.501596	0.000399	20.859474
1214.344220	-3.021700	3.592900	-10.855000	25.500163	0.000399	20.865147
1215.349221	-3.003900	3.593000	-10.792000	25.457109	0.000401	20.872646
1216.345608	-2.987600	3.594000	-10.736000	25.471335	0.000400	20.855639
1217.344494	-2.990900	3.591900	-10.741000	25.506851	0.000400	20.864276
1218.345214	-3.023300	3.591800	-10.859000	25.525865	0.000398	20.870095
1219.345212	-2.988800	3.592300	-10.735000	25.544202	0.000397	20.852949
1220.351217	-3.004700	3.592800	-10.795000	25.571088	0.000397	20.883741
1221.346308	-3.006900	3.591300	-10.797000	25.587397	0.000395	20.872146
1222.348147	-2.975500	3.591500	-10.685000	25.552752	0.000396	20.854423
1223.347145	-3.029200	3.590500	-10.875000	25.576728	0.000397	20.872811
1224.347458	-3.022800	3.590300	-10.852000	25.632171	0.000395	20.864957
1225.348804	-3.017900	3.590000	-10.833000	25.622841	0.000395	20.858906
1226.350694	-2.980500	3.590500	-10.701000	25.585895	0.000395	20.851672
1227.347464	-3.010500	3.589900	-10.806000	25.607698	0.000396	20.841802
1228.348403	-2.999200	3.588400	-10.762000	25.633260	0.000394	20.839974
1229.354672	-3.001100	3.589600	-10.772000	25.619990	0.000393	20.865525
1230.348183	-3.016800	3.588300	-10.825000	25.624136	0.000396	20.876327
1231.351180	-3.000000	3.589000	-10.767000	25.601655	0.000391	20.857542
1232.350404	-3.006200	3.589400	-10.789000	25.634702	0.000394	20.849956
1233.352449	-3.000700	3.587700	-10.765000	25.613277	0.000394	20.848827
1234.352082	-3.020900	3.585800	-10.831000	25.634763	0.000392	20.868508
1235.353905	-3.013800	3.585700	-10.805000	25.609886	0.000391	20.854904
1236.354524	-3.001500	3.585900	-10.763000	25.638033	0.000390	20.869896
1237.354218	-2.994700	3.587300	-10.742000	25.614951	0.000389	20.852405
1238.354216	-2.997100	3.587300	-10.751000	25.579963	0.000391	20.860413
1239.354386	-3.010300	3.586300	-10.795000	25.556562	0.000388	20.864413
1240.356452	-3.006200	3.586800	-10.782000	25.517512	0.000390	20.854120
1241.355630	-3.031300	3.584300	-10.864000	25.548921	0.000389	20.837300
1242.358663	-3.015700	3.584500	-10.808000	25.547617	0.000389	20.827930
1243.356865	-3.010700	3.585000	-10.793000	25.598855	0.000388	20.840981
1244.356048	-2.995700	3.585700	-10.741000	25.586666	0.000388	20.843438
1245.358049	-3.001800	3.585200	-10.761000	25.650246	0.000386	20.855611
1246.357050	-3.000000	3.583700	-10.750000	25.683713	0.000386	20.842758
1247.358208	-2.994100	3.582500	-10.726000	25.716887	0.000385	20.842887
1248.358276	-3.009500	3.583400	-10.783000	25.672271	0.000387	20.835533
1249.358715	-3.035300	3.582600	-10.873000	25.634349	0.000387	20.851025
1250.357558	-2.994000	3.583300	-10.728000	25.652848	0.000385	20.833568
1251.358799	-2.993900	3.581800	-10.723000	25.670126	0.000385	20.857559
1252.358952	-3.007000	3.581100	-10.767000	25.611714	0.000385	20.856740
1253.358950	-2.988400	3.581700	-10.703000	25.584383	0.000382	20.839249
1254.358407	-2.998300	3.582300	-10.740000	25.613834	0.000385	20.839429
1255.358411	-2.994300	3.582100	-10.725000	25.576090	0.000383	20.832343
1256.360997	-2.997300	3.581000	-10.732000	25.549436	0.000383	20.865791
1257.358261	-3.031000	3.579400	-10.848000	25.528790	0.000385	20.838420
1258.361911	-3.006700	3.579900	-10.763000	25.531889	0.000384	20.844377
1259.360294	-3.002900	3.578700	-10.745000	25.555753	0.000383	20.817610
1260.360292	-2.989800	3.579700	-10.702000	25.571282	0.000383	20.812342
1261.360550	-2.988600	3.578600	-10.694000	25.605988	0.000382	20.831550
1262.361002	-2.984600	3.580500	-10.686000	25.592425	0.000380	20.838317
1263.363331	-2.977700	3.577400	-10.651000	25.572690	0.000381	20.834618
1264.366299	-3.001200	3.578600	-10.739000	25.572930	0.000380	20.840549
1265.361263	-3.012300	3.576600	-10.773000	25.553091	0.000379	20.831057
1266.362040	-3.016600	3.577300	-10.790000	25.568852	0.000381	20.812746
1267.365038	-2.972100	3.578000	-10.634000	25.603368	0.000380	20.828445
1268.361390	-3.008700	3.575400	-10.755000	25.650537	0.000377	20.840256
1269.366058	-2.979600	3.576500	-10.656000	25.690937	0.000377	20.829151
1270.369053	-3.005500	3.576400	-10.747000	25.720652	0.000378	20.836238
1271.362532	-3.026200	3.575000	-10.818000	25.705023	0.000377	20.823384
1272.365528	-2.977300	3.576400	-10.647000	25.699091	0.000377	20.840660
1273.364529	-3.004100	3.575200	-10.739000	25.660586	0.000378	20.848453
1274.365155	-3.015200	3.575200	-10.779000	25.636689	0.000377	20.820659
1275.364707	-3.004300	3.573700	-10.735000	25.626441	0.000376	20.830755
1276.364750	-2.989400	3.573900	-10.683000	25.622706	0.000378	20.833642
1277.367085	-3.017200	3.573100	-10.780000	25.662269	0.000374	20.823117
1278.365480	-3.005500	3.575300	-10.745000	25.652423	0.000376	20.831719
1279.366368	-3.014100	3.574100	-10.771000	25.686962	0.000376	20.809038
1280.368983	-3.007000	3.572900	-10.743000	25.683915	0.000375	20.827788
1281.368060	-3.005100	3.572000	-10.733000	25.656345	0.000374	20.814796
1282.371480	-2.987700	3.572200	-10.671000	25.633796	0.000373	20.826762
1283.376760	-2.985800	3.572700	-10.667000	25.634715	0.000373	20.815357
1284.377017	-2.994700	3.572700	-10.698000	25.617719	0.000374	20.815357
1285.371068	-3.011700	3.570600	-10.753000	25.614096	0.000371	20.831633
1286.370763	-2.983200	3.571600	-10.654000	25.634114	0.000373	20.813331
1287.371764	-2.964200	3.571600	-10.586000	25.653075	0.000372	20.819098
1288.371991	-2.972200	3.570400	-10.611000	25.631160	0.000372	20.811313
1289.371378	-2.998800	3.569800	-10.703000	25.622929	0.000370	20.818693
1290.372379	-2.969800	3.570500	-10.603000	25.651624	0.000371	20.805787
1291.372909	-3.008900	3.568900	-10.738000	25.611203	0.000373	20.804071
1292.376681	-3.002500	3.569700	-10.718000	25.600637	0.000368	20.816693
1293.373684	-2.975200	3.568700	-10.617000	25.621195	0.000369	20.813158
1294.373518	-2.997800	3.569900	-10.701000	25.628061	0.000369	20.810097
1295.374366	-2.971000	3.569200	-10.603000	25.635383	0.000369	20.826460
1296.374883	-2.973300	3.567500	-10.607000	25.605477	0.000368	20.807330
1297.373964	-2.974400	3.568700	-10.613000	25.648207	0.000369	20.806149
1298.374829	-2.989400	3.567100	-10.662000	25.653760	0.000370	20.813623
1299.375959	-3.003100	3.567000	-10.712000	25.595039	0.000367	20.811071
1300.378470	-3.012000	3.566300	-10.741000	25.580506	0.000367	20.802166
1301.376440	-2.979900	3.566700	-10.628000	25.610911	0.000368	20.800459
1302.376953	-2.998700	3.566600	-10.694000	25.649717	0.000367	20.812881
1303.376200	-3.008000	3.566600	-10.727000	25.632095	0.000367	20.808933
1304.378686	-2.995100	3.565000	-10.677000	25.642378	0.000365	20.793183
1305.378738	-2.998700	3.565000	-10.689000	25.655279	0.000365	20.791915
1306.382335	-2.997300	3.564300	-10.683000	25.708538	0.000364	20.802260
1307.379821	-2.996800	3.565000	-10.683000	25.658661	0.000363	20.807640
1308.380824	-2.988900	3.564200	-10.652000	25.693226	0.000364	20.791148
1309.385823	-2.983800	3.565200	-10.637000	25.655691	0.000365	20.801811
1310.382042	-3.012400	3.563000	-10.732000	25.611348	0.000362	20.820338
1311.385309	-2.982000	3.562700	-10.623000	25.585665	0.000366	20.801656
1312.382463	-2.997400	3.563600	-10.681000	25.596678	0.000362	20.801811
1313.383851	-3.027800	3.563700	-10.789000	25.607992	0.000362	20.815071
1314.383855	-3.014100	3.562000	-10.736000	25.617666	0.000361	20.802501
1315.384217	-2.993100	3.563400	-10.665000	25.630987	0.000363	20.814933
1316.384770	-3.007400	3.562200	-10.712000	25.591776	0.000361	20.814907
1317.383772	-2.986600	3.562000	-10.637000	25.591330	0.000361	20.809717
1318.383698	-3.010200	3.560000	-10.716000	25.610086	0.000359	20.820019
1319.384840	-2.996800	3.560900	-10.670000	25.651898	0.000360	20.824080
1320.383812	-3.008800	3.560200	-10.711000	25.676206	0.000360	20.832373
1321.384991	-2.989500	3.560200	-10.643000	25.703740	0.000358	20.823519
1322.385056	-2.992100	3.559200	-10.649000	25.714478	0.000360	20.787363
1323.384103	-2.995900	3.560400	-10.665000	25.760843	0.000359	20.809278
1324.385508	-2.993200	3.560000	-10.654000	25.773854	0.000358	20.823296
1325.389147	-3.006900	3.558300	-10.698000	25.749308	0.000359	20.813339
1326.385239	-2.997000	3.558700	-10.664000	25.756681	0.000359	20.790873
1327.397239	-3.002500	3.559000	-10.685000	25.738116	0.000359	20.808735
1328.385989	-3.000500	3.557900	-10.674000	25.765203	0.000355	20.820296
1329.388040	-2.990400	3.558500	-10.640000	25.747918	0.000354	20.804830
1330.387038	-3.018700	3.556500	-10.736000	25.733894	0.000358	20.801649
1331.387603	-2.992500	3.557400	-10.644000	25.676189	0.000355	20.820502
1332.391638	-3.001700	3.558000	-10.680000	25.725156	0.000356	20.815158
1333.389174	-2.999500	3.556500	-10.667000	25.731190	0.000356	20.809839
1334.388483	-2.983500	3.556900	-10.610000	25.754501	0.000355	20.803381
1335.389311	-2.982800	3.556200	-10.607000	25.744244	0.000356	20.814890
1336.389552	-2.997300	3.555700	-10.656000	25.714831	0.000353	20.813322
1337.389766	-3.004800	3.555100	-10.681000	25.715345	0.000354	20.821425
1338.402314	-2.981200	3.556800	-10.603000	25.721225	0.000354	20.818796
1339.390311	-3.004500	3.555800	-10.683000	25.747034	0.000354	20.814848
1340.391364	-3.012000	3.554500	-10.705000	25.723062	0.000354	20.804046
1341.392509	-2.988600	3.555100	-10.624000	25.727044	0.000353	20.809468
1342.391725	-3.036400	3.553100	-10.787000	25.745798	0.000355	20.821192
1343.412212	-3.020200	3.553400	-10.731000	25.740442	0.000353	20.810123
1344.391768	-3.005600	3.553800	-10.681000	25.687596	0.000352	20.823899
1345.392526	-3.007000	3.553400	-10.685000	25.676060	0.000349	20.815158
1346.393999	-3.025600	3.551200	-10.744000	25.673064	0.000351	20.823054
1347.393999	-3.029600	3.551600	-10.758000	25.595717	0.000352	20.832140
1348.392999	-2.977500	3.552800	-10.577000	25.554504	0.000349	20.822519
1349.396974	-3.003400	3.552300	-10.668000	25.533730	0.000352	20.787432
1350.392752	-3.007400	3.551000	-10.679000	25.517995	0.000348	20.806243
1351.397893	-3.010900	3.551300	-10.691000	25.587742	0.000351	20.827450
1352.396889	-3.006700	3.551400	-10.677000	25.592660	0.000348	20.841872
1353.398993	-3.006700	3.550400	-10.674000	25.594291	0.000348	20.826441
1354.397397	-3.012100	3.549900	-10.692000	25.599424	0.000350	20.830648
1355.394434	-3.001600	3.551700	-10.660000	25.626893	0.000349	20.838320
1356.396370	-3.006800	3.550200	-10.674000	25.638188	0.000347	20.834492
1357.394122	-2.994700	3.550300	-10.631000	25.610575	0.000348	20.801070
1358.396108	-3.020200	3.549500	-10.719000	25.595811	0.000347	20.816587
1359.397048	-3.018800	3.548500	-10.712000	25.600635	0.000347	20.816217
1360.396321	-3.003000	3.547900	-10.654000	25.592127	0.000347	20.823320
1361.395618	-3.025200	3.547100	-10.730000	25.576762	0.000347	20.808837
1362.395885	-3.001300	3.548500	-10.648000	25.634514	0.000348	20.825113
1363.394930	-3.007900	3.547800	-10.670000	25.650704	0.000347	20.821932
1364.400980	-2.980500	3.547400	-10.571000	25.658531	0.000348	20.822681
1365.394235	-2.997200	3.546100	-10.628000	25.705180	0.000347	20.836819
1366.394224	-2.996300	3.546700	-10.627000	25.718622	0.000344	20.837044
1367.396504	-3.001600	3.545800	-10.642000	25.755915	0.000344	20.846052
1368.396507	-3.005000	3.546600	-10.657000	25.708263	0.000344	20.822371
1369.395542	-2.988500	3.544700	-10.592000	25.704872	0.000342	20.819440
1370.399598	-3.009900	3.545300	-10.671000	25.666617	0.000344	20.827958
1371.398529	-3.026300	3.543400	-10.723000	25.649243	0.000342	20.861715
1372.398532	-2.997000	3.545000	-10.624000	25.675346	0.000344	20.821078
1373.401651	-3.016400	3.544100	-10.689000	25.699207	0.000342	20.841724
1374.398574	-3.004700	3.544300	-10.648000	25.693070	0.000342	20.848362
1375.402795	-2.999300	3.543900	-10.628000	25.671457	0.000343	20.848465
1376.398309	-2.998400	3.543500	-10.624000	25.694743	0.000343	20.836767
1377.397276	-3.012200	3.544400	-10.676000	25.686718	0.000341	20.850991
1378.397277	-3.007300	3.542600	-10.653000	25.682675	0.000342	20.849301
1379.398495	-3.008300	3.542500	-10.656000	25.682434	0.000341	20.850008
1380.399844	-2.994000	3.542900	-10.607000	25.695232	0.000342	20.824930
1381.398674	-3.006600	3.541600	-10.647000	25.690331	0.000341	20.866947
1382.399676	-2.996400	3.541500	-10.610000	25.687018	0.000343	20.863145
1383.403511	-2.958900	3.542000	-10.480000	25.681147	0.000340	20.854404
1384.407509	-2.981900	3.540400	-10.556000	25.653474	0.000341	20.845102
1385.400212	-2.973600	3.540400	-10.527000	25.663285	0.000339	20.863490
1386.401326	-2.960700	3.541400	-10.483000	25.644083	0.000338	20.856533
1387.402409	-2.996700	3.539700	-10.607000	25.652992	0.000340	20.856472
1388.401412	-2.980500	3.539900	-10.550000	25.655928	0.000338	20.857998
1389.403887	-3.001800	3.540200	-10.626000	25.629834	0.000337	20.869248
1390.399404	-2.993100	3.538300	-10.589000	25.657026	0.000337	20.851041
1391.403961	-2.991000	3.537700	-10.580000	25.684407	0.000336	20.860998
1392.400566	-2.987500	3.537200	-10.566000	25.644039	0.000337	20.852696
1393.400564	-2.971900	3.537800	-10.513000	25.631765	0.000335	20.841317
1394.402813	-3.000400	3.536400	-10.610000	25.615335	0.000336	20.852790
1395.402969	-3.009200	3.535700	-10.639000	25.622117	0.000337	20.845377
1396.421492	-2.982000	3.536300	-10.544000	25.641541	0.000336	20.855876
1397.401719	-2.996900	3.536200	-10.597000	25.673592	0.000335	20.870049
1398.402768	-2.981000	3.535400	-10.538000	25.671540	0.000336	20.881737
1399.402957	-2.984800	3.535200	-10.551000	25.709830	0.000334	20.863298
1400.401419	-2.991100	3.534500	-10.571000	25.728352	0.000335	20.852506
1401.404878	-2.994800	3.535600	-10.588000	25.662853	0.000333	20.869694
1402.402879	-2.995800	3.534400	-10.587000	25.663952	0.000331	20.864634
1403.404673	-2.974900	3.535500	-10.517000	25.702130	0.000332	20.862677
1404.404413	-2.983600	3.535100	-10.546000	25.699872	0.000333	20.859935
1405.406046	-2.989000	3.535200	-10.566000	25.698774	0.000331	20.890124
1406.404398	-2.992600	3.534300	-10.575000	25.695177	0.000332	20.866125
1407.407276	-2.993300	3.533100	-10.575000	25.668921	0.000331	20.862987
1408.404365	-2.989100	3.532800	-10.559000	25.625780	0.000330	20.882719
1409.407670	-2.997400	3.532800	-10.589000	25.574525	0.000332	20.865857
1410.409002	-3.009900	3.531900	-10.629000	25.572001	0.000331	20.866641
1411.407998	-2.976400	3.532400	-10.513000	25.602612	0.000331	20.876046
1412.409233	-2.984900	3.530900	-10.538000	25.630097	0.000329	20.867141
1413.406236	-2.994400	3.531600	-10.574000	25.660353	0.000330	20.878563
1414.407235	-2.990400	3.529900	-10.555000	25.699828	0.000328	20.870796
1415.409631	-3.023600	3.530900	-10.675000	25.741061	0.000329	20.863848
1416.407106	-2.984700	3.530000	-10.535000	25.764963	0.000329	20.876950
1417.410142	-3.009300	3.528800	-10.618000	25.753265	0.000328	20.871364
1418.409302	-2.977400	3.530600	-10.511000	25.777142	0.000328	20.880175
1419.407786	-2.997200	3.529600	-10.577000	25.804374	0.000327	20.879553
1420.409262	-2.981500	3.529800	-10.523000	25.763788	0.000328	20.875295
1421.415208	-2.980400	3.528800	-10.517000	25.754097	0.000327	20.908233
1422.409818	-3.000200	3.529000	-10.587000	25.735927	0.000327	20.873864
1423.413375	-2.979900	3.528100	-10.512000	25.725199	0.000325	20.890587
1424.410466	-3.005900	3.527800	-10.603000	25.741094	0.000327	20.889010
1425.410766	-3.001500	3.527000	-10.585000	25.742510	0.000326	20.870519
1426.415132	-2.997700	3.527500	-10.573000	25.788694	0.000326	20.881821
1427.409621	-2.986500	3.526600	-10.531000	25.827965	0.000323	20.873381
1428.417665	-2.982000	3.527800	-10.519000	25.815719	0.000324	20.890475
1429.418192	-2.998100	3.525600	-10.569000	25.782410	0.000322	20.892104
1430.409185	-2.997200	3.525900	-10.567000	25.752706	0.000326	20.899250
1431.409636	-2.989900	3.526300	-10.543000	25.742415	0.000324	20.886069
1432.411633	-2.970800	3.525100	-10.471000	25.776858	0.000324	20.910232
1433.410632	-2.996700	3.525200	-10.562000	25.805360	0.000322	20.897138
1434.411698	-2.998300	3.524600	-10.567000	25.785448	0.000324	20.894681
1435.411844	-3.009900	3.523800	-10.604000	25.761769	0.000323	20.885121
1436.411706	-2.965700	3.525300	-10.454000	25.799146	0.000323	20.876674
1437.421708	-2.976300	3.523300	-10.486000	25.769665	0.000320	20.893052
1438.413332	-2.985000	3.523100	-10.515000	25.783226	0.000321	20.882966
1439.428368	-3.003800	3.521800	-10.578000	25.773647	0.000320	20.897052
1440.413446	-2.982100	3.523600	-10.507000	25.769640	0.000320	20.901560
1441.413728	-2.992800	3.522400	-10.540000	25.788624	0.000320	20.899293
1442.415619	-3.004800	3.521600	-10.580000	25.803488	0.000320	20.891940
1443.416305	-3.006600	3.520900	-10.585000	25.821297	0.000319	20.913145
1444.418058	-3.019300	3.521100	-10.630000	25.797429	0.000320	20.902448
1445.416266	-3.009800	3.518900	-10.591000	25.808835	0.000317	20.898732
1446.417718	-2.977900	3.522200	-10.488000	25.807024	0.000319	20.895017
1447.416946	-2.997500	3.521100	-10.554000	25.762816	0.000318	20.912249
1448.418153	-3.002500	3.519700	-10.567000	25.774806	0.000320	20.893000
1449.418183	-2.982300	3.521100	-10.500000	25.737566	0.000319	20.910120
1450.417412	-2.997100	3.518500	-10.544000	25.775407	0.000318	20.914939
1451.416461	-3.020900	3.518400	-10.628000	25.783406	0.000317	20.890259
1452.419629	-3.014500	3.518200	-10.605000	25.793473	0.000318	20.896103
1453.420803	-2.977500	3.517500	-10.472000	25.781861	0.000317	20.924740
1454.418279	-2.970600	3.518300	-10.450000	25.801189	0.000316	20.901009
1455.423923	-2.998200	3.517700	-10.546000	25.817504	0.000315	20.907914
1456.420508	-2.990200	3.517300	-10.516000	25.795438	0.000315	20.915619
1457.422548	-3.000000	3.515800	-10.547000	25.726734	0.000316	20.920102
1458.419771	-3.026700	3.515500	-10.639000	25.703680	0.000317	20.917335
1459.421770	-3.000600	3.517500	-10.554000	25.740270	0.000315	20.904302
1460.421246	-3.004100	3.515300	-10.559000	25.797198	0.000312	20.919757
1461.422471	-3.008300	3.514900	-10.573000	25.747187	0.000314	20.929265
1462.422534	-3.013000	3.515300	-10.590000	25.760336	0.000313	20.904543
1463.421576	-3.006700	3.514300	-10.565000	25.760199	0.000315	20.921473
1464.427011	-2.995500	3.513300	-10.523000	25.724409	0.000313	20.905914
1465.424335	-3.009400	3.513100	-10.571000	25.703217	0.000313	20.914499
1466.427961	-2.988600	3.514200	-10.501000	25.707337	0.000313	20.931912
1467.424961	-3.010900	3.513000	-10.576000	25.733799	0.000311	20.923404
1468.424665	-2.991900	3.512400	-10.508000	25.775725	0.000311	20.936118
1469.428861	-2.988800	3.514400	-10.503000	25.809351	0.000312	20.932438
1470.424691	-3.014000	3.512200	-10.585000	25.820079	0.000312	20.918086
1471.425548	-2.996500	3.511600	-10.522000	25.851257	0.000310	20.945135
1472.424729	-3.017700	3.511900	-10.596000	25.847533	0.000311	20.921956
1473.424799	-3.014600	3.510400	-10.581000	25.830258	0.000312	20.933524
1474.426800	-3.008300	3.511200	-10.562000	25.852708	0.000312	20.957971
1475.426810	-3.006000	3.510500	-10.552000	25.876935	0.000312	20.924939
1476.429849	-3.017500	3.508800	-10.587000	25.840539	0.000310	20.931525
1477.427990	-3.012200	3.509300	-10.570000	25.827220	0.000309	20.920517
1478.426394	-3.030000	3.509800	-10.634000	25.762294	0.000308	20.935430
1479.427571	-3.016000	3.508700	-10.582000	25.711852	0.000309	20.937395
1480.428895	-3.007400	3.509400	-10.553000	25.682799	0.000307	20.945196
1481.428564	-3.011100	3.509700	-10.567000	25.663039	0.000305	20.947635
1482.430090	-2.998000	3.509200	-10.520000	25.716255	0.000309	20.941816
1483.430240	-3.008500	3.507500	-10.552000	25.781064	0.000306	20.949540
1484.429020	-3.013300	3.507900	-10.570000	25.775210	0.000307	20.931335
1485.428428	-2.997100	3.507200	-10.511000	25.788402	0.000306	20.942213
1486.431031	-2.999800	3.507700	-10.521000	25.828344	0.000308	20.952462
1487.433753	-2.982300	3.506700	-10.457000	25.893866	0.000307	20.966598
1488.438046	-2.981400	3.507400	-10.457000	25.872815	0.000304	20.947351
1489.432044	-2.988900	3.506400	-10.479000	25.848528	0.000304	20.943816
1490.432106	-2.995900	3.505600	-10.501000	25.844846	0.000304	20.952918
1491.435100	-3.003900	3.506100	-10.532000	25.802743	0.000306	20.949031
1492.434086	-2.995600	3.505600	-10.501000	25.807154	0.000304	20.944928
1493.435703	-3.003300	3.505500	-10.527000	25.811230	0.000304	20.943333
1494.432704	-3.030900	3.504300	-10.620000	25.818310	0.000303	20.943807
1495.435676	-3.024500	3.504600	-10.599000	25.792975	0.000304	20.959133
1496.433867	-3.001700	3.504200	-10.518000	25.841413	0.000304	20.958004
1497.432895	-2.993200	3.504100	-10.488000	25.812775	0.000302	20.960529
1498.433847	-2.992900	3.502900	-10.483000	25.790014	0.000302	20.945729
1499.433892	-3.000300	3.502600	-10.508000	25.771467	0.000302	20.970718
1500.434904	-2.980600	3.503100	-10.440000	25.814036	0.000301	20.944729
1501.437116	-2.994700	3.502400	-10.488000	25.760173	0.000302	20.972649
1502.433109	-3.010600	3.500800	-10.539000	25.802098	0.000300	20.977777
1503.437639	-2.997300	3.501700	-10.495000	25.829038	0.000301	20.955530
1504.433492	-2.992200	3.500200	-10.472000	25.845283	0.000300	20.961417
1505.433491	-2.978400	3.500400	-10.424000	25.834282	0.000300	20.959374
1506.435535	-2.994500	3.501300	-10.484000	25.864147	0.000300	20.957133
1507.437045	-2.998500	3.499800	-10.493000	25.881267	0.000299	20.951099
1508.434164	-2.990200	3.499200	-10.462000	25.843799	0.000298	20.982682
1509.437292	-2.989100	3.499000	-10.458000	25.822086	0.000299	20.959926
1510.435341	-2.976200	3.499400	-10.414000	25.820902	0.000300	20.979596
1511.434566	-2.976700	3.498600	-10.414000	25.818224	0.000298	20.971692
1512.438218	-2.989200	3.499200	-10.458000	25.776849	0.000299	20.971856
1513.434258	-2.991400	3.498100	-10.463000	25.799308	0.000297	20.972131
1514.439667	-2.999300	3.496200	-10.485000	25.818799	0.000299	20.974165
1515.436376	-2.974300	3.497300	-10.401000	25.862275	0.000298	20.987017
1516.436574	-3.009700	3.496100	-10.521000	25.876160	0.000298	20.977259
1517.434163	-3.007400	3.496100	-10.513000	25.893280	0.000296	20.992559
1518.443788	-3.002700	3.494600	-10.493000	25.809607	0.000298	20.991481
1519.438791	-2.996200	3.496900	-10.477000	25.835121	0.000295	20.969225
1520.436018	-3.015000	3.494500	-10.535000	25.853427	0.000296	20.968648
1521.437145	-2.984000	3.495900	-10.431000	25.850749	0.000296	20.996774
1522.440502	-2.993000	3.495900	-10.463000	25.876761	0.000295	20.984499
1523.449722	-3.009700	3.493400	-10.513000	25.874624	0.000294	20.968605
1524.439910	-2.998800	3.494500	-10.478000	25.804491	0.000294	20.982551
1525.443960	-3.017100	3.493300	-10.539000	25.829123	0.000297	20.984534
1526.439934	-2.989900	3.494900	-10.448000	25.859194	0.000295	20.984870
1527.438361	-2.999300	3.494100	-10.479000	25.836932	0.000293	20.986215
1528.440405	-2.990900	3.493400	-10.447000	25.831422	0.000294	20.978310
1529.445708	-3.009600	3.492100	-10.508000	25.853160	0.000295	20.982129
1530.441193	-2.992100	3.492600	-10.450000	25.852723	0.000291	20.999705
1531.439896	-3.002500	3.492200	-10.483000	25.875422	0.000292	21.012547
1532.443932	-3.001700	3.492400	-10.482000	25.914099	0.000293	20.998773
1533.440489	-2.983300	3.491600	-10.416000	25.953934	0.000291	20.996119
1534.438488	-2.984700	3.491500	-10.420000	25.944305	0.000292	21.029113
1535.442487	-3.000300	3.491100	-10.474000	25.934574	0.000290	21.018391
1536.441900	-3.000100	3.490100	-10.470000	25.877104	0.000292	20.994800
1537.444655	-2.993200	3.491100	-10.449000	25.818446	0.000289	20.998463
1538.440658	-2.999500	3.489700	-10.466000	25.828934	0.000290	21.010892
1539.441148	-2.986600	3.490200	-10.423000	25.828144	0.000290	21.002040
1540.442507	-2.983400	3.488900	-10.408000	25.820626	0.000291	21.007290
1541.443506	-2.990900	3.489800	-10.437000	25.882665	0.000290	20.993274
1542.442542	-2.990900	3.488800	-10.434000	25.876847	0.000289	21.001652
1543.441796	-2.994900	3.487900	-10.445000	25.886553	0.000289	20.991964
1544.442796	-2.998400	3.487000	-10.455000	25.907998	0.000288	20.989327
1545.444947	-3.019000	3.486100	-10.523000	25.831277	0.000286	20.997128
1546.442170	-3.009600	3.486200	-10.491000	25.848115	0.000286	20.979906
1547.444087	-3.011600	3.485400	-10.496000	25.819331	0.000286	21.003619
1548.445448	-3.008800	3.485700	-10.486000	25.839696	0.000287	20.979035
1549.443068	-2.997400	3.486900	-10.450000	25.817469	0.000288	21.001274
1550.445999	-3.001500	3.485300	-10.460000	25.868858	0.000286	20.975613
1551.454055	-3.009900	3.485400	-10.489000	25.911028	0.000287	20.994741
1552.443055	-3.012300	3.485800	-10.499000	25.898808	0.000284	21.000481
1553.442466	-3.014100	3.484700	-10.502000	25.877526	0.000286	20.964883
1554.443845	-3.011600	3.484000	-10.492000	25.839826	0.000285	20.977744
1555.446944	-3.015500	3.483300	-10.503000	25.827795	0.000284	20.992208
1556.445302	-2.988400	3.483800	-10.409000	25.847233	0.000285	20.967642
1557.445078	-3.007800	3.484000	-10.478000	25.832618	0.000284	20.978563
1558.446420	-3.002900	3.483200	-10.459000	25.851233	0.000284	20.967867
1559.449475	-3.001500	3.483400	-10.454000	25.826301	0.000282	20.959893
1560.445743	-2.996700	3.482800	-10.436000	25.833220	0.000282	20.954989
1561.450038	-2.987200	3.481700	-10.400000	25.835786	0.000281	20.936706
1562.445238	-3.005400	3.481300	-10.462000	25.901557	0.000285	20.961523
1563.447522	-3.022500	3.480800	-10.519000	25.957404	0.000285	20.957411
1564.445199	-2.979600	3.480700	-10.370000	25.899910	0.000283	20.958446
1565.447550	-2.983100	3.480800	-10.382000	25.869127	0.000283	20.962610
1566.446881	-2.974400	3.480000	-10.350000	25.877212	0.000282	20.978315
1567.450554	-3.002900	3.479100	-10.447000	25.881177	0.000282	20.975187
1568.449163	-2.998900	3.480600	-10.437000	25.856203	0.000282	20.942517
1569.446157	-3.011800	3.479700	-10.479000	25.783598	0.000280	20.953508
1570.447223	-3.021900	3.478600	-10.511000	25.771935	0.000282	20.953172
1571.449266	-2.974300	3.479900	-10.349000	25.776527	0.000279	20.954939
1572.448270	-3.003900	3.478300	-10.447000	25.773618	0.000280	20.966240
1573.447864	-2.988000	3.479200	-10.395000	25.848618	0.000280	20.941062
1574.448865	-3.005700	3.478200	-10.453000	25.887871	0.000281	20.954414
1575.447186	-2.986200	3.479200	-10.390000	25.896736	0.000277	20.957629
1576.449782	-3.002500	3.478000	-10.442000	25.882653	0.000279	20.943958
1577.448604	-3.003300	3.476100	-10.439000	25.881237	0.000278	20.943958
1578.453928	-3.017700	3.476000	-10.489000	25.902958	0.000278	20.948708
1579.449648	-3.000300	3.475800	-10.428000	25.901773	0.000279	20.947044
1580.450647	-3.022100	3.475300	-10.502000	25.911470	0.000280	20.940665
1581.450831	-2.997000	3.475500	-10.414000	25.934898	0.000277	20.953294
1582.452026	-3.003000	3.476500	-10.439000	25.940356	0.000276	20.959250
1583.456253	-2.999700	3.474900	-10.423000	25.936391	0.000278	20.952423
1584.452695	-3.006800	3.475700	-10.450000	25.959604	0.000278	20.957725
1585.452962	-2.995200	3.474400	-10.405000	25.973788	0.000278	20.927409
1586.454387	-3.012700	3.473400	-10.464000	26.003890	0.000277	20.932995
1587.453722	-3.002800	3.474300	-10.431000	25.951272	0.000276	20.922806
1588.455786	-3.008900	3.473800	-10.451000	25.939807	0.000277	20.947795
1589.452165	-3.014400	3.473200	-10.469000	25.967335	0.000275	20.941312
1590.454685	-3.015200	3.473200	-10.470000	25.953735	0.000276	20.927650
1591.453684	-2.961100	3.473100	-10.282000	25.974157	0.000273	20.946269
1592.455431	-2.965000	3.473200	-10.297000	25.974681	0.000275	20.917875
1593.456969	-2.986500	3.471600	-10.367000	25.957751	0.000275	20.937374
1594.456239	-2.971600	3.471800	-10.316000	25.925657	0.000276	20.935478
1595.455446	-2.975900	3.472000	-10.331000	25.971807	0.000274	20.931107
1596.457920	-2.987500	3.471500	-10.370000	25.991706	0.000275	20.911273
1597.455873	-3.010200	3.469400	-10.443000	25.993885	0.000274	20.907773
1598.459873	-3.009000	3.470800	-10.443000	25.987227	0.000273	20.918626
1599.455875	-2.992300	3.469300	-10.379000	25.989192	0.000273	20.936719
1600.455488	-3.006100	3.469800	-10.430000	25.992710	0.000272	20.915600
1601.459776	-2.976700	3.469600	-10.327000	25.952748	0.000271	20.918126
1602.457455	-2.974500	3.470500	-10.322000	25.908409	0.000271	20.937590
1603.459241	-2.991600	3.469900	-10.380000	25.870521	0.000274	20.936987
1604.460298	-2.985100	3.468600	-10.354000	25.899579	0.000270	20.935358
1605.460761	-2.991000	3.467600	-10.371000	25.922260	0.000269	20.929220
1606.458834	-2.985100	3.468400	-10.353000	25.890268	0.000270	20.912256
1607.459177	-2.995000	3.467100	-10.383000	25.850363	0.000269	20.939495
1608.461415	-2.989800	3.467500	-10.367000	25.847136	0.000269	20.920609
1609.462253	-3.012500	3.465100	-10.438000	25.903467	0.000268	20.921247
1610.459219	-2.971200	3.465600	-10.296000	25.927066	0.000269	20.907024
1611.460272	-2.984100	3.467000	-10.345000	25.954353	0.000270	20.906937
1612.464033	-2.985800	3.465800	-10.347000	25.922269	0.000270	20.907421
1613.473032	-2.989900	3.466100	-10.362000	25.957933	0.000267	20.921911
1614.464032	-2.995300	3.464500	-10.376000	25.952655	0.000268	20.938418
1615.463029	-2.973500	3.464900	-10.301000	25.960970	0.000266	20.932548
1616.462028	-2.987200	3.465900	-10.352000	25.933888	0.000268	20.907714
1617.463029	-2.991800	3.465000	-10.366000	25.937080	0.000269	20.912342
1618.464028	-2.980700	3.464800	-10.326000	25.915035	0.000268	20.930971
1619.468547	-2.998000	3.462800	-10.380000	25.880236	0.000265	20.906447
1620.469547	-3.004700	3.462800	-10.404000	25.884879	0.000267	20.916325
1621.465550	-2.982100	3.463600	-10.328000	25.888372	0.000265	20.911300
1622.466756	-3.001600	3.462600	-10.393000	25.922304	0.000266	20.920731
1623.468755	-3.002700	3.461600	-10.394000	25.890896	0.000264	20.931851
1624.467464	-2.988000	3.463000	-10.347000	25.914074	0.000265	20.914361
1625.471498	-2.987900	3.463200	-10.347000	25.946752	0.000263	20.915421
1626.468277	-3.027200	3.459900	-10.473000	25.949928	0.000265	20.910077
1627.470610	-3.006800	3.460400	-10.404000	25.970315	0.000265	20.908749
1628.472262	-3.013100	3.460600	-10.426000	25.935794	0.000263	20.906784
1629.470500	-3.014400	3.460000	-10.429000	25.934301	0.000262	20.907181
1630.475653	-2.996500	3.459700	-10.366000	25.919018	0.000264	20.897044
1631.471883	-2.996800	3.459600	-10.367000	25.950254	0.000262	20.904242
1632.471960	-2.987100	3.460500	-10.336000	25.948152	0.000262	20.929154
1633.472988	-2.992400	3.458800	-10.349000	25.949911	0.000262	20.919543
1634.471983	-2.992900	3.459500	-10.353000	25.991469	0.000261	20.906293
1635.471984	-2.998000	3.457200	-10.364000	26.016748	0.000262	20.914621
1636.474389	-3.015700	3.457300	-10.425000	26.020206	0.000259	20.932792
1637.472778	-2.992500	3.458600	-10.348000	26.023965	0.000260	20.912863
1638.472079	-3.010900	3.457000	-10.408000	25.999389	0.000259	20.906664
1639.476559	-3.000100	3.456600	-10.368000	25.968927	0.000259	20.909725
1640.472124	-3.013600	3.456100	-10.415000	25.914994	0.000258	20.903906
1641.475124	-3.008300	3.457100	-10.400000	25.923782	0.000260	20.921267
1642.475258	-3.014100	3.456200	-10.416000	25.922924	0.000260	20.923725
1643.479295	-3.007500	3.455300	-10.391000	25.909606	0.000256	20.915088
1644.475026	-3.023500	3.456400	-10.450000	25.902389	0.000257	20.911156
1645.473154	-3.011300	3.453800	-10.400000	25.942619	0.000259	20.907476
1646.476367	-3.009400	3.454200	-10.394000	25.991625	0.000259	20.919725
1647.473370	-3.026400	3.454200	-10.452000	26.005337	0.000258	20.908373
1648.474045	-3.008800	3.454700	-10.393000	26.019925	0.000257	20.915442
1649.476892	-2.986300	3.455100	-10.317000	25.981113	0.000259	20.905847
1650.473780	-2.993400	3.453300	-10.336000	25.925499	0.000256	20.908295
1651.474777	-3.010700	3.454100	-10.398000	25.973142	0.000255	20.909692
1652.473994	-3.013700	3.452400	-10.403000	25.920634	0.000256	20.886814
1653.479000	-3.010600	3.452000	-10.393000	25.926856	0.000255	20.895435
1654.475268	-3.006500	3.452400	-10.378000	25.932074	0.000253	20.883608
1655.475266	-3.014600	3.452100	-10.406000	25.869968	0.000255	20.921734
1656.475079	-3.008100	3.451000	-10.380000	25.892383	0.000256	20.910588
1657.476277	-3.006200	3.450600	-10.372000	25.943083	0.000255	20.891823
1658.477483	-3.003400	3.451800	-10.366000	25.937943	0.000254	20.896142
1659.477738	-3.016200	3.450800	-10.407000	25.948009	0.000251	20.901512
1660.476100	-3.008400	3.451200	-10.381000	25.947829	0.000254	20.899435
1661.478102	-3.036900	3.450400	-10.477000	25.906269	0.000254	20.892771
1662.479711	-3.002900	3.449600	-10.358000	25.903052	0.000254	20.898073
1663.476711	-3.038800	3.448900	-10.479000	25.945735	0.000251	20.903495
1664.476711	-3.015200	3.450000	-10.402000	25.925286	0.000255	20.900495
1665.480277	-3.002100	3.449300	-10.354000	25.941256	0.000252	20.902788
1666.481278	-3.003900	3.449500	-10.362000	25.895792	0.000251	20.911642
1667.483299	-2.977900	3.448900	-10.269000	25.930985	0.000253	20.893419
1668.480274	-3.001500	3.447200	-10.346000	25.897285	0.000250	20.894651
1669.487275	-2.985900	3.447400	-10.293000	25.906872	0.000251	20.892902
1670.482277	-2.993100	3.448500	-10.321000	25.924669	0.000250	20.887549
1671.480275	-2.994200	3.446000	-10.317000	25.884560	0.000252	20.899411
1672.482273	-2.999300	3.446100	-10.335000	25.901500	0.000250	20.901730
1673.481274	-3.006900	3.444900	-10.358000	25.861965	0.000250	20.896627
1674.482275	-2.991800	3.445600	-10.309000	25.836046	0.000251	20.900936
1675.480792	-2.979300	3.446200	-10.267000	25.821089	0.000249	20.879275
1676.484794	-2.997900	3.444900	-10.327000	25.861862	0.000249	20.911221
1677.481791	-2.992400	3.445200	-10.308000	25.914021	0.000249	20.886335
1678.486797	-2.992000	3.445700	-10.309000	25.908444	0.000249	20.894007
1679.482318	-2.989300	3.443600	-10.293000	25.926954	0.000249	20.868508
1680.484321	-2.974800	3.444400	-10.245000	25.937097	0.000247	20.891498
1681.484317	-2.993500	3.444100	-10.309000	25.920596	0.000249	20.908111
1682.484319	-2.974200	3.444600	-10.244000	25.955599	0.000248	20.874052
1683.484320	-3.003300	3.442200	-10.337000	25.970933	0.000248	20.881396
1684.490316	-3.009600	3.442700	-10.360000	25.924038	0.000245	20.885492
1685.485316	-2.996300	3.442600	-10.313000	25.935124	0.000247	20.913223
1686.496317	-2.987300	3.442100	-10.282000	25.959169	0.000246	20.907982
1687.491317	-3.014600	3.440900	-10.372000	25.942316	0.000244	20.877303
1688.486316	-3.005700	3.440300	-10.339000	25.907596	0.000246	20.882725
1689.491320	-3.013200	3.439800	-10.364000	25.882108	0.000243	20.906430
1690.487316	-2.972800	3.442400	-10.232000	25.925351	0.000243	20.897242
1691.488319	-3.002000	3.439700	-10.324000	25.962491	0.000244	20.896622
1692.488316	-3.009200	3.439400	-10.349000	25.943510	0.000242	20.882295
1693.489316	-3.009200	3.438600	-10.346000	25.979996	0.000243	20.879122
1694.491929	-3.020800	3.439100	-10.388000	25.982390	0.000243	20.886743
1695.489929	-3.009800	3.438600	-10.349000	26.001817	0.000245	20.881605
1696.499933	-3.006300	3.438200	-10.336000	25.994507	0.000242	20.864304
1697.491930	-3.022600	3.438000	-10.391000	26.002144	0.000242	20.905639
1698.491929	-2.958700	3.438100	-10.171000	26.004632	0.000242	20.883011
1699.491930	-3.007400	3.438100	-10.339000	25.988801	0.000243	20.881804
1700.493931	-3.007000	3.437300	-10.335000	25.994250	0.000242	20.888700
1701.493986	-3.001000	3.437000	-10.313000	25.946479	0.000240	20.882908
1702.494988	-2.985900	3.437200	-10.262000	25.924392	0.000239	20.873521
1703.495986	-2.999700	3.437500	-10.310000	25.916857	0.000240	20.883968
1704.494986	-2.984600	3.436500	-10.255000	25.929164	0.000242	20.881633
1705.497987	-2.987200	3.435600	-10.262000	25.868775	0.000240	20.870280
1706.496986	-2.994700	3.434800	-10.285000	25.873916	0.000240	20.892986
1707.495986	-3.030000	3.434600	-10.406000	25.934914	0.000240	20.878401
1708.497986	-3.007800	3.435200	-10.331000	25.936227	0.000239	20.854117
1709.497993	-2.995400	3.434900	-10.288000	25.962657	0.000238	20.876401
1710.498986	-3.003200	3.433700	-10.311000	25.941306	0.000238	20.898572
1711.498986	-3.014600	3.432700	-10.348000	25.937514	0.000238	20.877220
1712.495986	-3.012100	3.434500	-10.344000	25.975477	0.000238	20.867944
1713.495541	-2.954000	3.433100	-10.141000	25.962673	0.000238	20.866461
1714.495538	-3.003800	3.432600	-10.310000	25.994740	0.000236	20.877340
1715.496539	-2.996800	3.433500	-10.288000	25.990056	0.000236	20.858410
1716.498540	-2.998100	3.433000	-10.291000	25.968320	0.000236	20.882091
1717.497538	-3.006100	3.432200	-10.316000	25.947056	0.000237	20.850298
1718.500539	-3.011700	3.432000	-10.336000	25.970783	0.000236	20.877453
1719.497538	-3.012600	3.430900	-10.335000	25.955526	0.000236	20.880617
1720.497538	-3.026400	3.430400	-10.381000	25.936510	0.000234	20.869099
1721.499538	-3.006200	3.430100	-10.311000	25.947339	0.000235	20.877608
1722.504539	-2.997900	3.430500	-10.283000	26.004282	0.000235	20.876495
1723.499538	-3.013000	3.431200	-10.337000	26.017222	0.000236	20.889022
1724.500540	-2.985700	3.431500	-10.245000	26.066482	0.000235	20.857910
1725.501540	-2.993800	3.430700	-10.269000	26.063487	0.000234	20.843996
1726.502541	-2.992200	3.430000	-10.263000	26.026892	0.000234	20.860333
1727.501095	-2.992600	3.429400	-10.262000	26.015583	0.000234	20.857030
1728.500158	-2.986600	3.429000	-10.240000	26.024928	0.000231	20.872582
1729.500519	-2.978900	3.428900	-10.213000	26.003167	0.000234	20.858781
1730.500747	-2.995000	3.427200	-10.264000	26.007662	0.000231	20.876098
1731.504724	-2.957300	3.429200	-10.140000	26.034511	0.000232	20.869883
1732.504724	-2.996600	3.427000	-10.269000	26.003184	0.000231	20.856427
1733.502212	-2.997400	3.426900	-10.271000	25.955285	0.000231	20.861884
1734.504091	-3.002900	3.427500	-10.291000	25.937059	0.000232	20.858272
1735.505105	-3.011600	3.426300	-10.318000	25.935068	0.000232	20.872392
1736.504134	-3.002300	3.426900	-10.288000	25.895978	0.000232	20.843081
1737.513103	-3.016200	3.424700	-10.329000	25.920170	0.000228	20.855056
1738.504315	-3.015800	3.424900	-10.328000	25.977673	0.000229	20.845970
1739.504318	-3.014900	3.425400	-10.326000	25.989446	0.000230	20.873444
1740.507348	-3.014600	3.423500	-10.320000	26.015059	0.000231	20.863142
1741.504313	-3.005400	3.425100	-10.292000	25.977227	0.000230	20.860220
1742.508314	-3.013000	3.423100	-10.313000	25.968911	0.000226	20.868935
1743.505049	-3.009100	3.423800	-10.301000	26.003141	0.000230	20.860652
1744.505066	-3.013300	3.423200	-10.313000	25.999572	0.000228	20.844264
1745.505404	-2.980700	3.423700	-10.204000	25.981269	0.000227	20.854324
1746.506712	-2.989400	3.422800	-10.231000	25.988932	0.000227	20.855385
1747.505181	-3.004900	3.423500	-10.287000	25.997340	0.000227	20.860513
1748.509355	-3.023600	3.421500	-10.345000	25.987121	0.000227	20.864945
1749.506358	-2.997300	3.421200	-10.253000	25.980411	0.000228	20.846350
1750.507589	-2.997900	3.421800	-10.258000	26.000910	0.000229	20.843238
1751.512587	-3.013000	3.422100	-10.309000	25.938012	0.000226	20.842161
1752.516588	-3.021000	3.422000	-10.337000	25.924273	0.000225	20.853014
1753.511811	-3.026600	3.421700	-10.355000	25.947682	0.000226	20.854246
1754.514559	-3.020200	3.420100	-10.328000	25.987070	0.000224	20.847350
1755.512920	-2.975200	3.421500	-10.179000	26.023932	0.000224	20.838393
1756.511915	-3.026500	3.420100	-10.350000	26.045426	0.000226	20.859513
1757.511174	-3.003700	3.419300	-10.270000	26.022757	0.000225	20.853807
1758.512620	-2.997300	3.418400	-10.245000	26.027348	0.000225	20.869799
1759.513617	-3.001200	3.418200	-10.258000	25.969514	0.000224	20.859110
1760.514048	-2.983000	3.420100	-10.201000	25.974705	0.000223	20.852946
1761.514044	-2.986800	3.419300	-10.212000	25.928591	0.000223	20.833645
1762.514049	-2.981800	3.417700	-10.189000	25.983724	0.000223	20.842567
1763.513231	-2.994100	3.418000	-10.233000	25.990495	0.000222	20.850317
1764.514237	-2.987900	3.418900	-10.214000	26.002499	0.000224	20.842937
1765.517376	-2.997600	3.417800	-10.244000	26.028670	0.000223	20.844576
1766.517597	-3.020700	3.416600	-10.319000	26.032815	0.000222	20.839257
1767.518600	-2.984800	3.417500	-10.200000	26.002508	0.000223	20.834412
1768.515654	-2.999400	3.417100	-10.248000	26.063207	0.000222	20.842766
1769.518892	-2.993500	3.416300	-10.226000	26.042417	0.000220	20.828990
1770.515252	-2.982800	3.416500	-10.189000	26.048140	0.000220	20.837586
1771.516252	-2.986200	3.414900	-10.197000	26.044297	0.000219	20.827086
1772.518196	-2.998300	3.416400	-10.243000	26.058179	0.000222	20.844353
1773.516665	-2.991000	3.414700	-10.212000	26.086048	0.000219	20.815456
1774.520545	-2.983900	3.413500	-10.184000	26.044940	0.000219	20.843853
1775.516954	-2.987700	3.414900	-10.202000	26.023189	0.000219	20.834802
1776.518563	-2.994100	3.414100	-10.221000	26.028570	0.000219	20.840682
1777.518735	-3.002400	3.414200	-10.250000	26.008508	0.000219	20.823371
1778.519475	-2.994200	3.414300	-10.222000	26.000151	0.000215	20.825880
1779.518875	-3.000900	3.413600	-10.242000	26.000674	0.000217	20.833992
1780.522162	-2.991200	3.413400	-10.209000	25.995672	0.000217	20.825173
1781.517316	-2.984100	3.412400	-10.182000	25.982955	0.000219	20.846535
1782.519690	-3.000800	3.411400	-10.235000	25.972418	0.000218	20.824096
1783.520186	-3.015400	3.410200	-10.282000	25.992188	0.000215	20.825467
1784.519304	-3.011600	3.409700	-10.267000	25.957899	0.000216	20.808088
1785.519483	-3.005100	3.410400	-10.247000	25.960250	0.000217	20.813294
1786.520259	-2.996000	3.409900	-10.216000	25.964558	0.000214	20.819993
1787.519784	-3.002700	3.409000	-10.236000	25.966789	0.000215	20.816071
1788.518816	-2.982200	3.411700	-10.172000	25.941166	0.000216	20.804553
1789.522486	-3.001600	3.408900	-10.231000	25.974084	0.000215	20.826244
1790.518485	-2.973500	3.410000	-10.138000	25.937614	0.000213	20.810468
1791.521925	-2.983100	3.409700	-10.170000	25.929401	0.000213	20.794631
1792.522768	-2.968600	3.409600	-10.121000	25.936850	0.000213	20.823450
1793.521825	-2.992800	3.407200	-10.196000	25.951455	0.000214	20.812993
1794.525066	-3.000000	3.406800	-10.220000	26.015271	0.000213	20.822106
1795.524942	-3.000600	3.408700	-10.226000	26.006237	0.000213	20.817770
1796.523016	-3.003300	3.408300	-10.236000	26.025243	0.000211	20.802726
1797.550016	-3.008300	3.406000	-10.246000	26.073799	0.000212	20.794614
1798.526752	-2.989700	3.408100	-10.188000	26.107407	0.000214	20.819847
1799.524076	-2.994000	3.407200	-10.199000	26.105898	0.000214	20.824969
1800.525621	-2.982600	3.405900	-10.157000	26.058508	0.000212	20.802485
1801.524270	-3.002600	3.406200	-10.227000	26.066146	0.000212	20.807787
1802.526443	-3.012700	3.404900	-10.256000	26.078852	0.000211	20.792105
1803.527440	-3.017000	3.405600	-10.274000	26.118106	0.000211	20.817796
1804.525675	-2.993600	3.405900	-10.195000	26.033609	0.000213	20.806865
1805.530852	-3.000400	3.405500	-10.217000	26.085914	0.000209	20.786399
1806.529640	-3.000400	3.405400	-10.217000	26.052974	0.000211	20.800717
1807.528704	-3.008100	3.404100	-10.239000	26.072178	0.000208	20.793934
1808.525981	-2.990600	3.404400	-10.181000	26.091542	0.000210	20.801062
1809.525528	-3.016600	3.402900	-10.263000	26.124353	0.000212	20.815538
1810.525840	-3.004400	3.404100	-10.226000	26.119727	0.000209	20.788605
1811.528992	-2.994200	3.402400	-10.186000	26.119942	0.000207	20.809684
1812.526217	-2.990300	3.403200	-10.175000	26.108273	0.000208	20.789899
1813.527943	-2.986900	3.402200	-10.162000	26.123143	0.000208	20.784450
1814.528246	-2.984100	3.402600	-10.153000	26.139469	0.000207	20.785683
1815.526550	-2.991300	3.401800	-10.175000	26.159837	0.000205	20.791450
1816.529632	-2.993900	3.400500	-10.180000	26.124145	0.000206	20.800156
1817.526632	-2.985100	3.400800	-10.151000	26.077969	0.000207	20.783157
1818.527245	-2.975900	3.401800	-10.123000	26.094630	0.000206	20.791363
1819.527598	-2.988900	3.400700	-10.163000	26.102842	0.000205	20.792028
1820.526929	-3.008800	3.399700	-10.228000	26.077728	0.000205	20.798562
1821.528122	-2.995300	3.399900	-10.182000	26.103991	0.000205	20.769474
1822.527051	-2.974000	3.399700	-10.109000	26.082319	0.000205	20.796537
1823.527504	-2.982900	3.399900	-10.140000	26.104807	0.000204	20.794950
1824.527505	-2.999000	3.399200	-10.193000	26.097805	0.000205	20.816838
1825.528864	-3.021200	3.397800	-10.265000	26.068033	0.000207	20.781709
1826.529475	-3.015000	3.399100	-10.247000	26.018626	0.000205	20.786596
1827.532075	-3.003000	3.397500	-10.202000	26.004828	0.000203	20.768465
1828.531126	-3.013000	3.397700	-10.236000	25.998898	0.000204	20.794750
1829.531126	-2.999400	3.396800	-10.187000	25.983436	0.000202	20.792492
1830.533146	-2.983400	3.397700	-10.136000	25.995209	0.000204	20.777293
1831.530431	-3.009900	3.397000	-10.223000	26.008337	0.000202	20.775310
1832.534494	-2.996100	3.395800	-10.173000	26.003146	0.000204	20.772939
1833.531304	-2.996800	3.396500	-10.178000	26.026322	0.000201	20.781526
1834.534192	-2.995000	3.396300	-10.171000	26.034859	0.000203	20.782516
1835.533604	-2.999900	3.395100	-10.184000	26.025995	0.000201	20.778352
1836.534910	-3.029100	3.393700	-10.279000	26.021988	0.000201	20.770059
1837.537191	-3.020000	3.394100	-10.249000	26.008928	0.000202	20.780646
1838.541195	-3.034600	3.393800	-10.298000	25.944005	0.000201	20.776585
1839.535153	-2.993200	3.395400	-10.162000	25.927906	0.000202	20.804508
1840.534779	-2.985600	3.393000	-10.129000	25.993740	0.000201	20.772024
1841.537776	-2.994900	3.392500	-10.159000	26.021189	0.000201	20.772575
1842.536902	-3.009100	3.392100	-10.207000	26.085155	0.000201	20.759083
1843.539411	-3.002700	3.392900	-10.187000	26.115434	0.000199	20.784765
1844.539388	-3.015600	3.391900	-10.227000	26.104160	0.000199	20.780075
1845.541961	-2.993400	3.393100	-10.156000	26.067823	0.000197	20.785291
1846.540012	-3.003600	3.391800	-10.187000	26.098343	0.000200	20.794145
1847.542264	-2.995500	3.392200	-10.161000	26.055287	0.000199	20.776489
1848.541566	-2.980500	3.392100	-10.108000	26.061156	0.000195	20.777169
1849.540859	-3.025000	3.390200	-10.253000	26.065043	0.000196	20.773014
1850.541981	-2.968100	3.390000	-10.061000	26.102812	0.000198	20.780143
1851.545364	-2.977600	3.390700	-10.096000	26.134171	0.000196	20.788894
1852.542328	-3.010900	3.389500	-10.204000	26.144543	0.000198	20.778453
1853.546988	-2.983300	3.389800	-10.112000	26.201485	0.000195	20.762177
1854.543670	-2.996100	3.389800	-10.156000	26.201142	0.000196	20.793126
1855.543662	-2.985000	3.390100	-10.119000	26.226544	0.000197	20.767918
1856.547694	-3.008900	3.388700	-10.195000	26.220590	0.000195	20.766203
1857.544436	-3.006800	3.387300	-10.184000	26.175309	0.000196	20.799410
1858.548389	-2.977000	3.389100	-10.088000	26.164122	0.000195	20.778686
1859.544138	-3.017200	3.386900	-10.218000	26.109769	0.000195	20.778125
1860.544954	-3.000500	3.388500	-10.166000	26.118847	0.000194	20.770177
1861.545059	-2.991100	3.387400	-10.131000	26.061840	0.000193	20.763158
1862.544979	-3.010600	3.387100	-10.197000	26.100880	0.000196	20.781996
1863.547746	-2.992000	3.386700	-10.132000	26.142647	0.000194	20.765167
1864.545000	-3.027000	3.386600	-10.250000	26.164318	0.000193	20.795479
1865.545775	-2.992800	3.385000	-10.130000	26.170796	0.000194	20.755046
1866.549470	-2.982300	3.385900	-10.097000	26.203267	0.000194	20.772977
1867.546916	-2.988000	3.385000	-10.113000	26.207325	0.000192	20.780848
1868.547922	-2.977700	3.385700	-10.081000	26.211151	0.000191	20.767149
1869.550868	-2.987300	3.384700	-10.110000	26.214961	0.000192	20.782357
1870.547355	-2.997700	3.384400	-10.145000	26.230205	0.000191	20.779658
1871.547181	-2.995000	3.384700	-10.136000	26.237205	0.000192	20.776735
1872.548373	-2.991000	3.384200	-10.120000	26.262581	0.000189	20.807926
1873.548905	-3.005600	3.382700	-10.166000	26.292589	0.000191	20.793037
1874.555920	-2.999600	3.383100	-10.147000	26.243339	0.000190	20.781003
1875.548984	-3.020600	3.382400	-10.216000	26.254663	0.000189	20.795702
1876.549988	-2.974200	3.382500	-10.058000	26.197278	0.000190	20.788770
1877.548808	-2.997000	3.382700	-10.137000	26.207685	0.000188	20.777416
1878.551378	-2.995700	3.380700	-10.127000	26.177220	0.000190	20.774778
1879.550634	-2.993500	3.381300	-10.121000	26.205849	0.000188	20.767036
1880.552019	-3.012000	3.379800	-10.180000	26.245878	0.000187	20.790667
1881.555027	-2.973600	3.380500	-10.051000	26.234159	0.000187	20.783632
1882.551684	-3.008100	3.380600	-10.169000	26.192723	0.000189	20.797943
1883.555579	-3.008700	3.379300	-10.166000	26.163089	0.000187	20.779071
1884.551620	-3.010600	3.379200	-10.171000	26.104961	0.000187	20.789890
1885.555452	-2.983600	3.379800	-10.083000	26.119891	0.000190	20.795408
1886.553384	-3.007400	3.378600	-10.159000	26.106653	0.000188	20.801546
1887.552011	-2.992800	3.378300	-10.109000	26.092195	0.000185	20.779907
1888.551961	-2.980600	3.378500	-10.069000	26.046136	0.000186	20.790054
1889.553713	-2.981400	3.378400	-10.072000	26.040121	0.000184	20.796812
1890.556072	-2.991600	3.378600	-10.107000	26.097755	0.000185	20.804459
1891.561102	-2.991500	3.378000	-10.105000	26.099719	0.000185	20.773717
1892.555187	-3.002300	3.377700	-10.140000	26.139907	0.000185	20.797502
1893.570276	-2.996200	3.377300	-10.118000	26.170046	0.000184	20.791751
1894.556328	-2.978700	3.377500	-10.060000	26.203772	0.000185	20.787235
1895.556344	-2.999000	3.377500	-10.129000	26.157777	0.000184	20.778949
1896.557386	-2.998300	3.376300	-10.122000	26.161639	0.000183	20.779984
1897.558194	-2.986900	3.376900	-10.086000	26.153187	0.000184	20.799467
1898.556519	-2.976900	3.376000	-10.049000	26.159665	0.000181	20.791751
1899.558089	-2.992900	3.376000	-10.104000	26.166117	0.000183	20.784484
1900.557367	-2.990000	3.375500	-10.092000	26.173391	0.000184	20.778043
1901.561142	-2.995600	3.375000	-10.110000	26.129096	0.000182	20.791855
1902.557736	-2.980600	3.374800	-10.058000	26.157726	0.000180	20.800709
1903.558527	-2.985800	3.373600	-10.073000	26.132768	0.000182	20.825890
1904.557793	-2.973900	3.374800	-10.035000	26.156516	0.000181	20.811821
1905.558966	-2.981300	3.373000	-10.055000	26.174104	0.000179	20.800096
1906.563223	-3.000400	3.371900	-10.117000	26.214494	0.000181	20.782836
1907.563964	-2.999100	3.373300	-10.116000	26.240763	0.000181	20.801648
1908.558579	-2.979200	3.373800	-10.050000	26.262442	0.000179	20.788820
1909.566656	-2.992400	3.372400	-10.091000	26.284402	0.000181	20.816105
1910.559345	-2.981500	3.371900	-10.052000	26.282464	0.000180	20.804673
1911.558388	-2.991300	3.371500	-10.085000	26.195113	0.000177	20.802242
1912.562763	-2.981500	3.371100	-10.050000	26.200098	0.000177	20.795397
1913.559653	-2.992700	3.371200	-10.088000	26.231352	0.000180	20.815424
1914.559284	-2.992600	3.369800	-10.084000	26.222403	0.000178	20.801690
1915.558511	-3.003800	3.369500	-10.120000	26.262038	0.000178	20.793629
1916.558601	-3.006600	3.369000	-10.129000	26.313715	0.000177	20.799096
1917.561147	-2.982200	3.369700	-10.048000	26.297141	0.000178	20.796664
1918.560421	-3.005600	3.369000	-10.125000	26.290244	0.000180	20.812018
1919.562155	-3.004900	3.369400	-10.124000	26.264079	0.000177	20.818440
1920.558211	-3.001600	3.368000	-10.108000	26.289814	0.000178	20.800207
1921.559910	-2.986500	3.368000	-10.058000	26.303866	0.000178	20.814802
1922.561367	-2.968900	3.368300	-9.999100	26.316871	0.000175	20.810802
1923.561619	-3.004200	3.367200	-10.114000	26.369205	0.000175	20.815034
1924.560365	-3.005800	3.366600	-10.118000	26.348918	0.000176	20.830207
1925.560534	-3.007200	3.367200	-10.125000	26.352804	0.000175	20.806612
1926.560075	-2.995500	3.367000	-10.085000	26.323502	0.000173	20.810828
1927.563012	-2.990800	3.366000	-10.066000	26.292251	0.000172	20.805500
1928.559857	-2.999800	3.366200	-10.098000	26.298856	0.000173	20.813560
1929.560040	-2.971600	3.367800	-10.007000	26.257731	0.000174	20.807319
1930.560095	-3.006100	3.364800	-10.113000	26.225097	0.000174	20.812931
1931.561055	-2.993500	3.364600	-10.071000	26.246647	0.000172	20.826052
1932.563240	-2.994700	3.364900	-10.076000	26.271131	0.000171	20.812725
1933.565047	-3.004400	3.365400	-10.109000	26.248191	0.000171	20.805793
1934.562882	-2.990400	3.364200	-10.060000	26.211423	0.000174	20.818156
1935.563352	-2.993900	3.364400	-10.072000	26.158000	0.000172	20.816630
1936.565377	-3.010700	3.363900	-10.127000	26.126615	0.000172	20.819233
1937.564647	-2.977400	3.363400	-10.014000	26.126984	0.000170	20.815337
1938.566582	-3.011000	3.362200	-10.122000	26.177895	0.000172	20.822398
1939.563602	-3.002200	3.363500	-10.097000	26.158969	0.000170	20.814285
1940.563019	-2.997000	3.362700	-10.078000	26.138129	0.000171	20.822268
1941.565816	-3.014100	3.361200	-10.130000	26.172833	0.000169	20.830587
1942.563748	-3.000700	3.360700	-10.084000	26.123870	0.000170	20.817424
1943.565291	-2.999500	3.361600	-10.082000	26.130082	0.000169	20.821294
1944.565360	-2.999600	3.361400	-10.082000	26.138730	0.000168	20.822398
1945.565199	-3.011600	3.359400	-10.116000	26.168509	0.000168	20.824820
1946.564746	-2.992400	3.360100	-10.054000	26.208771	0.000170	20.820708
1947.564869	-2.990600	3.359900	-10.047000	26.203950	0.000167	20.828665
1948.565329	-3.002600	3.360600	-10.089000	26.177285	0.000169	20.828897
1949.568719	-2.991900	3.357900	-10.045000	26.188696	0.000167	20.843682
1950.564655	-3.006700	3.359000	-10.098000	26.197395	0.000168	20.839621
1951.566382	-2.979800	3.360600	-10.013000	26.226075	0.000167	20.834777
1952.568834	-3.009000	3.357400	-10.102000	26.226711	0.000169	20.824510
1953.569369	-2.993300	3.357700	-10.050000	26.258212	0.000165	20.823923
1954.571815	-3.008700	3.358300	-10.104000	26.303609	0.000165	20.818811
1955.568106	-2.985800	3.357300	-10.023000	26.252395	0.000166	20.832777
1956.569418	-3.017400	3.357200	-10.129000	26.258975	0.000163	20.822320
1957.570139	-2.997100	3.358100	-10.064000	26.322901	0.000168	20.838673
1958.569895	-2.998900	3.357900	-10.069000	26.277582	0.000166	20.832009
1959.572927	-3.006000	3.356200	-10.088000	26.251503	0.000164	20.852268
1960.574238	-3.020700	3.355300	-10.135000	26.224978	0.000166	20.865440
1961.573407	-3.006300	3.356800	-10.090000	26.185333	0.000165	20.807586
1962.575046	-2.976900	3.356600	-9.991900	26.203787	0.000167	20.849362
1963.574586	-3.011300	3.354700	-10.101000	26.263315	0.000164	20.840905
1964.574219	-2.998400	3.354800	-10.058000	26.304158	0.000162	20.843070
1965.579184	-2.992900	3.354400	-10.039000	26.316871	0.000164	20.856319
1966.575180	-3.014000	3.354400	-10.109000	26.343609	0.000166	20.843363
1967.577041	-3.013900	3.354400	-10.109000	26.381978	0.000161	20.858690
1968.577616	-3.005400	3.353900	-10.079000	26.420277	0.000162	20.846924
1969.578398	-3.021500	3.352000	-10.127000	26.396542	0.000162	20.823069
1970.581664	-2.984900	3.353100	-10.008000	26.379173	0.000162	20.849233
1971.578544	-2.986300	3.353500	-10.014000	26.415765	0.000163	20.837647
1972.579167	-3.006600	3.352200	-10.078000	26.416271	0.000161	20.851432
1973.581836	-3.033800	3.352000	-10.167000	26.442543	0.000160	20.873569
1974.581190	-2.992000	3.352100	-10.028000	26.412257	0.000159	20.851191
1975.586631	-3.010500	3.352800	-10.093000	26.418862	0.000161	20.845501
1976.585680	-3.001800	3.351100	-10.059000	26.427671	0.000161	20.860993
1977.582839	-2.997600	3.350800	-10.043000	26.401467	0.000159	20.854096
1978.582615	-3.031800	3.349300	-10.154000	26.398088	0.000158	20.860657
1979.587910	-3.017700	3.349700	-10.108000	26.390822	0.000158	20.831070
1980.583569	-3.022700	3.348100	-10.120000	26.387837	0.000158	20.860786
1981.587263	-3.011400	3.349900	-10.087000	26.426239	0.000156	20.847226
1982.584331	-3.010000	3.350200	-10.084000	26.428332	0.000159	20.861183
1983.584183	-3.009700	3.349400	-10.080000	26.450719	0.000158	20.846700
1984.587560	-2.998700	3.349300	-10.043000	26.420459	0.000157	20.849003
1985.588053	-3.009600	3.348300	-10.076000	26.436601	0.000157	20.851951
1986.586660	-3.007100	3.349100	-10.070000	26.451251	0.000159	20.866201
1987.584871	-3.004800	3.347400	-10.057000	26.452194	0.000157	20.876157
1988.586069	-3.018300	3.347500	-10.103000	26.449450	0.000155	20.847796
1989.585684	-2.999600	3.346800	-10.038000	26.439878	0.000155	20.868520
1990.585914	-3.005800	3.346600	-10.058000	26.419095	0.000154	20.845736
1991.585869	-3.016200	3.345100	-10.088000	26.436575	0.000155	20.859985
1992.590351	-2.994200	3.344400	-10.013000	26.413828	0.000154	20.859882
1993.587575	-3.006400	3.346300	-10.060000	26.373231	0.000156	20.881192
1994.587977	-3.000500	3.346100	-10.039000	26.392445	0.000155	20.859727
1995.593252	-3.013000	3.345900	-10.080000	26.400439	0.000153	20.898579
1996.588820	-3.006200	3.346200	-10.058000	26.431258	0.000152	20.884985
1997.592342	-3.014600	3.343600	-10.078000	26.448876	0.000153	20.876615
1998.588755	-2.967800	3.346200	-9.929200	26.432021	0.000152	20.868684
1999.589463	-2.992600	3.343600	-10.005000	26.412663	0.000155	20.875779
2000.590480	-3.003100	3.343800	-10.041000	26.420802	0.000153	20.870684
2001.589703	-2.993300	3.343000	-10.005000	26.375702	0.000155	20.879408
2002.589815	-3.002800	3.342400	-10.036000	26.361917	0.000152	20.862236
2003.594227	-3.013500	3.343100	-10.074000	26.358932	0.000153	20.864452
2004.591599	-2.979200	3.342800	-9.956700	26.385618	0.000152	20.883684
2005.591243	-2.996100	3.342300	-10.013000	26.445352	0.000151	20.903416
2006.591823	-3.008800	3.341200	-10.052000	26.449074	0.000149	20.895779
2007.592580	-3.002200	3.341200	-10.029000	26.462591	0.000149	20.862900
2008.593186	-2.994900	3.340700	-10.004000	26.426953	0.000151	20.879237
2009.592479	-3.016300	3.340100	-10.074000	26.383259	0.000152	20.856659
2010.591292	-3.006000	3.340100	-10.039000	26.437967	0.000149	20.878927
2011.593986	-3.009200	3.340600	-10.052000	26.430573	0.000150	20.882875
2012.593363	-2.999500	3.339600	-10.016000	26.432512	0.000149	20.882452
2013.598104	-2.989900	3.339700	-9.984800	26.431285	0.000148	20.896866
2014.594806	-2.988500	3.340100	-9.980500	26.404113	0.000149	20.898952
2015.594618	-2.986900	3.338700	-9.971000	26.415374	0.000149	20.869022
2016.595775	-3.021100	3.336500	-10.079000	26.436398	0.000147	20.888728
2017.595040	-2.999100	3.338000	-10.010000	26.420933	0.000148	20.891202
2018.601414	-2.987800	3.337600	-9.970900	26.429347	0.000149	20.888754
2019.596177	-3.009000	3.338000	-10.043000	26.379606	0.000146	20.891866
2020.595534	-3.013300	3.336800	-10.054000	26.392293	0.000148	20.870953
2021.598266	-2.986000	3.336100	-9.960600	26.381416	0.000147	20.924502
2022.596976	-3.000600	3.335600	-10.009000	26.392216	0.000148	20.889367
2023.598317	-2.992500	3.335500	-9.980800	26.439452	0.000145	20.898910
2024.600667	-2.977300	3.335800	-9.930500	26.476925	0.000145	20.902435
2025.597732	-3.000000	3.335500	-10.005000	26.544740	0.000145	20.889047
2026.599498	-3.009000	3.335600	-10.036000	26.511910	0.000147	20.902038
2027.601775	-3.008500	3.334900	-10.032000	26.438499	0.000143	20.904590
2028.599722	-3.008400	3.333900	-10.029000	26.436433	0.000146	20.899194
2029.603933	-3.003900	3.334000	-10.015000	26.404739	0.000142	20.913330
2030.600152	-3.003400	3.334000	-10.012000	26.407415	0.000144	20.911279
2031.600187	-2.965700	3.334800	-9.888800	26.391221	0.000144	20.913495
2032.599215	-3.010200	3.332000	-10.029000	26.414989	0.000143	20.898978
2033.600304	-3.011800	3.333200	-10.038000	26.439632	0.000140	20.886764
2034.599919	-3.015600	3.331100	-10.043000	26.472413	0.000142	20.910227
2035.600307	-2.992100	3.333800	-9.974200	26.487088	0.000141	20.889892
2036.600474	-2.995600	3.332700	-9.982400	26.515571	0.000141	20.902874
2037.603595	-3.001600	3.331400	-9.998600	26.524560	0.000142	20.917123
2038.600031	-3.012800	3.332500	-10.038000	26.527502	0.000140	20.895901
2039.601554	-3.016000	3.329900	-10.042000	26.477731	0.000140	20.912727
2040.600595	-2.983900	3.331700	-9.940000	26.469994	0.000140	20.918226
2041.602990	-3.001500	3.330100	-9.994200	26.465097	0.000141	20.912356
2042.599757	-3.009900	3.330700	-10.024000	26.520391	0.000138	20.925734
2043.602550	-2.992200	3.331100	-9.965800	26.523299	0.000138	20.910166
2044.601355	-2.981700	3.330000	-9.928200	26.516531	0.000139	20.925648
2045.604232	-2.985300	3.329400	-9.939100	26.542459	0.000139	20.927053
2046.600396	-3.002000	3.329200	-9.992700	26.532287	0.000139	20.912563
2047.601354	-2.999200	3.329500	-9.985100	26.517269	0.000139	20.909796
2048.601514	-2.994000	3.327900	-9.962700	26.537775	0.000140	20.932776
2049.603417	-3.002400	3.327800	-9.990600	26.496257	0.000138	20.911434
2050.605561	-2.988200	3.327800	-9.942600	26.534620	0.000138	20.928657
2051.607295	-2.986000	3.326800	-9.933100	26.492182	0.000137	20.930095
2052.603086	-3.010000	3.326200	-10.010000	26.518701	0.000134	20.902701
2053.604950	-3.011100	3.326200	-10.015000	26.544972	0.000139	20.928157
2054.607164	-2.993400	3.326800	-9.957100	26.564911	0.000137	20.909322
2055.604009	-2.997900	3.325600	-9.969100	26.558051	0.000138	20.917597
2056.607585	-2.990800	3.326400	-9.948300	26.533968	0.000134	20.916149
2057.604782	-2.994200	3.325700	-9.956900	26.599550	0.000136	20.929915
2058.606402	-2.995200	3.325900	-9.960600	26.562210	0.000133	20.916562
2059.608377	-2.987200	3.325800	-9.934000	26.605871	0.000134	20.939113
2060.607120	-3.005400	3.325400	-9.993700	26.628982	0.000134	20.927734
2061.610433	-2.991800	3.324400	-9.945100	26.618288	0.000135	20.942586
2062.607912	-2.998300	3.323200	-9.963300	26.651956	0.000135	20.936130
2063.608119	-2.991300	3.323100	-9.939500	26.701042	0.000135	20.945172
2064.608395	-3.012300	3.323000	-10.009000	26.745220	0.000135	20.944543
2065.608790	-2.980700	3.323900	-9.906900	26.721922	0.000133	20.948620
2066.608869	-3.008200	3.322600	-9.994100	26.680341	0.000131	20.945698
2067.612410	-2.978000	3.323100	-9.895600	26.688256	0.000132	20.938958
2068.609622	-3.005500	3.321100	-9.980600	26.628125	0.000131	20.945363
2069.610406	-3.012000	3.320600	-10.001000	26.621753	0.000131	20.929950
2070.610839	-3.008900	3.321300	-9.993100	26.587064	0.000133	20.932536
2071.610483	-3.004400	3.321700	-9.979400	26.549775	0.000130	20.956215
2072.613431	-2.996700	3.321100	-9.951400	26.572374	0.000128	20.948587
2073.611781	-3.010900	3.319800	-9.994700	26.591575	0.000130	20.964568
2074.612735	-2.991400	3.320000	-9.930200	26.559218	0.000131	20.950535
2075.612492	-3.004400	3.319400	-9.971800	26.599276	0.000128	20.963775
2076.614787	-3.007800	3.318600	-9.980300	26.644977	0.000130	20.952345
2077.615195	-2.992400	3.318900	-9.930200	26.727472	0.000128	20.941398
2078.613795	-3.007400	3.317800	-9.976400	26.752621	0.000128	20.970947
2079.617094	-3.002600	3.317600	-9.960800	26.714437	0.000130	20.955318
2080.613612	-3.011300	3.318000	-9.990000	26.628718	0.000130	20.951648
2081.614819	-2.991700	3.317100	-9.922700	26.624002	0.000127	20.949277
2082.615933	-3.019200	3.317800	-10.016000	26.676372	0.000127	20.947871
2083.615788	-2.985400	3.316900	-9.901300	26.716101	0.000127	20.967896
2084.616034	-3.006400	3.315800	-9.968100	26.709309	0.000129	20.954431
2085.616236	-3.005300	3.315900	-9.964600	26.680549	0.000125	20.967715
2086.615823	-3.008800	3.315800	-9.975500	26.723176	0.000128	20.972637
2087.615867	-2.995100	3.315100	-9.927500	26.776124	0.000127	20.969921
2088.618224	-3.005500	3.316400	-9.966600	26.827082	0.000128	20.984169
2089.615870	-3.022800	3.315100	-10.019000	26.807670	0.000126	20.969869
2090.616954	-2.992500	3.315000	-9.918200	26.796917	0.000125	20.965697
2091.616779	-2.998600	3.314900	-9.939500	26.748428	0.000124	20.963887
2092.617022	-3.019100	3.313800	-10.004000	26.803451	0.000126	20.966103
2093.620275	-3.020600	3.312900	-10.006000	26.865561	0.000126	20.974024
2094.621520	-3.013900	3.313000	-9.984400	26.868939	0.000125	20.959879
2095.619604	-3.013300	3.312700	-9.981800	26.814468	0.000125	20.964852
2096.620508	-2.998800	3.312400	-9.931800	26.814606	0.000125	20.950768
2097.622339	-3.014700	3.312500	-9.985200	26.796788	0.000125	20.972679
2098.623354	-2.980000	3.313400	-9.873000	26.792964	0.000122	20.966938
2099.623203	-3.002100	3.312300	-9.943300	26.767883	0.000124	20.968274
2100.622070	-2.989500	3.313300	-9.904100	26.761675	0.000124	20.978152
2101.620911	-2.995800	3.311100	-9.918500	26.791197	0.000124	20.980332
2102.622443	-2.972100	3.311700	-9.841200	26.763854	0.000122	20.968015
2103.627323	-2.996700	3.309700	-9.917500	26.792939	0.000120	20.976868
2104.625112	-2.976200	3.311900	-9.856300	26.789131	0.000124	20.999589
2105.623857	-2.983900	3.311400	-9.880400	26.830210	0.000121	20.983522
2106.623576	-2.986900	3.310500	-9.886500	26.865956	0.000120	20.980583
2107.625636	-3.011100	3.309400	-9.964400	26.872548	0.000120	20.983893
2108.622529	-3.010000	3.308700	-9.958600	26.846612	0.000119	20.997641
2109.632568	-3.019100	3.307700	-9.985700	26.875224	0.000120	20.978523
2110.625689	-2.987900	3.308400	-9.884300	26.929365	0.000118	20.988866
2111.625825	-2.977200	3.309300	-9.852000	26.862200	0.000120	20.985815
2112.631084	-2.970200	3.309500	-9.829500	26.817718	0.000119	20.963378
2113.625196	-2.976000	3.309000	-9.846600	26.868956	0.000119	20.988340
2114.627468	-3.004900	3.306800	-9.935500	26.857321	0.000118	20.975221
2115.629918	-2.987100	3.305700	-9.873500	26.886352	0.000120	20.963162
2116.626756	-2.999100	3.306000	-9.914400	26.853420	0.000119	20.976988
2117.627261	-2.993100	3.306700	-9.895300	26.825648	0.000120	20.967084
2118.631538	-3.006900	3.305000	-9.937200	26.877135	0.000118	20.975704
2119.629251	-2.997100	3.305800	-9.907000	26.875746	0.000118	20.961507
2120.634408	-3.017600	3.304500	-9.970900	26.864532	0.000115	20.974885
2121.628972	-2.997600	3.305400	-9.906600	26.922600	0.000116	20.966894
2122.630167	-2.974700	3.305200	-9.831300	26.952014	0.000119	20.947163
2123.629051	-2.999900	3.304900	-9.912900	26.906705	0.000117	20.947595
2124.631047	-3.017300	3.303000	-9.965300	26.920620	0.000117	20.958740
2125.631427	-2.961100	3.305100	-9.786100	26.890330	0.000116	20.955783
2126.631675	-3.007900	3.303400	-9.934600	26.947985	0.000115	20.970609
2127.631137	-2.988100	3.303400	-9.870200	26.956893	0.000116	20.942586
2128.631838	-3.016500	3.302600	-9.961900	27.014426	0.000115	20.962981
2129.632670	-2.990800	3.301700	-9.873300	27.010825	0.000113	20.965049
2130.632551	-2.992700	3.302400	-9.882500	27.007919	0.000114	20.949327
2131.635539	-3.004000	3.301900	-9.917700	26.967395	0.000114	20.958360
2132.633241	-2.994200	3.301400	-9.884100	26.965980	0.000113	20.973057
2133.632938	-2.966400	3.300800	-9.791000	26.990139	0.000112	20.959895
2134.633360	-2.974000	3.302000	-9.818900	27.016251	0.000113	20.967187
2135.633847	-3.004500	3.299200	-9.912300	27.026830	0.000114	20.952223
2136.635737	-2.988800	3.300600	-9.863300	27.036731	0.000113	20.939896
2137.634337	-2.986700	3.299900	-9.855400	27.048226	0.000112	20.956670
2138.634409	-3.017800	3.298800	-9.953900	26.986659	0.000113	20.948810
2139.634579	-2.987600	3.299300	-9.856400	27.002235	0.000112	20.946456
2140.635482	-2.991400	3.298100	-9.865200	26.960142	0.000112	20.943483
2141.637777	-2.973400	3.298000	-9.804500	26.926090	0.000111	20.927734
2142.639439	-2.981800	3.298300	-9.834200	26.953935	0.000112	20.949094
2143.637331	-3.002600	3.296100	-9.895900	26.952556	0.000108	20.939173
2144.635927	-2.990100	3.296900	-9.857700	26.921297	0.000111	20.937139
2145.637101	-3.018000	3.297400	-9.950600	26.912656	0.000110	20.943147
2146.636903	-3.011200	3.295700	-9.922900	26.838381	0.000109	20.941957
2147.638827	-3.000000	3.296100	-9.887200	26.839599	0.000106	20.944604
2148.636079	-2.995900	3.296100	-9.873300	26.891702	0.000112	20.940570
2149.636634	-3.017900	3.294800	-9.942200	26.879545	0.000108	20.932139
2150.636694	-3.003000	3.294100	-9.891700	26.876304	0.000107	20.933149
2151.635748	-2.989300	3.294900	-9.848100	26.910230	0.000107	20.931226
2152.639118	-3.021100	3.293000	-9.947400	26.906638	0.000106	20.927614
2153.636732	-2.999100	3.293400	-9.876600	26.893177	0.000107	20.922615
2154.636300	-2.984600	3.294100	-9.829800	26.944610	0.000106	20.936873
2155.637204	-2.984800	3.293000	-9.828000	26.969514	0.000107	20.932520
2156.636606	-2.994700	3.292200	-9.858100	26.924257	0.000105	20.937270
2157.637024	-2.975400	3.293600	-9.799100	26.880506	0.000108	20.926469
2158.640796	-3.013200	3.291700	-9.916900	26.964962	0.000106	20.931262
2159.638114	-3.012500	3.290900	-9.911900	26.985058	0.000104	20.930607
2160.639368	-3.014800	3.290800	-9.919900	26.956638	0.000105	20.903454
2161.640824	-3.004700	3.290900	-9.887100	26.906913	0.000102	20.906557
2162.637264	-2.974900	3.292100	-9.792800	26.861413	0.000106	20.910117
2163.642516	-2.990100	3.289300	-9.834600	26.883851	0.000105	20.915135
2164.640780	-3.019700	3.288700	-9.929300	26.884871	0.000103	20.916635
2165.641979	-2.990000	3.289900	-9.836200	26.948597	0.000104	20.912910
2166.641251	-2.980400	3.289200	-9.802300	26.961174	0.000103	20.911333
2167.642241	-2.994200	3.288600	-9.845700	26.955259	0.000105	20.908230
2168.643787	-2.986100	3.288900	-9.820100	26.925398	0.000101	20.916609
2169.645327	-2.976000	3.287500	-9.782700	26.958226	0.000102	20.909317
2170.643985	-2.979600	3.287500	-9.794800	27.021578	0.000101	20.898109
2171.644266	-2.977800	3.287600	-9.788500	27.042015	0.000104	20.904437
2172.643872	-2.997900	3.287200	-9.854200	27.039571	0.000104	20.917151
2173.644243	-3.006900	3.286800	-9.882400	26.993974	0.000101	20.907333
2174.643150	-3.009200	3.286800	-9.889300	27.013768	0.000103	20.920125
2175.644005	-2.995300	3.286700	-9.844100	27.003876	0.000102	20.907807
2176.645732	-2.987500	3.286400	-9.816900	27.001922	9.816570E-5	20.911058
2177.644998	-2.998800	3.285700	-9.852200	26.997884	9.948579E-5	20.916006
2178.646669	-3.011100	3.284400	-9.888900	26.954264	9.961780E-5	20.902489
2179.645694	-3.005100	3.285400	-9.871500	26.979598	9.829771E-5	20.914213
2180.646405	-3.014800	3.284100	-9.900200	26.986105	9.852872E-5	20.891361
2181.646050	-3.008200	3.283200	-9.875800	27.016916	9.935378E-5	20.903378
2182.645372	-3.012600	3.283500	-9.891300	27.047999	9.776967E-5	20.893861
2183.649191	-2.992100	3.283000	-9.821400	27.070460	9.846272E-5	20.909809
2184.649205	-3.007500	3.282600	-9.871800	27.032681	9.945279E-5	20.892206
2185.646832	-2.984800	3.281800	-9.794500	27.082237	9.829771E-5	20.889413
2186.646420	-2.967700	3.283400	-9.743200	27.115668	9.760466E-5	20.904543
2187.650490	-2.996800	3.280800	-9.831300	27.128860	9.760466E-5	20.908326
2188.646792	-2.999800	3.281200	-9.841800	27.167081	9.588853E-5	20.910732
2189.649163	-2.992200	3.281700	-9.818700	27.197431	9.691161E-5	20.904749
2190.648630	-3.010900	3.280300	-9.875600	27.204031	9.611955E-5	20.898586
2191.648796	-2.988800	3.280100	-9.803100	27.214848	9.555851E-5	20.909464
2192.647828	-3.001300	3.279500	-9.842000	27.170115	9.664759E-5	20.904301
2193.647826	-3.020100	3.278500	-9.899900	27.190841	9.413940E-5	20.898121
2194.650977	-2.998100	3.278300	-9.827400	27.199378	9.519548E-5	20.894854
2195.647227	-3.013900	3.279000	-9.881800	27.181326	9.357836E-5	20.887129
2196.649896	-3.013800	3.278000	-9.877600	27.207571	9.295132E-5	20.891242
2197.648830	-2.983500	3.277000	-9.775100	27.231193	9.466744E-5	20.908835
2198.650524	-3.018900	3.276100	-9.889800	27.278665	9.334735E-5	20.909171
2199.653198	-3.014600	3.276300	-9.875900	27.207331	9.598754E-5	20.907120
2200.649393	-2.992400	3.277400	-9.806700	27.148935	9.440342E-5	20.901965
2201.651707	-2.992000	3.275900	-9.800000	27.191492	9.331434E-5	20.881233
2202.654259	-3.007400	3.274300	-9.845900	27.234528	9.179623E-5	20.895595
2203.650699	-2.998800	3.276300	-9.824100	27.192108	9.140020E-5	20.887068
2204.654032	-2.997800	3.274700	-9.816100	27.184995	9.116919E-5	20.902672
2205.651374	-3.007800	3.273700	-9.845500	27.189872	9.133420E-5	20.885294
2206.652572	-2.970700	3.275300	-9.729700	27.218414	9.080616E-5	20.893612
2207.653187	-2.993400	3.273400	-9.797800	27.237930	9.179623E-5	20.892380
2208.653045	-2.994400	3.273100	-9.799600	27.266204	9.222526E-5	20.887629
2209.654512	-3.003300	3.272500	-9.827600	27.229590	9.153221E-5	20.886836
2210.653770	-2.995500	3.272000	-9.800500	27.169156	9.067415E-5	20.895750
2211.654324	-2.987200	3.271800	-9.772600	27.161715	8.833098E-5	20.899647
2212.654274	-2.997600	3.272200	-9.808700	27.149012	9.215926E-5	20.911051
2213.655562	-2.985000	3.272300	-9.766700	27.159179	8.809996E-5	20.898043
2214.656223	-2.996300	3.273100	-9.806500	27.182124	8.981609E-5	20.894570
2215.657636	-3.012300	3.271400	-9.853800	27.223377	9.163122E-5	20.906664
2216.657337	-2.991600	3.270000	-9.781800	27.257892	9.024512E-5	20.915776
2217.656473	-3.014300	3.270000	-9.855900	27.309272	8.922204E-5	20.894915
2218.659651	-2.997800	3.269900	-9.801700	27.302201	8.955207E-5	20.900130
2219.659908	-2.986300	3.269500	-9.762600	27.265065	8.942006E-5	20.895966
2220.661341	-3.007600	3.268900	-9.831100	27.179905	8.876001E-5	20.885226
2221.661182	-3.019400	3.267800	-9.866100	27.114873	8.714289E-5	20.890467
2222.660052	-3.009600	3.268300	-9.835300	27.162437	8.651585E-5	20.910802
2223.662748	-3.013900	3.268900	-9.851200	27.199637	8.555878E-5	20.905071
2224.661878	-3.015700	3.266900	-9.851100	27.302092	8.658185E-5	20.877262
2225.665801	-2.996100	3.265500	-9.783000	27.301252	8.770393E-5	20.892537
2226.660995	-2.985400	3.268000	-9.755400	27.290795	8.710989E-5	20.897191
2227.660782	-3.015500	3.265700	-9.846900	27.312144	8.562478E-5	20.874572
2228.662508	-2.994100	3.265400	-9.776000	27.316387	8.526176E-5	20.885477
2229.661423	-3.014400	3.265400	-9.842300	27.298981	8.552577E-5	20.884090
2230.662748	-2.998700	3.265500	-9.791900	27.282233	8.529476E-5	20.908018
2231.662657	-3.018400	3.263800	-9.850500	27.310996	8.588880E-5	20.873417
2232.663192	-2.991500	3.264300	-9.764000	27.328068	8.532776E-5	20.894382
2233.663714	-3.006000	3.264200	-9.811600	27.314039	8.592180E-5	20.899236
2234.663643	-2.991400	3.264900	-9.765700	27.337889	8.536076E-5	20.903313
2235.663240	-3.026700	3.261700	-9.871000	27.314184	8.338062E-5	20.894640
2236.667778	-3.003600	3.263800	-9.802700	27.294001	8.387565E-5	20.862013
2237.665851	-3.021900	3.261300	-9.854900	27.217585	8.083943E-5	20.876185
2238.670099	-2.995700	3.261100	-9.768400	27.277821	8.338062E-5	20.860909
2239.666846	-3.004400	3.262400	-9.800500	27.288371	8.245655E-5	20.875788
2240.665222	-2.979400	3.261800	-9.717700	27.300815	8.298459E-5	20.887357
2241.667769	-2.987300	3.262800	-9.745900	27.240950	8.443669E-5	20.878823
2242.667371	-3.022400	3.260600	-9.854500	27.293847	8.179650E-5	20.886986
2243.666924	-3.010700	3.260500	-9.815300	27.286331	8.301759E-5	20.875633
2244.667444	-3.003400	3.259700	-9.789600	27.270073	8.321561E-5	20.866867
2245.668807	-2.994300	3.259400	-9.759700	27.274187	8.318260E-5	20.893288
2246.671420	-3.022900	3.259100	-9.850600	27.288980	8.334762E-5	20.888728
2247.684923	-2.992600	3.260000	-9.755000	27.249152	8.054241E-5	20.869531
2248.670320	-3.011000	3.258900	-9.811300	27.277324	8.275357E-5	20.885064
2249.670293	-3.010200	3.258100	-9.806100	27.301630	8.281958E-5	20.854988
2250.669731	-3.020800	3.256000	-9.833600	27.330065	7.965135E-5	20.879323
2251.669703	-2.982200	3.258600	-9.717400	27.339534	7.928832E-5	20.865616
2252.671353	-2.994100	3.256000	-9.747700	27.326714	7.971735E-5	20.873108
2253.670055	-3.004900	3.255600	-9.781800	27.308700	7.928832E-5	20.862574
2254.670074	-3.002900	3.254400	-9.771800	27.280726	8.031139E-5	20.890382
2255.672549	-3.006500	3.256800	-9.790300	27.281781	7.727517E-5	20.881487
2256.671943	-3.003100	3.255100	-9.774600	27.290128	7.819924E-5	20.888460
2257.676582	-3.006800	3.253600	-9.781600	27.234668	7.879328E-5	20.891943
2258.672931	-2.989600	3.255100	-9.730600	27.307946	7.803423E-5	20.877936
2259.672081	-3.014700	3.252800	-9.805800	27.276535	8.070742E-5	20.864832
2260.673187	-2.986000	3.253700	-9.714700	27.290660	8.011338E-5	20.868608
2261.672755	-2.982900	3.252700	-9.701700	27.350891	7.767120E-5	20.875143
2262.673923	-3.009100	3.252300	-9.785500	27.327083	7.767120E-5	20.875849
2263.678963	-2.986100	3.252300	-9.710900	27.376497	7.915631E-5	20.869608
2264.674756	-2.991500	3.251700	-9.727100	27.377312	8.126846E-5	20.858574
2265.678062	-3.013500	3.250500	-9.793400	27.325832	7.925532E-5	20.857997
2266.674197	-3.008100	3.250000	-9.775400	27.295476	7.760520E-5	20.878668
2267.677163	-2.973900	3.251900	-9.670200	27.268797	7.760520E-5	20.861315
2268.676488	-3.017800	3.249000	-9.803800	27.256018	7.704415E-5	20.857471
2269.676106	-3.010400	3.248400	-9.777000	27.224306	7.866127E-5	20.863505
2270.675187	-2.976800	3.249900	-9.673400	27.262729	7.783621E-5	20.883660
2271.676928	-3.000600	3.247800	-9.744600	27.242537	7.618609E-5	20.883264
2272.677928	-2.992100	3.247400	-9.715300	27.254107	7.671413E-5	20.864083
2273.676946	-3.001500	3.248100	-9.748600	27.325457	7.618609E-5	20.876110
2274.676747	-3.002600	3.248500	-9.753200	27.315497	7.691214E-5	20.869885
2275.677034	-2.983200	3.247200	-9.686200	27.356360	7.668113E-5	20.869739
2276.677894	-2.978600	3.247500	-9.672100	27.437942	7.711016E-5	20.843705
2277.679187	-2.993600	3.245200	-9.714000	27.480522	7.668113E-5	20.870894
2278.678833	-2.986900	3.245800	-9.694000	27.438627	7.671413E-5	20.844869
2279.678180	-3.005700	3.245100	-9.752100	27.459768	7.460198E-5	20.845749
2280.678015	-2.995100	3.245400	-9.719200	27.407530	7.397493E-5	20.857206
2281.680378	-2.996000	3.244700	-9.720300	27.429631	7.605408E-5	20.871852
2282.678691	-3.016100	3.243200	-9.780700	27.371667	7.499800E-5	20.866646
2283.681219	-3.020200	3.243700	-9.795200	27.378128	7.446997E-5	20.847542
2284.677368	-2.988300	3.243300	-9.691100	27.425055	7.526202E-5	20.846862
2285.680287	-3.009500	3.243300	-9.760300	27.411567	7.598808E-5	20.848939
2286.679709	-2.994500	3.242000	-9.707000	27.420419	7.318287E-5	20.861637
2287.679784	-2.994400	3.243600	-9.712000	27.435167	7.334788E-5	20.867939
2288.681903	-2.995800	3.243600	-9.716200	27.343730	7.186278E-5	20.887852
2289.682615	-3.012800	3.241500	-9.764900	27.334809	7.314987E-5	20.842846
2290.680227	-2.996800	3.243900	-9.720500	27.396734	7.097171E-5	20.851086
2291.680165	-2.989200	3.240700	-9.686000	27.457267	7.153275E-5	20.830431
2292.682472	-2.997700	3.240200	-9.712500	27.498759	7.103771E-5	20.854631
2293.679363	-2.988800	3.240500	-9.684600	27.507053	7.034466E-5	20.830260
2294.682539	-2.984800	3.239200	-9.667600	27.530822	7.090571E-5	20.841846
2295.680555	-3.001900	3.238300	-9.720500	27.568035	7.179677E-5	20.872648
2296.680304	-2.978500	3.240100	-9.648600	27.563486	6.843052E-5	20.837252
2297.682266	-3.007500	3.238200	-9.738200	27.588590	6.942060E-5	20.851131
2298.680664	-2.987600	3.237800	-9.672700	27.536855	7.074069E-5	20.869725
2299.682196	-2.987600	3.238700	-9.675100	27.460937	6.790249E-5	20.843606
2300.686502	-2.998700	3.236700	-9.704700	27.412675	6.918958E-5	20.868545
2301.680175	-3.004400	3.236100	-9.721600	27.361002	6.902457E-5	20.847857
2302.680730	-3.003000	3.235500	-9.714400	27.375209	6.859554E-5	20.834175
2303.680842	-3.003600	3.234500	-9.714400	27.387079	6.833152E-5	20.851805
2304.681249	-3.007000	3.234700	-9.726200	27.415179	6.833152E-5	20.853046
2305.682991	-3.006900	3.233900	-9.724100	27.468000	6.968462E-5	20.860668
2306.681769	-2.996800	3.234000	-9.690700	27.521049	6.988263E-5	20.834858
2307.683156	-3.012800	3.233800	-9.742000	27.531014	6.575733E-5	20.839667
2308.684579	-3.023400	3.234000	-9.776500	27.468599	6.783648E-5	20.847047
2309.681277	-3.006400	3.231400	-9.714100	27.407278	6.681341E-5	20.848892
2310.683814	-3.010300	3.231800	-9.727700	27.425926	6.862854E-5	20.836358
2311.681979	-2.998200	3.232300	-9.690200	27.455900	6.928859E-5	20.840909
2312.681219	-3.014200	3.233000	-9.744000	27.550380	6.635137E-5	20.830229
2313.682734	-3.014800	3.230900	-9.740100	27.604419	6.836452E-5	20.823911
2314.683706	-3.009900	3.231500	-9.725900	27.660751	6.786948E-5	20.843608
2315.684693	-3.032100	3.229500	-9.791800	27.628888	6.727544E-5	20.845212
2316.683629	-2.996900	3.231100	-9.682800	27.639469	6.661539E-5	20.825514
2317.683127	-3.004700	3.229000	-9.701700	27.617373	6.734144E-5	20.837893
2318.682570	-2.998600	3.229400	-9.682600	27.627509	6.390919E-5	20.837661
2319.682504	-3.003300	3.229000	-9.696200	27.626644	6.506428E-5	20.853859
2320.684131	-3.010300	3.227700	-9.714400	27.604788	6.506428E-5	20.841351
2321.685012	-2.990700	3.228200	-9.654100	27.593718	6.407421E-5	20.832110
2322.687232	-3.035200	3.225200	-9.788200	27.620312	6.321614E-5	20.830894
2323.684279	-3.004700	3.225900	-9.691300	27.580360	6.618636E-5	20.838109
2324.686138	-2.999500	3.227400	-9.679500	27.589288	6.437123E-5	20.821962
2325.684234	-3.004700	3.226400	-9.693300	27.605361	6.153302E-5	20.811109
2326.690186	-2.988000	3.224900	-9.635500	27.662302	6.262210E-5	20.834738
2327.684711	-2.977000	3.226400	-9.604400	27.617674	6.427222E-5	20.848627
2328.685402	-2.995900	3.224400	-9.658800	27.642203	6.186304E-5	20.828739
2329.684452	-2.987800	3.224300	-9.633200	27.614709	6.156602E-5	20.810083
2330.685800	-2.997000	3.223900	-9.661100	27.627073	6.176404E-5	20.832480
2331.686132	-3.000900	3.223500	-9.672700	27.615180	6.282011E-5	20.832842
2332.689798	-3.026500	3.222100	-9.751200	27.578844	6.166503E-5	20.816669
2333.686151	-2.993500	3.222500	-9.646100	27.520459	6.166503E-5	20.809609
2334.690705	-3.006300	3.222400	-9.686400	27.532439	5.955287E-5	20.809808
2335.687000	-3.036400	3.220300	-9.777000	27.623877	6.255609E-5	20.826420
2336.688489	-3.014200	3.219400	-9.703300	27.651663	6.334815E-5	20.820714
2337.686777	-3.003700	3.221000	-9.674000	27.613888	5.942086E-5	20.809731
2338.687749	-3.004400	3.220700	-9.675500	27.547459	6.057595E-5	20.805480
2339.687197	-2.999800	3.219700	-9.657600	27.514557	5.885982E-5	20.831645
2340.687941	-2.981400	3.220300	-9.599400	27.523306	6.116999E-5	20.812473
2341.689273	-3.007100	3.218400	-9.676200	27.523065	6.024592E-5	20.815550
2342.689049	-2.992700	3.218600	-9.630600	27.507436	6.004791E-5	20.809783
2343.687900	-3.005000	3.217700	-9.668700	27.445123	5.948687E-5	20.814421
2344.689109	-3.016800	3.216300	-9.702000	27.483795	5.935486E-5	20.806860
2345.689039	-3.010400	3.217200	-9.684400	27.534350	5.951987E-5	20.806041
2346.691113	-2.990800	3.216300	-9.618400	27.538146	5.836479E-5	20.807489
2347.692115	-2.980400	3.217600	-9.589600	27.535421	6.047694E-5	20.806644
2348.690607	-3.001100	3.217200	-9.653500	27.532379	6.014692E-5	20.829661
2349.690381	-2.981300	3.215100	-9.584800	27.547177	6.031193E-5	20.810412
2350.692532	-2.996300	3.213600	-9.628700	27.595372	5.925585E-5	20.804851
2351.695894	-3.008200	3.214200	-9.668100	27.533673	5.938786E-5	20.810576
2352.696995	-2.991100	3.215400	-9.616600	27.583258	5.816677E-5	20.811153
2353.696493	-3.007000	3.211000	-9.654500	27.585031	5.796876E-5	20.815308
2354.692779	-3.007800	3.213400	-9.664700	27.588724	5.628563E-5	20.802903
2355.693586	-3.029800	3.212300	-9.732100	27.599588	5.843079E-5	20.799135
2356.693644	-3.013300	3.213300	-9.681600	27.650883	5.819977E-5	20.798593
2357.696295	-2.995600	3.210700	-9.617100	27.755898	5.757273E-5	20.808489
2358.698195	-2.984400	3.211100	-9.581900	27.756927	5.714370E-5	20.796722
2359.694724	-3.000300	3.210800	-9.633000	27.762888	5.796876E-5	20.825481
2360.694116	-2.999200	3.211700	-9.631400	27.743580	5.717670E-5	20.789455
2361.697279	-2.992800	3.209700	-9.604400	27.754802	5.727571E-5	20.801696
2362.694395	-2.992400	3.210700	-9.606800	27.748420	5.846379E-5	20.797645
2363.698032	-2.984000	3.208000	-9.571500	27.709200	5.800176E-5	20.798955
2364.697837	-2.995000	3.209300	-9.611100	27.720364	5.915684E-5	20.804973
2365.694823	-2.996800	3.208200	-9.612600	27.749260	5.595561E-5	20.801335
2366.696595	-3.007800	3.206200	-9.642300	27.785334	5.572459E-5	20.798758
2367.697753	-3.036600	3.206000	-9.734500	27.749311	5.592261E-5	20.790007
2368.698770	-3.007000	3.206600	-9.641000	27.730224	5.654965E-5	20.794981
2369.696412	-3.006000	3.206000	-9.635400	27.679387	5.615362E-5	20.798826
2370.697251	-3.020200	3.204500	-9.677200	27.606614	5.420648E-5	20.791507
2371.699493	-3.008100	3.204000	-9.637100	27.582469	5.341442E-5	20.797558
2372.696679	-3.010500	3.202900	-9.641600	27.568581	5.480053E-5	20.787852
2373.698537	-3.003900	3.204100	-9.623900	27.550844	5.456951E-5	20.798455
2374.700365	-3.027200	3.202500	-9.693400	27.599126	5.387646E-5	20.793929
2375.698087	-3.011700	3.202500	-9.643700	27.608627	5.450350E-5	20.804438
2376.698185	-3.020900	3.202400	-9.673700	27.611147	5.503154E-5	20.801757
2377.703582	-2.981500	3.200900	-9.542500	27.644072	5.687968E-5	20.814498
2378.699440	-2.991700	3.200400	-9.573400	27.656349	5.377745E-5	20.785601
2379.701962	-3.005200	3.200600	-9.617600	27.681656	5.206132E-5	20.792100
2380.699890	-2.997600	3.199000	-9.589100	27.673630	5.437149E-5	20.800145
2381.700264	-2.994100	3.198900	-9.577000	27.710511	5.308440E-5	20.800748
2382.700307	-2.997300	3.198400	-9.585200	27.725512	5.143428E-5	20.803515
2383.700957	-2.994800	3.198100	-9.576800	27.787757	5.232534E-5	20.806412
2384.703684	-3.015300	3.197000	-9.638200	27.806414	5.090624E-5	20.795790
2385.702154	-3.028800	3.196200	-9.679600	27.837458	5.179731E-5	20.791946
2386.701573	-3.004600	3.197400	-9.605400	27.796837	5.186331E-5	20.788523
2387.702445	-3.009400	3.196500	-9.619100	27.718778	5.239135E-5	20.787730
2388.701379	-2.976000	3.198300	-9.517300	27.684115	4.922312E-5	20.800739
2389.701555	-2.975000	3.195900	-9.507200	27.677381	4.928912E-5	20.788272
2390.703657	-3.004100	3.194600	-9.596700	27.680371	5.156629E-5	20.790807
2391.702396	-2.986000	3.193800	-9.535600	27.768353	4.985016E-5	20.774557
2392.703523	-3.014800	3.195100	-9.632000	27.755863	5.117026E-5	20.786643
2393.704376	-3.024200	3.192200	-9.653100	27.681621	4.919011E-5	20.792539
2394.702760	-2.985700	3.192600	-9.530400	27.651378	4.846406E-5	20.786763
2395.706999	-2.991600	3.192000	-9.548700	27.713002	4.955314E-5	20.792349
2396.702699	-2.977600	3.192900	-9.506100	27.761225	4.952014E-5	20.796307
2397.703233	-3.013400	3.190600	-9.613500	27.801966	5.027919E-5	20.797004
2398.704082	-2.998600	3.189600	-9.564000	27.810876	5.037820E-5	20.781314
2399.707161	-2.994700	3.190100	-9.553100	27.774726	4.810103E-5	20.795194
2400.705180	-2.983400	3.191000	-9.519000	27.770373	4.922312E-5	20.802668
2401.706459	-3.010200	3.188700	-9.597200	27.830705	4.892610E-5	20.797952
2402.704832	-2.999900	3.189100	-9.566700	27.779787	4.952014E-5	20.772312
2403.708033	-2.988000	3.188900	-9.527200	27.786623	4.905810E-5	20.809064
2404.706119	-2.979900	3.187800	-9.498500	27.778082	4.886009E-5	20.791934
2405.706514	-2.992400	3.186600	-9.534000	27.766338	4.849706E-5	20.798133
2406.709119	-3.002100	3.185900	-9.563100	27.816690	4.724297E-5	20.804710
2407.706755	-2.982500	3.186000	-9.500800	27.866159	4.734198E-5	20.787166
2408.706520	-2.989500	3.185900	-9.523500	27.883846	4.843106E-5	20.791692
2409.709508	-2.998800	3.185000	-9.550900	27.890022	4.965215E-5	20.777519
2410.706011	-2.994900	3.184800	-9.535700	27.903393	4.483379E-5	20.792398
2411.707060	-3.009000	3.184000	-9.579900	27.881020	4.793602E-5	20.786476
2412.712878	-3.007400	3.181200	-9.566500	27.819328	4.529583E-5	20.815899
2413.711556	-3.000600	3.182800	-9.549600	27.775889	4.605488E-5	20.808219
2414.708795	-3.012100	3.180400	-9.578800	27.751774	4.539484E-5	20.813348
2415.712485	-3.028000	3.179500	-9.626800	27.748004	4.463578E-5	20.794382
2416.708838	-3.002500	3.179800	-9.546600	27.796748	4.691295E-5	20.793650
2417.709251	-3.010300	3.178200	-9.565900	27.831587	4.526283E-5	20.796943
2418.712639	-3.005300	3.179600	-9.554700	27.851666	4.549384E-5	20.792495
2419.709608	-2.996000	3.181000	-9.529600	27.911154	4.671493E-5	20.822021
2420.712174	-3.012800	3.178100	-9.574500	27.935959	4.536183E-5	20.807158
2421.714610	-3.004600	3.176600	-9.543800	27.880952	4.526283E-5	20.824814
2422.707716	-3.005700	3.176600	-9.547000	27.830568	4.697895E-5	20.783115
2423.715592	-2.978300	3.176000	-9.458000	27.821898	4.509781E-5	20.802365
2424.713490	-2.987400	3.176500	-9.488900	27.800681	4.354670E-5	20.799030
2425.708803	-2.989300	3.175400	-9.490700	27.788319	4.562585E-5	20.812667
2426.708995	-2.986000	3.174200	-9.477000	27.827270	4.351370E-5	20.812986
2427.715033	-3.009200	3.173500	-9.548600	27.857627	4.503181E-5	20.800391
2428.709741	-2.998500	3.172800	-9.512100	27.850810	4.331568E-5	20.793056
2429.714184	-3.005400	3.173700	-9.537500	27.875565	4.387672E-5	20.801375
2430.715074	-2.999100	3.172400	-9.513500	27.871341	4.414074E-5	20.804710
2431.710529	-2.983700	3.171900	-9.463400	27.863505	4.400873E-5	20.806780
2432.713142	-3.031100	3.169500	-9.605800	27.905398	4.338169E-5	20.810538
2433.713222	-2.996700	3.168700	-9.494800	27.916182	4.357970E-5	20.810012
2434.712604	-2.992900	3.169800	-9.485700	27.961980	4.301866E-5	20.813909
2435.715635	-3.000500	3.169200	-9.508700	27.924653	4.232561E-5	20.809055
2436.723674	-2.992500	3.167800	-9.479300	27.926469	4.186358E-5	20.800926
2437.713405	-2.975500	3.170000	-9.430900	27.922803	4.054348E-5	20.792495
2438.716036	-2.994200	3.167100	-9.481900	27.868960	4.321668E-5	20.808951
2439.718917	-2.994800	3.166600	-9.482300	27.879994	4.054348E-5	20.797297
2440.716478	-2.997900	3.164500	-9.486100	27.898460	4.169856E-5	20.816831
2441.716879	-2.971400	3.166400	-9.407800	27.950674	4.242462E-5	20.807271
2442.715979	-3.020400	3.163400	-9.553000	27.964550	4.364571E-5	20.815073
2443.715190	-3.032900	3.162100	-9.589400	27.977919	4.120353E-5	20.793917
2444.718660	-2.995500	3.162800	-9.473400	27.982588	4.130254E-5	20.811893
2445.724348	-2.988400	3.161700	-9.448000	28.003632	3.905837E-5	20.814109
2446.717308	-2.997900	3.162100	-9.479000	28.020657	3.912438E-5	20.801849
2447.717736	-2.957900	3.162400	-9.353700	28.055155	4.245762E-5	20.824246
2448.718552	-2.989900	3.159000	-9.444300	28.022474	3.988343E-5	20.806522
2449.719754	-2.993400	3.160200	-9.457700	27.926556	4.097251E-5	20.812393
2450.724295	-2.999600	3.157400	-9.469800	27.950495	3.938840E-5	20.804719
2451.718855	-2.986600	3.158300	-9.431000	27.945921	4.080750E-5	20.831884
2452.720279	-2.994800	3.157200	-9.454100	27.973741	3.889336E-5	20.809151
2453.719822	-2.973200	3.157100	-9.386000	27.960259	3.985043E-5	20.819763
2454.718279	-3.000000	3.156500	-9.468600	27.994134	3.945440E-5	20.809764
2455.721437	-3.000300	3.154300	-9.463100	28.058821	3.909137E-5	20.814660
2456.719345	-3.003700	3.154000	-9.472900	28.101162	3.994944E-5	20.820298
2457.719316	-2.987800	3.153400	-9.421200	28.159643	3.757326E-5	20.830333
2458.718984	-2.995800	3.153200	-9.445800	28.175323	3.994944E-5	20.819092
2459.722631	-2.996700	3.152200	-9.445500	28.184793	3.849733E-5	20.812505
2460.719497	-3.017400	3.151400	-9.507400	28.183954	3.734225E-5	20.830152
2461.722414	-3.047700	3.149800	-9.598900	28.107054	3.882735E-5	20.838083
2462.735917	-3.030700	3.149900	-9.545800	28.125080	3.760626E-5	20.818298
2463.722217	-2.999700	3.148200	-9.442100	28.142071	3.783728E-5	20.836825
2464.723568	-3.002400	3.149000	-9.453400	28.154548	3.803530E-5	20.817618
2465.723226	-2.990600	3.148300	-9.414100	28.084788	3.664919E-5	20.820885
2466.725269	-2.991900	3.146700	-9.413700	28.021250	3.876135E-5	20.834213
2467.722844	-3.001800	3.146000	-9.442500	27.953734	3.602215E-5	20.838799
2468.724179	-2.987700	3.145600	-9.397300	27.969510	3.701222E-5	20.834764
2469.725127	-2.991800	3.144800	-9.407100	27.975618	3.536210E-5	20.821946
2470.726477	-2.998600	3.145300	-9.430900	28.030792	3.589014E-5	20.826274
2471.726190	-2.996300	3.142700	-9.415900	28.070933	3.648418E-5	20.840602
2472.725935	-2.980900	3.142300	-9.366000	28.080875	3.523009E-5	20.835438
2473.724961	-3.017600	3.142500	-9.481900	28.094253	3.559312E-5	20.827094
2474.725255	-2.981400	3.141400	-9.365200	28.102363	3.612116E-5	20.820085
2475.724716	-3.005700	3.139600	-9.435800	28.107544	3.516409E-5	20.841421
2476.730415	-3.008700	3.139500	-9.444400	28.083496	3.688021E-5	20.814369
2477.726268	-2.999400	3.138800	-9.413100	28.041799	3.328295E-5	20.828819
2478.731767	-2.999200	3.137400	-9.408900	28.067328	3.404200E-5	20.824645
2479.728620	-3.014000	3.134900	-9.448100	28.093791	3.440503E-5	20.818094
2480.726535	-3.016300	3.135400	-9.456100	28.106585	3.496607E-5	20.854206
2481.728822	-2.997500	3.134400	-9.395000	28.043597	3.476806E-5	20.839163
2482.730125	-2.996100	3.134400	-9.389900	28.095256	3.447103E-5	20.845646
2483.730492	-3.010800	3.133300	-9.433100	28.143916	3.503208E-5	20.836785
2484.728486	-3.011600	3.131700	-9.430300	28.124775	3.526309E-5	20.855922
2485.732400	-2.985800	3.130800	-9.347200	28.089895	3.331595E-5	20.839302
2486.729193	-2.989800	3.130400	-9.358100	28.119072	3.509808E-5	20.852552
2487.730310	-3.014100	3.129500	-9.431500	28.117531	3.331595E-5	20.855741
2488.731129	-2.982600	3.130100	-9.334800	28.155262	3.371198E-5	20.839198
2489.730079	-2.995400	3.128200	-9.369100	28.164313	3.331595E-5	20.849733
2490.734770	-3.012400	3.126900	-9.418700	28.176465	3.539510E-5	20.850113
2491.729847	-3.008600	3.127200	-9.407100	28.250217	3.377798E-5	20.835225
2492.729772	-2.999100	3.126300	-9.374900	28.290119	3.357997E-5	20.847897
2493.729770	-2.994500	3.124800	-9.356300	28.330163	3.321694E-5	20.830370
2494.729644	-3.000200	3.124400	-9.372900	28.350319	3.097278E-5	20.842130
2495.729874	-3.007500	3.123400	-9.391800	28.317279	3.262290E-5	20.836837
2496.732004	-2.991500	3.122500	-9.340300	28.267335	3.252389E-5	20.848665
2497.730531	-3.008900	3.120900	-9.389700	28.172201	3.136881E-5	20.849613
2498.731707	-2.987400	3.120600	-9.321300	28.128107	3.189685E-5	20.837466
2499.731350	-2.999500	3.120000	-9.357600	28.127287	3.110479E-5	20.851338
2500.731688	-2.996000	3.118100	-9.340400	28.140045	3.143481E-5	20.855173
2501.733289	-2.995000	3.116600	-9.333500	28.088629	3.176484E-5	20.849881
2502.732460	-2.992100	3.117800	-9.327600	28.087610	2.952067E-5	20.859286
2503.734864	-2.988800	3.116900	-9.315400	28.127543	3.186384E-5	20.856338
2504.733355	-2.976900	3.114300	-9.269900	28.143788	3.100578E-5	20.853251
2505.732765	-2.967800	3.114700	-9.243200	28.147616	3.212786E-5	20.856157
2506.734773	-3.017900	3.111600	-9.388700	28.197104	3.060975E-5	20.858563
2507.732921	-3.021900	3.111300	-9.401400	28.180217	3.169883E-5	20.853890
2508.733323	-2.993200	3.112100	-9.314600	28.192523	2.978469E-5	20.858692
2509.735953	-3.001500	3.110000	-9.333000	28.185638	3.153382E-5	20.861717
2510.736563	-3.011100	3.109700	-9.363100	28.222511	2.876162E-5	20.871338
2511.734148	-2.989600	3.108600	-9.291800	28.200606	2.919065E-5	20.883898
2512.739237	-2.998700	3.107000	-9.315400	28.268792	2.988370E-5	20.863882
2513.738611	-2.999300	3.106700	-9.317200	28.261171	2.981769E-5	20.870432
2514.736367	-3.004200	3.105800	-9.329700	28.236143	2.988370E-5	20.846658
2515.738102	-3.015800	3.103300	-9.357700	28.231142	3.140181E-5	20.851106
2516.736476	-3.008900	3.103100	-9.335200	28.232084	3.153382E-5	20.876235
2517.735532	-3.001800	3.103000	-9.313700	28.161935	3.031273E-5	20.852554
2518.737322	-2.998000	3.102200	-9.299300	28.193190	2.981769E-5	20.864579
2519.735720	-2.991100	3.101400	-9.276000	28.220489	2.971869E-5	20.887320
2520.736437	-2.990200	3.100700	-9.270900	28.274280	2.994970E-5	20.862295
2521.738807	-2.984200	3.100100	-9.250500	28.309068	2.994970E-5	20.868397
2522.742012	-2.996600	3.097800	-9.282500	28.321731	2.961968E-5	20.864553
2523.736104	-2.983800	3.097500	-9.241100	28.361425	3.021372E-5	20.880337
2524.736430	-2.990900	3.096100	-9.258200	28.372297	2.945467E-5	20.867578
2525.737362	-3.007300	3.095600	-9.308700	28.369164	2.820057E-5	20.886233
2526.741123	-2.991800	3.093700	-9.255100	28.360387	2.909164E-5	20.860328
2527.736279	-3.016300	3.092400	-9.326900	28.419539	2.988370E-5	20.899973
2528.736087	-2.994700	3.091800	-9.258500	28.431397	2.981769E-5	20.876828
2529.737062	-3.019800	3.090600	-9.332300	28.469956	3.047774E-5	20.887681
2530.736705	-3.023400	3.090100	-9.342100	28.392331	2.783755E-5	20.900076
2531.738805	-2.987400	3.089200	-9.228000	28.295924	2.777154E-5	20.864647
2532.740094	-2.992100	3.088900	-9.241100	28.317509	2.763953E-5	20.885430
2533.740288	-2.980700	3.085700	-9.196700	28.335241	2.909164E-5	20.878154
2534.741646	-2.999000	3.085100	-9.252100	28.313159	2.631944E-5	20.910920
2535.741053	-3.010200	3.083300	-9.280700	28.340411	2.552738E-5	20.893791
2536.742264	-2.997200	3.082900	-9.239600	28.345284	2.882762E-5	20.873094
2537.741286	-2.999200	3.082300	-9.243600	28.417826	2.714450E-5	20.878335
2538.741312	-2.993800	3.081900	-9.226000	28.463019	2.688048E-5	20.904876
2539.741474	-3.005400	3.079900	-9.254900	28.510584	2.803556E-5	20.905834
2540.745946	-2.976400	3.079300	-9.164800	28.531428	3.018072E-5	20.884153
2541.742800	-2.997600	3.078800	-9.228800	28.534381	2.757353E-5	20.870059
2542.743509	-2.983600	3.077500	-9.180600	28.512124	2.754053E-5	20.901696
2543.744462	-3.011000	3.075500	-9.259500	28.471136	2.796956E-5	20.904515
2544.743283	-3.009900	3.074700	-9.254200	28.509376	2.688048E-5	20.894661
2545.744126	-2.998700	3.074000	-9.216800	28.476177	2.674847E-5	20.886834
2546.744159	-3.000000	3.072400	-9.216700	28.443029	2.849760E-5	20.893281
2547.745028	-3.001600	3.072300	-9.221200	28.418236	2.559338E-5	20.904824
2548.744647	-3.005800	3.070900	-9.229900	28.389375	2.598941E-5	20.888092
2549.744173	-3.001400	3.070600	-9.215400	28.330881	2.740852E-5	20.894626
2550.745719	-2.992700	3.069300	-9.184800	28.309389	2.816757E-5	20.918029
2551.748962	-2.993100	3.067600	-9.180700	28.296966	2.628643E-5	20.898410
2552.747860	-3.025600	3.065200	-9.272800	28.289517	2.631944E-5	20.890437
2553.745886	-2.996600	3.064400	-9.181800	28.281041	2.585740E-5	20.898497
2554.749005	-3.009800	3.063900	-9.220600	28.231069	2.562638E-5	20.903660
2555.749803	-3.020000	3.062900	-9.248800	28.235161	2.694648E-5	20.920580
2556.748329	-2.993700	3.062800	-9.166700	28.271013	2.466931E-5	20.916848
2557.748943	-3.001600	3.059600	-9.182700	28.377507	2.760653E-5	20.902693
2558.748781	-2.995800	3.059800	-9.165800	28.503314	2.668246E-5	20.908943
2559.749541	-3.033700	3.057000	-9.273300	28.476835	2.473532E-5	20.901719
2560.752980	-2.998100	3.056800	-9.163500	28.440845	2.565939E-5	20.910995
2561.750154	-3.030000	3.055600	-9.257700	28.358466	2.572539E-5	20.923821
2562.748841	-2.995600	3.055200	-9.151400	28.406497	2.829958E-5	20.949897
2563.751616	-3.010000	3.053400	-9.188800	28.459525	2.565939E-5	20.923641
2564.752693	-3.000000	3.051800	-9.154400	28.447882	2.490033E-5	20.916658
2565.751154	-3.014700	3.051200	-9.197500	28.445211	2.516435E-5	20.924873
2566.752420	-2.978200	3.051800	-9.087400	28.442017	2.490033E-5	20.915020
2567.750825	-3.008700	3.047500	-9.167400	28.400427	2.450430E-5	20.939044
2568.752563	-2.969000	3.047400	-9.047400	28.430117	2.424028E-5	20.930536
2569.753052	-3.012900	3.045700	-9.175600	28.494967	2.691348E-5	20.936570
2570.752775	-2.994500	3.044200	-9.114900	28.518012	2.664946E-5	20.910943
2571.750721	-2.994300	3.043100	-9.110700	28.538180	2.556038E-5	20.928407
2572.751238	-3.018000	3.042400	-9.180800	28.525724	2.367924E-5	20.906857
2573.753050	-3.038000	3.039400	-9.233100	28.584242	2.470232E-5	20.917900
2574.751046	-3.021500	3.039500	-9.183500	28.531246	2.430629E-5	20.924270
2575.750903	-3.007300	3.038900	-9.138100	28.557013	2.394326E-5	20.929356
2576.751953	-3.015600	3.037000	-9.157500	28.596954	2.440530E-5	20.922641
2577.750494	-3.034300	3.035500	-9.209600	28.596851	2.358023E-5	20.923960
2578.752325	-2.967300	3.035000	-9.004600	28.596304	2.272217E-5	20.925779
2579.757014	-2.995500	3.033200	-9.084100	28.530074	2.278818E-5	20.935890
2580.751646	-3.005500	3.032300	-9.112200	28.464448	2.622043E-5	20.940924
2581.752127	-3.010800	3.031000	-9.125000	28.536675	2.562638E-5	20.933529
2582.758548	-3.001700	3.030000	-9.095200	28.587676	2.608842E-5	20.936528
2583.754249	-2.988300	3.028700	-9.050300	28.611840	2.358023E-5	20.942372
2584.751884	-3.029100	3.026100	-9.165100	28.597870	2.655045E-5	20.925460
2585.755218	-3.007500	3.025100	-9.097400	28.524356	2.440530E-5	20.940563
2586.752342	-2.982800	3.024800	-9.022000	28.532985	2.374525E-5	20.936451
2587.751681	-3.033500	3.023500	-9.170300	28.593453	2.490033E-5	20.939976
2588.755486	-2.999400	3.023700	-9.068100	28.615135	2.440530E-5	20.945691
2589.756774	-3.000600	3.020200	-9.061500	28.560728	2.305220E-5	20.958224
2590.754975	-2.991800	3.019600	-9.033100	28.594241	2.252416E-5	20.945036
2591.762228	-2.996400	3.018100	-9.042600	28.614879	2.480132E-5	20.925995
2592.760832	-2.991500	3.016700	-9.023500	28.617515	2.407527E-5	20.935287
2593.757487	-2.985200	3.016000	-9.002500	28.651282	2.338222E-5	20.946536
2594.759670	-3.009400	3.014200	-9.070000	28.661562	2.212813E-5	20.953096
2595.757781	-3.018600	3.013500	-9.095600	28.647286	2.328321E-5	20.931132
2596.757484	-2.999100	3.011500	-9.030900	28.626341	2.292019E-5	20.938486
2597.758127	-2.993300	3.011900	-9.014500	28.623020	2.084103E-5	20.943675
2598.756529	-2.985000	3.008900	-8.979900	28.632384	2.249115E-5	20.936038
2599.757983	-3.014200	3.008100	-9.066200	28.605370	2.077503E-5	20.957191
2600.759761	-2.980500	3.007200	-8.962100	28.661085	2.209513E-5	20.958304
2601.758370	-3.018300	3.004200	-9.066300	28.704180	2.394326E-5	20.948606
2602.758861	-3.018800	3.003300	-9.064100	28.690314	2.503234E-5	20.957872
2603.760362	-2.999800	3.002600	-9.006800	28.633335	2.480132E-5	20.940314
2604.758954	-3.002500	3.001000	-9.009400	28.672066	2.315120E-5	20.961777
2605.760128	-2.976000	2.999500	-8.925600	28.724764	2.278818E-5	20.960329
2606.759201	-2.999400	2.997400	-8.989900	28.670080	2.232614E-5	20.943659
2607.760766	-3.021200	2.996100	-9.050500	28.731338	2.377825E-5	20.945616
2608.765178	-2.993400	2.995000	-8.963800	28.811933	2.364624E-5	20.981750
2609.760201	-2.995800	2.994500	-8.970000	28.876365	2.202912E-5	20.963209
2610.760880	-3.023400	2.991500	-9.043600	28.841320	2.381125E-5	20.939762
2611.767064	-2.974600	2.991600	-8.897600	28.775320	2.107205E-5	20.953408
2612.761629	-3.007900	2.988700	-8.989000	28.724123	2.226014E-5	20.957787
2613.761551	-3.000000	2.988400	-8.964300	28.732571	2.100605E-5	20.986681
2614.763531	-2.988200	2.987300	-8.926000	28.712560	2.235914E-5	20.988335
2615.761751	-2.980300	2.986900	-8.901000	28.658193	2.282118E-5	20.984784
2616.761979	-3.010000	2.983800	-8.980500	28.659109	2.308520E-5	20.983336
2617.762955	-3.022900	2.982800	-9.015400	28.667720	2.499934E-5	20.976364
2618.760244	-3.001800	2.981500	-8.948900	28.688647	2.196312E-5	20.971839
2619.760158	-3.000700	2.980500	-8.941900	28.705697	2.361324E-5	20.957245
2620.761083	-2.995700	2.978800	-8.922400	28.655976	2.034600E-5	20.981604
2621.761111	-3.011800	2.977700	-8.967100	28.625283	2.410827E-5	20.956384
2622.760542	-2.993800	2.975600	-8.907700	28.648025	2.183111E-5	20.957004
2623.762736	-3.001800	2.975200	-8.930200	28.708076	2.173210E-5	20.974338
2624.762830	-3.038600	2.971500	-9.027700	28.766002	2.252416E-5	20.973416
2625.767162	-3.007300	2.972300	-8.936800	28.824763	2.315120E-5	20.955797
2626.766857	-3.030900	2.970100	-9.001100	28.823094	2.113806E-5	20.961228
2627.767091	-3.009600	2.968500	-8.932900	28.774714	2.572539E-5	20.969391
2628.765652	-3.020600	2.967400	-8.962500	28.762742	2.400927E-5	20.973925
2629.767061	-2.983600	2.967500	-8.852300	28.820946	2.169910E-5	20.956220
2630.766467	-3.011300	2.963500	-8.923300	28.890058	2.470232E-5	20.958039
2631.765971	-3.006600	2.962800	-8.907200	28.862708	2.146808E-5	20.972684
2632.768011	-3.012600	2.961900	-8.922200	28.892754	2.189711E-5	20.975925
2633.767076	-2.988200	2.960200	-8.845200	28.834510	2.018098E-5	20.957081
2634.766502	-2.996300	2.957400	-8.859600	28.757589	2.084103E-5	20.964469
2635.767520	-2.974800	2.958400	-8.799700	28.752821	2.226014E-5	20.970571
2636.767129	-2.967000	2.955300	-8.767200	28.746779	2.051101E-5	20.940781
2637.766302	-2.937900	2.955700	-8.683000	28.760379	2.377825E-5	20.941678
2638.766619	-2.989600	2.952000	-8.824000	28.731552	2.202912E-5	20.958158
2639.767879	-2.990400	2.950800	-8.823400	28.754884	2.127006E-5	20.916705
2640.767660	-2.992300	2.948400	-8.821400	28.736132	1.988396E-5	20.950918
2641.768792	-2.993200	2.949200	-8.825900	28.733957	2.311820E-5	20.949676
2642.767782	-3.005000	2.946900	-8.853700	28.693602	2.031299E-5	20.949805
2643.768626	-3.006700	2.943400	-8.849100	28.630545	2.130307E-5	20.930867
2644.770279	-2.975600	2.944200	-8.759100	28.724251	2.318421E-5	20.926152
2645.769742	-2.991900	2.942800	-8.803700	28.835579	2.318421E-5	20.952469
2646.768397	-2.985000	2.940700	-8.776500	28.853337	2.410827E-5	20.926739
2647.768582	-3.008400	2.938900	-8.840500	28.815160	2.087404E-5	20.926213
2648.768616	-3.017000	2.936200	-8.858000	28.790152	2.113806E-5	20.945590
2649.771881	-2.991700	2.935800	-8.782600	28.743509	2.278818E-5	20.918050
2650.770775	-3.013000	2.933000	-8.836600	28.731921	2.648445E-5	20.943358
2651.772695	-2.985200	2.931900	-8.751200	28.748790	2.295319E-5	20.931902
2652.775867	-3.042800	2.929300	-8.912300	28.795391	2.018098E-5	20.920998
2653.774192	-2.977100	2.928800	-8.718000	28.871658	2.358023E-5	20.901102
2654.774131	-2.998800	2.926000	-8.773700	28.933416	2.450430E-5	20.928703
2655.775276	-2.997300	2.926100	-8.769700	28.953381	2.305220E-5	20.915154
2656.774730	-2.989900	2.923900	-8.741600	28.995831	2.325021E-5	20.925678
2657.774660	-2.989400	2.922300	-8.735300	28.936874	2.308520E-5	20.919386
2658.775702	-2.997500	2.919900	-8.751200	28.849040	2.064302E-5	20.929522
2659.775678	-2.995500	2.918200	-8.740700	28.859901	2.259016E-5	20.921498
2660.776504	-2.988100	2.916000	-8.713100	28.915644	2.305220E-5	20.909378
2661.777310	-2.984800	2.915300	-8.700600	28.846379	2.018098E-5	20.909300
2662.776138	-3.002000	2.912800	-8.742300	28.876912	2.169910E-5	20.913980
2663.777651	-2.980900	2.912400	-8.680000	28.838026	2.097304E-5	20.932177
2664.776375	-3.013800	2.910400	-8.770200	28.778881	2.097304E-5	20.926652
2665.777281	-3.027000	2.906700	-8.797600	28.802330	2.041200E-5	20.927039
2666.780434	-3.001100	2.907500	-8.724500	28.834705	2.202912E-5	20.900860
2667.777460	-3.000900	2.904400	-8.715200	28.831855	2.222714E-5	20.908894
2668.778669	-3.000600	2.902700	-8.708700	28.880943	2.051101E-5	20.924204
2669.778554	-2.983200	2.901800	-8.656000	28.950308	2.245815E-5	20.900680
2670.779403	-2.994000	2.899600	-8.681100	29.016528	2.094004E-5	20.896748
2671.777986	-3.000600	2.897300	-8.692800	29.070698	2.169910E-5	20.911023
2672.780677	-3.037300	2.895300	-8.793000	29.030851	2.410827E-5	20.910230
2673.779687	-2.984400	2.895100	-8.639500	29.026856	1.948793E-5	20.914738
2674.780039	-3.001500	2.892400	-8.680900	28.972889	2.242515E-5	20.915842
2675.780734	-2.981100	2.890500	-8.616500	28.973017	2.179810E-5	20.892265
2676.780176	-3.015500	2.888500	-8.709700	28.936077	2.334922E-5	20.909575
2677.781471	-3.020500	2.886400	-8.716900	28.948237	2.173210E-5	20.890533
2678.780727	-3.032300	2.884100	-8.744300	28.902447	2.077503E-5	20.906514
2679.780034	-3.021900	2.882800	-8.711000	28.870544	2.292019E-5	20.903773
2680.781920	-3.017800	2.881100	-8.694100	28.886778	2.163309E-5	20.910169
2681.783638	-2.994800	2.881400	-8.628800	28.828859	2.222714E-5	20.898290
2682.782351	-2.987700	2.878900	-8.600300	28.870244	2.245815E-5	20.903470
2683.781060	-2.997700	2.875300	-8.619000	28.980272	2.354723E-5	20.903367
2684.781614	-3.052500	2.873000	-8.769300	29.002622	2.331622E-5	20.894591
2685.781989	-2.979200	2.872700	-8.557200	29.019435	2.226014E-5	20.891617
2686.781658	-3.000800	2.869600	-8.609700	28.996110	2.308520E-5	20.920744
2687.781823	-2.986100	2.869100	-8.566600	29.058572	2.252416E-5	20.888376
2688.785700	-3.036100	2.866100	-8.700700	29.080158	2.311820E-5	20.921028
2689.781568	-2.988500	2.864200	-8.558700	29.023303	2.311820E-5	20.893143
2690.782226	-2.981400	2.863500	-8.536000	29.003041	2.582440E-5	20.912556
2691.782551	-2.988500	2.861400	-8.550600	28.955636	2.222714E-5	20.890401
2692.782190	-2.987800	2.860200	-8.544800	29.003563	2.516435E-5	20.904073
2693.783166	-3.051400	2.855800	-8.712600	28.970482	2.249115E-5	20.908676
2694.782619	-2.976700	2.856700	-8.502500	28.955816	2.235914E-5	20.902383
2695.786207	-2.976600	2.853100	-8.492100	28.911095	2.334922E-5	20.897684
2696.791052	-3.017400	2.849200	-8.596100	28.925977	2.183111E-5	20.914097
2697.783931	-2.987700	2.848600	-8.509400	29.079294	2.371224E-5	20.892185
2698.785626	-2.991700	2.847700	-8.517800	29.146763	2.315120E-5	20.910856
2699.786271	-3.009200	2.844600	-8.558500	29.183833	2.133607E-5	20.899848
2700.785220	-2.977200	2.843100	-8.463700	29.106638	2.351423E-5	20.891763
2701.784416	-2.987300	2.840600	-8.485200	29.157141	2.341522E-5	20.888125
2702.786038	-3.003500	2.838700	-8.525100	29.141270	2.315120E-5	20.905796
2703.784856	-2.998900	2.836500	-8.505400	29.100409	2.094004E-5	20.905399
2704.787514	-2.971100	2.834600	-8.421800	29.085770	2.061002E-5	20.892072
2705.787950	-2.978300	2.831700	-8.432900	29.068624	2.202912E-5	20.879065
2706.788720	-2.999800	2.829300	-8.486400	29.081355	2.470232E-5	20.899952
2707.792391	-3.002800	2.828700	-8.493500	29.083007	2.305220E-5	20.887866
2708.791069	-3.021300	2.825700	-8.536500	29.062644	2.074203E-5	20.898642
2709.791107	-2.983700	2.822000	-8.418800	29.095789	2.110505E-5	20.911175
2710.789901	-3.005600	2.820900	-8.477700	29.080517	2.179810E-5	20.896262
2711.788352	-3.010600	2.818600	-8.484900	29.086275	2.341522E-5	20.877884
2712.791282	-3.017900	2.816300	-8.497400	29.144471	2.265617E-5	20.898116
2713.791831	-2.997500	2.812600	-8.430400	29.208592	2.143508E-5	20.893504
2714.792721	-3.019200	2.811200	-8.486100	29.223536	2.245815E-5	20.899081
2715.796400	-3.017500	2.807300	-8.470700	29.230252	2.226014E-5	20.899684
2716.793407	-2.996400	2.806700	-8.408400	29.183465	2.318421E-5	20.907537
2717.793560	-3.010200	2.803500	-8.438500	29.185408	2.156709E-5	20.890056
2718.798310	-3.019300	2.800100	-8.453500	29.234838	2.202912E-5	20.890556
2719.793787	-2.997200	2.798500	-8.387200	29.295369	2.163309E-5	20.900822
2720.793083	-2.984300	2.796900	-8.345900	29.236010	2.318421E-5	20.891737
2721.795935	-2.996300	2.793100	-8.367900	29.283539	2.321721E-5	20.903599
2722.796743	-2.983200	2.790000	-8.322300	29.327310	2.229314E-5	20.886073
2723.792823	-2.993400	2.787400	-8.342900	29.375373	2.338222E-5	20.912227
2724.797206	-2.988100	2.784800	-8.320900	29.444056	2.255716E-5	20.864341
2725.791860	-2.972500	2.784900	-8.277200	29.476274	2.239215E-5	20.887805
2726.794474	-3.024100	2.778100	-8.400000	29.381249	2.235914E-5	20.917674
2727.796102	-2.990100	2.777400	-8.304000	29.387451	2.318421E-5	20.895004
2728.792823	-3.004400	2.773100	-8.330300	29.450360	2.103905E-5	20.896297
2729.794352	-2.997000	2.769800	-8.300000	29.451240	2.282118E-5	20.886754
2730.796439	-2.995200	2.767900	-8.289000	29.503541	2.189711E-5	20.890160
2731.792619	-2.993400	2.766200	-8.279500	29.508517	2.351423E-5	20.886167
2732.794670	-3.065000	2.760500	-8.459100	29.422836	2.156709E-5	20.894633
2733.795566	-3.008000	2.758800	-8.297800	29.334409	2.384425E-5	20.890857
2734.793294	-2.971300	2.757700	-8.192100	29.339318	2.173210E-5	20.890589
2735.796034	-3.015100	2.754400	-8.304000	29.326359	2.262316E-5	20.901236
2736.794436	-3.001200	2.750900	-8.254900	29.285197	2.163309E-5	20.891047
2737.794939	-2.995500	2.746600	-8.226100	29.251082	2.331622E-5	20.877530
2738.795850	-3.023600	2.744000	-8.296400	29.258037	2.143508E-5	20.878849
2739.797143	-2.999600	2.740600	-8.219100	29.297318	2.453730E-5	20.886667
2740.799652	-3.012300	2.737000	-8.243800	29.297446	2.232614E-5	20.892011
2741.796730	-2.988300	2.736000	-8.174800	29.327582	2.397626E-5	20.908157
2742.796251	-2.979800	2.732200	-8.140900	29.348967	2.130307E-5	20.880400
2743.794199	-2.990300	2.728000	-8.156900	29.327480	2.275517E-5	20.898097
2744.797144	-3.004300	2.723700	-8.182600	29.365971	2.196312E-5	20.893269
2745.800870	-2.987900	2.719600	-8.125100	29.359017	2.358023E-5	20.885787
2746.795415	-2.992700	2.716200	-8.128100	29.376714	2.255716E-5	20.874227
2747.796436	-3.019100	2.713200	-8.190200	29.367408	2.305220E-5	20.878598
2748.796035	-3.016600	2.710300	-8.174900	29.398646	2.176510E-5	20.873572
2749.796524	-3.003300	2.706300	-8.127400	29.392991	2.338222E-5	20.882571
2750.799222	-2.987300	2.703400	-8.074300	29.393727	2.229314E-5	20.879994
2751.800788	-2.993500	2.700000	-8.081600	29.324673	2.400927E-5	20.887683
2752.798108	-3.028100	2.694200	-8.157500	29.325246	2.202912E-5	20.890157
2753.800449	-3.011000	2.690700	-8.100700	29.311628	2.420728E-5	20.866003
2754.799770	-3.011900	2.686200	-8.090400	29.300577	2.377825E-5	20.884735
2755.798289	-2.984800	2.682700	-8.006900	29.371540	2.272217E-5	20.878020
2756.800259	-3.006200	2.676500	-8.045400	29.428283	2.143508E-5	20.878788
2757.804907	-2.991800	2.674400	-8.000400	29.467155	2.193011E-5	20.870554
2758.800549	-3.016800	2.670300	-8.055500	29.470131	2.278818E-5	20.877821
2759.801188	-2.987000	2.667200	-7.965800	29.448399	2.262316E-5	20.890528
2760.805120	-2.992400	2.662500	-7.966500	29.529297	2.331622E-5	20.895260
2761.800322	-2.997600	2.657000	-7.964100	29.571544	2.433929E-5	20.899440
2762.806037	-3.017900	2.652200	-8.002700	29.625592	2.206212E-5	20.876640
2763.803463	-3.002800	2.649500	-7.955400	29.669931	2.427329E-5	20.880088
2764.801648	-3.015200	2.642700	-7.967500	29.710137	2.315120E-5	20.859933
2765.803307	-2.988800	2.639300	-7.886600	29.726674	2.407527E-5	20.870441
2766.801953	-3.011500	2.633200	-7.929200	29.720192	2.249115E-5	20.871967
2767.805286	-3.017100	2.629700	-7.933500	29.734010	2.450430E-5	20.879734
2768.804439	-3.023700	2.622500	-7.927700	29.749299	2.222714E-5	20.878079
2769.803792	-3.016000	2.619500	-7.899100	29.748691	2.265617E-5	20.882207
2770.800807	-2.995700	2.614900	-7.832500	29.717131	2.262316E-5	20.864613
2771.805326	-2.994000	2.609300	-7.811800	29.640915	2.206212E-5	20.877863
2772.802813	-2.996800	2.603800	-7.801600	29.571202	2.410827E-5	20.879656
2773.803099	-2.942400	2.601100	-7.652300	29.683740	2.417428E-5	20.886423
2774.803579	-3.007300	2.592200	-7.794000	29.706545	2.496634E-5	20.867216
2775.805876	-2.994200	2.587800	-7.747800	29.774940	2.447130E-5	20.861733
2776.800951	-2.958400	2.583500	-7.642200	29.777164	2.288718E-5	20.870138
2777.804991	-2.988700	2.577100	-7.700800	29.813723	2.407527E-5	20.858637
2778.805098	-3.009500	2.570800	-7.735900	29.763961	2.169910E-5	20.859198
2779.801788	-2.972600	2.565500	-7.625300	29.791288	2.110505E-5	20.865414
2780.801723	-2.987000	2.559300	-7.644000	29.804848	2.450430E-5	20.880034
2781.801313	-2.983300	2.553400	-7.617400	29.728537	2.288718E-5	20.876112
2782.801130	-2.988900	2.547500	-7.613600	29.637716	2.222714E-5	20.866578
2783.801636	-2.984100	2.541000	-7.582000	29.590100	2.298619E-5	20.886378
2784.802032	-2.991100	2.536000	-7.584100	29.620509	2.222714E-5	20.868671
2785.801706	-3.012400	2.529800	-7.619600	29.656254	2.278818E-5	20.863456
2786.802668	-2.991900	2.523800	-7.549700	29.731614	2.348123E-5	20.894861
2787.801785	-3.021700	2.516700	-7.603700	29.761405	2.344822E-5	20.879379
2788.804201	-2.961300	2.511700	-7.436500	29.767784	2.130307E-5	20.877276
2789.801630	-2.977800	2.506500	-7.462900	29.807353	2.305220E-5	20.855534
2790.802466	-3.019100	2.499600	-7.545200	29.815990	2.361324E-5	20.862346
