LabVIEW Measurement	
Writer_Version	2
Reader_Version	2
Separator	Tab
Decimal_Separator	.
Multi_Headings	No
X_Columns	One
Time_Pref	Absolute
Operator	admin
Description	Clolumns are: time, Current, Voltage, Power, Battery Temp, and Chamber Temp
Date	2024/08/16
Time	13:07:17.8513970375061035156
***End_of_Header***	
	
Channels	6						
Samples	1	1	1	1	1	1	
Date	2024/09/01	2024/09/01	2024/09/01	2024/09/01	2024/09/01	2024/09/01	
Time	14:31:03.1987290382385253906	14:31:03.204746246337890625	14:31:03.2107405662536621094	14:31:03.1835346221923828125	14:31:03.1835346221923828125	14:31:03.1835346221923828125	
X_Dimension	Time	Time	Time	Time	Time	Time	
X0	0.0000000000000000E+0	0.0000000000000000E+0	0.0000000000000000E+0	0.0000000000000000E+0	0.0000000000000000E+0	0.0000000000000000E+0	
Delta_X	1.000000	1.000000	1.000000	1.000000	1.000000	1.000000	
***End_of_Header***							
X_Value	Untitled	Untitled 1	Untitled 2	Untitled 3	Untitled 4	Untitled 5	Comment
0.000000	0.023393	4.094700	0.095796	20.768876	0.000467	20.720510
1.001471	-2.998600	3.931200	-11.787000	20.797807	0.000469	20.715775
2.000743	-2.999500	3.922200	-11.763000	20.783730	0.000466	20.727777
3.000498	-2.997000	3.919500	-11.746000	20.794063	0.000465	20.707763
4.003047	-2.995800	3.915400	-11.729000	20.794308	0.000465	20.727925
5.002791	-2.999200	3.913400	-11.736000	20.819143	0.000467	20.723837
6.004786	-2.999300	3.911200	-11.730000	20.790891	0.000464	20.714549
7.007037	-2.985000	3.909000	-11.667000	20.810036	0.000462	20.737964
8.004425	-2.995900	3.905900	-11.701000	20.808639	0.000460	20.716176
9.005931	-3.005400	3.904400	-11.733000	20.794119	0.000461	20.702129
10.004221	-3.005100	3.903600	-11.730000	20.822772	0.000460	20.723198
11.004770	-3.001600	3.901800	-11.711000	20.801983	0.000460	20.706675
12.006798	-2.991300	3.900100	-11.666000	20.826811	0.000461	20.722969
13.005151	-2.998000	3.897900	-11.685000	20.847353	0.000458	20.726917
14.004833	-3.003800	3.896200	-11.703000	20.860309	0.000460	20.706682
15.003788	-2.997600	3.896900	-11.680000	20.868517	0.000459	20.699242
16.004839	-2.985800	3.894800	-11.628000	20.862132	0.000458	20.707082
17.008526	-2.995700	3.894700	-11.666000	20.874035	0.000459	20.718038
18.006527	-3.004700	3.894100	-11.700000	20.869817	0.000457	20.703861
19.006325	-3.009100	3.892300	-11.710000	20.864911	0.000456	20.696110
20.007234	-2.991200	3.892200	-11.641000	20.896424	0.000456	20.705815
21.005638	-3.010500	3.889900	-11.709000	20.917759	0.000454	20.695382
22.006014	-3.009500	3.888900	-11.703000	20.901737	0.000454	20.683626
23.009832	-3.012800	3.889200	-11.717000	20.887496	0.000454	20.700680
24.008202	-3.018500	3.887200	-11.731000	20.940645	0.000455	20.700254
25.006599	-3.020600	3.886100	-11.737000	20.939673	0.000454	20.708291
26.007822	-2.980300	3.887000	-11.583000	20.937604	0.000452	20.740838
27.006587	-3.003900	3.887100	-11.676000	20.940867	0.000453	20.708063
28.009488	-2.991000	3.885400	-11.620000	20.950503	0.000455	20.703001
29.007061	-2.997500	3.885700	-11.647000	20.961758	0.000453	20.671107
30.009810	-3.026800	3.883500	-11.753000	20.959518	0.000452	20.695422
31.009327	-3.004400	3.883800	-11.668000	20.981522	0.000452	20.692299
32.010191	-2.996200	3.884200	-11.637000	20.995745	0.000451	20.698463
33.011497	-2.991400	3.883000	-11.614000	21.014683	0.000452	20.675203
34.011180	-2.974600	3.884800	-11.555000	20.990635	0.000452	20.685766
35.010327	-2.977000	3.884400	-11.563000	20.992230	0.000452	20.687360
36.009754	-2.989200	3.882800	-11.606000	21.023820	0.000451	20.676756
37.011762	-2.969600	3.883600	-11.532000	21.022742	0.000452	20.700810
38.010396	-3.016300	3.882400	-11.710000	21.030359	0.000449	20.687564
39.011979	-3.006500	3.881500	-11.669000	21.039963	0.000450	20.679151
40.011911	-3.004700	3.881600	-11.662000	21.058753	0.000449	20.682299
41.011710	-3.004200	3.880900	-11.658000	21.050146	0.000447	20.712099
42.014946	-3.000400	3.880300	-11.642000	21.060217	0.000448	20.697989
43.014480	-2.989500	3.881500	-11.603000	21.068774	0.000450	20.675726
44.015018	-2.988800	3.881200	-11.599000	21.079530	0.000449	20.691702
45.013198	-3.000900	3.879800	-11.642000	21.100264	0.000449	20.684940
46.013489	-2.996800	3.879400	-11.625000	21.096939	0.000449	20.675923
47.014128	-3.024500	3.877200	-11.726000	21.108470	0.000447	20.686510
48.014903	-3.009400	3.877100	-11.666000	21.128748	0.000447	20.678817
49.016875	-3.002900	3.878100	-11.645000	21.128175	0.000447	20.686780
50.017493	-2.998100	3.876400	-11.620000	21.126125	0.000445	20.670029
51.015808	-3.007300	3.876800	-11.657000	21.127448	0.000445	20.677043
52.015314	-2.985500	3.876800	-11.573000	21.131837	0.000446	20.690918
53.018304	-2.979400	3.877200	-11.551000	21.163097	0.000447	20.679987
54.014981	-2.991700	3.877800	-11.600000	21.161324	0.000446	20.691965
55.017456	-2.994700	3.874700	-11.603000	21.180137	0.000447	20.667633
56.015947	-2.982500	3.877600	-11.563000	21.174817	0.000446	20.683650
57.016557	-2.999300	3.875800	-11.623000	21.208871	0.000444	20.691164
58.016963	-3.024000	3.875700	-11.719000	21.190533	0.000446	20.691785
59.018004	-3.009500	3.874900	-11.661000	21.222568	0.000447	20.675940
60.019854	-3.002000	3.874600	-11.631000	21.218277	0.000448	20.677812
61.017310	-3.008900	3.875400	-11.659000	21.210799	0.000446	20.668908
62.019353	-3.007100	3.874600	-11.651000	21.219201	0.000446	20.676840
63.018817	-2.997500	3.876500	-11.618000	21.236256	0.000446	20.681100
64.020389	-2.990100	3.874900	-11.585000	21.263304	0.000447	20.665957
65.020037	-2.993100	3.875400	-11.598000	21.256662	0.000445	20.685867
66.023125	-3.024100	3.872200	-11.709000	21.273005	0.000446	20.688940
67.022909	-3.000300	3.873300	-11.620000	21.281936	0.000445	20.695031
68.022698	-3.015600	3.873000	-11.679000	21.278324	0.000445	20.695210
69.023217	-3.007300	3.873600	-11.647000	21.302790	0.000446	20.666105
70.021253	-3.009400	3.872600	-11.653000	21.311019	0.000443	20.672916
71.022244	-3.013300	3.873500	-11.671000	21.326340	0.000445	20.662638
72.022521	-3.004800	3.872200	-11.635000	21.327934	0.000445	20.666604
73.022212	-3.006200	3.872800	-11.642000	21.338859	0.000446	20.672793
74.022793	-2.965300	3.874000	-11.487000	21.322450	0.000446	20.688147
75.024204	-2.991300	3.871700	-11.581000	21.336816	0.000447	20.668852
76.024806	-3.000400	3.872100	-11.617000	21.339470	0.000447	20.659178
77.025211	-3.002800	3.871700	-11.625000	21.379967	0.000442	20.675041
78.024836	-2.980300	3.871400	-11.537000	21.362710	0.000445	20.665835
79.024863	-2.987400	3.872700	-11.569000	21.358395	0.000445	20.682382
80.029496	-3.003200	3.872400	-11.629000	21.377173	0.000446	20.682203
81.022708	-2.986100	3.870700	-11.557000	21.392419	0.000446	20.669006
82.025338	-2.967300	3.870900	-11.486000	21.401946	0.000446	20.659097
83.023813	-2.982900	3.871500	-11.547000	21.415665	0.000445	20.650537
84.023461	-2.990200	3.869800	-11.571000	21.419635	0.000448	20.661623
85.028599	-2.995400	3.870400	-11.592000	21.423770	0.000446	20.679987
86.024673	-3.007100	3.870100	-11.637000	21.435699	0.000447	20.650193
87.026805	-2.982900	3.870200	-11.543000	21.455847	0.000448	20.650439
88.027115	-3.009400	3.869500	-11.644000	21.457195	0.000445	20.672653
89.031338	-2.989900	3.870600	-11.570000	21.473683	0.000447	20.655957
90.028498	-2.998200	3.869300	-11.600000	21.498251	0.000446	20.643554
91.027060	-3.007600	3.868000	-11.632000	21.484231	0.000447	20.648493
92.031284	-2.996300	3.869800	-11.594000	21.471503	0.000446	20.663260
93.028000	-3.000300	3.869200	-11.607000	21.482728	0.000445	20.671174
94.029188	-2.976100	3.869600	-11.516000	21.489272	0.000447	20.661124
95.028168	-3.001400	3.868200	-11.609000	21.507099	0.000447	20.654306
96.029032	-2.981700	3.869600	-11.537000	21.496895	0.000447	20.675867
97.027702	-3.014000	3.867100	-11.654000	21.523758	0.000447	20.646318
98.030614	-2.992100	3.867300	-11.570000	21.536682	0.000445	20.674427
99.029773	-2.992700	3.868600	-11.577000	21.526036	0.000448	20.655711
100.029831	-3.003000	3.867900	-11.614000	21.536503	0.000446	20.674247
101.032054	-3.013500	3.868700	-11.657000	21.582294	0.000447	20.649416
102.030530	-3.016500	3.866100	-11.661000	21.555889	0.000448	20.642433
103.032431	-3.005000	3.866800	-11.619000	21.567833	0.000447	20.652964
104.031564	-2.986200	3.868300	-11.551000	21.602251	0.000447	20.666070
105.031404	-3.033900	3.866200	-11.728000	21.601180	0.000447	20.654092
106.030800	-3.028500	3.865600	-11.706000	21.598583	0.000451	20.661925
107.031610	-2.988900	3.867600	-11.559000	21.608052	0.000448	20.677567
108.031452	-3.020400	3.865600	-11.674000	21.604743	0.000449	20.678997
109.031425	-2.988900	3.866400	-11.555000	21.613100	0.000447	20.663650
110.034687	-2.997000	3.865900	-11.585000	21.600257	0.000449	20.664549
111.033020	-3.017400	3.865200	-11.662000	21.624022	0.000448	20.646129
112.034298	-3.005100	3.865600	-11.615000	21.647516	0.000450	20.668694
113.034103	-3.007300	3.864600	-11.621000	21.656437	0.000449	20.664345
114.032420	-2.983600	3.865600	-11.533000	21.666805	0.000450	20.646269
115.033773	-3.012100	3.867000	-11.647000	21.645393	0.000450	20.674630
116.033932	-3.017800	3.865500	-11.665000	21.663193	0.000448	20.655933
117.036751	-3.016100	3.866200	-11.660000	21.666731	0.000450	20.677967
118.035953	-3.000900	3.865500	-11.599000	21.699219	0.000452	20.642672
119.037900	-2.979800	3.864600	-11.515000	21.693084	0.000452	20.670675
120.035220	-2.977000	3.865300	-11.506000	21.716120	0.000452	20.657218
121.037087	-2.989400	3.864500	-11.552000	21.704823	0.000451	20.671518
122.037514	-2.997400	3.864700	-11.583000	21.748305	0.000454	20.677103
123.035384	-2.988200	3.865600	-11.551000	21.742669	0.000452	20.685687
124.040376	-3.007200	3.863700	-11.618000	21.746132	0.000452	20.670186
125.037856	-2.998800	3.862400	-11.581000	21.736232	0.000453	20.671658
126.036222	-3.000100	3.862600	-11.586000	21.746894	0.000454	20.660990
127.042924	-3.007700	3.863600	-11.619000	21.734919	0.000455	20.663231
128.041166	-2.994400	3.864400	-11.571000	21.760046	0.000454	20.657083
129.036418	-3.014300	3.862100	-11.640000	21.765545	0.000453	20.670649
130.037663	-3.004900	3.863300	-11.608000	21.779284	0.000456	20.656422
131.036727	-3.007700	3.862200	-11.615000	21.777652	0.000454	20.650995
132.037552	-3.013600	3.862000	-11.637000	21.794373	0.000456	20.685752
133.037944	-3.015800	3.862700	-11.648000	21.813887	0.000454	20.669246
134.038202	-2.996600	3.861100	-11.569000	21.830934	0.000455	20.660703
135.041408	-2.997400	3.861800	-11.574000	21.842893	0.000453	20.672674
136.038992	-2.979400	3.862200	-11.505000	21.810279	0.000455	20.660893
137.040830	-3.004100	3.862400	-11.602000	21.824126	0.000454	20.677124
138.039402	-2.988900	3.862700	-11.545000	21.848409	0.000453	20.682938
139.039775	-3.021000	3.860300	-11.661000	21.850297	0.000458	20.677240
140.039201	-2.982100	3.861800	-11.514000	21.840913	0.000455	20.708628
141.042210	-2.999100	3.861100	-11.579000	21.868912	0.000455	20.676906
142.043103	-3.011600	3.860100	-11.624000	21.880315	0.000457	20.675044
143.042140	-3.007700	3.859900	-11.609000	21.895776	0.000455	20.675820
144.040181	-3.007100	3.860700	-11.608000	21.893597	0.000457	20.678855
145.039962	-2.992600	3.861300	-11.554000	21.889456	0.000458	20.681349
146.042579	-3.012700	3.859400	-11.626000	21.912611	0.000458	20.694570
147.039349	-2.981000	3.860700	-11.508000	21.923180	0.000457	20.686182
148.039356	-2.993800	3.859900	-11.555000	21.931625	0.000459	20.698430
149.038200	-3.016700	3.859000	-11.640000	21.949151	0.000458	20.688472
150.039085	-3.018400	3.858800	-11.645000	21.959481	0.000461	20.697391
151.043248	-3.010100	3.860200	-11.618000	21.941874	0.000458	20.692094
152.043700	-2.995500	3.859600	-11.560000	21.935366	0.000457	20.683681
153.042251	-3.010500	3.859100	-11.617000	21.958306	0.000459	20.707121
154.042543	-3.017200	3.860000	-11.646000	21.951071	0.000459	20.688497
155.044748	-3.004400	3.857600	-11.587000	21.960095	0.000459	20.689944
156.042965	-2.994400	3.858500	-11.554000	21.955032	0.000459	20.688195
157.047831	-3.013200	3.858700	-11.626000	21.987136	0.000456	20.690460
158.042869	-3.000400	3.857800	-11.574000	21.996143	0.000460	20.689993
159.042803	-2.978800	3.858800	-11.493000	22.000055	0.000461	20.708135
160.042853	-3.002200	3.857600	-11.580000	22.011121	0.000461	20.683175
161.045045	-2.990800	3.857300	-11.534000	22.013275	0.000459	20.683435
162.050785	-2.994500	3.857400	-11.550000	22.040968	0.000461	20.683182
163.045236	-2.984200	3.857200	-11.510000	22.057472	0.000458	20.720096
164.046613	-3.005100	3.857300	-11.590000	22.036379	0.000462	20.690917
165.046151	-2.994800	3.857900	-11.552000	22.042813	0.000461	20.687875
166.048055	-3.007100	3.857300	-11.598000	22.048171	0.000462	20.688497
167.046945	-2.980200	3.856800	-11.493000	22.049297	0.000460	20.682512
168.050900	-3.025600	3.856300	-11.666000	22.062331	0.000464	20.691293
169.046433	-3.009300	3.856900	-11.606000	22.061464	0.000462	20.684735
170.047718	-2.992100	3.857300	-11.541000	22.083455	0.000463	20.675929
171.048767	-3.013500	3.854300	-11.614000	22.101133	0.000464	20.695052
172.048487	-3.013700	3.855200	-11.618000	22.113384	0.000465	20.679814
173.051322	-3.003100	3.855900	-11.577000	22.114061	0.000465	20.699934
174.048302	-3.027800	3.855100	-11.671000	22.109104	0.000463	20.702558
175.048735	-3.033900	3.855300	-11.695000	22.116461	0.000464	20.698069
176.048681	-3.020100	3.855500	-11.643000	22.129451	0.000467	20.697324
177.048371	-3.009300	3.854900	-11.600000	22.136426	0.000467	20.668742
178.050476	-3.015900	3.854200	-11.623000	22.137724	0.000468	20.710349
179.047260	-3.006600	3.854500	-11.588000	22.172647	0.000466	20.695526
180.048299	-2.992800	3.854500	-11.535000	22.179147	0.000466	20.701086
181.048476	-3.003200	3.854700	-11.575000	22.166378	0.000468	20.713432
182.053720	-3.010400	3.854900	-11.604000	22.176993	0.000467	20.694661
183.049390	-2.974000	3.854300	-11.461000	22.205148	0.000471	20.688711
184.049766	-3.002700	3.851900	-11.565000	22.192656	0.000470	20.715087
185.049976	-2.994400	3.852900	-11.536000	22.206782	0.000472	20.691770
186.050366	-3.000500	3.853200	-11.560000	22.228258	0.000471	20.731293
187.049663	-3.006200	3.853200	-11.583000	22.239234	0.000469	20.709564
188.050363	-2.996100	3.852300	-11.541000	22.237872	0.000473	20.707253
189.055912	-3.001200	3.853500	-11.564000	22.237188	0.000473	20.718897
190.052615	-2.983700	3.854400	-11.499000	22.225121	0.000473	20.711556
191.052530	-3.013300	3.851900	-11.606000	22.245747	0.000471	20.713716
192.051636	-2.992200	3.852900	-11.527000	22.277117	0.000470	20.713831
193.053167	-3.000700	3.852600	-11.559000	22.272497	0.000473	20.733389
194.052723	-3.026200	3.851800	-11.654000	22.302193	0.000471	20.717130
195.054738	-3.000000	3.852100	-11.555000	22.322467	0.000472	20.727000
196.054176	-3.025200	3.850800	-11.649000	22.322688	0.000474	20.708728
197.053745	-2.991400	3.851700	-11.520000	22.323025	0.000473	20.722342
198.055187	-3.028500	3.850200	-11.660000	22.314070	0.000473	20.705787
199.053573	-3.022600	3.851300	-11.640000	22.326171	0.000475	20.731183
200.055789	-3.019500	3.851000	-11.628000	22.339349	0.000476	20.726360
201.055364	-3.011100	3.850000	-11.592000	22.319005	0.000473	20.733016
202.056556	-3.025300	3.849000	-11.643000	22.358251	0.000476	20.711622
203.054216	-3.011200	3.851500	-11.596000	22.335866	0.000475	20.719079
204.055226	-3.005100	3.850000	-11.569000	22.356350	0.000473	20.715408
205.057403	-3.000900	3.849300	-11.551000	22.360401	0.000475	20.729897
206.060591	-2.998700	3.850500	-11.546000	22.364508	0.000476	20.722630
207.055829	-3.001700	3.850200	-11.555000	22.355946	0.000475	20.732549
208.056468	-2.991900	3.850100	-11.518000	22.383816	0.000475	20.747182
209.061820	-2.997300	3.848600	-11.534000	22.365483	0.000476	20.723606
210.057683	-3.008300	3.848600	-11.577000	22.373656	0.000477	20.723255
211.058760	-3.003400	3.848000	-11.556000	22.396376	0.000478	20.718980
212.057554	-3.008800	3.847100	-11.574000	22.419805	0.000476	20.729641
213.057054	-3.000400	3.847900	-11.545000	22.418231	0.000478	20.736125
214.057281	-2.988400	3.848900	-11.501000	22.447407	0.000476	20.740213
215.059397	-2.992400	3.847300	-11.512000	22.436240	0.000478	20.729978
216.060770	-2.976900	3.848100	-11.455000	22.446934	0.000477	20.732626
217.057040	-3.013900	3.846300	-11.591000	22.446471	0.000478	20.746862
218.058001	-2.997900	3.847100	-11.532000	22.449883	0.000479	20.732735
219.057291	-3.006100	3.845800	-11.560000	22.467279	0.000479	20.735932
220.061889	-2.975300	3.847500	-11.446000	22.479884	0.000478	20.743339
221.061498	-2.986700	3.846200	-11.487000	22.486235	0.000479	20.736423
222.062745	-3.011600	3.846300	-11.583000	22.497216	0.000481	20.751214
223.059297	-3.012100	3.846700	-11.585000	22.507312	0.000479	20.742359
224.058670	-3.006000	3.844200	-11.555000	22.532405	0.000479	20.743308
225.061749	-3.005100	3.846300	-11.558000	22.520863	0.000482	20.749767
226.060150	-2.998800	3.846300	-11.534000	22.532194	0.000482	20.752106
227.063604	-2.982800	3.847200	-11.475000	22.540144	0.000480	20.745844
228.061706	-2.994300	3.845800	-11.515000	22.556111	0.000479	20.750456
229.062447	-3.021900	3.844900	-11.618000	22.557458	0.000481	20.766029
230.062169	-3.010400	3.844600	-11.573000	22.538391	0.000483	20.758313
231.062916	-3.009700	3.845100	-11.571000	22.540506	0.000482	20.751422
232.066486	-3.031800	3.844200	-11.654000	22.530122	0.000480	20.748608
233.070360	-2.997500	3.845000	-11.524000	22.540057	0.000482	20.763775
234.066135	-2.970700	3.844700	-11.421000	22.547804	0.000485	20.768688
235.065881	-2.974500	3.845000	-11.436000	22.563304	0.000485	20.758134
236.071317	-2.988000	3.843300	-11.482000	22.560155	0.000482	20.758773
237.066548	-2.992100	3.843000	-11.498000	22.589212	0.000485	20.737614
238.068421	-3.022400	3.842300	-11.612000	22.611985	0.000485	20.759001
239.066973	-2.997900	3.842300	-11.519000	22.613177	0.000485	20.735539
240.067178	-2.982500	3.844500	-11.465000	22.622368	0.000487	20.769401
241.067134	-3.006300	3.842600	-11.550000	22.617480	0.000485	20.743168
242.066684	-3.000500	3.842800	-11.529000	22.648022	0.000484	20.757165
243.070901	-3.019900	3.842000	-11.602000	22.638334	0.000484	20.757892
244.065815	-3.013400	3.842600	-11.577000	22.642230	0.000486	20.746621
245.066412	-3.002100	3.842000	-11.533000	22.647917	0.000486	20.764172
246.067313	-3.006400	3.841500	-11.547000	22.646410	0.000487	20.769300
247.066689	-3.010600	3.841500	-11.564000	22.636819	0.000487	20.765858
248.066602	-3.014900	3.841300	-11.581000	22.640526	0.000488	20.762458
249.070325	-3.006900	3.840800	-11.548000	22.653602	0.000489	20.749950
250.066469	-2.981000	3.842700	-11.454000	22.683375	0.000489	20.754643
251.067141	-2.992700	3.841200	-11.494000	22.702678	0.000489	20.772082
252.069958	-2.992300	3.840600	-11.491000	22.688846	0.000488	20.755381
253.065912	-2.985500	3.840000	-11.463000	22.685679	0.000489	20.775917
254.069033	-2.993300	3.840600	-11.495000	22.683877	0.000489	20.772690
255.067733	-3.017400	3.839300	-11.584000	22.680360	0.000489	20.773434
256.067947	-2.997000	3.841100	-11.511000	22.703776	0.000491	20.776501
257.067468	-2.992900	3.838700	-11.488000	22.695943	0.000490	20.750162
258.067498	-3.008900	3.839800	-11.552000	22.706750	0.000492	20.770470
259.070529	-3.009000	3.839500	-11.552000	22.733959	0.000492	20.783975
260.068568	-3.026000	3.838800	-11.615000	22.743854	0.000491	20.798154
261.069052	-2.999500	3.838500	-11.513000	22.772581	0.000492	20.771928
262.068388	-2.999300	3.839300	-11.514000	22.756782	0.000493	20.766533
263.071528	-2.986700	3.837200	-11.459000	22.780196	0.000492	20.765332
264.068599	-2.985900	3.839100	-11.461000	22.790708	0.000493	20.773966
265.070246	-3.003700	3.837300	-11.525000	22.791206	0.000494	20.776835
266.069751	-3.000000	3.836600	-11.509000	22.826021	0.000494	20.774728
267.070137	-2.993400	3.837200	-11.486000	22.833293	0.000494	20.783909
268.071142	-3.016500	3.837200	-11.574000	22.826463	0.000495	20.794611
269.071585	-3.009000	3.837500	-11.546000	22.824871	0.000492	20.781637
270.073052	-3.019700	3.835700	-11.582000	22.815976	0.000493	20.784580
271.071598	-3.015100	3.836100	-11.566000	22.835554	0.000494	20.769579
272.072996	-2.979400	3.837200	-11.432000	22.825036	0.000495	20.773267
273.072473	-2.980300	3.837400	-11.435000	22.846636	0.000496	20.784475
274.072609	-2.998400	3.836200	-11.502000	22.877744	0.000494	20.779129
275.072567	-2.986300	3.835300	-11.453000	22.880984	0.000495	20.783323
276.076632	-2.982100	3.837800	-11.444000	22.859433	0.000494	20.792553
277.073236	-3.002000	3.835600	-11.512000	22.857172	0.000497	20.768476
278.073052	-3.015300	3.835100	-11.562000	22.860885	0.000497	20.794007
279.075538	-2.987800	3.836600	-11.463000	22.889731	0.000497	20.788767
280.073731	-3.004000	3.835500	-11.521000	22.866687	0.000498	20.791759
281.078375	-3.007700	3.834700	-11.533000	22.891918	0.000498	20.787639
282.075537	-2.990600	3.835300	-11.470000	22.889594	0.000500	20.793846
283.075855	-2.999800	3.833800	-11.499000	22.921090	0.000500	20.796950
284.076179	-3.022800	3.832000	-11.582000	22.920641	0.000501	20.776586
285.077052	-2.987200	3.834800	-11.455000	22.907807	0.000499	20.786013
286.077668	-2.995400	3.835600	-11.488000	22.923751	0.000501	20.789185
287.075893	-2.992500	3.833800	-11.472000	22.940806	0.000499	20.810540
288.075544	-3.018200	3.832700	-11.567000	22.931323	0.000499	20.819056
289.076296	-3.003700	3.833500	-11.514000	22.932564	0.000500	20.798963
290.077527	-3.016100	3.831400	-11.555000	22.924519	0.000499	20.819352
291.076707	-3.026300	3.832000	-11.596000	22.932890	0.000501	20.806402
292.076733	-3.010500	3.832100	-11.535000	22.954040	0.000499	20.804358
293.076513	-3.013900	3.831200	-11.546000	22.971150	0.000501	20.803483
294.074797	-3.006000	3.830800	-11.514000	22.972700	0.000500	20.813096
295.078231	-2.989900	3.831700	-11.456000	22.983560	0.000499	20.812123
296.076503	-2.994700	3.832800	-11.477000	22.971525	0.000503	20.803859
297.078527	-3.023600	3.829700	-11.579000	23.004677	0.000502	20.800090
298.076506	-2.997800	3.831400	-11.484000	23.029937	0.000502	20.800744
299.082597	-2.985100	3.831200	-11.435000	23.014695	0.000500	20.790214
300.077416	-3.026500	3.830400	-11.592000	23.028984	0.000503	20.807849
301.078365	-2.989700	3.829800	-11.449000	23.024265	0.000504	20.823984
302.079867	-2.997700	3.829200	-11.477000	23.038763	0.000502	20.806742
303.079309	-3.007900	3.830700	-11.522000	23.002994	0.000505	20.828276
304.077506	-2.990500	3.830000	-11.453000	23.000186	0.000505	20.789901
305.077132	-3.001500	3.828900	-11.492000	23.031752	0.000506	20.814890
306.082293	-3.006800	3.828100	-11.509000	23.049833	0.000506	20.818308
307.079072	-3.006600	3.829700	-11.514000	23.063949	0.000507	20.795942
308.085794	-3.021600	3.827900	-11.565000	23.053096	0.000503	20.812095
309.080061	-3.008600	3.828700	-11.518000	23.038654	0.000507	20.822754
310.082633	-3.012400	3.829300	-11.534000	23.033417	0.000508	20.817033
311.081888	-3.001100	3.828500	-11.489000	23.045647	0.000506	20.803683
312.083419	-2.995900	3.828400	-11.469000	23.043337	0.000506	20.820808
313.085403	-2.991700	3.827500	-11.449000	23.077083	0.000507	20.825697
314.085173	-3.011500	3.828500	-11.529000	23.129681	0.000506	20.823400
315.082626	-3.002900	3.827100	-11.492000	23.110932	0.000508	20.840648
316.082401	-2.989600	3.827600	-11.442000	23.101426	0.000510	20.807416
317.086118	-2.998700	3.828200	-11.479000	23.117939	0.000507	20.807841
318.082051	-2.988000	3.825600	-11.430000	23.127395	0.000509	20.825852
319.085203	-3.017700	3.826700	-11.547000	23.150932	0.000510	20.820039
320.083056	-3.025600	3.825100	-11.572000	23.118363	0.000509	20.828180
321.083049	-3.018200	3.826600	-11.548000	23.129221	0.000508	20.821043
322.084239	-3.034800	3.825300	-11.608000	23.139305	0.000509	20.823088
323.083909	-3.008100	3.825000	-11.504000	23.152586	0.000510	20.820274
324.087520	-3.010400	3.826300	-11.517000	23.168176	0.000511	20.807922
325.085361	-2.988300	3.825800	-11.432000	23.192700	0.000515	20.808789
326.085407	-2.970600	3.826300	-11.366000	23.203589	0.000511	20.843409
327.086014	-2.991100	3.825200	-11.440000	23.164618	0.000511	20.817633
328.089525	-2.984000	3.824900	-11.413000	23.174327	0.000511	20.825939
329.084928	-3.005000	3.824700	-11.493000	23.187404	0.000513	20.824345
330.087185	-2.974300	3.824900	-11.376000	23.197438	0.000512	20.826814
331.084964	-2.992700	3.825000	-11.446000	23.218313	0.000512	20.808852
332.086300	-2.994500	3.823700	-11.449000	23.220254	0.000512	20.804634
333.087769	-3.004700	3.822900	-11.486000	23.255659	0.000513	20.837269
334.086333	-3.000500	3.823200	-11.471000	23.269485	0.000513	20.819357
335.092625	-2.997100	3.823600	-11.459000	23.259917	0.000511	20.802183
336.087755	-3.024100	3.821700	-11.556000	23.233110	0.000512	20.830793
337.087652	-3.013600	3.820500	-11.512000	23.243764	0.000514	20.831039
338.086940	-3.006800	3.822400	-11.493000	23.245884	0.000515	20.828896
339.088624	-2.979300	3.822400	-11.386000	23.239685	0.000515	20.829795
340.087578	-2.991300	3.821900	-11.431000	23.207424	0.000514	20.806001
341.090044	-2.982100	3.821500	-11.395000	23.210823	0.000515	20.815097
342.087824	-2.991500	3.822200	-11.433000	23.209901	0.000516	20.800897
343.088989	-3.002000	3.820200	-11.468000	23.220906	0.000514	20.811926
344.089854	-2.988400	3.821100	-11.418000	23.223777	0.000516	20.815276
345.090138	-2.999200	3.820100	-11.457000	23.236527	0.000517	20.807665
346.090849	-3.000000	3.819900	-11.459000	23.282795	0.000517	20.809463
347.089752	-3.002700	3.820000	-11.469000	23.264498	0.000516	20.811514
348.091193	-3.017600	3.819100	-11.524000	23.269579	0.000517	20.798115
349.090593	-3.014400	3.819400	-11.511000	23.303994	0.000518	20.805105
350.092007	-3.015300	3.818500	-11.513000	23.331490	0.000518	20.785246
351.093335	-2.998100	3.819000	-11.449000	23.319214	0.000517	20.816565
352.093606	-3.010200	3.818800	-11.494000	23.331725	0.000517	20.802551
353.091248	-3.011900	3.818000	-11.499000	23.294865	0.000520	20.792162
354.091290	-2.997500	3.818300	-11.444000	23.302434	0.000519	20.783153
355.096488	-2.981500	3.817500	-11.381000	23.323854	0.000520	20.797033
356.091731	-3.000300	3.818500	-11.455000	23.345942	0.000519	20.774126
357.093615	-3.018400	3.817100	-11.521000	23.347939	0.000522	20.794620
358.093885	-3.003200	3.816300	-11.460000	23.349751	0.000521	20.798807
359.093057	-2.983900	3.816800	-11.388000	23.362735	0.000521	20.791905
360.092626	-2.986200	3.817600	-11.399000	23.378763	0.000521	20.798487
361.093072	-2.994500	3.817200	-11.430000	23.358673	0.000519	20.786412
362.098825	-3.000500	3.816900	-11.452000	23.374758	0.000523	20.790679
363.094079	-3.006600	3.816200	-11.473000	23.378395	0.000522	20.781523
364.094188	-3.002600	3.817200	-11.460000	23.381094	0.000523	20.788969
365.094708	-3.000700	3.814600	-11.446000	23.364806	0.000520	20.757945
366.093745	-3.011000	3.815900	-11.489000	23.374993	0.000524	20.770526
367.093678	-3.017500	3.815700	-11.513000	23.412887	0.000522	20.783851
368.098501	-2.995100	3.815600	-11.428000	23.377512	0.000522	20.784905
369.097178	-3.011700	3.815500	-11.490000	23.370710	0.000524	20.790890
370.098208	-3.008600	3.814600	-11.475000	23.398972	0.000522	20.787922
371.098946	-3.010600	3.814700	-11.483000	23.386052	0.000523	20.792516
372.097917	-3.028200	3.813700	-11.547000	23.422110	0.000524	20.776026
373.099565	-2.997400	3.814600	-11.433000	23.455175	0.000523	20.787357
374.099817	-3.021300	3.813900	-11.522000	23.448048	0.000525	20.765514
375.100156	-2.985100	3.814400	-11.385000	23.458959	0.000524	20.790676
376.102217	-2.994500	3.813200	-11.417000	23.425299	0.000524	20.780170
377.102070	-2.977600	3.814500	-11.357000	23.431505	0.000525	20.756044
378.103955	-2.981100	3.814700	-11.372000	23.440549	0.000525	20.775067
379.102870	-3.026100	3.812300	-11.535000	23.434473	0.000526	20.764709
380.101998	-3.012000	3.812300	-11.482000	23.443436	0.000525	20.757098
381.101351	-3.012400	3.810900	-11.479000	23.443418	0.000525	20.762770
382.105422	-2.984200	3.812700	-11.377000	23.446029	0.000526	20.772499
383.102072	-2.978200	3.812600	-11.353000	23.447749	0.000523	20.774224
384.102898	-2.990600	3.812000	-11.399000	23.454102	0.000527	20.762573
385.101816	-2.985100	3.812500	-11.379000	23.494440	0.000525	20.751797
386.103491	-2.989800	3.812000	-11.396000	23.495214	0.000524	20.768221
387.102772	-2.999200	3.810600	-11.428000	23.521083	0.000525	20.760961
388.102880	-3.026100	3.808800	-11.525000	23.530127	0.000525	20.746318
389.105742	-2.998500	3.809900	-11.423000	23.505284	0.000526	20.774048
390.104185	-3.016200	3.810900	-11.493000	23.550578	0.000525	20.732205
391.103960	-3.005100	3.809800	-11.447000	23.567410	0.000526	20.765200
392.104694	-3.008400	3.809800	-11.460000	23.539772	0.000525	20.753617
393.103898	-3.008700	3.810200	-11.463000	23.555879	0.000528	20.753167
394.105397	-2.990100	3.809900	-11.391000	23.534355	0.000527	20.752454
395.109381	-3.005400	3.808100	-11.444000	23.556040	0.000526	20.758070
396.105699	-2.995700	3.807800	-11.407000	23.578702	0.000528	20.739535
397.105981	-2.990900	3.808200	-11.389000	23.583383	0.000528	20.768411
398.105586	-2.967600	3.809100	-11.303000	23.602162	0.000528	20.741242
399.104664	-2.997000	3.808600	-11.414000	23.601794	0.000528	20.737080
400.111383	-3.002800	3.808700	-11.436000	23.607543	0.000529	20.750431
401.107121	-3.020800	3.806800	-11.498000	23.573846	0.000529	20.770230
402.106343	-3.002500	3.807000	-11.429000	23.594289	0.000531	20.740937
403.107431	-3.001400	3.807500	-11.427000	23.561310	0.000530	20.741067
404.106114	-2.980700	3.806700	-11.346000	23.556678	0.000530	20.738794
405.109029	-2.999200	3.806100	-11.415000	23.531959	0.000529	20.762854
406.107308	-3.020100	3.804700	-11.490000	23.558755	0.000530	20.743248
407.106730	-3.012100	3.805400	-11.462000	23.558493	0.000529	20.734449
408.108200	-3.004300	3.805700	-11.432000	23.596406	0.000531	20.761077
409.109880	-2.990300	3.806300	-11.381000	23.604127	0.000529	20.730410
410.108483	-2.999600	3.804500	-11.411000	23.607039	0.000530	20.739019
411.111297	-2.994600	3.804600	-11.392000	23.594969	0.000531	20.765801
412.110714	-3.027200	3.802700	-11.511000	23.641948	0.000532	20.728970
413.110085	-2.992900	3.803900	-11.384000	23.649718	0.000533	20.741028
414.112482	-2.991400	3.804100	-11.379000	23.627268	0.000531	20.745548
415.112094	-3.010800	3.802800	-11.449000	23.598970	0.000531	20.734249
416.112875	-3.012600	3.803800	-11.458000	23.629363	0.000531	20.730579
417.111079	-2.983000	3.804300	-11.347000	23.657675	0.000530	20.733357
418.112782	-2.996400	3.803200	-11.395000	23.674375	0.000532	20.749152
419.113344	-3.030600	3.802200	-11.522000	23.697980	0.000531	20.724927
420.112957	-3.016900	3.802000	-11.469000	23.679641	0.000532	20.720765
421.117611	-2.997400	3.802200	-11.396000	23.653905	0.000533	20.736690
422.118475	-3.003800	3.802500	-11.421000	23.634881	0.000531	20.727575
423.114445	-2.993900	3.801500	-11.381000	23.630730	0.000532	20.747596
424.114734	-2.983900	3.801500	-11.343000	23.641689	0.000534	20.740564
425.119008	-2.997900	3.802900	-11.399000	23.659857	0.000532	20.715155
426.116436	-2.989200	3.801500	-11.362000	23.680692	0.000538	20.750743
427.119076	-3.007000	3.801100	-11.429000	23.685526	0.000535	20.725243
428.116901	-3.008600	3.800500	-11.433000	23.718233	0.000533	20.727688
429.116590	-2.990100	3.799300	-11.360000	23.694814	0.000536	20.744038
430.116541	-3.006200	3.798900	-11.420000	23.680397	0.000536	20.735749
431.117980	-2.996600	3.799800	-11.386000	23.695801	0.000535	20.731278
432.118513	-3.009500	3.798900	-11.431000	23.705267	0.000536	20.725594
433.119117	-3.005800	3.798800	-11.417000	23.704868	0.000535	20.726617
434.119574	-2.990400	3.798900	-11.359000	23.706654	0.000536	20.737417
435.118727	-3.007400	3.796300	-11.416000	23.742187	0.000535	20.734161
436.118850	-2.992400	3.797600	-11.363000	23.702959	0.000534	20.721383
437.118551	-3.004900	3.797200	-11.410000	23.768418	0.000534	20.725847
438.120718	-3.004900	3.798000	-11.412000	23.748384	0.000534	20.729943
439.118666	-3.001100	3.798000	-11.398000	23.745547	0.000534	20.742272
440.119648	-3.009000	3.797400	-11.425000	23.723351	0.000536	20.742777
441.123014	-2.989700	3.797200	-11.351000	23.756536	0.000537	20.730530
442.120558	-3.001400	3.797800	-11.398000	23.772836	0.000536	20.725535
443.123356	-3.017600	3.795700	-11.452000	23.819831	0.000537	20.722395
444.120796	-3.029800	3.796100	-11.501000	23.824911	0.000537	20.717530
445.120677	-3.008900	3.797000	-11.424000	23.842365	0.000537	20.731239
446.120670	-3.002900	3.796500	-11.400000	23.854268	0.000537	20.737959
447.120124	-3.016200	3.795900	-11.449000	23.812556	0.000538	20.707512
448.120047	-2.989700	3.795800	-11.347000	23.791829	0.000537	20.713284
449.122888	-2.994700	3.796800	-11.369000	23.818907	0.000537	20.716726
450.120185	-2.990000	3.796300	-11.350000	23.833297	0.000537	20.723568
451.127956	-3.006400	3.794700	-11.407000	23.828820	0.000539	20.718131
452.126449	-2.990100	3.795200	-11.347000	23.821702	0.000540	20.739919
453.122801	-2.993800	3.794500	-11.358000	23.796923	0.000537	20.713649
454.124454	-2.996600	3.795200	-11.372000	23.805785	0.000537	20.720165
455.126621	-2.987700	3.795100	-11.337000	23.802198	0.000538	20.713249
456.122707	-2.987700	3.794000	-11.334000	23.822687	0.000538	20.727629
457.122029	-2.997900	3.793700	-11.371000	23.822498	0.000539	20.709894
458.122053	-3.000800	3.792100	-11.378000	23.807863	0.000538	20.712290
459.124157	-2.998800	3.793000	-11.374000	23.807764	0.000541	20.731159
460.123116	-3.005100	3.793300	-11.398000	23.805603	0.000537	20.710973
461.122778	-2.988600	3.794100	-11.338000	23.849883	0.000542	20.713646
462.122438	-3.013600	3.791900	-11.426000	23.860391	0.000539	20.714700
463.127044	-2.996800	3.791100	-11.360000	23.836096	0.000538	20.699821
464.124168	-3.029500	3.791800	-11.486000	23.850818	0.000539	20.703203
465.125133	-3.011400	3.789900	-11.413000	23.844639	0.000539	20.712655
466.123039	-3.004400	3.792500	-11.393000	23.851487	0.000541	20.706719
467.123929	-3.001400	3.790400	-11.375000	23.843603	0.000540	20.714935
468.124850	-2.973700	3.790300	-11.271000	23.907422	0.000538	20.727721
469.125885	-2.972800	3.791100	-11.270000	23.915754	0.000541	20.715687
470.127565	-2.995900	3.789900	-11.354000	23.938066	0.000540	20.703446
471.139119	-2.991200	3.790700	-11.338000	23.955806	0.000540	20.690888
472.126018	-2.995600	3.789700	-11.352000	23.948240	0.000540	20.705588
473.126705	-3.018000	3.787500	-11.430000	23.960534	0.000539	20.704640
474.126636	-3.024400	3.788800	-11.457000	23.961087	0.000539	20.699031
475.127455	-3.029500	3.787100	-11.472000	23.964779	0.000540	20.688981
476.130180	-3.008900	3.787600	-11.396000	23.978687	0.000539	20.692972
477.126388	-3.019200	3.788100	-11.436000	23.965749	0.000540	20.701335
478.127644	-3.019600	3.786700	-11.432000	23.983815	0.000541	20.689578
479.129335	-2.989900	3.787700	-11.324000	23.938805	0.000538	20.696126
480.128638	-2.985100	3.787900	-11.306000	23.950682	0.000540	20.687647
481.133164	-3.004800	3.786700	-11.378000	23.933481	0.000540	20.678458
482.128527	-2.981200	3.787100	-11.289000	23.920193	0.000539	20.708757
483.128378	-2.988600	3.785400	-11.312000	23.921814	0.000540	20.706590
484.128987	-3.005800	3.786200	-11.380000	23.925874	0.000541	20.695961
485.129640	-3.001300	3.787500	-11.366000	23.907888	0.000539	20.702108
486.131796	-3.009300	3.786300	-11.393000	23.899353	0.000539	20.698290
487.130600	-2.998000	3.787200	-11.353000	23.888795	0.000542	20.675848
488.128484	-3.000400	3.785700	-11.358000	23.907986	0.000542	20.690826
489.129889	-3.026500	3.785000	-11.455000	23.934872	0.000540	20.700717
490.130600	-3.028400	3.784700	-11.461000	23.947597	0.000541	20.690243
491.129600	-3.014200	3.784200	-11.406000	23.950059	0.000541	20.684177
492.132456	-2.997800	3.784400	-11.344000	23.981787	0.000540	20.690391
493.133446	-2.997800	3.784400	-11.344000	23.972419	0.000541	20.669614
494.131362	-2.998400	3.784100	-11.345000	23.973659	0.000543	20.693145
495.132883	-3.015500	3.782500	-11.404000	23.981704	0.000542	20.705007
496.131896	-2.982300	3.783200	-11.281000	23.987370	0.000540	20.702154
497.134434	-3.014600	3.782400	-11.402000	24.006038	0.000541	20.687208
498.132308	-3.008800	3.781900	-11.377000	24.003583	0.000542	20.688066
499.132775	-2.997800	3.780800	-11.333000	23.957793	0.000540	20.689088
500.132862	-3.023700	3.781300	-11.432000	23.971211	0.000540	20.701596
501.132729	-3.015500	3.781400	-11.402000	24.001625	0.000543	20.691793
502.134706	-3.011200	3.781300	-11.385000	24.036784	0.000541	20.672997
503.136618	-2.974800	3.782400	-11.251000	24.038252	0.000541	20.676365
504.133850	-3.002200	3.780100	-11.348000	24.003289	0.000539	20.683503
505.134233	-3.004200	3.781200	-11.359000	24.019396	0.000542	20.692544
506.137408	-3.014200	3.780800	-11.395000	24.027833	0.000543	20.693419
507.133515	-3.014700	3.780100	-11.394000	24.038308	0.000542	20.678319
508.135796	-2.988300	3.780000	-11.294000	24.081885	0.000541	20.700213
509.135518	-2.996000	3.778600	-11.320000	24.053966	0.000542	20.693075
510.135554	-2.967500	3.779400	-11.215000	24.086115	0.000543	20.682643
511.135664	-2.999500	3.778600	-11.333000	24.100078	0.000542	20.697122
512.136128	-2.971700	3.779300	-11.230000	24.091666	0.000542	20.679200
513.140383	-2.990400	3.778000	-11.297000	24.076912	0.000541	20.700441
514.135874	-2.992800	3.780100	-11.312000	24.084606	0.000543	20.663109
515.135440	-2.997900	3.778600	-11.327000	24.105187	0.000542	20.680908
516.135663	-2.999100	3.777800	-11.329000	24.137132	0.000544	20.664107
517.135759	-3.001800	3.777600	-11.339000	24.136985	0.000543	20.674392
518.135719	-3.005700	3.777500	-11.353000	24.114513	0.000543	20.665129
519.139189	-3.020700	3.777400	-11.409000	24.109036	0.000541	20.689510
520.137424	-2.986200	3.776300	-11.276000	24.090818	0.000543	20.670289
521.137094	-2.991100	3.777400	-11.297000	24.087688	0.000544	20.663355
522.139090	-2.982100	3.776200	-11.260000	24.065239	0.000543	20.682095
523.137203	-3.006700	3.775200	-11.350000	24.047722	0.000544	20.680648
524.138345	-2.998500	3.774600	-11.317000	24.048790	0.000546	20.682667
525.138947	-3.023400	3.775200	-11.413000	24.059461	0.000547	20.675350
526.138425	-2.984200	3.775600	-11.266000	24.066651	0.000547	20.674975
527.139872	-2.997700	3.774800	-11.315000	24.056014	0.000547	20.675213
528.139186	-2.986800	3.773300	-11.269000	24.054719	0.000546	20.668223
529.141416	-2.984400	3.774900	-11.265000	24.102707	0.000546	20.666091
530.140193	-3.017100	3.773700	-11.385000	24.115276	0.000544	20.670162
531.141052	-3.010700	3.774000	-11.362000	24.103173	0.000546	20.652331
532.141415	-3.011900	3.773600	-11.365000	24.150189	0.000547	20.671040
533.142835	-3.012500	3.772500	-11.364000	24.148578	0.000545	20.649507
534.143252	-2.979900	3.773400	-11.243000	24.147054	0.000547	20.658885
535.146738	-2.998500	3.772700	-11.311000	24.073744	0.000545	20.680193
536.143821	-3.003000	3.772800	-11.329000	24.049341	0.000545	20.662830
537.145137	-2.993200	3.772800	-11.292000	24.059140	0.000550	20.660803
538.145380	-3.017800	3.771700	-11.381000	24.087167	0.000546	20.679430
539.145259	-3.000200	3.771500	-11.315000	24.101809	0.000546	20.650489
540.145178	-2.995800	3.771900	-11.299000	24.104565	0.000546	20.652779
541.145669	-3.000100	3.771600	-11.314000	24.143741	0.000548	20.667416
542.150573	-3.011100	3.769800	-11.350000	24.133000	0.000546	20.678931
543.147390	-2.999800	3.769400	-11.306000	24.196708	0.000547	20.667912
544.147582	-2.998300	3.771300	-11.306000	24.199751	0.000548	20.675232
545.147642	-3.017400	3.769900	-11.374000	24.189834	0.000547	20.676191
546.149597	-3.004000	3.768800	-11.321000	24.166526	0.000546	20.661346
547.148079	-2.995500	3.770100	-11.293000	24.178688	0.000546	20.682081
548.147863	-3.016000	3.768200	-11.364000	24.195783	0.000547	20.661293
549.147181	-3.026400	3.767300	-11.401000	24.191448	0.000546	20.676387
550.147865	-3.001800	3.769400	-11.314000	24.179991	0.000547	20.659203
551.155160	-3.000300	3.768500	-11.306000	24.192716	0.000545	20.662484
552.147311	-2.985300	3.767400	-11.246000	24.194152	0.000545	20.674357
553.147246	-3.000000	3.768400	-11.304000	24.223390	0.000547	20.660061
554.148624	-2.973600	3.768700	-11.206000	24.205322	0.000548	20.672285
555.149045	-3.009600	3.767100	-11.337000	24.201558	0.000547	20.667086
556.148868	-2.993500	3.768100	-11.279000	24.211135	0.000544	20.687600
557.152736	-3.004000	3.765800	-11.312000	24.241270	0.000547	20.686058
558.148381	-2.997000	3.767000	-11.287000	24.242730	0.000547	20.671874
559.148838	-2.992700	3.765800	-11.269000	24.279023	0.000546	20.675088
560.153635	-3.002800	3.766500	-11.309000	24.307384	0.000545	20.667027
561.148829	-3.011400	3.763700	-11.333000	24.289660	0.000545	20.675801
562.153431	-2.979900	3.765000	-11.218000	24.293711	0.000545	20.672752
563.151201	-2.981700	3.766200	-11.229000	24.270689	0.000544	20.670522
564.151346	-3.001100	3.765900	-11.301000	24.275490	0.000544	20.688141
565.152753	-2.978600	3.765700	-11.216000	24.300935	0.000544	20.677154
566.154120	-2.991100	3.765000	-11.260000	24.285931	0.000545	20.672535
567.159273	-2.989400	3.763300	-11.249000	24.291400	0.000545	20.673280
568.153569	-3.002800	3.763000	-11.298000	24.325850	0.000544	20.680811
569.154386	-2.989700	3.763300	-11.251000	24.296488	0.000544	20.678384
570.153130	-2.995900	3.763600	-11.274000	24.307752	0.000544	20.679725
571.153725	-2.992000	3.763100	-11.258000	24.313725	0.000542	20.670069
572.154020	-3.003300	3.764100	-11.304000	24.300564	0.000544	20.663030
573.155044	-2.996400	3.762400	-11.273000	24.269212	0.000544	20.683740
574.155380	-3.001200	3.763700	-11.295000	24.262637	0.000542	20.668608
575.153960	-3.013600	3.761100	-11.334000	24.266051	0.000543	20.681991
576.158231	-3.020000	3.762400	-11.361000	24.237184	0.000544	20.682908
577.153921	-3.008500	3.760700	-11.314000	24.228651	0.000542	20.679564
578.155532	-3.007700	3.761500	-11.313000	24.264226	0.000544	20.672100
579.153266	-2.997200	3.760300	-11.270000	24.241463	0.000542	20.669655
580.153748	-3.033300	3.760200	-11.405000	24.230910	0.000544	20.672346
581.154245	-2.995000	3.760900	-11.262000	24.232898	0.000543	20.684773
582.154901	-3.007300	3.760800	-11.309000	24.239247	0.000543	20.684029
583.159402	-3.019000	3.758300	-11.345000	24.272434	0.000542	20.671798
584.156706	-2.999800	3.758600	-11.275000	24.291513	0.000543	20.659641
585.155141	-3.010700	3.759000	-11.316000	24.334950	0.000541	20.685198
586.156415	-3.014100	3.758600	-11.328000	24.337671	0.000542	20.685556
587.160911	-3.013800	3.759000	-11.328000	24.333655	0.000541	20.687218
588.155984	-3.002700	3.757400	-11.281000	24.340892	0.000543	20.678830
589.156770	-2.987300	3.757500	-11.224000	24.352985	0.000541	20.690488
590.158431	-2.995500	3.759100	-11.260000	24.375599	0.000541	20.670498
591.158966	-3.003100	3.759300	-11.289000	24.370732	0.000541	20.666090
592.158737	-3.011400	3.758100	-11.316000	24.401153	0.000543	20.670530
593.159773	-3.024900	3.757300	-11.365000	24.377244	0.000542	20.683530
594.162824	-2.973800	3.757800	-11.173000	24.383021	0.000542	20.688851
595.159722	-2.991100	3.756200	-11.234000	24.383315	0.000543	20.701001
596.164348	-2.979700	3.757900	-11.197000	24.455309	0.000543	20.667962
597.159755	-3.002200	3.756500	-11.276000	24.472526	0.000542	20.665794
598.160519	-3.002200	3.755900	-11.275000	24.428425	0.000542	20.668018
599.162024	-3.002500	3.756600	-11.278000	24.378025	0.000542	20.676252
600.163144	-3.009100	3.756800	-11.303000	24.375122	0.000541	20.688040
601.159354	-3.002400	3.755600	-11.274000	24.357799	0.000539	20.674927
602.160289	-3.010000	3.754900	-11.301000	24.359143	0.000542	20.684812
603.161597	-3.008500	3.755800	-11.298000	24.409398	0.000540	20.670740
604.161738	-2.986100	3.755200	-11.213000	24.441690	0.000543	20.681327
605.163803	-2.964700	3.754900	-11.131000	24.394396	0.000542	20.674183
606.162262	-3.008200	3.753300	-11.290000	24.372931	0.000540	20.677305
607.162000	-2.992300	3.754000	-11.232000	24.373648	0.000541	20.666170
608.162686	-3.003800	3.752000	-11.269000	24.413725	0.000542	20.680298
609.163833	-3.011400	3.753600	-11.303000	24.447127	0.000542	20.663072
610.164278	-2.991500	3.752200	-11.224000	24.436982	0.000542	20.699364
611.164005	-2.989500	3.752500	-11.217000	24.392512	0.000541	20.709280
612.163474	-2.990300	3.752100	-11.219000	24.371660	0.000540	20.698792
613.164342	-3.009000	3.752500	-11.290000	24.355590	0.000540	20.689782
614.165016	-2.995400	3.752200	-11.239000	24.362753	0.000541	20.682269
615.163738	-3.000300	3.752200	-11.257000	24.343080	0.000539	20.683870
616.165191	-2.997400	3.751100	-11.243000	24.357155	0.000539	20.687559
617.165913	-3.006200	3.751600	-11.277000	24.385668	0.000541	20.686765
618.168912	-2.976100	3.751400	-11.164000	24.422901	0.000539	20.681917
619.167048	-2.976200	3.752100	-11.167000	24.471385	0.000542	20.684092
620.169774	-3.000800	3.749800	-11.251000	24.471157	0.000538	20.677225
621.174472	-2.981600	3.750600	-11.182000	24.455267	0.000540	20.676929
622.166727	-2.985900	3.751100	-11.200000	24.454101	0.000540	20.686192
623.167773	-3.004500	3.750000	-11.266000	24.428450	0.000541	20.690330
624.166770	-2.991300	3.750100	-11.217000	24.412013	0.000541	20.685219
625.169428	-2.994700	3.750100	-11.229000	24.352312	0.000540	20.680804
626.169915	-3.000500	3.749100	-11.248000	24.402837	0.000539	20.690713
627.168370	-2.998700	3.748200	-11.239000	24.438301	0.000541	20.694524
628.167423	-2.983100	3.749600	-11.185000	24.451867	0.000538	20.671622
629.169480	-2.996300	3.748300	-11.229000	24.461369	0.000539	20.687794
630.177345	-3.004500	3.746900	-11.257000	24.493131	0.000539	20.676986
631.167722	-2.991600	3.749100	-11.214000	24.482611	0.000540	20.691563
632.172891	-3.000800	3.746900	-11.242000	24.526587	0.000537	20.692062
633.167734	-3.005900	3.747800	-11.265000	24.548056	0.000539	20.673297
634.169056	-3.016300	3.746700	-11.300000	24.531939	0.000541	20.685577
635.168980	-3.002200	3.745700	-11.244000	24.528078	0.000540	20.693084
636.169711	-2.985100	3.746900	-11.184000	24.529650	0.000539	20.689445
637.169161	-2.989900	3.745700	-11.199000	24.501116	0.000541	20.680256
638.174574	-3.011000	3.745600	-11.277000	24.519750	0.000538	20.684727
639.170828	-3.012700	3.745400	-11.283000	24.495084	0.000537	20.680842
640.171040	-2.987400	3.745500	-11.188000	24.479863	0.000536	20.708247
641.172286	-3.011200	3.744900	-11.276000	24.495084	0.000537	20.670884
642.171358	-2.981500	3.745300	-11.166000	24.471363	0.000540	20.688812
643.176274	-2.988800	3.744800	-11.191000	24.522673	0.000539	20.689557
644.172393	-3.012300	3.744300	-11.278000	24.577793	0.000539	20.687962
645.172520	-3.011800	3.743900	-11.275000	24.562468	0.000538	20.701036
646.170594	-2.988000	3.744500	-11.188000	24.593989	0.000540	20.701844
647.172853	-2.994300	3.743900	-11.209000	24.547009	0.000537	20.705440
648.174817	-3.006100	3.743300	-11.252000	24.515745	0.000537	20.690667
649.173778	-3.013900	3.742800	-11.279000	24.460003	0.000536	20.680733
650.176716	-2.999000	3.742800	-11.224000	24.482842	0.000539	20.693217
651.174762	-2.972100	3.743700	-11.125000	24.505975	0.000536	20.689873
652.174809	-3.005200	3.740900	-11.241000	24.538989	0.000537	20.711619
653.174924	-2.990100	3.741800	-11.188000	24.514961	0.000538	20.691302
654.174924	-3.005900	3.741300	-11.245000	24.534816	0.000536	20.697948
655.173172	-2.990600	3.741700	-11.189000	24.522407	0.000538	20.699248
656.180123	-3.007000	3.740400	-11.246000	24.556439	0.000534	20.714903
657.180346	-2.996400	3.741200	-11.209000	24.578006	0.000534	20.687228
658.181343	-3.006200	3.740700	-11.244000	24.579252	0.000537	20.725465
659.177893	-2.986300	3.740800	-11.170000	24.586267	0.000535	20.709743
660.175010	-3.002500	3.739800	-11.228000	24.552323	0.000535	20.684691
661.175288	-3.014700	3.740400	-11.275000	24.600321	0.000536	20.707249
662.174261	-3.018800	3.739700	-11.288000	24.596775	0.000537	20.686146
663.174634	-3.008700	3.738900	-11.249000	24.630203	0.000537	20.689816
664.177700	-3.005600	3.739100	-11.237000	24.602508	0.000535	20.695693
665.176986	-2.975400	3.739200	-11.124000	24.612180	0.000536	20.700182
666.175437	-2.990400	3.739700	-11.182000	24.625940	0.000537	20.695022
667.175367	-3.016000	3.737900	-11.273000	24.631869	0.000539	20.721362
668.179897	-3.001200	3.738200	-11.219000	24.619755	0.000535	20.698299
669.179296	-2.997800	3.737700	-11.204000	24.624456	0.000536	20.724355
670.179648	-3.002900	3.737500	-11.222000	24.613766	0.000535	20.689918
671.179078	-3.014000	3.738000	-11.266000	24.603996	0.000536	20.713308
672.178424	-2.988200	3.738700	-11.172000	24.594275	0.000536	20.692173
673.177801	-2.991100	3.736900	-11.176000	24.581523	0.000533	20.706406
674.178881	-2.989800	3.736300	-11.170000	24.601549	0.000534	20.718439
675.179047	-2.995200	3.736200	-11.190000	24.613811	0.000535	20.695180
676.181584	-2.999300	3.737400	-11.209000	24.643262	0.000534	20.711931
677.179517	-2.963400	3.736500	-11.071000	24.623839	0.000536	20.692914
678.178342	-3.004000	3.735800	-11.221000	24.579451	0.000534	20.710016
679.180226	-3.013900	3.736100	-11.260000	24.563310	0.000532	20.699036
680.178473	-3.029700	3.734200	-11.312000	24.555651	0.000534	20.709370
681.184712	-3.012200	3.733800	-11.246000	24.555007	0.000534	20.727217
682.179753	-2.992600	3.736100	-11.179000	24.587793	0.000535	20.703687
683.181098	-3.021100	3.734200	-11.281000	24.623664	0.000536	20.710758
684.180252	-2.990200	3.735200	-11.168000	24.658681	0.000537	20.707487
685.179671	-3.002900	3.734600	-11.213000	24.669776	0.000536	20.720519
686.183062	-2.984200	3.736100	-11.148000	24.681589	0.000537	20.721941
687.181489	-2.971800	3.733400	-11.094000	24.620406	0.000535	20.715549
688.180793	-2.995900	3.733200	-11.183000	24.594905	0.000536	20.716989
689.184245	-2.988300	3.732800	-11.154000	24.577347	0.000536	20.703638
690.181970	-2.973100	3.734600	-11.102000	24.611298	0.000533	20.725851
691.182943	-2.987300	3.733200	-11.151000	24.593789	0.000535	20.724404
692.181587	-2.996500	3.732500	-11.184000	24.586571	0.000536	20.695348
693.193361	-2.987300	3.732500	-11.149000	24.643416	0.000534	20.722992
694.180630	-2.981600	3.733700	-11.131000	24.656696	0.000536	20.712135
695.184790	-3.009900	3.731900	-11.231000	24.592277	0.000534	20.727628
696.181550	-2.990100	3.731700	-11.158000	24.599960	0.000534	20.718742
697.183753	-3.031200	3.730700	-11.307000	24.606674	0.000533	20.715046
698.182701	-2.979700	3.730700	-11.116000	24.637431	0.000533	20.725046
699.182771	-2.994700	3.732000	-11.176000	24.668537	0.000534	20.733027
700.182909	-2.993600	3.730500	-11.167000	24.699079	0.000533	20.736174
701.183382	-3.019600	3.729200	-11.260000	24.685597	0.000532	20.716480
702.191220	-3.016500	3.729300	-11.249000	24.684026	0.000532	20.727705
703.185492	-3.008700	3.731100	-11.224000	24.713346	0.000534	20.721091
704.183952	-3.026500	3.729200	-11.286000	24.720752	0.000532	20.725679
705.184854	-3.002000	3.727900	-11.191000	24.730226	0.000532	20.721436
706.185658	-2.980900	3.728900	-11.114000	24.704687	0.000532	20.723782
707.187066	-3.015300	3.728500	-11.241000	24.661068	0.000533	20.722212
708.187892	-2.988100	3.728900	-11.142000	24.645776	0.000531	20.730101
709.188334	-2.998200	3.727800	-11.176000	24.654330	0.000531	20.735840
710.187948	-3.000600	3.727900	-11.185000	24.637540	0.000532	20.741278
711.189132	-3.001700	3.728700	-11.191000	24.676539	0.000531	20.726831
712.188414	-3.012600	3.726400	-11.226000	24.678527	0.000532	20.744000
713.190235	-2.982100	3.726800	-11.113000	24.688401	0.000534	20.740631
714.194829	-3.005900	3.727200	-11.203000	24.714347	0.000531	20.740115
715.188989	-2.994000	3.728100	-11.161000	24.705719	0.000530	20.728137
716.192993	-3.000500	3.726300	-11.180000	24.703486	0.000529	20.734432
717.189821	-2.974600	3.728300	-11.089000	24.689580	0.000528	20.720951
718.193490	-2.990500	3.725900	-11.142000	24.686567	0.000529	20.732626
719.190096	-3.030200	3.725200	-11.287000	24.703658	0.000531	20.727017
720.193158	-2.977100	3.726300	-11.093000	24.658320	0.000529	20.723722
721.191188	-2.992000	3.725700	-11.147000	24.641495	0.000528	20.749040
722.192164	-2.987000	3.725700	-11.128000	24.681197	0.000529	20.729609
723.198063	-2.986900	3.725200	-11.126000	24.681334	0.000528	20.743971
724.200879	-3.014500	3.724400	-11.226000	24.658677	0.000528	20.766282
725.193604	-2.976500	3.725900	-11.089000	24.674652	0.000529	20.731576
726.191454	-3.002500	3.723900	-11.180000	24.677634	0.000528	20.749742
727.193636	-2.998200	3.723600	-11.163000	24.687932	0.000528	20.759127
728.191896	-2.992600	3.724000	-11.144000	24.664110	0.000528	20.759405
729.193738	-3.022200	3.723900	-11.253000	24.652727	0.000528	20.747508
730.190973	-2.993900	3.722800	-11.145000	24.676899	0.000528	20.762281
731.191771	-3.002900	3.723400	-11.179000	24.697616	0.000527	20.747983
732.191432	-3.003100	3.724300	-11.184000	24.682373	0.000526	20.742644
733.196895	-3.014500	3.722200	-11.219000	24.678901	0.000528	20.752910
734.196935	-2.987600	3.723600	-11.124000	24.675986	0.000526	20.754726
735.196606	-2.987800	3.721800	-11.119000	24.675097	0.000526	20.745773
736.193630	-2.987800	3.721800	-11.119000	24.664033	0.000525	20.763595
737.199545	-2.985200	3.722400	-11.110000	24.684099	0.000524	20.757652
738.195077	-2.996400	3.720400	-11.147000	24.706437	0.000526	20.737393
739.194648	-3.005400	3.721500	-11.183000	24.732025	0.000523	20.769236
740.196826	-3.013000	3.719500	-11.206000	24.744236	0.000525	20.753515
741.194387	-3.013700	3.722000	-11.216000	24.766947	0.000525	20.772987
742.196273	-2.992900	3.721200	-11.137000	24.744163	0.000524	20.751544
743.197737	-2.996100	3.719900	-11.144000	24.774230	0.000526	20.754691
744.196766	-3.021600	3.719600	-11.238000	24.804076	0.000524	20.757143
745.201413	-3.012000	3.718900	-11.199000	24.808175	0.000525	20.750824
746.204648	-3.000000	3.718500	-11.155000	24.777244	0.000525	20.759138
747.199108	-3.004200	3.718400	-11.171000	24.775483	0.000525	20.764958
748.198782	-2.989100	3.719400	-11.117000	24.760210	0.000524	20.744414
749.198298	-3.006900	3.718000	-11.179000	24.786798	0.000522	20.764459
750.201103	-3.002300	3.718400	-11.162000	24.808434	0.000523	20.765783
751.198377	-2.983700	3.720000	-11.098000	24.840480	0.000522	20.757167
752.200186	-3.005000	3.718800	-11.173000	24.845187	0.000522	20.759995
753.199418	-2.998200	3.717600	-11.145000	24.831486	0.000523	20.745296
754.204137	-3.006600	3.718000	-11.178000	24.792345	0.000521	20.759120
755.201818	-2.989400	3.717500	-11.112000	24.800328	0.000522	20.769029
756.202140	-2.985100	3.717600	-11.097000	24.796100	0.000522	20.781856
757.202111	-2.983000	3.717600	-11.088000	24.803341	0.000525	20.757354
758.203045	-3.000600	3.716500	-11.151000	24.826590	0.000522	20.774522
759.205031	-3.018900	3.716500	-11.219000	24.799660	0.000522	20.783057
760.201503	-2.997700	3.716300	-11.139000	24.757161	0.000522	20.784978
761.208149	-3.009800	3.715000	-11.180000	24.730205	0.000522	20.770254
762.203986	-2.992000	3.717200	-11.121000	24.738913	0.000521	20.788002
763.203062	-3.003600	3.714200	-11.155000	24.731353	0.000521	20.778519
764.203836	-3.009700	3.714800	-11.180000	24.728217	0.000522	20.761621
765.206073	-2.988700	3.715800	-11.105000	24.759247	0.000520	20.769527
766.207011	-2.997700	3.715500	-11.137000	24.775441	0.000523	20.775821
767.206607	-3.011700	3.714100	-11.185000	24.806281	0.000521	20.775477
768.207080	-3.011700	3.714200	-11.186000	24.823136	0.000519	20.791444
769.203815	-2.987800	3.714500	-11.097000	24.850366	0.000520	20.753813
770.209434	-2.990500	3.714800	-11.108000	24.847059	0.000520	20.778470
771.205944	-2.983800	3.714300	-11.081000	24.825872	0.000520	20.769534
772.208265	-3.005600	3.713700	-11.162000	24.825400	0.000520	20.798932
773.206603	-2.978700	3.712100	-11.056000	24.822964	0.000518	20.779892
774.206300	-2.975200	3.713600	-11.047000	24.791726	0.000519	20.768456
775.208559	-3.018400	3.711900	-11.203000	24.799089	0.000519	20.764466
776.208914	-3.022500	3.711800	-11.217000	24.839003	0.000519	20.769436
777.210070	-3.019600	3.711700	-11.207000	24.845789	0.000519	20.793316
778.209560	-3.002800	3.712000	-11.146000	24.827437	0.000519	20.795761
779.209749	-3.004500	3.712500	-11.153000	24.861803	0.000517	20.790422
780.209636	-2.976000	3.712500	-11.047000	24.885775	0.000519	20.796463
781.216843	-2.978900	3.711400	-11.055000	24.885229	0.000518	20.776001
782.209249	-2.984000	3.711000	-11.073000	24.878730	0.000518	20.790341
783.210027	-2.990900	3.712500	-11.103000	24.876602	0.000516	20.791999
784.210057	-2.991400	3.710600	-11.099000	24.862975	0.000517	20.806297
785.209567	-2.974100	3.711100	-11.036000	24.899118	0.000517	20.790889
786.214897	-2.977900	3.710500	-11.048000	24.960986	0.000517	20.786604
787.211001	-3.007400	3.710400	-11.158000	24.945967	0.000516	20.800453
788.212951	-2.999400	3.710000	-11.127000	24.989980	0.000514	20.816181
789.210456	-2.987600	3.709700	-11.082000	24.945967	0.000515	20.787651
790.209024	-2.990600	3.707900	-11.088000	24.920692	0.000517	20.805904
791.213281	-2.985500	3.709800	-11.075000	24.890744	0.000515	20.782010
792.211179	-3.001600	3.708600	-11.130000	24.903972	0.000516	20.796235
793.213669	-2.996500	3.708400	-11.111000	24.875829	0.000514	20.794542
794.214192	-2.994500	3.708500	-11.104000	24.903849	0.000515	20.806543
795.211822	-3.018100	3.707000	-11.188000	24.898065	0.000515	20.809746
796.211840	-3.019800	3.707200	-11.194000	24.932096	0.000515	20.802374
797.213346	-2.996400	3.706900	-11.106000	24.902911	0.000514	20.794222
798.211270	-2.992000	3.708500	-11.095000	24.897242	0.000513	20.808447
799.213582	-3.008400	3.707600	-11.153000	24.876154	0.000513	20.772583
800.213179	-3.001600	3.706100	-11.124000	24.862405	0.000515	20.792449
801.219634	-3.002400	3.707400	-11.130000	24.831948	0.000514	20.807400
802.211792	-3.014200	3.706200	-11.170000	24.826327	0.000513	20.799863
803.212810	-3.000200	3.705800	-11.116000	24.859724	0.000513	20.798293
804.215515	-3.000600	3.705600	-11.118000	24.901102	0.000511	20.787665
805.212873	-3.010700	3.706500	-11.159000	24.913735	0.000513	20.816939
806.211426	-2.985000	3.705900	-11.060000	24.962687	0.000513	20.801588
807.212961	-2.988900	3.706200	-11.076000	24.964884	0.000514	20.792888
808.212673	-3.005500	3.705400	-11.136000	24.976001	0.000512	20.807839
809.211519	-3.000300	3.705400	-11.116000	24.914711	0.000512	20.780461
810.214975	-3.042800	3.704000	-11.270000	24.913847	0.000515	20.800457
811.212497	-3.001300	3.705300	-11.118000	24.884084	0.000510	20.804724
812.212917	-3.000600	3.704100	-11.113000	24.870653	0.000511	20.816374
813.216813	-3.005700	3.704000	-11.131000	24.865383	0.000510	20.799705
814.212973	-3.002100	3.702500	-11.114000	24.874636	0.000511	20.800931
815.215156	-2.978200	3.703100	-11.028000	24.891577	0.000512	20.798968
816.212926	-2.998800	3.703000	-11.104000	24.919376	0.000510	20.803161
817.214577	-3.000700	3.702800	-11.111000	24.922365	0.000509	20.800471
818.212478	-2.998300	3.703100	-11.102000	24.927162	0.000512	20.800545
819.214886	-2.991600	3.701900	-11.074000	24.924996	0.000508	20.789836
820.215804	-2.994600	3.703100	-11.089000	24.913291	0.000509	20.792786
821.216612	-3.007800	3.700700	-11.130000	24.908290	0.000510	20.784922
822.214271	-2.999800	3.703100	-11.108000	24.872302	0.000510	20.786260
823.216642	-3.005800	3.702400	-11.128000	24.903720	0.000508	20.804043
824.217309	-2.978900	3.702700	-11.029000	24.917843	0.000508	20.792614
825.213608	-3.001400	3.700700	-11.107000	24.948525	0.000507	20.788322
826.216744	-3.004600	3.702700	-11.123000	24.933464	0.000507	20.776998
827.215751	-3.008500	3.700900	-11.133000	24.919341	0.000508	20.792221
828.217693	-3.012600	3.700300	-11.147000	24.943588	0.000507	20.781944
829.215153	-2.973700	3.700700	-11.004000	24.926459	0.000508	20.769018
830.217840	-3.002900	3.700400	-11.111000	24.955552	0.000505	20.772615
831.221592	-3.012100	3.699400	-11.142000	24.944435	0.000507	20.789906
832.218294	-2.991200	3.700200	-11.068000	24.954061	0.000508	20.767800
833.219357	-2.996900	3.699600	-11.086000	24.947504	0.000508	20.778287
834.222294	-2.970400	3.699000	-10.986000	24.992608	0.000507	20.761920
835.219253	-2.987200	3.698500	-11.048000	24.991387	0.000506	20.781083
836.219625	-2.987500	3.700100	-11.052000	24.976547	0.000506	20.760023
837.222452	-2.980200	3.699600	-11.025000	24.984634	0.000506	20.776201
838.219570	-2.994300	3.698700	-11.074000	24.952984	0.000505	20.760080
839.219824	-2.979200	3.698400	-11.017000	24.911902	0.000506	20.758675
840.220045	-2.997500	3.698900	-11.086000	24.940848	0.000505	20.760701
841.220587	-2.983200	3.698300	-11.032000	24.933314	0.000504	20.756458
842.224117	-3.004500	3.698300	-11.111000	24.950793	0.000505	20.768313
843.222046	-3.000600	3.698100	-11.095000	24.980855	0.000505	20.771460
844.222081	-2.993000	3.696200	-11.062000	24.977622	0.000507	20.771059
845.223612	-3.000100	3.696400	-11.089000	24.982695	0.000504	20.735848
846.223285	-2.995100	3.696600	-11.071000	24.981880	0.000502	20.770592
847.223869	-2.992600	3.696100	-11.060000	24.986555	0.000503	20.755844
848.223201	-2.983100	3.696900	-11.028000	25.019751	0.000505	20.776837
849.223685	-2.992300	3.695300	-11.057000	25.012763	0.000503	20.764133
850.224583	-2.982900	3.695200	-11.022000	24.979200	0.000503	20.756522
851.224962	-3.005900	3.695100	-11.106000	24.976610	0.000502	20.768622
852.225639	-3.017300	3.695000	-11.148000	24.970606	0.000504	20.754534
853.227928	-3.001400	3.693900	-11.086000	25.002060	0.000502	20.743431
854.227413	-3.011500	3.693400	-11.122000	25.013561	0.000503	20.780107
855.225915	-2.998200	3.695700	-11.079000	24.984883	0.000502	20.749898
856.230015	-3.011000	3.692900	-11.119000	24.972429	0.000501	20.765847
857.227179	-3.009800	3.692900	-11.114000	25.019293	0.000502	20.757411
858.232529	-3.018100	3.692500	-11.143000	25.033537	0.000500	20.743259
859.232783	-3.008900	3.692700	-11.110000	25.037813	0.000503	20.738068
860.228423	-3.004000	3.693400	-11.094000	25.074615	0.000501	20.750828
861.228018	-2.994800	3.692200	-11.057000	25.079240	0.000500	20.747411
862.228004	-3.010200	3.692700	-11.115000	25.040189	0.000499	20.746143
863.228236	-3.036200	3.691900	-11.209000	25.064108	0.000501	20.744548
864.230497	-2.989200	3.692300	-11.036000	25.000412	0.000500	20.743674
865.229103	-3.010800	3.691900	-11.114000	24.958499	0.000498	20.758029
866.227880	-3.000500	3.691100	-11.074000	24.962978	0.000497	20.723168
867.231149	-3.016500	3.690600	-11.132000	25.013670	0.000500	20.741335
868.227685	-2.963700	3.692000	-10.941000	25.054570	0.000499	20.738767
869.231732	-2.989800	3.692000	-11.037000	25.017684	0.000500	20.754847
870.229022	-3.004100	3.691400	-11.088000	25.004100	0.000499	20.755911
871.230453	-3.009500	3.691300	-11.108000	24.933192	0.000498	20.740688
872.229225	-3.014200	3.689300	-11.119000	24.930015	0.000498	20.747931
873.230574	-3.011800	3.689400	-11.110000	24.919556	0.000496	20.754503
874.233092	-2.993000	3.690100	-11.044000	24.925998	0.000498	20.742476
875.230170	-2.986300	3.689500	-11.017000	24.958170	0.000496	20.730671
876.229585	-2.991800	3.689400	-11.037000	24.999244	0.000498	20.737285
877.230933	-3.031800	3.688100	-11.180000	25.035690	0.000496	20.747791
878.232677	-3.005700	3.688300	-11.085000	25.038898	0.000497	20.748167
879.232419	-2.975800	3.690000	-10.980000	25.029881	0.000495	20.739115
880.234807	-2.988400	3.688400	-11.022000	25.040127	0.000495	20.731381
881.232857	-2.985000	3.689200	-11.012000	25.055966	0.000495	20.731634
882.234109	-2.991500	3.688000	-11.032000	25.073793	0.000496	20.726295
883.237929	-2.977600	3.687500	-10.978000	25.037814	0.000493	20.730007
884.239339	-2.989900	3.687800	-11.025000	25.004584	0.000493	20.757345
885.239314	-3.007700	3.686300	-11.086000	25.003817	0.000493	20.735712
886.235533	-3.004500	3.686700	-11.075000	24.955812	0.000493	20.738736
887.236438	-3.009200	3.686200	-11.092000	24.959039	0.000494	20.734388
888.235444	-2.993600	3.687600	-11.038000	24.999573	0.000493	20.740935
889.238857	-2.995200	3.686400	-11.040000	25.002488	0.000492	20.719678
890.239341	-3.023000	3.685600	-11.140000	25.000672	0.000493	20.724019
891.239594	-2.989300	3.685900	-11.017000	25.043234	0.000491	20.739716
892.265222	-3.011600	3.684600	-11.095000	25.005949	0.000493	20.731687
893.238499	-2.996600	3.684500	-11.040000	25.026065	0.000490	20.719162
894.242024	-2.989700	3.685400	-11.017000	25.034127	0.000492	20.711132
895.239172	-2.983800	3.685700	-10.997000	25.021642	0.000495	20.714248
896.240251	-3.013300	3.685100	-11.102000	24.969883	0.000490	20.738161
897.242049	-3.002300	3.683200	-11.058000	24.968287	0.000491	20.726601
898.238171	-3.013600	3.682600	-11.096000	24.994927	0.000492	20.722520
899.239281	-2.990900	3.683600	-11.017000	24.987173	0.000491	20.709994
900.255240	-2.995000	3.683200	-11.030000	24.989307	0.000490	20.719724
901.264321	-2.983200	3.683700	-10.988000	25.045820	0.000490	20.737571
902.253962	-3.003300	3.682600	-11.058000	25.037619	0.000491	20.719854
903.239437	-2.992100	3.683000	-11.020000	25.059641	0.000489	20.737219
904.260237	-2.998000	3.683000	-11.041000	25.066464	0.000490	20.721782
905.260949	-3.001800	3.681600	-11.050000	25.072255	0.000489	20.719534
906.257493	-2.992800	3.681800	-11.017000	25.061618	0.000490	20.714073
907.266125	-2.990300	3.681900	-11.009000	25.020645	0.000490	20.712773
908.254928	-2.979500	3.681800	-10.969000	25.037202	0.000487	20.735558
909.256933	-2.988100	3.681500	-11.000000	25.009315	0.000487	20.713728
910.256427	-2.970900	3.681400	-10.936000	24.993849	0.000486	20.703419
911.256836	-3.004100	3.680100	-11.055000	24.997880	0.000488	20.725959
912.263682	-2.988900	3.680800	-11.000000	25.034799	0.000487	20.719394
913.259341	-2.988400	3.682700	-11.004000	25.079973	0.000487	20.718274
914.241037	-2.990900	3.679300	-11.004000	25.047234	0.000485	20.711013
915.264070	-2.994200	3.679400	-11.015000	25.053505	0.000487	20.739594
916.259636	-2.993700	3.679200	-11.014000	24.985606	0.000485	20.701783
917.258570	-3.005200	3.678900	-11.055000	25.023826	0.000486	20.727821
918.268214	-3.018200	3.678300	-11.101000	24.998815	0.000485	20.718362
919.266036	-3.005800	3.678500	-11.056000	24.993195	0.000485	20.724101
920.258747	-2.975500	3.679800	-10.949000	25.023476	0.000484	20.711347
921.256718	-3.009000	3.678800	-11.069000	25.032410	0.000485	20.715099
922.260549	-2.974400	3.678800	-10.942000	24.995166	0.000484	20.697628
923.258909	-3.031000	3.676700	-11.143000	24.989367	0.000482	20.714568
924.242402	-3.005200	3.677100	-11.049000	24.961080	0.000482	20.697554
925.260860	-3.004700	3.677400	-11.048000	25.017987	0.000483	20.731916
926.242085	-3.013000	3.676700	-11.077000	24.998602	0.000480	20.709612
927.242023	-2.995500	3.677900	-11.016000	25.029176	0.000482	20.713276
928.242506	-2.957900	3.679200	-10.882000	25.017399	0.000481	20.718524
929.244718	-2.980200	3.676600	-10.955000	25.039551	0.000482	20.715629
930.242584	-3.005700	3.675000	-11.045000	25.087763	0.000480	20.719929
931.241756	-2.992600	3.675900	-10.999000	25.044160	0.000484	20.699865
932.243789	-3.009000	3.676600	-11.062000	25.010174	0.000481	20.697519
933.263303	-2.985600	3.676700	-10.975000	24.975942	0.000480	20.710101
934.264264	-3.000100	3.675200	-11.025000	24.972953	0.000481	20.709946
935.260990	-3.004200	3.675300	-11.040000	25.018683	0.000479	20.705588
936.243733	-3.025700	3.675400	-11.120000	25.020328	0.000480	20.697280
937.245870	-3.003600	3.674100	-11.034000	25.057987	0.000480	20.694779
938.259301	-3.017300	3.673700	-11.084000	25.045682	0.000480	20.699497
939.262520	-3.016900	3.674800	-11.086000	25.045307	0.000482	20.707182
940.244293	-3.015400	3.674300	-11.079000	25.047701	0.000480	20.696782
941.263390	-2.990000	3.674000	-10.985000	25.064909	0.000478	20.688450
942.265969	-2.988400	3.672800	-10.975000	25.056854	0.000478	20.709290
943.264064	-2.997400	3.671600	-11.004000	25.028432	0.000477	20.703045
944.250098	-3.014700	3.673100	-11.072000	25.018918	0.000476	20.696339
945.266368	-2.977300	3.673800	-10.937000	25.038310	0.000478	20.701106
946.264692	-3.005900	3.672600	-11.039000	25.030076	0.000477	20.700902
947.266724	-2.977800	3.672100	-10.933000	25.047253	0.000477	20.698703
948.250536	-2.991100	3.671200	-10.980000	25.000496	0.000478	20.682588
949.273381	-2.990000	3.672000	-10.979000	25.027519	0.000479	20.694541
950.267756	-3.013400	3.669200	-11.056000	25.050119	0.000478	20.698261
951.249816	-3.000200	3.670800	-11.012000	25.059590	0.000476	20.704924
952.272721	-2.965200	3.671300	-10.885000	25.118388	0.000477	20.697091
953.248161	-2.998500	3.670800	-11.006000	25.141514	0.000475	20.685219
954.249642	-2.979300	3.669800	-10.933000	25.151433	0.000476	20.697074
955.249831	-2.983100	3.670400	-10.948000	25.090902	0.000475	20.700794
956.275610	-2.982000	3.668300	-10.937000	25.061690	0.000476	20.685219
957.277199	-3.020400	3.669000	-11.081000	25.037999	0.000476	20.705535
958.250456	-3.007800	3.669600	-11.037000	25.026067	0.000474	20.701145
959.265356	-3.003200	3.669200	-11.019000	25.014576	0.000474	20.691506
960.249292	-3.013700	3.667700	-11.052000	25.046354	0.000473	20.684523
961.278303	-2.991000	3.668300	-10.971000	25.040392	0.000472	20.689445
962.265795	-2.989200	3.667900	-10.963000	25.051655	0.000473	20.686052
963.277397	-3.003100	3.666900	-11.011000	25.065280	0.000471	20.688823
964.255838	-3.015900	3.668000	-11.062000	25.071207	0.000474	20.685764
965.254093	-2.996900	3.668100	-10.992000	25.074538	0.000469	20.675830
966.271542	-2.995100	3.667700	-10.984000	25.049063	0.000471	20.672543
967.270161	-2.994200	3.667700	-10.981000	25.050725	0.000469	20.673263
968.273041	-3.005900	3.667000	-11.022000	25.063363	0.000470	20.667931
969.279708	-3.006500	3.666900	-11.024000	25.121209	0.000470	20.692810
970.257470	-2.989900	3.666700	-10.962000	25.154303	0.000471	20.690471
971.274908	-2.999200	3.666900	-10.996000	25.178968	0.000469	20.676825
972.274973	-3.020300	3.664700	-11.067000	25.212109	0.000469	20.679751
973.279464	-2.993600	3.666500	-10.975000	25.212459	0.000468	20.693380
974.283074	-3.012500	3.664300	-11.037000	25.159919	0.000468	20.685677
975.260949	-3.008400	3.666300	-11.029000	25.108086	0.000466	20.668729
976.256327	-2.994200	3.664900	-10.973000	25.092328	0.000466	20.673773
977.284276	-3.018600	3.663800	-11.058000	25.109192	0.000468	20.671262
978.257138	-2.986300	3.664200	-10.942000	25.151106	0.000468	20.667345
979.258005	-2.988300	3.664700	-10.951000	25.158516	0.000468	20.679527
980.261257	-2.998700	3.663500	-10.985000	25.143441	0.000464	20.659650
981.258724	-2.984600	3.664400	-10.936000	25.128782	0.000467	20.647303
982.265282	-3.000400	3.662400	-10.987000	25.148098	0.000466	20.679026
983.259949	-3.001600	3.662200	-10.990000	25.174670	0.000465	20.672984
984.259696	-2.993800	3.662900	-10.965000	25.162537	0.000467	20.672657
985.260377	-2.983900	3.662600	-10.928000	25.113430	0.000465	20.673146
986.259902	-3.012400	3.662800	-11.033000	25.152063	0.000466	20.674470
987.260542	-3.008500	3.661700	-11.015000	25.186174	0.000465	20.692121
988.268671	-3.001600	3.662600	-10.993000	25.218608	0.000465	20.642175
989.260186	-2.992700	3.660800	-10.955000	25.203852	0.000465	20.656286
990.260533	-3.026000	3.660100	-11.074000	25.128665	0.000462	20.653824
991.263170	-2.996600	3.661000	-10.969000	25.061624	0.000462	20.662391
992.261843	-3.002600	3.660400	-10.990000	25.097995	0.000463	20.662866
993.263237	-2.989600	3.659700	-10.940000	25.101301	0.000463	20.653381
994.261930	-3.016200	3.660000	-11.038000	25.108533	0.000460	20.677713
995.261735	-3.023200	3.659000	-11.061000	25.093825	0.000462	20.670060
996.263650	-3.014100	3.659900	-11.030000	25.094598	0.000461	20.661352
997.262300	-3.006900	3.659200	-11.001000	25.128231	0.000463	20.651492
998.265220	-3.001000	3.659200	-10.980000	25.125184	0.000462	20.660288
999.263070	-3.008300	3.658000	-11.003000	25.104833	0.000460	20.673524
1000.263031	-3.025400	3.657600	-11.064000	25.104059	0.000461	20.672273
1001.270494	-3.000900	3.657900	-10.975000	25.107348	0.000461	20.658030
1002.264008	-2.980400	3.659400	-10.905000	25.142773	0.000459	20.662772
1003.272421	-2.989300	3.658100	-10.934000	25.151901	0.000459	20.651072
1004.264607	-2.991000	3.658700	-10.942000	25.170125	0.000458	20.660833
1005.265778	-3.001800	3.657400	-10.978000	25.181411	0.000461	20.648455
1006.267476	-3.014800	3.658200	-11.027000	25.188650	0.000458	20.656197
1007.270384	-2.979800	3.658400	-10.900000	25.216848	0.000459	20.655583
1008.268604	-3.003400	3.655800	-10.979000	25.257904	0.000457	20.645592
1009.271544	-2.991700	3.657300	-10.940000	25.228875	0.000459	20.658649
1010.269590	-2.985900	3.655800	-10.915000	25.164448	0.000458	20.683585
1011.268779	-2.986500	3.656700	-10.919000	25.164682	0.000456	20.660111
1012.272158	-3.012500	3.654500	-11.008000	25.184512	0.000458	20.656784
1013.268044	-3.020300	3.654600	-11.038000	25.230356	0.000458	20.666774
1014.272038	-3.005200	3.654900	-10.983000	25.228033	0.000456	20.655433
1015.270692	-3.001900	3.654100	-10.968000	25.219777	0.000455	20.651410
1016.268186	-2.998700	3.653300	-10.955000	25.223905	0.000455	20.648917
1017.269032	-3.016400	3.654300	-11.023000	25.236706	0.000456	20.647543
1018.271006	-2.991000	3.654500	-10.928000	25.180959	0.000455	20.649897
1019.270968	-3.020900	3.652600	-11.033000	25.186724	0.000456	20.645727
1020.271988	-3.006400	3.653200	-10.982000	25.234922	0.000457	20.662823
1021.272011	-2.995700	3.652600	-10.941000	25.228855	0.000457	20.638712
1022.267957	-2.997900	3.652200	-10.947000	25.211112	0.000457	20.639390
1023.271475	-2.999900	3.653100	-10.958000	25.218896	0.000455	20.646732
1024.272762	-3.033300	3.651600	-11.075000	25.274533	0.000452	20.655651
1025.270082	-2.998400	3.652100	-10.949000	25.273207	0.000452	20.650052
1026.272188	-3.009100	3.651000	-10.985000	25.264917	0.000453	20.649315
1027.275574	-2.998300	3.651900	-10.948000	25.201062	0.000451	20.636412
1028.273925	-2.977600	3.652000	-10.873000	25.183636	0.000454	20.662069
1029.277175	-3.004300	3.650900	-10.968000	25.195167	0.000452	20.645668
1030.273427	-3.007100	3.651300	-10.979000	25.178661	0.000450	20.642848
1031.273091	-2.988600	3.650400	-10.909000	25.214156	0.000452	20.654777
1032.273753	-2.997700	3.649900	-10.939000	25.232705	0.000450	20.651587
1033.272951	-3.024300	3.650000	-11.037000	25.252890	0.000452	20.625857
1034.275889	-3.001300	3.649500	-10.952000	25.220198	0.000449	20.638081
1035.278499	-2.997800	3.649900	-10.940000	25.164450	0.000449	20.638538
1036.277737	-2.989100	3.648400	-10.904000	25.129173	0.000452	20.636788
1037.275263	-2.981000	3.648500	-10.876000	25.145778	0.000448	20.638759
1038.277797	-2.961100	3.649000	-10.804000	25.167186	0.000449	20.657408
1039.277927	-2.981500	3.649100	-10.878000	25.180883	0.000448	20.626584
1040.279311	-3.004400	3.646200	-10.952000	25.159653	0.000449	20.676401
1041.282818	-3.003200	3.648000	-10.954000	25.163033	0.000448	20.663671
1042.278492	-2.988200	3.647100	-10.897000	25.167560	0.000448	20.648300
1043.276958	-2.991000	3.648400	-10.912000	25.135240	0.000447	20.647147
1044.279017	-3.020800	3.646600	-11.015000	25.150826	0.000446	20.647622
1045.279607	-2.991600	3.646800	-10.908000	25.147324	0.000446	20.663074
1046.279806	-2.988000	3.646000	-10.893000	25.139767	0.000446	20.659280
1047.279637	-2.994000	3.645300	-10.913000	25.203137	0.000446	20.650351
1048.280377	-2.981000	3.645700	-10.867000	25.200670	0.000445	20.644555
1049.281677	-3.000400	3.645000	-10.936000	25.216175	0.000446	20.646371
1050.277362	-3.017100	3.644500	-10.994000	25.217225	0.000446	20.644106
1051.278458	-2.997600	3.644200	-10.923000	25.235049	0.000444	20.652519
1052.282461	-2.977800	3.645700	-10.855000	25.208300	0.000444	20.668814
1053.281608	-2.976700	3.645100	-10.850000	25.188293	0.000445	20.642086
1054.278717	-2.974300	3.644100	-10.837000	25.197088	0.000445	20.648546
1055.282441	-2.981000	3.644100	-10.862000	25.212607	0.000441	20.640892
1056.278119	-2.985300	3.644100	-10.878000	25.218509	0.000442	20.643973
1057.282954	-2.984900	3.642700	-10.873000	25.259411	0.000441	20.649003
1058.282527	-2.989600	3.642800	-10.889000	25.277910	0.000442	20.636280
1059.280158	-2.974600	3.643200	-10.836000	25.284889	0.000442	20.645184
1060.279833	-3.000200	3.642700	-10.928000	25.294610	0.000441	20.642617
1061.282344	-2.981100	3.643300	-10.861000	25.249176	0.000440	20.642993
1062.283216	-2.987000	3.642200	-10.877000	25.224047	0.000440	20.641946
1063.279403	-2.988800	3.641000	-10.881000	25.222361	0.000441	20.658747
1064.279795	-3.022000	3.639600	-10.998000	25.163356	0.000441	20.648821
1065.283401	-3.018000	3.640600	-10.986000	25.190725	0.000440	20.647848
1066.283377	-2.988800	3.640600	-10.880000	25.227678	0.000442	20.644644
1067.283904	-2.990600	3.641800	-10.891000	25.269498	0.000440	20.650121
1068.284549	-3.010200	3.639600	-10.954000	25.269774	0.000438	20.646130
1069.280901	-3.000700	3.640700	-10.924000	25.293778	0.000440	20.646523
1070.284760	-3.007000	3.639600	-10.942000	25.283249	0.000441	20.646858
1071.282052	-3.022400	3.639200	-10.998000	25.296791	0.000441	20.645754
1072.285797	-3.015200	3.637900	-10.968000	25.309199	0.000440	20.647781
1073.283085	-3.012100	3.638400	-10.958000	25.290847	0.000439	20.650219
1074.284005	-3.010300	3.638000	-10.950000	25.287069	0.000440	20.664445
1075.283391	-3.016200	3.636900	-10.969000	25.292907	0.000439	20.660823
1076.283255	-3.021300	3.636500	-10.986000	25.288706	0.000435	20.678418
1077.286210	-3.001600	3.637800	-10.918000	25.310195	0.000439	20.679131
1078.287096	-2.983300	3.638600	-10.854000	25.319404	0.000436	20.652813
1079.287129	-3.004800	3.638400	-10.931000	25.319485	0.000435	20.659059
1080.286993	-3.010100	3.636800	-10.947000	25.298878	0.000436	20.654015
1081.288677	-3.027500	3.636200	-11.007000	25.302225	0.000437	20.681561
1082.288148	-3.013200	3.636600	-10.956000	25.321930	0.000437	20.661988
1083.286870	-2.993600	3.635800	-10.883000	25.366507	0.000435	20.675929
1084.290102	-2.998500	3.634600	-10.897000	25.373534	0.000435	20.671131
1085.287934	-3.005800	3.634200	-10.923000	25.332793	0.000435	20.650135
1086.291223	-2.998300	3.634600	-10.897000	25.382499	0.000434	20.671123
1087.288553	-2.986000	3.634500	-10.852000	25.389355	0.000433	20.676111
1088.292668	-2.993000	3.634500	-10.876000	25.407886	0.000434	20.663423
1089.291688	-2.995400	3.634200	-10.885000	25.406966	0.000433	20.661077
1090.292336	-3.020700	3.633000	-10.973000	25.384129	0.000432	20.676553
1091.294842	-2.988500	3.633800	-10.859000	25.393835	0.000431	20.664487
1092.295816	-2.999000	3.633100	-10.894000	25.359786	0.000431	20.668706
1093.296054	-2.985200	3.633800	-10.847000	25.350139	0.000433	20.658543
1094.297457	-3.004000	3.633500	-10.914000	25.286005	0.000429	20.655315
1095.295755	-3.008300	3.631800	-10.925000	25.285809	0.000429	20.655592
1096.295218	-3.014300	3.632500	-10.949000	25.249567	0.000429	20.664251
1097.296744	-3.004400	3.632200	-10.911000	25.275640	0.000430	20.668617
1098.297943	-3.024700	3.630900	-10.982000	25.269468	0.000431	20.684234
1099.299927	-3.010900	3.631200	-10.932000	25.277888	0.000431	20.675143
1100.296348	-3.014300	3.632400	-10.947000	25.302005	0.000429	20.687504
1101.296554	-2.990400	3.629900	-10.854000	25.342285	0.000429	20.675315
1102.298074	-2.965500	3.631600	-10.768000	25.346454	0.000428	20.670492
1103.295485	-2.991700	3.630000	-10.859000	25.373312	0.000429	20.672804
1104.299338	-3.008900	3.628400	-10.916000	25.379908	0.000430	20.673264
1105.300223	-2.973700	3.630600	-10.796000	25.386845	0.000428	20.665055
1106.298463	-3.019000	3.628800	-10.954000	25.327890	0.000427	20.683148
1107.302258	-2.979300	3.628500	-10.810000	25.316882	0.000427	20.679207
1108.298832	-2.996600	3.629300	-10.874000	25.287033	0.000427	20.679583
1109.299160	-2.962300	3.628800	-10.749000	25.309074	0.000427	20.678954
1110.303277	-2.999900	3.627900	-10.882000	25.361712	0.000426	20.686762
1111.299626	-2.988200	3.628600	-10.842000	25.384949	0.000424	20.692077
1112.299613	-2.980400	3.627700	-10.810000	25.355720	0.000424	20.677900
1113.303416	-3.000100	3.626900	-10.880000	25.335862	0.000423	20.668391
1114.304102	-3.005200	3.627400	-10.900000	25.321548	0.000424	20.679625
1115.301122	-3.011200	3.626000	-10.918000	25.308651	0.000423	20.673313
1116.304593	-2.994800	3.627200	-10.862000	25.353285	0.000425	20.684465
1117.303165	-2.997500	3.626900	-10.871000	25.382539	0.000423	20.692502
1118.304972	-3.010900	3.624200	-10.911000	25.395778	0.000422	20.689200
1119.305261	-2.988100	3.626600	-10.836000	25.427586	0.000422	20.696010
1120.306257	-3.011700	3.623700	-10.913000	25.448565	0.000423	20.690524
1121.306284	-3.007800	3.625300	-10.902000	25.441899	0.000422	20.699951
1122.308877	-3.000200	3.625300	-10.876000	25.410563	0.000421	20.684605
1123.305549	-3.003700	3.625900	-10.890000	25.359466	0.000422	20.693991
1124.303104	-2.995800	3.624100	-10.856000	25.313708	0.000419	20.695937
1125.307317	-2.991200	3.623500	-10.838000	25.326182	0.000420	20.687598
1126.306858	-3.010400	3.623200	-10.906000	25.287035	0.000418	20.694286
1127.303755	-2.999700	3.622700	-10.867000	25.310493	0.000418	20.688915
1128.306121	-3.018300	3.622400	-10.933000	25.336670	0.000417	20.709509
1129.303958	-2.980700	3.622700	-10.797000	25.378624	0.000418	20.694735
1130.308466	-3.006800	3.621100	-10.886000	25.394745	0.000419	20.696699
1131.304455	-3.004700	3.621400	-10.879000	25.380131	0.000419	20.685342
1132.307480	-2.968800	3.622200	-10.752000	25.350675	0.000418	20.704605
1133.310429	-2.976900	3.622300	-10.782000	25.308206	0.000418	20.708430
1134.305174	-3.005500	3.620000	-10.878000	25.319084	0.000416	20.689006
1135.309088	-3.000600	3.621800	-10.867000	25.325825	0.000417	20.710949
1136.311153	-3.002000	3.621000	-10.869000	25.343707	0.000418	20.704721
1137.311146	-2.995800	3.620900	-10.847000	25.292876	0.000417	20.719118
1138.312855	-2.976500	3.620500	-10.776000	25.350839	0.000416	20.696234
1139.314177	-2.989500	3.620800	-10.824000	25.373743	0.000415	20.703586
1140.309423	-3.008400	3.618300	-10.884000	25.399022	0.000413	20.711900
1141.313403	-3.013900	3.618500	-10.904000	25.338228	0.000415	20.694003
1142.311954	-3.004300	3.618500	-10.870000	25.377416	0.000412	20.699687
1143.313376	-2.986600	3.617900	-10.804000	25.374810	0.000413	20.710347
1144.308632	-3.016300	3.617800	-10.911000	25.376496	0.000413	20.695443
1145.311944	-3.018700	3.617700	-10.920000	25.370969	0.000412	20.710758
1146.312671	-3.006900	3.616700	-10.874000	25.329217	0.000415	20.705819
1147.312783	-2.996200	3.617300	-10.836000	25.346714	0.000411	20.713431
1148.313916	-2.991000	3.617600	-10.819000	25.385086	0.000411	20.705492
1149.310330	-3.035900	3.616300	-10.978000	25.378972	0.000411	20.723536
1150.313044	-2.996300	3.615900	-10.833000	25.356469	0.000412	20.721804
1151.314199	-2.994400	3.614700	-10.823000	25.387318	0.000410	20.721485
1152.312406	-2.993700	3.616100	-10.824000	25.382539	0.000412	20.724747
1153.312493	-2.991000	3.614600	-10.811000	25.379461	0.000411	20.726398
1154.315523	-2.989700	3.615900	-10.809000	25.390413	0.000409	20.723644
1155.313518	-2.972900	3.615000	-10.745000	25.385999	0.000409	20.697873
1156.313121	-3.001300	3.614700	-10.847000	25.386709	0.000410	20.716605
1157.319834	-3.005100	3.614300	-10.860000	25.343215	0.000408	20.731730
1158.314861	-2.986400	3.614200	-10.793000	25.374382	0.000409	20.707072
1159.314871	-3.016100	3.613500	-10.897000	25.392148	0.000409	20.724912
1160.312512	-2.994900	3.613500	-10.821000	25.387915	0.000411	20.726826
1161.312544	-3.007100	3.614300	-10.868000	25.445229	0.000410	20.712780
1162.315043	-3.019800	3.612800	-10.908000	25.467603	0.000411	20.716281
1163.315305	-3.020700	3.612000	-10.910000	25.470282	0.000411	20.723239
1164.322604	-3.007800	3.611700	-10.862000	25.462475	0.000409	20.729151
1165.313533	-3.018300	3.611600	-10.900000	25.480795	0.000410	20.711985
1166.316127	-3.019300	3.611700	-10.903000	25.470799	0.000409	20.724233
1167.313099	-3.013100	3.611400	-10.881000	25.444007	0.000408	20.734313
1168.316862	-2.983700	3.612000	-10.776000	25.453730	0.000407	20.733645
1169.315724	-3.000200	3.609400	-10.828000	25.433517	0.000409	20.733736
1170.313313	-2.980300	3.610100	-10.758000	25.470332	0.000408	20.742257
1171.313145	-2.998300	3.609300	-10.821000	25.526106	0.000409	20.730462
1172.315250	-3.005800	3.609600	-10.849000	25.456097	0.000407	20.741712
1173.316313	-3.011400	3.608800	-10.867000	25.414400	0.000407	20.726394
1174.315966	-2.996900	3.608200	-10.812000	25.433518	0.000407	20.737532
1175.312932	-2.983900	3.609900	-10.771000	25.400930	0.000408	20.726618
1176.313576	-3.006700	3.608700	-10.849000	25.401216	0.000407	20.741132
1177.316015	-2.985200	3.608000	-10.769000	25.406298	0.000405	20.743864
1178.313127	-2.985200	3.608500	-10.772000	25.458193	0.000405	20.759940
1179.316164	-2.996200	3.607000	-10.806000	25.468501	0.000407	20.743263
1180.315875	-3.001300	3.606900	-10.825000	25.500863	0.000404	20.728820
1181.316452	-3.010200	3.606300	-10.855000	25.467129	0.000404	20.729083
1182.317248	-3.007100	3.605500	-10.841000	25.441121	0.000405	20.746115
1183.317320	-3.009600	3.605700	-10.851000	25.423268	0.000402	20.751896
1184.315082	-2.993000	3.604800	-10.788000	25.379591	0.000404	20.749764
1185.315871	-2.995500	3.605300	-10.799000	25.412859	0.000401	20.759935
1186.312772	-3.000700	3.604500	-10.815000	25.387850	0.000400	20.723916
1187.317732	-3.003800	3.604600	-10.827000	25.421142	0.000399	20.742173
1188.316562	-2.988500	3.604700	-10.772000	25.433884	0.000400	20.749753
1189.317030	-3.006800	3.603500	-10.834000	25.461686	0.000399	20.756809
1190.317809	-2.988100	3.604400	-10.770000	25.480486	0.000399	20.773791
1191.317358	-3.015700	3.603400	-10.865000	25.484882	0.000399	20.764930
1192.314837	-3.004400	3.602800	-10.824000	25.441355	0.000397	20.761997
1193.316767	-3.009300	3.603200	-10.842000	25.468888	0.000397	20.757877
1194.315359	-2.992200	3.603000	-10.780000	25.494696	0.000397	20.765302
1195.320692	-2.980300	3.602500	-10.736000	25.533210	0.000396	20.761305
1196.315865	-2.988400	3.602400	-10.765000	25.532161	0.000396	20.758355
1197.315763	-2.981000	3.600700	-10.733000	25.545405	0.000395	20.771182
1198.319622	-3.000500	3.602100	-10.807000	25.489537	0.000394	20.780985
1199.319196	-2.998400	3.601900	-10.799000	25.473729	0.000393	20.773644
1200.319859	-3.014200	3.599600	-10.848000	25.450837	0.000393	20.782425
1201.319187	-3.007900	3.601200	-10.831000	25.428847	0.000395	20.768403
1202.319838	-3.008900	3.601200	-10.835000	25.447997	0.000392	20.771986
1203.318629	-3.003000	3.600700	-10.812000	25.475212	0.000394	20.752847
1204.321612	-3.025700	3.598600	-10.887000	25.470906	0.000393	20.765594
1205.318376	-2.994200	3.600200	-10.778000	25.419861	0.000394	20.776450
1206.321784	-2.995100	3.598300	-10.776000	25.416874	0.000393	20.782460
1207.318358	-3.005800	3.600000	-10.820000	25.449805	0.000393	20.793242
1208.325853	-2.981700	3.598300	-10.729000	25.471046	0.000393	20.766682
1209.336959	-3.002400	3.598400	-10.803000	25.446615	0.000392	20.785772
1210.327920	-2.985200	3.597900	-10.740000	25.418259	0.000392	20.769626
1211.321951	-2.996900	3.597600	-10.781000	25.456727	0.000390	20.785494
1212.322836	-3.013500	3.597800	-10.841000	25.466782	0.000392	20.793221
1213.321297	-2.990300	3.596500	-10.754000	25.457412	0.000391	20.787131
1214.320373	-2.998900	3.596000	-10.783000	25.459196	0.000390	20.793664
1215.324336	-2.992700	3.595100	-10.759000	25.515506	0.000389	20.764389
1216.324141	-3.013600	3.595800	-10.836000	25.481651	0.000390	20.784918
1217.325308	-2.967800	3.595400	-10.669000	25.497313	0.000388	20.795431
1218.326364	-2.987900	3.594900	-10.740000	25.531105	0.000389	20.783373
1219.323406	-3.002000	3.594500	-10.790000	25.519472	0.000387	20.774536
1220.324421	-3.015700	3.594500	-10.838000	25.492143	0.000387	20.788343
1221.321396	-3.025300	3.594200	-10.873000	25.487317	0.000385	20.788238
1222.324513	-3.004100	3.594300	-10.797000	25.440466	0.000387	20.787184
1223.327543	-3.012900	3.593100	-10.825000	25.469472	0.000384	20.787862
1224.326234	-3.025600	3.593500	-10.872000	25.460819	0.000385	20.778224
1225.327840	-3.015600	3.593500	-10.835000	25.453866	0.000387	20.781673
1226.325889	-3.020400	3.592200	-10.849000	25.455209	0.000387	20.779229
1227.331279	-2.973300	3.593900	-10.683000	25.502394	0.000385	20.788206
1228.327592	-2.998900	3.591700	-10.770000	25.562130	0.000384	20.793668
1229.326500	-2.994500	3.592900	-10.758000	25.528762	0.000383	20.810417
1230.328732	-2.992200	3.591700	-10.746000	25.505927	0.000385	20.812616
1231.328058	-3.003300	3.591300	-10.784000	25.524456	0.000383	20.775274
1232.328124	-3.007000	3.590500	-10.796000	25.497201	0.000382	20.788206
1233.328369	-3.007700	3.590300	-10.798000	25.509029	0.000381	20.797714
1234.328282	-2.999700	3.592400	-10.775000	25.524016	0.000382	20.792375
1235.325527	-2.997300	3.591100	-10.763000	25.507515	0.000382	20.791926
1236.330901	-2.999300	3.590600	-10.768000	25.547445	0.000380	20.814007
1237.324596	-3.010100	3.589300	-10.803000	25.566435	0.000379	20.804629
1238.328617	-2.999800	3.589000	-10.765000	25.550750	0.000382	20.794567
1239.328884	-2.985100	3.588800	-10.712000	25.558409	0.000379	20.808897
1240.329518	-3.009600	3.587500	-10.796000	25.534354	0.000380	20.803231
1241.328922	-2.991600	3.589600	-10.737000	25.583180	0.000381	20.806273
1242.331566	-2.981200	3.588100	-10.696000	25.601592	0.000380	20.809118
1243.332622	-3.007300	3.587700	-10.788000	25.605492	0.000379	20.801180
1244.331152	-2.998300	3.588500	-10.758000	25.559353	0.000377	20.805578
1245.333036	-2.991400	3.587200	-10.730000	25.546728	0.000375	20.818977
1246.329577	-2.991800	3.587600	-10.733000	25.537837	0.000376	20.793927
1247.333266	-2.982600	3.585900	-10.694000	25.526051	0.000376	20.769289
1248.329285	-3.006500	3.587000	-10.784000	25.538897	0.000376	20.777448
1249.332550	-3.026900	3.587200	-10.857000	25.541062	0.000377	20.815183
1250.332071	-3.013000	3.584600	-10.800000	25.524292	0.000375	20.802610
1251.335141	-2.982300	3.586300	-10.693000	25.523285	0.000375	20.812978
1252.333551	-3.009300	3.585200	-10.788000	25.558954	0.000374	20.789056
1253.332947	-2.979100	3.585000	-10.679000	25.553785	0.000377	20.826064
1254.334453	-2.960300	3.584900	-10.611000	25.568299	0.000375	20.810769
1255.332057	-2.996700	3.583700	-10.739000	25.612979	0.000375	20.821502
1256.332562	-2.995600	3.583500	-10.734000	25.603040	0.000376	20.817210
1257.329776	-2.994300	3.583400	-10.728000	25.572971	0.000374	20.823047
1258.331927	-2.968200	3.584600	-10.639000	25.564823	0.000373	20.816760
1259.333553	-3.000700	3.582900	-10.750000	25.555118	0.000373	20.820290
1260.336512	-2.995800	3.583000	-10.733000	25.595836	0.000375	20.811871
1261.331008	-3.005300	3.581700	-10.763000	25.629534	0.000373	20.819163
1262.337289	-3.007200	3.582100	-10.770000	25.629688	0.000373	20.822636
1263.330966	-2.999000	3.581200	-10.739000	25.631325	0.000371	20.830444
1264.332033	-3.023300	3.582000	-10.828000	25.617277	0.000371	20.829137
1265.336092	-3.007600	3.580800	-10.769000	25.616696	0.000371	20.820494
1266.333992	-3.001700	3.579700	-10.744000	25.536085	0.000370	20.812082
1267.332074	-3.006400	3.580300	-10.763000	25.504444	0.000371	20.839575
1268.331812	-2.993500	3.580100	-10.716000	25.533700	0.000370	20.816799
1269.333088	-2.991900	3.581500	-10.715000	25.528587	0.000369	20.829682
1270.334176	-2.999500	3.580100	-10.738000	25.512649	0.000371	20.830746
1271.334934	-3.005700	3.578700	-10.755000	25.525446	0.000370	20.829373
1272.332826	-2.997100	3.579800	-10.728000	25.527912	0.000369	20.836116
1273.335903	-3.010700	3.577500	-10.770000	25.513936	0.000371	20.807857
1274.336353	-2.982700	3.579000	-10.674000	25.548735	0.000369	20.833794
1275.339401	-3.011000	3.577700	-10.772000	25.529965	0.000368	20.835333
1276.335881	-3.000200	3.576600	-10.729000	25.536795	0.000368	20.833183
1277.335625	-2.995300	3.576900	-10.713000	25.551725	0.000368	20.816409
1278.333731	-2.997200	3.576900	-10.719000	25.600924	0.000368	20.830732
1279.337362	-3.010700	3.575600	-10.764000	25.663431	0.000368	20.808163
1280.335740	-2.972300	3.576800	-10.629000	25.671677	0.000366	20.817867
1281.336266	-2.991300	3.576200	-10.697000	25.651377	0.000367	20.839203
1282.337118	-2.999800	3.576700	-10.728000	25.607961	0.000365	20.840643
1283.334191	-3.006800	3.575500	-10.750000	25.606611	0.000365	20.826960
1284.342350	-3.002900	3.575600	-10.736000	25.653042	0.000365	20.819065
1285.334262	-3.005700	3.575200	-10.746000	25.651902	0.000364	20.826454
1286.337256	-3.005300	3.574500	-10.741000	25.653710	0.000364	20.835856
1287.336283	-3.016500	3.574500	-10.782000	25.595284	0.000363	20.830757
1288.338832	-2.980800	3.574200	-10.652000	25.581267	0.000362	20.825215
1289.336744	-3.007500	3.572100	-10.742000	25.549872	0.000364	20.828299
1290.341648	-2.994500	3.573700	-10.699000	25.588360	0.000362	20.836131
1291.343121	-3.014300	3.572700	-10.769000	25.599016	0.000360	20.831186
1292.340802	-3.011300	3.572200	-10.756000	25.568474	0.000360	20.826592
1293.343764	-2.988600	3.571900	-10.674000	25.597341	0.000361	20.829503
1294.340212	-3.001900	3.572400	-10.724000	25.629241	0.000360	20.813179
1295.342052	-2.994500	3.570700	-10.692000	25.615403	0.000359	20.829626
1296.338828	-3.004700	3.572200	-10.732000	25.583097	0.000360	20.826578
1297.343381	-2.990600	3.569100	-10.673000	25.580092	0.000359	20.805543
1298.343353	-2.992000	3.571400	-10.684000	25.570710	0.000358	20.815086
1299.340010	-3.000500	3.570500	-10.713000	25.551677	0.000358	20.813990
1300.343497	-2.978000	3.571400	-10.635000	25.516714	0.000358	20.804483
1301.339624	-2.998900	3.569700	-10.705000	25.521380	0.000357	20.809168
1302.343666	-2.983000	3.570100	-10.649000	25.505694	0.000357	20.822339
1303.343329	-3.000100	3.568600	-10.705000	25.543459	0.000357	20.826599
1304.341963	-2.999200	3.568700	-10.702000	25.551982	0.000354	20.792011
1305.342981	-2.994900	3.569400	-10.689000	25.535261	0.000358	20.788495
1306.344580	-3.028400	3.567900	-10.804000	25.542361	0.000357	20.793255
1307.344316	-2.993500	3.568200	-10.681000	25.540563	0.000355	20.816579
1308.345132	-3.002200	3.567800	-10.710000	25.533446	0.000357	20.818441
1309.345311	-3.002400	3.567200	-10.709000	25.577820	0.000353	20.804683
1310.346028	-2.999800	3.566600	-10.698000	25.615320	0.000354	20.813422
1311.348577	-3.015800	3.567000	-10.756000	25.599286	0.000355	20.800163
1312.344502	-2.993200	3.567700	-10.677000	25.614865	0.000354	20.786887
1313.350348	-2.981200	3.568000	-10.636000	25.640261	0.000355	20.790582
1314.346770	-3.013700	3.564400	-10.741000	25.698058	0.000353	20.797424
1315.344360	-3.019500	3.565100	-10.763000	25.618202	0.000353	20.793082
1316.346728	-2.989500	3.564900	-10.656000	25.589175	0.000353	20.792854
1317.345239	-2.991700	3.565700	-10.667000	25.629354	0.000351	20.817085
1318.349417	-2.990000	3.564600	-10.657000	25.649881	0.000351	20.776536
1319.348350	-2.994000	3.564800	-10.672000	25.653308	0.000350	20.794677
1320.348906	-3.001300	3.564300	-10.696000	25.661505	0.000353	20.794375
1321.348929	-2.988700	3.563300	-10.649000	25.644314	0.000351	20.801765
1322.350402	-2.966400	3.565200	-10.575000	25.646276	0.000353	20.785243
1323.346013	-2.998600	3.562700	-10.683000	25.673542	0.000351	20.788920
1324.346271	-2.988900	3.561800	-10.645000	25.718683	0.000350	20.774516
1325.349509	-2.983200	3.563100	-10.629000	25.687833	0.000351	20.767713
1326.346771	-2.956200	3.564000	-10.536000	25.681329	0.000350	20.796742
1327.350846	-3.008200	3.561000	-10.712000	25.723791	0.000350	20.791502
1328.350673	-2.980700	3.562100	-10.617000	25.711119	0.000348	20.801058
1329.351956	-2.976700	3.561100	-10.600000	25.696841	0.000348	20.796201
1330.348191	-3.016800	3.560600	-10.740000	25.661085	0.000348	20.765029
1331.350884	-3.017900	3.559500	-10.740000	25.624986	0.000348	20.779033
1332.348279	-3.007600	3.559000	-10.702000	25.583796	0.000348	20.776546
1333.350641	-2.988200	3.561500	-10.642000	25.528930	0.000346	20.795888
1334.354131	-3.012100	3.558800	-10.718000	25.572636	0.000346	20.774822
1335.353058	-3.021600	3.559300	-10.753000	25.589468	0.000345	20.778924
1336.351848	-2.987800	3.557600	-10.628000	25.638127	0.000345	20.782274
1337.348638	-3.002800	3.557900	-10.683000	25.666005	0.000344	20.772342
1338.352944	-3.009100	3.558700	-10.708000	25.649692	0.000344	20.747895
1339.353193	-2.982100	3.557900	-10.609000	25.659801	0.000345	20.777965
1340.356560	-2.999700	3.557300	-10.670000	25.687084	0.000343	20.787824
1341.349382	-3.012200	3.556900	-10.713000	25.710947	0.000343	20.759634
1342.349600	-3.001300	3.556400	-10.673000	25.734672	0.000344	20.787258
1343.353077	-3.015500	3.557100	-10.726000	25.721462	0.000342	20.767824
1344.350196	-3.005900	3.556700	-10.691000	25.741882	0.000343	20.793078
1345.356451	-3.011100	3.555400	-10.704000	25.744225	0.000343	20.763662
1346.351629	-3.002200	3.555800	-10.675000	25.753348	0.000342	20.759549
1347.349828	-2.988800	3.556100	-10.627000	25.695088	0.000342	20.759353
1348.353556	-2.990100	3.556600	-10.634000	25.668701	0.000339	20.759402
1349.353874	-3.003000	3.554900	-10.675000	25.608671	0.000340	20.768337
1350.360726	-2.997700	3.554900	-10.656000	25.575482	0.000340	20.771516
1351.355181	-3.012800	3.554800	-10.709000	25.625870	0.000340	20.758583
1352.354677	-3.004000	3.554600	-10.677000	25.591185	0.000339	20.741292
1353.351659	-3.035600	3.553600	-10.786000	25.587758	0.000339	20.747333
1354.354748	-3.018200	3.553200	-10.723000	25.586072	0.000338	20.762236
1355.355874	-3.004200	3.552100	-10.670000	25.568212	0.000338	20.756627
1356.357347	-2.991900	3.552400	-10.627000	25.575993	0.000337	20.746897
1357.354945	-2.985600	3.553000	-10.607000	25.557059	0.000338	20.767238
1358.355203	-2.999800	3.552600	-10.656000	25.523739	0.000340	20.773605
1359.359518	-3.011100	3.551100	-10.691000	25.551327	0.000336	20.760532
1360.356380	-3.002300	3.550700	-10.659000	25.563504	0.000338	20.731984
1361.358850	-2.988900	3.550000	-10.609000	25.550585	0.000338	20.751253
1362.355412	-2.979400	3.550000	-10.576000	25.530063	0.000338	20.751980
1363.360726	-3.005800	3.550000	-10.670000	25.530566	0.000337	20.747744
1364.360353	-3.002200	3.550000	-10.657000	25.533098	0.000336	20.755503
1365.360649	-2.992100	3.550400	-10.622000	25.549036	0.000336	20.748274
1366.359917	-3.004900	3.549500	-10.665000	25.577934	0.000334	20.749795
1367.359391	-2.981200	3.547900	-10.576000	25.567879	0.000334	20.750603
1368.361403	-2.973700	3.550000	-10.555000	25.590216	0.000335	20.747905
1369.361989	-2.988000	3.549300	-10.604000	25.566095	0.000334	20.758295
1370.360367	-2.988100	3.547300	-10.599000	25.588911	0.000333	20.753234
1371.361089	-2.993200	3.549500	-10.623000	25.624376	0.000333	20.741910
1372.360857	-2.973100	3.547200	-10.545000	25.672033	0.000336	20.744730
1373.362619	-3.006600	3.547300	-10.665000	25.711062	0.000334	20.748843
1374.361721	-3.004100	3.546400	-10.652000	25.677534	0.000335	20.739823
1375.362444	-3.010700	3.545800	-10.675000	25.652170	0.000333	20.728573
1376.362057	-2.996800	3.546800	-10.628000	25.641686	0.000333	20.728949
1377.364636	-3.006200	3.547200	-10.663000	25.606936	0.000331	20.752844
1378.365017	-2.996400	3.546400	-10.625000	25.586309	0.000330	20.747301
1379.373773	-3.017900	3.545300	-10.698000	25.559797	0.000331	20.734899
1380.363892	-3.002500	3.545300	-10.643000	25.592926	0.000331	20.726919
1381.366399	-3.009300	3.544400	-10.665000	25.573300	0.000331	20.743244
1382.367108	-2.979700	3.545300	-10.563000	25.585900	0.000330	20.745942
1383.369776	-3.009300	3.543400	-10.663000	25.595951	0.000331	20.726638
1384.367966	-3.009200	3.543200	-10.661000	25.556660	0.000328	20.746448
1385.365541	-3.033000	3.543400	-10.745000	25.545433	0.000332	20.726163
1386.369129	-3.005300	3.543700	-10.650000	25.558415	0.000330	20.719760
1387.365689	-3.018500	3.543100	-10.694000	25.564847	0.000328	20.708675
1388.369982	-2.992100	3.544100	-10.603000	25.597829	0.000330	20.732791
1389.368027	-3.005700	3.542800	-10.647000	25.639602	0.000330	20.747719
1390.365993	-2.990300	3.542800	-10.592000	25.669092	0.000328	20.735612
1391.384617	-2.988800	3.542200	-10.586000	25.717031	0.000329	20.742036
1392.368796	-2.997300	3.541300	-10.612000	25.741350	0.000327	20.708615
1393.369816	-2.988300	3.542500	-10.585000	25.721548	0.000328	20.721443
1394.369539	-3.001500	3.540900	-10.627000	25.704138	0.000326	20.729086
1395.369338	-2.976400	3.542900	-10.543000	25.703176	0.000326	20.736655
1396.366128	-2.990100	3.540800	-10.587000	25.719667	0.000326	20.696792
1397.369020	-2.998400	3.539300	-10.611000	25.627691	0.000325	20.729592
1398.365221	-2.981300	3.539500	-10.551000	25.627398	0.000325	20.728348
1399.368210	-3.015300	3.537300	-10.665000	25.640396	0.000326	20.720066
1400.369075	-2.981700	3.539900	-10.554000	25.665337	0.000323	20.727572
1401.367920	-2.971200	3.539100	-10.514000	25.667508	0.000325	20.719795
1402.370466	-2.985500	3.538200	-10.561000	25.654664	0.000323	20.733448
1403.372690	-2.994100	3.537800	-10.591000	25.643236	0.000324	20.721496
1404.372041	-2.983500	3.538300	-10.555000	25.632549	0.000322	20.711710
1405.369171	-2.992000	3.537700	-10.584000	25.639337	0.000324	20.739391
1406.370288	-3.017200	3.537500	-10.673000	25.650870	0.000322	20.720154
1407.377137	-3.010200	3.537000	-10.646000	25.676999	0.000322	20.723164
1408.372460	-2.979200	3.536800	-10.536000	25.687993	0.000322	20.719033
1409.372358	-3.004800	3.537100	-10.627000	25.694130	0.000321	20.727094
1410.374701	-3.000100	3.536200	-10.607000	25.706086	0.000321	20.717291
1411.377109	-2.994500	3.535900	-10.588000	25.694309	0.000318	20.710677
1412.372051	-3.007700	3.533500	-10.627000	25.659074	0.000320	20.727446
1413.378304	-3.016400	3.533000	-10.656000	25.592164	0.000319	20.710979
1414.375943	-3.002500	3.533700	-10.610000	25.586205	0.000320	20.706891
1415.374787	-3.006200	3.534200	-10.624000	25.592692	0.000319	20.707716
1416.372793	-2.984100	3.534900	-10.548000	25.650394	0.000320	20.718254
1417.376972	-3.008000	3.533200	-10.626000	25.625747	0.000319	20.724320
1418.378292	-2.977400	3.532900	-10.518000	25.651192	0.000318	20.717158
1419.375818	-2.994500	3.531800	-10.575000	25.668691	0.000318	20.718138
1420.378158	-2.999000	3.532100	-10.591000	25.650132	0.000318	20.701868
1421.376129	-2.991800	3.533300	-10.570000	25.643425	0.000317	20.703192
1422.376786	-2.983400	3.532100	-10.536000	25.654608	0.000319	20.706364
1423.374120	-2.975400	3.532300	-10.510000	25.669495	0.000318	20.708514
1424.377361	-3.014100	3.529200	-10.637000	25.674062	0.000315	20.704091
1425.377183	-3.007900	3.529800	-10.616000	25.615277	0.000316	20.697207
1426.380292	-2.991600	3.530200	-10.560000	25.590140	0.000317	20.701359
1427.377872	-3.016000	3.529200	-10.644000	25.606737	0.000316	20.703329
1428.375738	-3.010700	3.529900	-10.627000	25.618092	0.000316	20.699086
1429.377913	-2.997100	3.529500	-10.577000	25.627395	0.000315	20.696575
1430.375516	-3.003600	3.529200	-10.599000	25.636008	0.000314	20.718029
1431.379186	-3.004500	3.528100	-10.599000	25.657700	0.000315	20.688605
1432.378850	-2.976000	3.530500	-10.505000	25.641386	0.000314	20.693083
1433.379176	-3.017700	3.528700	-10.647000	25.624587	0.000315	20.724102
1434.375216	-2.990400	3.527600	-10.548000	25.649608	0.000311	20.700393
1435.378021	-3.020200	3.527100	-10.651000	25.689840	0.000313	20.690540
1436.379003	-3.008600	3.526500	-10.609000	25.716073	0.000313	20.723056
1437.379538	-3.005000	3.525800	-10.594000	25.727036	0.000313	20.703719
1438.379188	-2.990200	3.527000	-10.545000	25.791975	0.000312	20.685496
1439.377161	-3.008600	3.524600	-10.603000	25.800049	0.000310	20.717316
1440.380480	-2.989300	3.526500	-10.540000	25.759429	0.000313	20.686943
1441.378188	-3.002900	3.525000	-10.584000	25.777433	0.000309	20.721152
1442.381553	-3.003700	3.524900	-10.587000	25.771597	0.000309	20.691106
1443.381496	-2.997100	3.523500	-10.559000	25.746921	0.000310	20.700460
1444.377503	-2.987600	3.523700	-10.527000	25.738449	0.000311	20.700958
1445.382970	-2.993700	3.524300	-10.550000	25.729382	0.000309	20.689954
1446.379189	-2.983900	3.523600	-10.513000	25.733281	0.000309	20.701931
1447.382024	-2.989500	3.524400	-10.536000	25.686172	0.000310	20.699185
1448.381461	-3.006000	3.523000	-10.589000	25.718836	0.000307	20.695482
1449.379436	-3.008900	3.522300	-10.597000	25.647674	0.000307	20.688018
1450.382368	-2.984900	3.522300	-10.513000	25.650758	0.000308	20.699652
1451.378871	-3.003500	3.522100	-10.578000	25.648440	0.000308	20.702065
1452.385163	-2.977900	3.522300	-10.488000	25.685507	0.000306	20.697094
1453.383759	-2.977500	3.521500	-10.484000	25.672037	0.000306	20.700161
1454.383978	-2.994800	3.521700	-10.545000	25.674716	0.000307	20.700006
1455.380042	-2.984000	3.520500	-10.504000	25.622191	0.000305	20.695616
1456.383329	-2.994400	3.521000	-10.543000	25.624422	0.000306	20.692640
1457.383073	-2.981200	3.520800	-10.496000	25.588982	0.000307	20.697351
1458.385002	-3.010600	3.519600	-10.595000	25.632986	0.000304	20.699346
1459.385447	-3.008500	3.518800	-10.586000	25.681440	0.000305	20.686845
1460.386525	-3.003600	3.517900	-10.566000	25.639441	0.000306	20.706778
1461.384100	-3.007800	3.518500	-10.582000	25.643022	0.000304	20.675285
1462.386996	-2.971000	3.518200	-10.451000	25.657161	0.000305	20.689960
1463.384882	-2.994200	3.518100	-10.532000	25.673806	0.000304	20.691506
1464.385014	-2.989500	3.518600	-10.517000	25.696263	0.000302	20.679447
1465.385364	-2.993300	3.517000	-10.526000	25.679765	0.000302	20.710294
1466.385282	-3.003600	3.516600	-10.561000	25.674271	0.000302	20.709518
1467.382585	-3.006600	3.516800	-10.572000	25.731742	0.000302	20.684263
1468.386810	-3.013500	3.517000	-10.596000	25.744040	0.000303	20.678123
1469.385515	-3.022100	3.515000	-10.621000	25.783789	0.000303	20.701457
1470.385175	-3.000500	3.516500	-10.550000	25.771834	0.000301	20.702725
1471.385128	-2.993900	3.514400	-10.521000	25.713852	0.000302	20.682889
1472.383430	-2.999900	3.515600	-10.546000	25.734029	0.000300	20.683241
1473.388248	-3.006400	3.514800	-10.566000	25.702320	0.000300	20.695015
1474.387802	-3.019200	3.513200	-10.606000	25.675086	0.000298	20.662442
1475.385230	-2.982300	3.514900	-10.481000	25.713195	0.000299	20.704042
1476.385887	-3.005700	3.515100	-10.564000	25.682069	0.000299	20.677044
1477.392610	-3.020600	3.512700	-10.609000	25.686465	0.000299	20.679089
1478.385346	-2.980600	3.513400	-10.470000	25.689916	0.000299	20.689669
1479.388378	-2.991200	3.513900	-10.510000	25.696728	0.000298	20.685605
1480.389052	-2.997900	3.513100	-10.530000	25.718468	0.000298	20.685155
1481.388888	-3.014900	3.511900	-10.588000	25.669103	0.000297	20.674452
1482.387638	-3.007400	3.512300	-10.561000	25.678244	0.000297	20.682211
1483.387178	-3.021600	3.511100	-10.609000	25.726273	0.000295	20.669759
1484.391478	-2.988600	3.511200	-10.492000	25.727224	0.000297	20.683044
1485.387096	-2.997600	3.510200	-10.520000	25.708887	0.000297	20.685014
1486.389693	-2.988600	3.510000	-10.489000	25.756117	0.000294	20.670813
1487.386677	-2.975400	3.511200	-10.446000	25.725857	0.000295	20.675032
1488.388713	-3.009500	3.508800	-10.559000	25.783146	0.000296	20.659555
1489.392237	-3.010200	3.508200	-10.558000	25.764964	0.000295	20.674010
1490.390064	-3.045500	3.507400	-10.681000	25.759771	0.000297	20.666422
1491.390792	-3.006100	3.507100	-10.542000	25.757215	0.000295	20.668597
1492.392429	-2.986000	3.509700	-10.479000	25.699973	0.000294	20.675113
1493.393868	-2.970100	3.509200	-10.421000	25.705614	0.000293	20.695478
1494.393577	-2.993200	3.507800	-10.499000	25.715380	0.000294	20.697228
1495.393994	-2.969800	3.508500	-10.419000	25.707656	0.000292	20.668129
1496.398298	-3.018700	3.508000	-10.589000	25.671159	0.000292	20.671301
1497.390512	-2.989600	3.506300	-10.481000	25.697645	0.000291	20.672773
1498.396745	-3.013900	3.507700	-10.571000	25.732438	0.000293	20.657932
1499.394552	-2.999300	3.505500	-10.513000	25.740463	0.000294	20.693498
1500.414080	-2.994100	3.505900	-10.496000	25.696879	0.000294	20.673901
1501.402112	-3.003400	3.505800	-10.529000	25.733284	0.000291	20.684864
1502.397868	-2.995000	3.505300	-10.497000	25.762397	0.000291	20.677596
1503.396564	-3.015400	3.503600	-10.564000	25.761306	0.000291	20.679820
1504.396682	-3.001000	3.503900	-10.513000	25.739200	0.000291	20.681323
1505.394841	-2.993200	3.503400	-10.485000	25.697480	0.000291	20.678299
1506.403278	-3.002800	3.504000	-10.521000	25.615410	0.000293	20.664146
1507.399037	-2.997400	3.504400	-10.503000	25.627391	0.000291	20.678552
1508.400134	-2.975400	3.504500	-10.426000	25.644484	0.000290	20.659682
1509.398600	-3.011700	3.500900	-10.542000	25.659990	0.000289	20.675257
1510.398034	-3.016800	3.502200	-10.564000	25.642547	0.000290	20.664849
1511.406625	-3.011600	3.502100	-10.546000	25.661756	0.000289	20.659959
1512.399909	-3.017000	3.501600	-10.564000	25.682503	0.000289	20.658512
1513.400897	-3.035600	3.499500	-10.622000	25.705684	0.000287	20.659984
1514.398367	-2.994100	3.500000	-10.478000	25.692361	0.000288	20.668888
1515.400441	-2.972600	3.502100	-10.410000	25.656035	0.000287	20.679820
1516.400041	-3.020800	3.499500	-10.571000	25.659021	0.000289	20.662429
1517.402760	-3.009500	3.500000	-10.533000	25.710723	0.000287	20.662200
1518.400667	-3.019900	3.499800	-10.568000	25.775142	0.000287	20.673802
1519.400415	-3.007100	3.500100	-10.524000	25.773132	0.000287	20.669412
1520.402097	-2.990300	3.499400	-10.464000	25.738648	0.000286	20.673655
1521.405945	-3.009900	3.497800	-10.527000	25.727311	0.000287	20.672225
1522.402246	-3.010200	3.497800	-10.528000	25.684434	0.000284	20.677048
1523.402983	-3.013700	3.498400	-10.541000	25.688934	0.000285	20.676827
1524.405934	-3.012300	3.498000	-10.536000	25.723486	0.000285	20.683083
1525.407011	-2.979300	3.498100	-10.421000	25.739861	0.000284	20.675822
1526.405253	-2.962000	3.497700	-10.359000	25.749995	0.000286	20.683156
1527.405005	-2.995600	3.497400	-10.476000	25.779880	0.000284	20.667181
1528.403413	-3.011000	3.495800	-10.525000	25.816674	0.000284	20.682331
1529.403896	-3.015000	3.496000	-10.539000	25.799258	0.000284	20.677638
1530.407573	-3.005700	3.497000	-10.509000	25.779303	0.000284	20.690786
1531.404712	-2.995600	3.495600	-10.471000	25.767201	0.000282	20.676732
1532.404958	-2.999500	3.495700	-10.484000	25.669337	0.000284	20.674213
1533.406020	-3.000900	3.494600	-10.486000	25.676020	0.000282	20.672864
1534.406816	-2.991700	3.495000	-10.454000	25.691469	0.000282	20.677476
1535.406354	-2.990600	3.493700	-10.447000	25.724710	0.000282	20.697589
1536.404953	-2.982300	3.494500	-10.421000	25.707715	0.000281	20.688580
1537.407789	-3.019400	3.492900	-10.546000	25.636284	0.000282	20.686061
1538.412391	-3.022500	3.492100	-10.554000	25.609129	0.000278	20.692454
1539.408092	-3.012500	3.492700	-10.521000	25.620183	0.000280	20.685538
1540.414879	-3.009200	3.491900	-10.507000	25.626688	0.000279	20.691123
1541.407120	-2.997500	3.492600	-10.469000	25.658129	0.000279	20.688088
1542.407204	-3.008600	3.492700	-10.506000	25.702921	0.000280	20.700835
1543.410209	-2.999100	3.491600	-10.470000	25.672156	0.000278	20.689374
1544.408648	-2.987700	3.491900	-10.431000	25.631139	0.000278	20.672833
1545.408130	-2.998600	3.490600	-10.465000	25.645009	0.000277	20.687712
1546.412644	-3.002200	3.490400	-10.478000	25.668264	0.000278	20.685464
1547.410062	-3.006600	3.490700	-10.494000	25.637707	0.000277	20.660461
1548.412984	-3.003300	3.490300	-10.482000	25.664235	0.000278	20.673830
1549.411962	-3.008100	3.488300	-10.493000	25.649779	0.000276	20.686813
1550.414909	-3.017700	3.489000	-10.528000	25.636535	0.000277	20.689634
1551.412138	-2.981500	3.488100	-10.399000	25.632196	0.000277	20.672471
1552.413244	-2.992700	3.489100	-10.441000	25.595340	0.000276	20.685717
1553.413823	-3.010700	3.488300	-10.501000	25.595560	0.000273	20.679774
1554.413164	-3.000200	3.488200	-10.464000	25.650023	0.000275	20.708872
1555.414759	-3.012900	3.486200	-10.502000	25.683591	0.000273	20.675253
1556.414104	-3.007400	3.487200	-10.487000	25.715129	0.000275	20.689388
1557.417067	-2.988400	3.488000	-10.423000	25.766006	0.000275	20.686911
1558.414315	-2.989100	3.485700	-10.418000	25.761065	0.000274	20.683845
1559.419552	-2.993500	3.485600	-10.434000	25.765803	0.000273	20.675327
1560.414762	-2.991900	3.486700	-10.431000	25.770457	0.000274	20.690434
1561.416157	-3.009800	3.485600	-10.490000	25.748344	0.000272	20.697621
1562.420781	-2.989600	3.486000	-10.420000	25.795426	0.000272	20.668572
1563.418349	-3.001900	3.484700	-10.460000	25.794636	0.000273	20.698601
1564.421165	-2.982100	3.484900	-10.391000	25.824464	0.000274	20.686838
1565.416893	-2.995200	3.484200	-10.435000	25.825017	0.000272	20.683599
1566.420065	-3.000700	3.483900	-10.453000	25.825887	0.000270	20.696329
1567.417284	-3.015500	3.483000	-10.502000	25.807478	0.000270	20.705338
1568.421761	-3.029500	3.483900	-10.553000	25.804101	0.000273	20.707635
1569.419421	-3.006800	3.482100	-10.470000	25.737169	0.000271	20.710579
1570.422281	-2.975100	3.484100	-10.364000	25.677314	0.000269	20.700719
1571.418736	-2.991300	3.482000	-10.414000	25.628296	0.000270	20.698429
1572.417249	-2.974900	3.483300	-10.362000	25.695512	0.000268	20.682011
1573.420953	-2.994300	3.483700	-10.430000	25.738169	0.000268	20.708264
1574.417799	-2.990500	3.482700	-10.414000	25.733179	0.000270	20.691871
1575.421964	-3.045300	3.479000	-10.593000	25.723584	0.000267	20.688397
1576.420748	-3.008700	3.479600	-10.468000	25.707509	0.000268	20.709237
1577.419897	-2.999300	3.479900	-10.435000	25.702292	0.000269	20.698306
1578.423401	-3.007200	3.480400	-10.465000	25.703414	0.000266	20.701330
1579.422607	-2.989200	3.479600	-10.400000	25.712139	0.000267	20.717207
1580.427603	-3.003900	3.478900	-10.450000	25.671264	0.000265	20.720723
1581.424086	-2.986100	3.479000	-10.388000	25.706499	0.000265	20.708696
1582.420408	-2.992100	3.478500	-10.407000	25.693435	0.000267	20.706480
1583.422520	-2.995200	3.478700	-10.418000	25.730207	0.000264	20.710224
1584.421681	-3.000200	3.478300	-10.434000	25.761915	0.000267	20.694657
1585.421945	-2.985200	3.477800	-10.381000	25.816671	0.000264	20.687544
1586.425226	-2.999300	3.476200	-10.426000	25.827129	0.000265	20.714647
1587.422145	-3.029500	3.475700	-10.528000	25.880245	0.000264	20.700200
1588.423477	-3.017800	3.476700	-10.491000	25.785842	0.000264	20.735764
1589.428911	-3.006500	3.475600	-10.449000	25.773373	0.000264	20.731299
1590.426573	-3.033200	3.475300	-10.540000	25.746841	0.000265	20.704172
1591.427197	-3.007000	3.475900	-10.451000	25.753694	0.000263	20.703944
1592.423429	-2.984700	3.475800	-10.373000	25.738571	0.000262	20.725265
1593.424156	-3.002200	3.476200	-10.436000	25.693952	0.000262	20.702258
1594.428390	-3.002900	3.475200	-10.435000	25.695099	0.000264	20.715265
1595.425650	-3.022800	3.474800	-10.503000	25.673684	0.000262	20.709877
1596.430494	-2.984100	3.474700	-10.368000	25.677640	0.000263	20.705788
1597.426148	-3.002200	3.473100	-10.426000	25.683256	0.000261	20.706688
1598.426463	-2.983500	3.474500	-10.365000	25.698012	0.000262	20.714397
1599.430137	-2.981000	3.473400	-10.354000	25.717423	0.000262	20.716825
1600.431036	-3.003800	3.473400	-10.433000	25.792724	0.000262	20.730822
1601.434223	-3.006900	3.472100	-10.439000	25.822241	0.000262	20.700253
1602.430129	-3.008000	3.471500	-10.441000	25.832307	0.000262	20.701356
1603.432162	-2.974800	3.472600	-10.328000	25.782500	0.000261	20.713913
1604.434890	-2.977400	3.471000	-10.333000	25.753324	0.000261	20.742455
1605.429320	-2.982000	3.470900	-10.349000	25.782070	0.000260	20.707316
1606.430773	-2.998900	3.469500	-10.403000	25.813605	0.000258	20.701535
1607.434246	-3.014400	3.469400	-10.458000	25.809706	0.000261	20.712793
1608.429269	-2.997200	3.470300	-10.400000	25.768639	0.000260	20.699041
1609.429840	-2.989400	3.470800	-10.374000	25.788098	0.000260	20.721907
1610.438581	-2.974200	3.469200	-10.317000	25.809755	0.000257	20.721851
1611.436300	-3.002300	3.469500	-10.415000	25.817038	0.000260	20.722529
1612.434252	-3.017100	3.468600	-10.464000	25.792640	0.000259	20.744963
1613.431348	-3.021500	3.468100	-10.477000	25.752719	0.000256	20.717664
1614.437204	-2.998800	3.468100	-10.400000	25.752296	0.000257	20.720084
1615.436353	-3.009800	3.468500	-10.439000	25.807818	0.000258	20.716586
1616.431465	-3.018100	3.469200	-10.470000	25.798483	0.000254	20.733762
1617.434940	-2.997300	3.466500	-10.390000	25.814458	0.000255	20.713298
1618.432835	-2.982100	3.467300	-10.339000	25.827367	0.000255	20.722947
1619.434664	-2.999100	3.466600	-10.395000	25.850730	0.000256	20.728873
1620.434316	-2.998600	3.465900	-10.392000	25.865191	0.000255	20.721588
1621.430827	-3.009900	3.466700	-10.433000	25.845734	0.000254	20.731914
1622.436549	-2.998000	3.466200	-10.391000	25.860796	0.000255	20.716699
1623.436117	-3.007300	3.465400	-10.421000	25.884487	0.000254	20.702090
1624.436016	-3.000700	3.465300	-10.397000	25.876722	0.000254	20.727956
1625.433715	-2.988400	3.465000	-10.354000	25.850835	0.000254	20.749368
1626.433208	-2.994400	3.464600	-10.374000	25.888360	0.000254	20.714991
1627.436725	-3.015800	3.462200	-10.440000	25.854929	0.000254	20.722185
1628.440156	-3.015800	3.463300	-10.444000	25.895716	0.000254	20.751307
1629.438673	-3.003000	3.462200	-10.396000	25.877910	0.000252	20.736263
1630.437014	-2.982400	3.462200	-10.325000	25.852667	0.000253	20.745992
1631.434195	-3.012800	3.461800	-10.429000	25.849957	0.000252	20.745641
1632.433560	-3.011900	3.462600	-10.428000	25.783052	0.000251	20.731539
1633.437228	-2.976900	3.463700	-10.310000	25.766164	0.000252	20.734015
1634.435529	-3.031800	3.460400	-10.490000	25.768223	0.000250	20.728023
1635.434377	-2.990900	3.461800	-10.353000	25.780766	0.000253	20.732087
1636.446121	-3.000400	3.462000	-10.386000	25.815101	0.000252	20.734335
1637.437854	-2.992200	3.460500	-10.353000	25.822685	0.000251	20.734840
1638.433519	-2.994900	3.460700	-10.363000	25.813661	0.000248	20.733836
1639.439818	-3.026400	3.459500	-10.469000	25.815322	0.000251	20.743565
1640.434225	-3.001500	3.460700	-10.387000	25.773367	0.000246	20.740776
1641.434953	-3.035400	3.458600	-10.497000	25.750065	0.000249	20.736811
1642.439237	-3.011700	3.458800	-10.416000	25.723207	0.000249	20.755353
1643.438088	-2.976800	3.459900	-10.299000	25.753020	0.000247	20.743098
1644.439866	-2.995900	3.458300	-10.359000	25.743547	0.000249	20.756817
1645.437112	-3.012200	3.457200	-10.413000	25.770517	0.000245	20.729379
1646.438041	-3.005900	3.457400	-10.392000	25.814311	0.000248	20.734015
1647.435619	-3.014300	3.457600	-10.421000	25.772675	0.000249	20.732494
1648.438581	-2.978200	3.457500	-10.297000	25.768468	0.000247	20.738700
1649.434628	-3.009700	3.456500	-10.402000	25.773465	0.000246	20.750832
1650.438919	-2.989200	3.457600	-10.334000	25.756901	0.000246	20.757429
1651.436931	-3.018800	3.455600	-10.431000	25.788276	0.000247	20.738209
1652.435663	-2.996300	3.455500	-10.353000	25.794364	0.000247	20.731521
1653.439987	-2.993800	3.456900	-10.348000	25.766692	0.000245	20.751142
1654.443073	-3.015700	3.455800	-10.420000	25.772829	0.000245	20.720794
1655.441814	-2.982300	3.457000	-10.309000	25.749300	0.000245	20.753586
1656.442600	-3.008400	3.454600	-10.391000	25.760360	0.000244	20.760903
1657.441798	-2.991400	3.453700	-10.330000	25.778794	0.000245	20.735322
1658.440024	-2.996100	3.455700	-10.353000	25.793899	0.000242	20.751918
1659.444896	-2.989400	3.454300	-10.326000	25.770378	0.000244	20.751999
1660.448319	-3.013700	3.452800	-10.405000	25.775196	0.000244	20.744036
1661.440508	-2.999200	3.453600	-10.357000	25.784896	0.000244	20.762789
1662.441784	-2.997100	3.452100	-10.345000	25.800116	0.000244	20.755318
1663.444892	-2.980400	3.453000	-10.291000	25.795256	0.000243	20.780308
1664.443681	-2.985500	3.453900	-10.310000	25.784424	0.000243	20.749986
1665.445058	-2.997000	3.452000	-10.345000	25.763507	0.000241	20.760745
1666.443805	-2.994100	3.451600	-10.333000	25.818459	0.000242	20.767106
1667.441760	-2.997300	3.450300	-10.341000	25.866911	0.000242	20.767415
1668.447917	-3.023200	3.450700	-10.431000	25.885938	0.000241	20.765191
1669.441561	-3.036900	3.449500	-10.475000	25.939230	0.000241	20.758985
1670.443995	-3.000700	3.449900	-10.352000	25.922784	0.000240	20.767594
1671.442434	-2.991200	3.449200	-10.317000	25.874250	0.000240	20.761037
1672.450088	-2.972700	3.450700	-10.257000	25.881061	0.000240	20.741799
1673.443895	-3.016000	3.448400	-10.400000	25.847353	0.000241	20.735438
1674.445488	-3.012000	3.449200	-10.387000	25.835424	0.000239	20.783674
1675.445757	-2.994000	3.448700	-10.325000	25.848451	0.000238	20.765940
1676.448698	-2.998100	3.449300	-10.340000	25.807239	0.000239	20.765318
1677.445329	-3.002900	3.447600	-10.352000	25.782067	0.000237	20.772750
1678.448708	-3.046800	3.446000	-10.498000	25.748559	0.000238	20.745256
1679.449322	-2.990000	3.447500	-10.307000	25.726299	0.000237	20.786435
1680.450111	-3.007800	3.447300	-10.367000	25.672280	0.000238	20.782912
1681.450866	-2.996700	3.448000	-10.332000	25.731499	0.000239	20.779803
1682.449182	-3.011700	3.445800	-10.376000	25.795103	0.000237	20.764507
1683.451905	-3.004700	3.446700	-10.354000	25.844322	0.000238	20.776966
1684.451006	-3.006200	3.445000	-10.355000	25.864073	0.000235	20.779263
1685.452777	-2.988200	3.445600	-10.295000	25.863633	0.000236	20.782614
1686.454745	-2.999700	3.445700	-10.335000	25.864276	0.000237	20.772354
1687.453871	-3.020800	3.445000	-10.405000	25.916943	0.000236	20.774528
1688.452830	-2.990800	3.443900	-10.299000	25.923509	0.000236	20.782547
1689.456298	-2.983600	3.442800	-10.270000	25.915185	0.000234	20.769917
1690.452829	-3.017100	3.443700	-10.389000	25.875667	0.000235	20.782849
1691.459210	-2.995400	3.443500	-10.314000	25.921303	0.000234	20.807358
1692.454010	-2.994300	3.444700	-10.313000	25.880272	0.000233	20.784630
1693.454188	-3.004900	3.445100	-10.351000	25.870881	0.000234	20.779464
1694.457808	-2.992800	3.444300	-10.306000	25.804635	0.000233	20.783566
1695.454713	-3.014300	3.444700	-10.382000	25.798156	0.000233	20.791283
1696.457957	-3.004700	3.442700	-10.343000	25.864889	0.000232	20.779134
1697.457379	-3.012900	3.441300	-10.368000	25.870602	0.000231	20.775390
1698.463189	-2.991400	3.442400	-10.297000	25.815352	0.000233	20.780581
1699.454826	-2.976200	3.442300	-10.243000	25.807751	0.000232	20.799972
1700.453948	-2.979400	3.440900	-10.251000	25.849222	0.000231	20.766240
1701.471298	-2.998300	3.441400	-10.318000	25.854575	0.000230	20.786791
1702.455316	-2.969600	3.440300	-10.216000	25.845803	0.000233	20.778453
1703.456962	-2.982100	3.440800	-10.260000	25.858092	0.000229	20.787005
1704.458800	-2.992300	3.439500	-10.292000	25.864911	0.000230	20.781526
1705.456966	-3.012000	3.439900	-10.360000	25.863544	0.000232	20.776360
1706.462646	-3.025700	3.438000	-10.402000	25.887623	0.000231	20.794859
1707.464808	-2.980400	3.439000	-10.248000	25.907893	0.000230	20.780136
1708.458394	-3.001900	3.438100	-10.320000	25.895426	0.000229	20.775672
1709.460267	-3.020000	3.437800	-10.381000	25.859212	0.000228	20.781966
1710.460161	-3.027400	3.436400	-10.402000	25.800682	0.000229	20.780543
1711.463320	-3.016300	3.437900	-10.369000	25.799396	0.000228	20.800588
1712.462329	-3.002900	3.436800	-10.320000	25.804661	0.000229	20.795920
1713.459311	-2.975500	3.436900	-10.226000	25.809689	0.000230	20.797178
1714.459751	-3.002000	3.435700	-10.314000	25.774434	0.000229	20.787842
1715.464203	-2.986400	3.436400	-10.262000	25.797246	0.000228	20.802696
1716.460893	-3.008200	3.436100	-10.335000	25.801714	0.000229	20.796753
1717.462903	-3.013400	3.435100	-10.351000	25.818242	0.000229	20.789174
1718.466153	-2.988000	3.435100	-10.263000	25.800330	0.000225	20.806742
1719.463100	-2.998600	3.434500	-10.298000	25.811634	0.000226	20.795812
1720.463364	-3.019300	3.434200	-10.368000	25.841850	0.000227	20.810992
1721.465468	-3.008600	3.434900	-10.333000	25.868933	0.000227	20.812594
1722.464200	-2.997500	3.434200	-10.294000	25.850850	0.000226	20.814817
1723.466033	-3.006300	3.432000	-10.316000	25.833784	0.000224	20.807157
1724.464415	-3.004200	3.432300	-10.310000	25.814407	0.000226	20.816615
1725.464550	-2.984200	3.433500	-10.246000	25.852941	0.000224	20.814072
1726.464293	-2.999300	3.431800	-10.292000	25.852525	0.000225	20.807965
1727.465240	-3.003800	3.432300	-10.309000	25.904567	0.000225	20.805717
1728.466317	-3.015700	3.431600	-10.348000	25.847683	0.000224	20.806420
1729.465636	-2.978600	3.431800	-10.222000	25.858937	0.000224	20.825786
1730.465318	-2.999000	3.430600	-10.287000	25.852109	0.000223	20.802332
1731.466136	-2.981100	3.432100	-10.231000	25.827093	0.000222	20.803280
1732.465026	-2.990600	3.430100	-10.257000	25.866700	0.000225	20.813669
1733.464746	-2.985000	3.430100	-10.238000	25.865235	0.000223	20.814568
1734.468189	-2.998700	3.430200	-10.285000	25.893456	0.000220	20.811151
1735.467246	-3.012500	3.429400	-10.331000	25.940598	0.000222	20.817733
1736.469828	-3.000200	3.429500	-10.289000	25.993066	0.000221	20.798374
1737.468923	-2.994100	3.428300	-10.264000	25.953828	0.000219	20.821540
1738.468701	-2.973700	3.429700	-10.197000	25.931117	0.000221	20.819587
1739.470348	-3.004100	3.427500	-10.296000	25.958995	0.000220	20.801602
1740.468354	-2.998500	3.426800	-10.275000	25.977352	0.000220	20.786854
1741.468472	-3.017800	3.426800	-10.340000	25.941539	0.000221	20.780746
1742.468487	-2.992800	3.428400	-10.260000	25.885821	0.000220	20.803007
1743.470406	-3.006400	3.426900	-10.302000	25.930488	0.000217	20.801412
1744.470196	-3.024200	3.427100	-10.362000	25.973965	0.000222	20.798624
1745.470819	-2.977400	3.427100	-10.203000	25.975097	0.000219	20.798339
1746.470562	-2.989300	3.426000	-10.240000	25.954664	0.000219	20.790138
1747.470411	-2.988400	3.427700	-10.242000	25.925898	0.000218	20.786844
1748.472098	-2.991500	3.425400	-10.246000	25.910421	0.000221	20.822029
1749.471927	-2.985800	3.424600	-10.224000	25.963550	0.000218	20.800489
1750.473320	-2.996800	3.425700	-10.266000	25.951164	0.000217	20.773346
1751.472684	-2.993400	3.424200	-10.248000	25.952849	0.000218	20.775987
1752.472156	-2.979200	3.425200	-10.202000	25.957422	0.000216	20.799073
1753.475825	-3.007800	3.424800	-10.300000	25.956918	0.000215	20.795723
1754.473384	-2.995600	3.424000	-10.256000	25.970336	0.000217	20.802565
1755.479332	-3.013900	3.424600	-10.321000	25.931677	0.000217	20.783640
1756.472488	-2.984800	3.423700	-10.218000	25.926754	0.000217	20.807618
1757.473642	-2.978600	3.423100	-10.195000	25.880199	0.000215	20.788824
1758.475204	-2.985500	3.422600	-10.217000	25.912815	0.000217	20.787925
1759.474944	-2.988400	3.422100	-10.226000	25.924778	0.000216	20.794728
1760.474592	-2.981700	3.422600	-10.204000	25.887450	0.000218	20.792789
1761.477176	-3.003800	3.421000	-10.274000	25.939221	0.000215	20.792642
1762.477121	-3.012800	3.419800	-10.303000	25.998802	0.000217	20.767627
1763.474493	-2.967700	3.421700	-10.154000	26.003969	0.000215	20.779457
1764.479125	-3.013800	3.420400	-10.307000	26.037354	0.000214	20.783127
1765.475641	-2.992100	3.420600	-10.234000	26.026370	0.000216	20.773988
1766.493144	-3.020800	3.419900	-10.330000	25.951576	0.000214	20.788458
1767.475850	-3.006200	3.420100	-10.281000	25.965084	0.000211	20.779270
1768.475071	-2.998400	3.417800	-10.247000	25.980697	0.000212	20.794008
1769.475394	-2.980500	3.418800	-10.188000	25.976411	0.000213	20.774054
1770.475264	-2.996300	3.418800	-10.243000	25.972139	0.000211	20.772607
1771.479486	-3.016400	3.419600	-10.314000	25.978281	0.000212	20.782098
1772.476992	-3.001500	3.418000	-10.258000	25.971870	0.000211	20.772337
1773.477303	-2.997500	3.418500	-10.246000	25.982602	0.000214	20.756092
1774.477492	-2.964900	3.417600	-10.132000	25.990538	0.000211	20.766910
1775.478570	-3.002400	3.416700	-10.257000	25.970031	0.000209	20.778550
1776.478322	-2.990100	3.416700	-10.215000	25.951624	0.000210	20.776179
1777.479905	-3.001100	3.417000	-10.254000	25.925911	0.000210	20.761252
1778.480093	-2.999200	3.416300	-10.245000	25.862689	0.000208	20.768863
1779.481608	-3.008400	3.415700	-10.275000	25.852288	0.000210	20.758888
1780.481320	-2.970800	3.416400	-10.149000	25.839470	0.000209	20.778729
1781.481693	-3.004600	3.414600	-10.258000	25.848145	0.000210	20.746191
1782.482337	-3.027100	3.414300	-10.335000	25.886320	0.000209	20.761782
1783.479488	-3.003400	3.412900	-10.249000	25.854892	0.000209	20.764350
1784.478303	-2.973000	3.414900	-10.152000	25.884978	0.000208	20.751898
1785.479263	-3.008500	3.413900	-10.270000	25.885205	0.000209	20.774413
1786.482005	-2.995200	3.414700	-10.227000	25.876612	0.000208	20.757244
1787.483137	-3.020400	3.413400	-10.309000	25.923639	0.000209	20.770349
1788.479339	-3.011000	3.413200	-10.276000	25.911759	0.000208	20.786864
1789.480727	-3.000200	3.411100	-10.232000	25.937270	0.000208	20.760809
1790.481512	-2.969400	3.413000	-10.133000	25.980477	0.000207	20.752060
1791.481328	-2.980200	3.413500	-10.173000	26.022920	0.000207	20.752029
1792.484375	-3.017900	3.410500	-10.291000	25.983187	0.000206	20.750989
1793.485807	-3.000500	3.411200	-10.234000	25.990510	0.000204	20.764986
1794.484616	-3.015000	3.410400	-10.282000	25.970168	0.000203	20.766359
1795.484766	-2.991000	3.411700	-10.203000	25.999453	0.000204	20.736511
1796.482159	-3.011700	3.411000	-10.271000	25.951639	0.000202	20.761495
1797.482342	-3.008300	3.410300	-10.257000	25.918202	0.000205	20.751137
1798.482656	-2.990800	3.410200	-10.198000	25.909039	0.000204	20.749992
1799.482092	-2.991600	3.410200	-10.201000	25.916021	0.000202	20.762222
1800.485564	-3.005400	3.410400	-10.249000	25.929187	0.000201	20.756957
1801.504754	-2.982800	3.410300	-10.171000	25.920147	0.000203	20.776798
1802.483803	-3.008500	3.409200	-10.255000	25.888377	0.000202	20.738243
1803.485607	-3.001600	3.408500	-10.230000	25.911382	0.000204	20.751871
1804.485071	-3.018100	3.407800	-10.284000	25.975943	0.000203	20.742764
1805.484378	-3.000600	3.409100	-10.228000	26.014293	0.000203	20.764698
1806.486920	-2.997500	3.408200	-10.215000	25.995244	0.000204	20.746034
1807.487056	-2.994600	3.407100	-10.201000	25.943249	0.000203	20.754014
1808.491195	-2.980900	3.407300	-10.156000	25.921447	0.000203	20.750129
1809.490607	-2.999000	3.405700	-10.213000	25.906344	0.000202	20.753448
1810.496218	-2.972800	3.406800	-10.126000	25.906393	0.000203	20.746385
1811.489239	-2.987700	3.406300	-10.176000	25.912651	0.000201	20.746034
1812.486476	-2.993700	3.406800	-10.197000	25.881891	0.000204	20.738840
1813.489302	-3.021600	3.404000	-10.284000	25.937089	0.000202	20.750196
1814.489636	-3.002600	3.405400	-10.224000	25.963998	0.000201	20.753522
1815.494230	-3.007500	3.406100	-10.244000	26.017817	0.000200	20.734098
1816.492152	-3.010300	3.405000	-10.249000	26.030657	0.000199	20.746051
1817.488730	-3.003900	3.403300	-10.222000	26.009623	0.000199	20.764273
1818.492897	-2.991500	3.403200	-10.180000	26.062104	0.000199	20.729283
1819.490097	-3.003500	3.404000	-10.223000	25.952615	0.000202	20.729757
1820.492774	-2.996900	3.401600	-10.193000	25.966749	0.000199	20.733052
1821.491316	-3.007800	3.403100	-10.235000	25.979215	0.000199	20.738938
1822.490914	-3.019200	3.402000	-10.270000	25.996254	0.000199	20.749419
1823.493046	-3.011500	3.402300	-10.245000	26.006172	0.000200	20.729511
1824.492817	-3.013500	3.400900	-10.248000	26.003113	0.000197	20.731654
1825.491310	-2.994900	3.401700	-10.187000	25.981502	0.000196	20.734123
1826.494614	-2.979200	3.401700	-10.134000	25.972982	0.000196	20.726511
1827.494200	-2.983800	3.401500	-10.149000	25.992755	0.000196	20.745903
1828.493340	-2.994700	3.401000	-10.184000	25.968035	0.000196	20.740508
1829.491781	-2.982100	3.402200	-10.145000	25.981208	0.000196	20.743311
1830.493048	-3.005600	3.401000	-10.221000	26.002487	0.000194	20.726283
1831.493415	-2.994900	3.400600	-10.183000	26.000876	0.000196	20.749321
1832.493316	-2.987300	3.400200	-10.156000	26.010070	0.000196	20.723944
1833.494346	-2.994900	3.398400	-10.177000	26.053952	0.000193	20.736739
1834.493937	-3.033200	3.397300	-10.304000	26.067841	0.000194	20.724140
1835.492945	-3.021900	3.397400	-10.266000	26.056532	0.000194	20.743599
1836.495358	-3.006900	3.398200	-10.218000	26.060657	0.000193	20.736838
1837.496430	-2.994600	3.397600	-10.174000	26.068264	0.000195	20.730256
1838.494370	-2.995000	3.397200	-10.173000	26.067889	0.000192	20.738415
1839.496545	-3.006900	3.395900	-10.210000	26.080550	0.000191	20.742602
1840.497145	-2.997500	3.397500	-10.183000	26.117610	0.000193	20.731948
1841.499311	-2.997400	3.397000	-10.181000	26.108718	0.000191	20.733919
1842.498490	-3.018600	3.396200	-10.251000	26.093820	0.000192	20.734597
1843.500753	-3.002400	3.395000	-10.192000	26.092624	0.000191	20.731499
1844.501104	-3.009700	3.396200	-10.221000	26.096822	0.000191	20.727182
1845.502856	-2.994300	3.395400	-10.166000	26.064317	0.000189	20.740990
1846.502913	-3.005000	3.395100	-10.201000	26.040413	0.000189	20.734042
1847.501812	-3.017100	3.394600	-10.241000	26.064366	0.000188	20.720175
1848.498945	-3.014100	3.394500	-10.230000	26.079125	0.000189	20.734056
1849.509348	-2.993900	3.394500	-10.162000	26.073860	0.000189	20.734931
1850.504086	-2.993700	3.394500	-10.161000	26.045538	0.000188	20.732079
1851.503083	-3.009300	3.393100	-10.210000	26.063779	0.000188	20.734759
1852.500482	-3.021300	3.392500	-10.248000	26.097512	0.000187	20.729771
1853.501105	-3.006700	3.392300	-10.198000	26.151981	0.000188	20.718121
1854.501726	-3.007000	3.392200	-10.199000	26.098683	0.000189	20.704868
1855.500667	-2.990700	3.392000	-10.143000	26.012549	0.000189	20.729280
1856.506372	-2.973200	3.392300	-10.085000	26.061825	0.000187	20.746073
1857.501032	-2.979900	3.390900	-10.103000	26.046951	0.000186	20.706944
1858.501864	-2.995700	3.391800	-10.160000	26.080905	0.000186	20.734896
1859.501588	-2.988900	3.391700	-10.136000	26.090504	0.000186	20.716091
1860.510548	-2.983000	3.392800	-10.119000	26.103042	0.000185	20.706404
1861.505627	-2.991800	3.391700	-10.147000	26.137351	0.000186	20.724757
1862.502109	-3.002300	3.390300	-10.179000	26.114253	0.000185	20.729997
1863.502765	-2.997400	3.390100	-10.161000	26.087883	0.000184	20.723889
1864.503008	-2.983300	3.388900	-10.108000	26.073774	0.000184	20.725835
1865.501448	-2.988600	3.388100	-10.125000	26.086002	0.000183	20.731484
1866.503884	-2.991700	3.388400	-10.136000	26.068517	0.000183	20.716759
1867.503608	-2.979100	3.389000	-10.095000	26.100582	0.000184	20.728115
1868.501829	-3.008600	3.387700	-10.191000	26.087254	0.000184	20.714722
1869.501818	-3.002900	3.387200	-10.170000	26.085318	0.000183	20.696654
1870.503394	-3.026500	3.386300	-10.247000	26.098076	0.000183	20.712794
1871.502472	-3.016600	3.385400	-10.211000	26.097457	0.000184	20.718811
1872.509669	-3.007100	3.387100	-10.185000	26.069542	0.000181	20.711150
1873.504855	-2.984300	3.386100	-10.105000	25.995009	0.000185	20.714501
1874.505780	-2.970300	3.388100	-10.063000	25.953306	0.000179	20.702000
1875.506566	-2.995900	3.386400	-10.145000	25.956033	0.000181	20.717069
1876.506992	-3.020900	3.386000	-10.228000	25.971786	0.000180	20.724361
1877.510691	-2.993600	3.386300	-10.137000	25.993300	0.000182	20.708042
1878.510143	-2.997500	3.385100	-10.146000	26.049306	0.000178	20.715000
1879.509615	-3.007500	3.384100	-10.176000	26.094470	0.000181	20.689728
1880.506258	-3.000800	3.384400	-10.155000	26.091159	0.000182	20.727181
1881.512153	-3.014600	3.384900	-10.204000	26.039500	0.000179	20.707044
1882.513590	-3.005600	3.382400	-10.165000	25.993202	0.000181	20.717427
1883.510901	-2.991100	3.382600	-10.117000	26.034106	0.000178	20.720592
1884.509799	-2.993500	3.382700	-10.125000	26.016750	0.000179	20.704575
1885.510842	-2.987700	3.384400	-10.111000	26.014058	0.000179	20.712777
1886.512468	-2.991900	3.382500	-10.118000	26.056018	0.000177	20.721270
1887.512936	-3.010300	3.381600	-10.179000	26.108164	0.000177	20.706809
1888.516303	-2.976300	3.382500	-10.066000	26.122297	0.000177	20.710103
1889.516598	-2.961900	3.383600	-10.021000	26.113184	0.000175	20.706637
1890.514580	-2.983600	3.382400	-10.090000	26.063683	0.000178	20.722808
1891.514356	-3.016200	3.380500	-10.195000	26.022553	0.000175	20.733166
1892.514079	-3.013000	3.380100	-10.183000	26.015596	0.000176	20.695354
1893.514212	-2.995000	3.380500	-10.124000	26.046499	0.000173	20.721189
1894.516318	-3.006800	3.380300	-10.164000	26.012080	0.000175	20.686605
1895.514727	-3.012000	3.380000	-10.179000	26.015799	0.000175	20.711681
1896.513387	-2.998500	3.380400	-10.135000	26.047320	0.000175	20.702099
1897.517227	-2.973700	3.380200	-10.051000	26.074073	0.000173	20.685829
1898.512686	-2.994300	3.379800	-10.119000	26.116624	0.000173	20.701084
1899.514071	-2.996000	3.377600	-10.117000	26.071297	0.000176	20.687308
1900.512625	-2.981200	3.379800	-10.074000	26.029988	0.000173	20.708868
1901.513699	-3.008900	3.377600	-10.161000	26.041818	0.000175	20.710322
1902.514647	-2.996200	3.378900	-10.123000	26.038613	0.000174	20.689556
1903.512510	-2.996800	3.377300	-10.120000	26.012290	0.000172	20.700094
1904.520053	-2.995700	3.378400	-10.120000	25.978562	0.000171	20.701295
1905.512684	-3.005400	3.377700	-10.150000	26.010238	0.000173	20.717000
1906.514337	-3.012700	3.376600	-10.172000	26.059098	0.000170	20.685956
1907.516604	-3.008200	3.376100	-10.155000	26.049384	0.000171	20.699430
1908.517670	-3.000300	3.376800	-10.130000	26.078398	0.000169	20.704875
1909.520608	-3.021200	3.375900	-10.198000	26.054876	0.000172	20.690249
1910.517836	-3.006300	3.374000	-10.143000	25.997885	0.000171	20.698897
1911.516030	-2.988000	3.375800	-10.086000	25.996762	0.000169	20.693976
1912.516879	-3.016700	3.373700	-10.176000	26.069894	0.000169	20.707710
1913.515240	-3.000900	3.374700	-10.126000	26.106352	0.000172	20.693607
1914.515816	-2.990800	3.374300	-10.090000	26.050244	0.000169	20.709779
1915.518944	-2.985600	3.373700	-10.072000	26.027917	0.000167	20.707261
1916.518238	-2.979700	3.375100	-10.056000	25.999479	0.000166	20.678686
1917.516942	-3.004400	3.372700	-10.132000	26.009764	0.000167	20.674794
1918.521665	-3.002300	3.372300	-10.123000	26.085432	0.000168	20.703882
1919.520894	-2.995800	3.371900	-10.101000	26.042041	0.000168	20.683042
1920.518195	-3.000000	3.372500	-10.116000	26.075075	0.000166	20.678300
1921.516738	-3.003000	3.371200	-10.123000	26.098027	0.000165	20.691406
1922.517180	-3.009800	3.371100	-10.145000	26.107863	0.000167	20.691332
1923.517979	-3.003600	3.372000	-10.127000	26.069615	0.000165	20.684669
1924.517204	-2.981300	3.371200	-10.050000	26.048281	0.000165	20.699271
1925.519157	-2.982600	3.370300	-10.051000	26.065571	0.000164	20.685821
1926.521575	-2.981400	3.370800	-10.050000	26.039843	0.000163	20.688895
1927.520058	-3.003600	3.369400	-10.119000	26.058670	0.000165	20.688371
1928.519757	-3.011600	3.370400	-10.149000	26.056961	0.000164	20.688077
1929.519398	-3.032500	3.368600	-10.215000	26.089922	0.000163	20.692271
1930.519662	-3.021500	3.368000	-10.176000	26.081036	0.000165	20.702310
1931.520066	-3.028900	3.368700	-10.202000	26.050313	0.000165	20.678551
1932.521974	-2.982600	3.369100	-10.048000	26.048523	0.000164	20.672484
1933.521290	-2.976400	3.368900	-10.026000	26.019890	0.000164	20.685917
1934.519991	-2.998700	3.367400	-10.097000	26.025105	0.000161	20.674086
1935.521875	-3.004200	3.366600	-10.113000	26.057944	0.000164	20.692384
1936.527231	-2.992100	3.367600	-10.076000	26.089098	0.000162	20.683856
1937.524317	-3.014700	3.367100	-10.150000	26.167382	0.000163	20.699455
1938.525290	-3.007800	3.365500	-10.122000	26.191975	0.000162	20.676276
1939.526563	-3.000300	3.365000	-10.095000	26.247278	0.000161	20.679693
1940.524974	-2.975400	3.366100	-10.015000	26.298357	0.000162	20.689300
1941.526723	-3.003400	3.365400	-10.106000	26.318848	0.000160	20.676701
1942.522773	-3.022200	3.363500	-10.164000	26.270038	0.000160	20.673642
1943.523038	-2.984200	3.365900	-10.043000	26.283819	0.000159	20.669946
1944.524679	-3.010700	3.364800	-10.129000	26.226483	0.000157	20.667330
1945.527717	-3.014000	3.364700	-10.140000	26.231999	0.000160	20.662914
1946.525609	-3.009600	3.363000	-10.120000	26.220674	0.000159	20.662440
1947.525778	-2.990900	3.364600	-10.062000	26.207089	0.000158	20.682455
1948.526856	-2.979600	3.364400	-10.024000	26.216509	0.000158	20.669634
1949.529642	-2.995200	3.364000	-10.075000	26.226637	0.000158	20.665588
1950.526561	-2.986000	3.363700	-10.043000	26.218567	0.000158	20.661745
1951.529867	-3.010700	3.361600	-10.120000	26.189166	0.000156	20.670133
1952.532060	-2.996200	3.362700	-10.074000	26.195926	0.000157	20.682143
1953.526589	-2.997600	3.361800	-10.076000	26.235610	0.000158	20.661327
1954.527164	-3.000300	3.361900	-10.085000	26.246535	0.000156	20.649546
1955.528142	-3.000800	3.362800	-10.090000	26.267848	0.000155	20.655317
1956.528329	-2.995600	3.361500	-10.069000	26.264154	0.000157	20.656347
1957.535561	-2.992200	3.361400	-10.058000	26.252676	0.000157	20.665676
1958.529250	-2.995500	3.360800	-10.066000	26.283149	0.000156	20.657892
1959.528493	-2.993600	3.359100	-10.055000	26.292617	0.000155	20.646069
1960.532250	-3.014500	3.358700	-10.124000	26.271021	0.000154	20.649971
1961.532259	-2.985300	3.359300	-10.028000	26.307529	0.000155	20.671015
1962.531319	-3.009300	3.358600	-10.106000	26.302853	0.000155	20.648769
1963.538957	-3.024000	3.357900	-10.153000	26.234707	0.000156	20.652359
1964.532233	-2.999400	3.357300	-10.069000	26.221569	0.000156	20.631093
1965.532357	-2.984600	3.359300	-10.024000	26.221317	0.000155	20.669251
1966.535771	-2.998400	3.356900	-10.064000	26.260815	0.000156	20.649671
1967.532384	-2.985300	3.357300	-10.022000	26.323632	0.000155	20.649737
1968.536937	-3.001400	3.357300	-10.076000	26.314839	0.000154	20.660342
1969.537594	-3.003900	3.356900	-10.084000	26.263355	0.000153	20.671666
1970.534541	-3.025000	3.356200	-10.151000	26.296797	0.000153	20.661651
1971.536203	-2.991800	3.357400	-10.044000	26.318371	0.000152	20.660573
1972.534199	-3.002600	3.355300	-10.073000	26.355261	0.000152	20.661612
1973.542597	-2.972300	3.355500	-9.972200	26.303080	0.000151	20.676502
1974.534613	-2.997300	3.355200	-10.056000	26.274299	0.000151	20.642359
1975.534537	-2.962300	3.354700	-9.936600	26.312851	0.000152	20.676364
1976.538285	-3.005200	3.354900	-10.081000	26.280841	0.000151	20.657470
1977.534838	-2.996100	3.352700	-10.044000	26.255160	0.000150	20.659162
1978.538100	-2.981100	3.353900	-9.997500	26.223662	0.000152	20.672082
1979.539816	-3.002000	3.353600	-10.067000	26.238876	0.000151	20.657022
1980.539496	-3.005500	3.355200	-10.083000	26.271236	0.000148	20.673897
1981.537311	-3.016200	3.353400	-10.113000	26.248745	0.000149	20.670261
1982.537304	-3.002500	3.352100	-10.064000	26.303110	0.000148	20.653769
1983.540431	-2.996300	3.352200	-10.043000	26.255977	0.000150	20.686064
1984.539307	-2.993400	3.352300	-10.034000	26.319241	0.000149	20.646747
1985.538383	-2.988100	3.352300	-10.016000	26.305828	0.000149	20.661718
1986.538494	-2.973900	3.351800	-9.967700	26.279886	0.000146	20.659828
1987.558267	-3.012100	3.350400	-10.091000	26.228725	0.000148	20.657253
1988.539490	-3.014900	3.351400	-10.103000	26.250527	0.000147	20.661620
1989.539491	-2.986300	3.351700	-10.007000	26.264357	0.000146	20.670303
1990.540828	-3.021200	3.350300	-10.121000	26.282401	0.000145	20.674686
1991.539306	-2.995000	3.350300	-10.034000	26.354049	0.000145	20.688846
1992.543035	-3.015400	3.348900	-10.097000	26.330257	0.000146	20.674890
1993.542110	-2.993300	3.350000	-10.027000	26.303567	0.000146	20.655177
1994.543190	-3.002800	3.349400	-10.057000	26.283474	0.000146	20.655848
1995.541132	-2.980800	3.348600	-9.980700	26.304063	0.000144	20.664686
1996.543410	-3.003700	3.346900	-10.052000	26.319039	0.000145	20.669305
1997.542551	-2.998800	3.347600	-10.038000	26.333794	0.000143	20.668013
1998.544444	-2.999100	3.346600	-10.036000	26.294602	0.000143	20.668455
1999.542603	-3.012400	3.347100	-10.081000	26.279609	0.000143	20.644376
2000.546183	-3.006100	3.347800	-10.063000	26.304884	0.000142	20.662192
2001.544312	-3.008500	3.347000	-10.068000	26.257409	0.000143	20.647671
2002.543109	-2.999500	3.347100	-10.039000	26.277306	0.000141	20.641587
2003.543628	-2.976900	3.346000	-9.959900	26.330655	0.000142	20.661064
2004.542109	-2.977600	3.347000	-9.964600	26.345141	0.000141	20.673728
2005.545835	-2.977400	3.345900	-9.960800	26.339081	0.000143	20.660050
2006.544485	-3.008100	3.345600	-10.064000	26.352243	0.000139	20.659052
2007.549292	-3.008200	3.344900	-10.061000	26.292625	0.000141	20.686384
2008.552284	-2.986100	3.345300	-9.988200	26.290168	0.000141	20.663050
2009.547590	-3.012100	3.342700	-10.068000	26.363345	0.000142	20.661676
2010.548882	-2.988700	3.343200	-9.990300	26.432101	0.000141	20.669615
2011.545643	-3.003600	3.344000	-10.043000	26.466538	0.000143	20.648275
2012.547290	-2.987100	3.343200	-9.985500	26.473248	0.000139	20.676833
2013.547328	-2.975200	3.343300	-9.945700	26.465700	0.000139	20.652175
2014.546953	-3.005500	3.342400	-10.045000	26.432059	0.000139	20.666728
2015.548124	-2.990500	3.341800	-9.992200	26.396377	0.000140	20.664055
2016.546455	-2.997700	3.342100	-10.017000	26.448025	0.000138	20.673767
2017.548211	-3.002100	3.341700	-10.031000	26.373218	0.000139	20.651209
2018.549550	-3.007900	3.341000	-10.048000	26.353379	0.000137	20.661143
2019.549196	-3.028200	3.339200	-10.110000	26.340682	0.000137	20.675885
2020.551631	-2.996200	3.340700	-10.009000	26.252517	0.000138	20.662671
2021.550448	-2.966700	3.341400	-9.911800	26.305011	0.000137	20.658052
2022.551013	-2.982400	3.340000	-9.960000	26.371908	0.000137	20.651789
2023.549630	-2.986600	3.340300	-9.975500	26.375780	0.000138	20.681762
2024.555634	-3.002200	3.338700	-10.022000	26.425909	0.000138	20.663391
2025.550577	-2.990000	3.340200	-9.986000	26.399564	0.000138	20.663939
2026.555870	-3.010200	3.338100	-10.047000	26.411309	0.000137	20.667209
2027.551517	-3.001100	3.339300	-10.021000	26.447537	0.000133	20.679440
2028.550256	-3.024400	3.337000	-10.092000	26.492669	0.000133	20.670276
2029.555450	-3.022700	3.337600	-10.087000	26.416768	0.000135	20.676489
2030.550828	-3.022200	3.337600	-10.086000	26.396937	0.000134	20.671256
2031.553566	-3.015300	3.336100	-10.059000	26.432318	0.000134	20.661772
2032.555719	-2.992000	3.336600	-9.982400	26.497027	0.000136	20.670863
2033.550901	-2.976700	3.336100	-9.929100	26.562238	0.000132	20.677143
2034.553881	-3.021500	3.335400	-10.077000	26.541612	0.000131	20.674902
2035.557150	-3.018800	3.336200	-10.070000	26.505486	0.000132	20.678418
2036.553094	-2.994100	3.335900	-9.987500	26.546403	0.000132	20.674976
2037.554792	-2.994200	3.335300	-9.985900	26.509683	0.000132	20.677421
2038.552373	-2.975300	3.335900	-9.924600	26.442470	0.000133	20.675295
2039.552646	-3.006400	3.334100	-10.023000	26.409105	0.000130	20.683961
2040.556238	-3.018200	3.334900	-10.065000	26.396147	0.000130	20.689430
2041.553621	-3.025800	3.334100	-10.087000	26.418466	0.000131	20.680568
2042.553585	-2.953400	3.335100	-9.848400	26.403842	0.000128	20.692423
2043.554229	-2.991400	3.333300	-9.970000	26.403248	0.000128	20.682816
2044.554779	-2.980700	3.332900	-9.932900	26.416636	0.000129	20.653121
2045.553717	-3.002600	3.333400	-10.008000	26.423338	0.000130	20.658435
2046.553294	-3.000100	3.331700	-9.994500	26.440719	0.000127	20.695823
2047.553534	-2.996800	3.331800	-9.983200	26.464111	0.000128	20.663381
2048.558389	-2.979800	3.332900	-9.930700	26.454774	0.000128	20.695725
2049.554469	-3.016900	3.331500	-10.050000	26.434618	0.000128	20.672145
2050.558989	-3.010400	3.330500	-10.025000	26.412893	0.000129	20.690140
2051.557871	-3.000500	3.330300	-9.991800	26.472302	0.000128	20.674460
2052.556402	-3.019600	3.329100	-10.052000	26.460093	0.000128	20.678310
2053.559813	-3.007800	3.328500	-10.011000	26.453659	0.000128	20.670895
2054.558870	-2.982400	3.331200	-9.933800	26.433545	0.000127	20.692406
2055.555978	-2.996000	3.329600	-9.974800	26.454002	0.000126	20.691155
2056.560065	-2.993600	3.328500	-9.963700	26.396179	0.000127	20.702740
2057.559783	-3.009800	3.328900	-10.018000	26.418701	0.000125	20.695030
2058.561683	-2.997800	3.329300	-9.979900	26.423922	0.000125	20.670878
2059.558567	-2.995000	3.328600	-9.968500	26.415154	0.000125	20.684826
2060.557837	-2.993700	3.327700	-9.961700	26.381586	0.000125	20.670526
2061.560378	-3.000800	3.327700	-9.985100	26.420204	0.000125	20.689902
2062.557810	-2.998500	3.328200	-9.977000	26.430771	0.000124	20.679185
2063.557664	-2.989300	3.326100	-9.941900	26.458783	0.000124	20.680787
2064.564049	-3.001200	3.326100	-9.981100	26.513510	0.000123	20.680794
2065.562608	-3.013900	3.325800	-10.023000	26.541285	0.000122	20.666986
2066.558640	-3.011100	3.326000	-10.014000	26.478847	0.000123	20.683411
2067.564027	-2.999300	3.326500	-9.976000	26.465866	0.000125	20.699288
2068.560504	-3.006200	3.323700	-9.990400	26.518496	0.000124	20.688177
2069.562597	-3.013100	3.324700	-10.016000	26.557826	0.000122	20.690253
2070.560293	-2.987000	3.325800	-9.932900	26.560786	0.000120	20.685642
2071.560619	-3.018700	3.323900	-10.033000	26.607678	0.000121	20.685838
2072.560201	-2.996600	3.324400	-9.961300	26.669759	0.000120	20.694669
2073.559430	-3.010300	3.324000	-10.005000	26.570220	0.000122	20.707929
2074.560239	-2.992600	3.324700	-9.948500	26.552198	0.000119	20.699769
2075.559960	-3.011300	3.321700	-10.002000	26.538029	0.000121	20.701175
2076.562304	-2.996200	3.322900	-9.955500	26.450379	0.000120	20.696049
2077.559988	-3.029900	3.322400	-10.066000	26.473096	0.000119	20.683794
2078.562220	-3.043300	3.320500	-10.105000	26.530475	0.000118	20.685519
2079.566534	-3.034800	3.321700	-10.080000	26.567844	0.000123	20.707437
2080.566467	-2.990800	3.321200	-9.932000	26.621811	0.000118	20.693408
2081.562134	-3.031000	3.319300	-10.059000	26.603147	0.000120	20.687448
2082.562706	-2.970700	3.321900	-9.868100	26.607888	0.000116	20.682730
2083.562756	-3.012600	3.320000	-10.001000	26.581628	0.000117	20.705172
2084.562636	-3.021400	3.318800	-10.026000	26.533410	0.000116	20.685625
2085.566137	-2.970400	3.321100	-9.863800	26.555482	0.000117	20.712081
2086.565977	-3.004400	3.319300	-9.971900	26.561419	0.000115	20.709514
2087.564762	-2.974000	3.319200	-9.870100	26.579123	0.000115	20.694118
2088.563646	-3.001500	3.317700	-9.957600	26.619362	0.000119	20.689998
2089.562720	-2.964800	3.318100	-9.837000	26.598926	0.000117	20.701698
2090.566523	-3.014000	3.317500	-9.997800	26.633446	0.000114	20.702261
2091.565288	-2.977200	3.318700	-9.880300	26.663007	0.000116	20.713961
2092.564041	-2.971100	3.318300	-9.858100	26.672992	0.000115	20.705506
2093.575003	-3.010500	3.318200	-9.989200	26.649060	0.000113	20.708474
2094.566921	-3.006200	3.316700	-9.969600	26.646604	0.000115	20.685140
2095.566582	-3.026900	3.315900	-10.036000	26.677066	0.000115	20.711025
2096.572254	-3.002600	3.315900	-9.955400	26.610115	0.000112	20.706307
2097.566499	-3.001200	3.315700	-9.950500	26.565207	0.000114	20.694828
2098.567486	-2.990100	3.314600	-9.910000	26.575560	0.000114	20.702865
2099.571848	-2.998400	3.314700	-9.937500	26.590685	0.000114	20.721390
2100.568754	-2.996400	3.313300	-9.926800	26.617270	0.000112	20.700698
2101.570081	-2.994100	3.315300	-9.925200	26.555341	0.000113	20.718577
2102.568674	-2.979100	3.315300	-9.875500	26.556032	0.000112	20.709315
2103.571692	-2.983600	3.314300	-9.886600	26.610210	0.000111	20.715413
2104.569152	-2.998500	3.313200	-9.933400	26.590717	0.000113	20.728061
2105.569462	-3.013100	3.311300	-9.976500	26.580714	0.000112	20.718479
2106.570432	-2.990500	3.313200	-9.907000	26.636152	0.000110	20.694548
2107.569644	-3.003500	3.312000	-9.946000	26.649358	0.000110	20.725845
2108.571530	-3.015200	3.311500	-9.983300	26.625343	0.000111	20.707391
2109.577154	-3.024800	3.311000	-10.014000	26.646291	0.000111	20.702846
2110.571932	-2.992700	3.311700	-9.909400	26.658334	0.000111	20.707366
2111.571971	-3.011400	3.310600	-9.968500	26.645502	0.000110	20.737142
2112.573801	-2.978500	3.311400	-9.862800	26.651421	0.000109	20.719383
2113.572950	-2.987500	3.311200	-9.891400	26.649234	0.000109	20.719081
2114.576506	-2.998200	3.310500	-9.924200	26.569521	0.000109	20.752274
2115.573790	-3.002400	3.308400	-9.932300	26.601180	0.000109	20.724354
2116.575615	-3.005900	3.310100	-9.948000	26.629033	0.000108	20.701143
2117.574131	-3.005900	3.308200	-9.943000	26.639361	0.000108	20.729545
2118.576712	-2.997300	3.309000	-9.916800	26.631773	0.000109	20.712907
2119.577049	-2.998600	3.308900	-9.920700	26.667748	0.000108	20.729159
2120.575058	-3.026500	3.307000	-10.008000	26.732687	0.000107	20.731857
2121.577762	-2.985400	3.307100	-9.872300	26.764553	0.000107	20.715057
2122.576540	-2.990500	3.308500	-9.892900	26.789433	0.000107	20.733434
2123.577666	-2.978900	3.307400	-9.851000	26.794670	0.000108	20.732535
2124.577024	-3.002400	3.306800	-9.927000	26.780026	0.000105	20.704534
2125.577404	-2.994200	3.307400	-9.901500	26.775943	0.000106	20.727457
2126.580541	-2.992100	3.306400	-9.892500	26.777448	0.000106	20.726599
2127.577387	-2.989200	3.306100	-9.880800	26.798003	0.000105	20.717868
2128.578447	-2.996900	3.305100	-9.904800	26.835192	0.000105	20.722543
2129.578244	-2.987500	3.305000	-9.872400	26.799799	0.000105	20.725838
2130.578950	-3.006600	3.304400	-9.934200	26.797912	0.000105	20.737218
2131.578640	-3.007200	3.305000	-9.938200	26.831451	0.000107	20.751500
2132.580061	-3.000500	3.303300	-9.911000	26.844208	0.000105	20.716910
2133.577612	-3.011000	3.303600	-9.945800	26.837061	0.000103	20.740071
2134.577771	-3.021000	3.302100	-9.974800	26.847956	0.000106	20.742965
2135.581369	-3.008800	3.302800	-9.936500	26.856989	0.000105	20.715062
2136.582814	-2.994500	3.302800	-9.888600	26.802164	0.000105	20.722052
2137.581766	-3.010500	3.301800	-9.938800	26.736839	0.000104	20.720384
2138.588310	-2.991200	3.301000	-9.872900	26.768209	0.000104	20.730587
2139.580496	-2.989800	3.301300	-9.869400	26.767381	0.000105	20.761050
2140.579976	-2.994200	3.300400	-9.881300	26.710225	0.000103	20.718283
2141.587382	-3.012400	3.300700	-9.942300	26.710103	0.000101	20.729540
2142.583034	-3.004100	3.300900	-9.915600	26.725341	0.000102	20.734430
2143.585220	-3.013800	3.299900	-9.943900	26.759965	0.000104	20.739842
2144.582339	-3.011000	3.299700	-9.934900	26.813832	0.000103	20.739474
2145.586665	-3.003800	3.299100	-9.908900	26.834427	0.000102	20.751173
2146.585127	-2.999400	3.299500	-9.896300	26.857964	0.000103	20.736906
2147.585101	-2.991200	3.298900	-9.866600	26.817255	9.958480E-5	20.746235
2148.589276	-3.008900	3.298000	-9.922600	26.827556	0.000100	20.720081
2149.586037	-2.995400	3.297900	-9.877100	26.863542	0.000102	20.750102
2150.585764	-3.003400	3.296600	-9.900400	26.870266	9.988182E-5	20.747380
2151.586755	-2.974600	3.298900	-9.811800	26.870356	0.000100	20.746048
2152.584705	-2.995800	3.297000	-9.876500	26.831436	0.000102	20.747218
2153.586272	-3.005500	3.296700	-9.907500	26.815654	0.000100	20.750316
2154.589743	-2.999400	3.297100	-9.887800	26.827265	9.998083E-5	20.737334
2155.588071	-3.018200	3.294800	-9.943300	26.792588	0.000101	20.762686
2156.588593	-3.001200	3.295300	-9.889100	26.719034	9.948579E-5	20.767919
2157.595603	-2.995200	3.295000	-9.868400	26.696811	9.991483E-5	20.740360
2158.588222	-3.017300	3.295000	-9.941000	26.765741	9.793468E-5	20.731425
2159.589923	-2.999700	3.294700	-9.882400	26.836374	9.790168E-5	20.749338
2160.589309	-3.000100	3.292900	-9.877900	26.819869	9.641657E-5	20.751234
2161.589997	-2.992200	3.294200	-9.855700	26.783598	9.734064E-5	20.766924
2162.588782	-3.003800	3.293100	-9.890200	26.805707	9.555851E-5	20.752642
2163.592226	-3.024300	3.293200	-9.958400	26.853133	9.697761E-5	20.766663
2164.594301	-3.003800	3.291300	-9.885700	26.922458	9.582253E-5	20.770938
2165.592332	-3.019600	3.291600	-9.938200	26.958060	9.522848E-5	20.758848
2166.590401	-3.004600	3.292600	-9.892300	26.990098	9.562451E-5	20.755978
2167.590733	-2.992300	3.292200	-9.850800	26.997886	9.493146E-5	20.764759
2168.592522	-3.010600	3.291800	-9.908800	26.996880	9.417241E-5	20.772282
2169.590193	-3.017300	3.290500	-9.927600	26.954134	9.453543E-5	20.761064
2170.594527	-2.982500	3.291700	-9.816300	26.926932	9.443643E-5	20.756470
2171.591807	-3.003300	3.289800	-9.879400	26.923826	9.479945E-5	20.768995
2172.593626	-2.999400	3.289200	-9.864300	26.935143	9.344635E-5	20.750502
2173.596394	-2.995500	3.290700	-9.856200	26.971181	9.275330E-5	20.767302
2174.598573	-3.011200	3.288900	-9.902300	26.983182	9.311633E-5	20.779844
2175.600801	-3.007300	3.288200	-9.887700	26.994693	9.060815E-5	20.766764
2176.594941	-2.983800	3.288600	-9.811200	27.051727	9.120219E-5	20.777652
2177.597290	-3.021800	3.286700	-9.929300	27.055173	9.229127E-5	20.767368
2178.597136	-2.985400	3.287800	-9.814000	26.977873	9.100417E-5	20.757435
2179.596070	-2.987600	3.288400	-9.823900	26.964321	8.866100E-5	20.781740
2180.595737	-3.025600	3.285300	-9.938800	26.918217	9.031112E-5	20.765725
2181.599349	-2.997400	3.287100	-9.851700	26.929582	9.156522E-5	20.785688
2182.595826	-3.010300	3.286200	-9.890900	26.972694	9.034413E-5	20.781625
2183.597097	-3.007300	3.285500	-9.879400	27.018803	8.892502E-5	20.791010
2184.596185	-3.017500	3.283800	-9.907700	27.075283	8.783594E-5	20.745866
2185.601876	-2.994000	3.285100	-9.835000	27.108911	8.988209E-5	20.777790
2186.599479	-2.994300	3.283900	-9.832400	27.072234	8.842999E-5	20.785001
2187.598537	-3.006600	3.284100	-9.871800	27.065463	8.737391E-5	20.773923
2188.598089	-2.997000	3.284600	-9.843500	27.051416	8.833098E-5	20.771650
2189.599057	-3.002000	3.283000	-9.855000	27.040157	8.717590E-5	20.789725
2190.600602	-2.995200	3.284700	-9.837300	27.017176	8.727490E-5	20.801228
2191.601921	-3.008400	3.282500	-9.874800	27.005990	8.664786E-5	20.772908
2192.600717	-3.001100	3.282800	-9.850800	26.996641	8.578979E-5	20.783421
2193.600895	-3.008600	3.283100	-9.876800	27.040343	8.470071E-5	20.792283
2194.602852	-3.003700	3.281900	-9.856600	27.028604	8.499774E-5	20.781900
2195.601686	-3.008600	3.281000	-9.870700	27.064210	8.625183E-5	20.800164
2196.605051	-3.022600	3.281000	-9.916000	27.082897	8.707689E-5	20.787190
2197.602615	-3.007100	3.280300	-9.863300	27.022158	8.635083E-5	20.791538
2198.602444	-3.027900	3.279500	-9.929000	27.042529	8.585580E-5	20.797326
2199.602649	-3.010400	3.279000	-9.871100	27.006484	8.549277E-5	20.800906
2200.605493	-2.997500	3.280400	-9.832300	26.975787	8.456870E-5	20.784261
2201.601942	-3.007000	3.279300	-9.860600	27.022417	8.446970E-5	20.783738
2202.609658	-2.997900	3.278900	-9.828400	27.048551	8.413967E-5	20.791529
2203.602823	-3.019400	3.278300	-9.897100	27.056127	8.427168E-5	20.782077
2204.602599	-3.011500	3.277900	-9.870200	27.099453	8.248955E-5	20.789141
2205.604392	-2.996500	3.277600	-9.821200	27.071165	8.182950E-5	20.796253
2206.601874	-2.972300	3.277700	-9.741500	27.083748	8.242355E-5	20.819339
2207.604616	-3.009200	3.278800	-9.865600	27.043753	8.120246E-5	20.781962
2208.607720	-2.995300	3.277000	-9.814600	27.112986	8.166449E-5	20.785682
2209.603818	-3.015800	3.277900	-9.884500	27.153740	8.083943E-5	20.794902
2210.603199	-3.012300	3.275500	-9.865300	27.181969	8.206052E-5	20.799587
2211.616140	-2.965500	3.277300	-9.717400	27.193965	7.991536E-5	20.800272
2212.604808	-3.004400	3.275400	-9.840200	27.212992	8.031139E-5	20.820359
2213.605254	-3.008500	3.275000	-9.851400	27.193444	8.146648E-5	20.825353
2214.604133	-3.012600	3.274500	-9.864000	27.186869	8.080643E-5	20.787920
2215.607660	-3.000300	3.274200	-9.822600	27.185113	7.849626E-5	20.795162
2216.608057	-3.020100	3.271600	-9.880000	27.177700	8.110345E-5	20.812362
2217.605331	-3.001100	3.273800	-9.824400	27.150235	7.928832E-5	20.789480
2218.606183	-3.013700	3.272900	-9.862900	27.171554	8.027839E-5	20.811397
2219.608590	-2.990700	3.271900	-9.783900	27.239210	7.892529E-5	20.807849
2220.605594	-3.003200	3.272100	-9.825300	27.278870	7.951934E-5	20.816922
2221.606472	-2.991700	3.272000	-9.787800	27.232601	7.829825E-5	20.817797
2222.608047	-2.984100	3.272400	-9.764000	27.198164	7.747319E-5	20.816824
2223.620857	-3.014000	3.270000	-9.855700	27.164652	7.961834E-5	20.797816
2224.607189	-2.989700	3.270800	-9.778000	27.160084	8.192851E-5	20.826412
2225.607988	-3.023900	3.268800	-9.883300	27.142445	8.031139E-5	20.800138
2226.609612	-2.997400	3.269000	-9.797300	27.112070	7.978335E-5	20.829805
2227.611258	-2.979900	3.270100	-9.743200	27.116858	8.093844E-5	20.820870
2228.613215	-3.005500	3.268800	-9.823900	27.138017	7.928832E-5	20.827926
2229.613261	-3.013900	3.269100	-9.852000	27.216695	8.070742E-5	20.823135
2230.613038	-3.014100	3.268600	-9.851200	27.213957	8.143348E-5	20.805682
2231.612423	-2.990700	3.267300	-9.770500	27.250450	8.156549E-5	20.815362
2232.614202	-2.973300	3.269100	-9.718400	27.277287	8.034440E-5	20.832399
2233.612844	-3.016200	3.266700	-9.852700	27.266340	8.113645E-5	20.802896
2234.615146	-3.022500	3.266200	-9.871600	27.267398	7.786921E-5	20.803486
2235.614008	-3.016400	3.266000	-9.850300	27.185464	7.998137E-5	20.806422
2236.613033	-2.986600	3.267000	-9.756600	27.153400	7.833125E-5	20.793612
2237.616455	-2.966000	3.265400	-9.684100	27.173486	7.876028E-5	20.827090
2238.616041	-2.998300	3.265000	-9.788600	27.251163	7.737418E-5	20.816553
2239.618923	-3.013300	3.264200	-9.834000	27.288492	7.984936E-5	20.814747
2240.615118	-2.982500	3.265000	-9.736200	27.301927	7.786921E-5	20.822572
2241.616984	-3.011200	3.262600	-9.823000	27.306634	7.876028E-5	20.809762
2242.616621	-3.006600	3.265500	-9.817300	27.278417	7.684614E-5	20.826898
2243.618417	-2.984200	3.264300	-9.740500	27.232329	7.493200E-5	20.821790
2244.616675	-2.995000	3.263000	-9.771700	27.176776	7.473399E-5	20.819967
2245.621183	-3.003500	3.261500	-9.795500	27.119221	7.413994E-5	20.800962
2246.622464	-3.010500	3.260800	-9.816400	27.115662	7.625210E-5	20.826306
2247.619469	-2.992300	3.262700	-9.761600	27.209665	7.331488E-5	20.817486
2248.619876	-3.002100	3.262000	-9.791700	27.282454	7.417294E-5	20.818631
2249.619482	-3.006400	3.260100	-9.800800	27.334370	7.463498E-5	20.802102
2250.621469	-2.982000	3.261200	-9.724100	27.376791	7.248982E-5	20.818697
2251.622746	-2.984400	3.259500	-9.726800	27.329171	7.331488E-5	20.814415
2252.618899	-3.008500	3.258800	-9.803500	27.337054	7.367791E-5	20.794845
2253.621785	-2.987900	3.261200	-9.742700	27.345734	7.321587E-5	20.796938
2254.622962	-2.989200	3.259600	-9.742400	27.334634	7.354590E-5	20.795255
2255.620200	-2.979300	3.258900	-9.708300	27.366857	7.097171E-5	20.801591
2256.623778	-3.000600	3.259000	-9.778200	27.365386	7.186278E-5	20.818130
2257.621068	-2.995300	3.257500	-9.756000	27.301900	7.149975E-5	20.811165
2258.621664	-2.988300	3.256600	-9.731000	27.310580	7.169776E-5	20.777222
2259.624177	-2.993100	3.256200	-9.744000	27.334588	7.189578E-5	20.804217
2260.622012	-2.997900	3.257900	-9.766300	27.371590	7.311687E-5	20.795447
2261.627417	-3.001400	3.256400	-9.772600	27.394587	7.037767E-5	20.786340
2262.622453	-3.021200	3.254100	-9.830000	27.356077	7.004764E-5	20.790747
2263.620871	-2.985800	3.256400	-9.721800	27.336508	7.146675E-5	20.817054
2264.622964	-2.987000	3.254600	-9.720300	27.299637	7.130173E-5	20.806991
2265.624560	-2.981600	3.255600	-9.705700	27.280034	6.932159E-5	20.785851
2266.625467	-2.998700	3.254100	-9.757400	27.290031	7.209379E-5	20.816295
2267.622396	-2.996200	3.252100	-9.742900	27.281392	7.202779E-5	20.789114
2268.622988	-2.989000	3.253300	-9.723600	27.298232	7.232481E-5	20.800363
2269.630684	-2.976700	3.253800	-9.684400	27.332862	7.229181E-5	20.790627
2270.623437	-3.005200	3.251200	-9.769600	27.354910	7.364491E-5	20.778667
2271.625275	-3.009600	3.251000	-9.783300	27.418410	7.341389E-5	20.808409
2272.626112	-2.989400	3.250600	-9.716200	27.391244	7.034466E-5	20.797201
2273.625079	-2.978900	3.251000	-9.682900	27.305347	7.090571E-5	20.774803
2274.624922	-3.012100	3.249900	-9.787800	27.292134	7.159876E-5	20.779530
2275.627295	-2.981200	3.250000	-9.687500	27.288412	6.991563E-5	20.781476
2276.627382	-3.002600	3.250600	-9.759500	27.267291	7.110372E-5	20.769239
2277.628992	-3.007100	3.248900	-9.769300	27.263683	6.994864E-5	20.783628
2278.627497	-2.991100	3.248600	-9.715300	27.289846	6.866154E-5	20.782919
2279.628012	-2.963600	3.249000	-9.627300	27.328037	7.021265E-5	20.801895
2280.627006	-2.986500	3.249100	-9.702500	27.282161	6.674740E-5	20.782774
2281.628071	-2.970000	3.249100	-9.648700	27.254488	6.750646E-5	20.802829
2282.629299	-2.995600	3.247900	-9.728000	27.227367	7.014665E-5	20.784558
2283.631316	-3.003900	3.247000	-9.753300	27.297841	6.737445E-5	20.805185
2284.628176	-2.958400	3.247800	-9.607600	27.358883	6.843052E-5	20.786457
2285.628454	-2.974400	3.245300	-9.651900	27.420749	6.744045E-5	20.778045
2286.631034	-2.987900	3.245800	-9.697000	27.457179	6.678040E-5	20.761590
2287.629456	-2.965800	3.245000	-9.622600	27.421865	6.862854E-5	20.772530
2288.633266	-2.983100	3.244100	-9.676200	27.433348	6.905757E-5	20.784556
2289.630153	-2.989800	3.244500	-9.699000	27.416887	6.829851E-5	20.778427
2290.630671	-2.983600	3.243500	-9.676400	27.464603	6.711043E-5	20.784707
2291.639092	-3.002700	3.242700	-9.735800	27.487965	6.879355E-5	20.796357
2292.632437	-2.993600	3.243500	-9.709500	27.521387	6.684641E-5	20.771662
2293.637307	-3.011300	3.243200	-9.765100	27.507113	6.628537E-5	20.798552
2294.632797	-2.999400	3.242900	-9.725200	27.516775	6.711043E-5	20.779350
2295.632449	-3.005300	3.241000	-9.739200	27.466896	6.786948E-5	20.777056
2296.632812	-2.991700	3.241000	-9.694600	27.484895	6.859554E-5	20.781889
2297.631852	-2.999500	3.241100	-9.721500	27.509761	6.664839E-5	20.777983
2298.631880	-2.997100	3.239900	-9.708700	27.525341	6.295212E-5	20.777062
2299.634752	-3.009100	3.241100	-9.751800	27.543437	6.513028E-5	20.804279
2300.636868	-2.994200	3.238900	-9.696900	27.454976	6.549331E-5	20.773599
2301.633307	-3.014400	3.238400	-9.761100	27.456076	6.087297E-5	20.791301
2302.637940	-3.004700	3.238800	-9.731300	27.480391	6.453624E-5	20.768348
2303.633527	-3.002000	3.239000	-9.722200	27.481766	6.483326E-5	20.769257
2304.636978	-3.016000	3.237700	-9.764000	27.482126	6.150002E-5	20.798543
2305.636971	-3.010700	3.237400	-9.746300	27.538420	6.285312E-5	20.790222
2306.633350	-2.980000	3.237600	-9.647200	27.550642	6.311713E-5	20.806312
2307.633785	-3.017500	3.236500	-9.765000	27.619226	6.341416E-5	20.777170
2308.633682	-2.979800	3.237900	-9.647200	27.676474	6.199505E-5	20.785937
2309.643641	-3.002900	3.236100	-9.715800	27.687440	6.153302E-5	20.798395
2310.636226	-3.006700	3.234600	-9.724800	27.712002	6.123600E-5	20.778712
2311.634797	-2.984200	3.237000	-9.658200	27.635709	6.103798E-5	20.787591
2312.633322	-2.995600	3.234700	-9.688900	27.554698	5.971789E-5	20.779573
2313.632636	-3.008500	3.235200	-9.732100	27.527131	5.928885E-5	20.764164
2314.634388	-3.006000	3.233200	-9.718500	27.514822	6.206106E-5	20.784023
2315.637373	-2.991100	3.233200	-9.669900	27.540012	5.981689E-5	20.802729
2316.637686	-2.990600	3.233000	-9.667400	27.447934	5.922285E-5	20.804447
2317.634406	-2.980400	3.232600	-9.634100	27.404371	5.882682E-5	20.783380
2318.636814	-2.996800	3.232000	-9.685100	27.410963	5.760573E-5	20.795227
2319.636391	-3.000800	3.231100	-9.695400	27.472826	5.760573E-5	20.788238
2320.640223	-3.016100	3.230600	-9.743200	27.533296	5.582360E-5	20.776057
2321.637781	-2.992700	3.230400	-9.667100	27.577091	5.602162E-5	20.784560
2322.638412	-3.003600	3.230600	-9.703100	27.504590	5.506455E-5	20.781789
2323.637991	-3.009100	3.228900	-9.715300	27.452473	5.628563E-5	20.775348
2324.638471	-3.007700	3.229700	-9.713600	27.473716	5.569159E-5	20.782969
2325.638978	-2.969200	3.229700	-9.588700	27.440627	5.678067E-5	20.782871
2326.639308	-3.004700	3.227400	-9.696500	27.508989	5.773774E-5	20.761084
2327.638953	-2.993400	3.227900	-9.661300	27.488563	5.509755E-5	20.773251
2328.645358	-2.988400	3.227200	-9.643400	27.448284	5.516355E-5	20.792944
2329.640799	-3.024900	3.225800	-9.756700	27.487328	5.496554E-5	20.779120
2330.641783	-3.006700	3.226800	-9.701300	27.495608	5.588961E-5	20.778916
2331.641890	-2.986900	3.225700	-9.633900	27.554217	5.397547E-5	20.759648
2332.642069	-3.002300	3.225100	-9.682300	27.611464	5.476752E-5	20.777894
2333.639747	-2.990500	3.226800	-9.649200	27.520677	5.199532E-5	20.775689
2334.639458	-2.977900	3.225000	-9.602600	27.504880	5.357944E-5	20.769279
2335.638750	-3.016500	3.225200	-9.728200	27.529551	5.542757E-5	20.766125
2336.642906	-3.003300	3.223500	-9.680400	27.544331	5.285338E-5	20.782418
2337.641256	-3.026700	3.221500	-9.749500	27.559387	5.377745E-5	20.769591
2338.641093	-3.005000	3.223300	-9.684800	27.597557	5.285338E-5	20.757263
2339.641202	-3.031000	3.221800	-9.764400	27.657298	5.229234E-5	20.762373
2340.640028	-2.997300	3.221900	-9.656300	27.617747	5.173130E-5	20.773785
2341.639751	-3.009500	3.221700	-9.694800	27.593658	5.202832E-5	20.775625
2342.640887	-3.019000	3.221600	-9.725600	27.547874	5.348043E-5	20.756585
2343.640814	-3.004400	3.219800	-9.672800	27.582097	4.925612E-5	20.747397
2344.646129	-2.996000	3.219700	-9.645000	27.585469	5.196232E-5	20.758851
2345.644294	-2.985500	3.220100	-9.612700	27.575947	5.212733E-5	20.754011
2346.643206	-2.983200	3.219800	-9.604300	27.528325	5.222634E-5	20.762047
2347.644252	-2.997300	3.218200	-9.644900	27.542977	5.044421E-5	20.745967
2348.643421	-2.994300	3.218800	-9.637000	27.576809	5.272137E-5	20.772897
2349.642738	-2.970200	3.218800	-9.559900	27.626460	5.196232E-5	20.765008
2350.643632	-2.991800	3.216900	-9.623300	27.579183	5.097225E-5	20.765802
2351.644834	-2.976300	3.218000	-9.576600	27.542896	4.955314E-5	20.748257
2352.643930	-3.000700	3.217600	-9.654400	27.518366	5.024619E-5	20.771941
2353.644796	-2.994400	3.217100	-9.632800	27.441515	4.697895E-5	20.743934
2354.645895	-2.997200	3.217400	-9.642100	27.463673	4.895910E-5	20.744415
2355.641636	-2.975700	3.215100	-9.566700	27.451744	4.839806E-5	20.750432
2356.645061	-2.954900	3.216600	-9.503100	27.477805	4.938813E-5	20.746779
2357.643229	-2.997000	3.213700	-9.630400	27.474708	4.720997E-5	20.746982
2358.645771	-2.980600	3.214000	-9.578700	27.423329	4.928912E-5	20.759778
2359.645050	-2.987000	3.213000	-9.596400	27.458597	5.064222E-5	20.756852
2360.650299	-2.976700	3.214200	-9.566900	27.505635	5.054321E-5	20.726888
2361.643679	-2.986600	3.213100	-9.595700	27.602445	5.037820E-5	20.748904
2362.645180	-3.001700	3.213800	-9.646500	27.656213	4.899210E-5	20.763178
2363.643094	-2.995700	3.211200	-9.618700	27.658195	4.886009E-5	20.750000
2364.642859	-2.991200	3.211700	-9.605300	27.684380	4.635191E-5	20.748848
2365.645019	-3.008500	3.210600	-9.658000	27.668262	4.816704E-5	20.742585
2366.644246	-3.009000	3.210800	-9.660700	27.694569	4.734198E-5	20.754359
2367.645153	-3.001600	3.208400	-9.629400	27.778389	4.816704E-5	20.755732
2368.644170	-3.025500	3.207900	-9.704900	27.763961	4.978416E-5	20.756859
2369.644163	-3.011000	3.207500	-9.656700	27.769981	4.744099E-5	20.758177
2370.645601	-2.994200	3.208900	-9.607000	27.784985	4.638491E-5	20.741033
2371.647400	-2.988100	3.208600	-9.586700	27.763018	4.701195E-5	20.748798
2372.647083	-3.001200	3.206300	-9.621800	27.759891	4.367871E-5	20.759877
2373.651605	-2.999100	3.208600	-9.622500	27.685640	4.509781E-5	20.739210
2374.648004	-3.008400	3.205500	-9.642700	27.654541	4.493280E-5	20.750590
2375.649240	-3.028800	3.204400	-9.704800	27.665606	4.364571E-5	20.745602
2376.648827	-3.045600	3.203400	-9.755400	27.690555	4.562585E-5	20.754113
2377.649371	-2.985900	3.206700	-9.573900	27.723716	4.869508E-5	20.746231
2378.653437	-3.007400	3.204500	-9.635800	27.808947	4.638491E-5	20.748078
2379.653135	-3.013700	3.201600	-9.648800	27.807265	4.476779E-5	20.729789
2380.651990	-2.994400	3.205000	-9.595100	27.757218	4.552685E-5	20.738219
2381.651045	-2.988700	3.203600	-9.573900	27.746137	4.483379E-5	20.705729
2382.652737	-3.001500	3.201000	-9.607000	27.715681	4.483379E-5	20.733403
2383.651220	-2.985700	3.201300	-9.557300	27.755340	4.615389E-5	20.710249
2384.653260	-2.999800	3.200500	-9.600700	27.714672	4.222660E-5	20.737130
2385.654823	-2.999300	3.199700	-9.596400	27.672785	4.539484E-5	20.746663
2386.652379	-3.009300	3.200200	-9.629800	27.623877	4.400873E-5	20.731587
2387.654844	-2.994000	3.200300	-9.581100	27.656967	4.301866E-5	20.718890
2388.652050	-3.017100	3.198700	-9.650400	27.621803	4.183057E-5	20.734717
2389.655394	-2.998500	3.198700	-9.589900	27.579546	4.470179E-5	20.743881
2390.654015	-3.004900	3.198500	-9.610000	27.602385	4.443777E-5	20.736041
2391.654368	-2.982400	3.196800	-9.533300	27.645916	4.344769E-5	20.709192
2392.652925	-3.021900	3.195100	-9.654000	27.685846	4.328268E-5	20.724717
2393.654475	-2.994400	3.196700	-9.571700	27.678185	4.427275E-5	20.726491
2394.656506	-2.990800	3.196400	-9.557600	27.705545	4.417375E-5	20.724151
2395.658356	-2.994400	3.194800	-9.565700	27.708219	4.252363E-5	20.715461
2396.654593	-2.984900	3.195700	-9.538000	27.662170	4.113752E-5	20.723653
2397.654637	-3.014400	3.193300	-9.625000	27.671179	4.192958E-5	20.711380
2398.661694	-3.035400	3.192900	-9.691000	27.749825	4.206159E-5	20.732202
2399.656231	-3.011400	3.192700	-9.614000	27.745627	4.196258E-5	20.721338
2400.659474	-2.994200	3.192400	-9.558200	27.784960	3.952041E-5	20.717773
2401.658149	-2.995500	3.193200	-9.565000	27.799590	4.239162E-5	20.711158
2402.656466	-3.008400	3.191100	-9.598700	27.820571	3.869534E-5	20.722318
2403.659830	-2.974500	3.192700	-9.496200	27.801066	3.985043E-5	20.729715
2404.655813	-2.965200	3.190300	-9.458500	27.782911	3.813430E-5	20.717133
2405.661553	-2.978000	3.190000	-9.498600	27.814192	4.097251E-5	20.724432
2406.656556	-2.970400	3.189800	-9.474400	27.753657	3.971842E-5	20.708081
2407.657706	-3.006900	3.187600	-9.583600	27.671531	4.008145E-5	20.724537
2408.663007	-3.012300	3.187600	-9.600400	27.687472	3.965241E-5	20.718766
2409.657370	-3.000700	3.189200	-9.569100	27.764923	3.915738E-5	20.711358
2410.660511	-2.985600	3.187100	-9.515000	27.817465	3.902537E-5	20.695956
2411.659369	-3.011000	3.186400	-9.593500	27.871285	3.892636E-5	20.688481
2412.659682	-2.982900	3.185700	-9.502500	27.876750	3.829932E-5	20.722433
2413.663250	-3.010200	3.186100	-9.590300	27.833309	3.635217E-5	20.716170
2414.663236	-3.009200	3.185100	-9.583200	27.778032	3.882735E-5	20.704161
2415.664043	-2.985500	3.184700	-9.507100	27.782726	3.892636E-5	20.711256
2416.663260	-2.984600	3.183100	-9.499400	27.808363	3.935539E-5	20.715247
2417.662405	-3.007100	3.182900	-9.570500	27.800085	3.895936E-5	20.717821
2418.663413	-3.013300	3.181100	-9.584500	27.848141	3.770527E-5	20.693638
2419.663747	-2.998100	3.181100	-9.535400	27.850203	3.978442E-5	20.697610
2420.665170	-2.990500	3.181600	-9.514100	27.902773	3.988343E-5	20.727762
2421.667049	-3.006100	3.180300	-9.559200	27.906290	3.556011E-5	20.690522
2422.665301	-2.967600	3.180200	-9.436300	27.882546	3.625317E-5	20.699816
2423.666414	-2.983400	3.179600	-9.485400	27.833299	3.582413E-5	20.696244
2424.667582	-3.004000	3.178500	-9.546600	27.771690	3.711123E-5	20.704892
2425.666509	-3.002800	3.177700	-9.541300	27.810147	3.473505E-5	20.701867
2426.669240	-2.990100	3.178100	-9.502400	27.832297	3.526309E-5	20.698081
2427.666594	-3.026600	3.177000	-9.614500	27.825181	3.783728E-5	20.686177
2428.667969	-2.982700	3.176400	-9.473400	27.842142	3.734225E-5	20.695661
2429.669631	-3.010700	3.176300	-9.562500	27.839169	3.480106E-5	20.685081
2430.669053	-2.991400	3.175700	-9.499400	27.823010	3.440503E-5	20.672611
2431.671875	-2.970700	3.175600	-9.431000	27.856680	3.476806E-5	20.673781
2432.671128	-3.006900	3.173500	-9.540900	27.870025	3.311794E-5	20.690532
2433.669393	-3.009100	3.172000	-9.544000	27.860261	3.110479E-5	20.685446
2434.669541	-2.992300	3.172500	-9.491800	27.851432	3.480106E-5	20.693156
2435.669741	-2.991300	3.171200	-9.485500	27.878188	3.315094E-5	20.689264
2436.669140	-2.990600	3.170300	-9.480100	27.880826	3.381099E-5	20.681013
2437.680905	-2.997200	3.169900	-9.500900	27.876739	3.324994E-5	20.668839
2438.671113	-2.994800	3.169600	-9.491800	27.928756	3.192985E-5	20.702703
2439.670745	-3.010000	3.168600	-9.537100	27.973662	3.265590E-5	20.680097
2440.673221	-2.999300	3.168900	-9.503400	27.935609	3.192985E-5	20.673089
2441.670025	-2.998000	3.167700	-9.495800	27.884811	3.090677E-5	20.658469
2442.674277	-2.992900	3.166700	-9.477300	27.869931	3.331595E-5	20.682376
2443.670382	-2.980500	3.167400	-9.439300	27.846131	3.252389E-5	20.672646
2444.671379	-2.970900	3.165100	-9.402000	27.915018	3.361297E-5	20.687452
2445.670866	-2.999500	3.163200	-9.487800	27.944078	3.361297E-5	20.661697
2446.670905	-2.973700	3.164800	-9.409100	27.904060	3.328295E-5	20.678319
2447.672418	-3.036600	3.162700	-9.602500	27.844327	3.150082E-5	20.683160
2448.669751	-2.994500	3.164500	-9.475400	27.857696	3.074176E-5	20.681442
2449.670775	-3.004100	3.161700	-9.496900	27.832604	3.219387E-5	20.665670
2450.670920	-3.009000	3.161700	-9.512900	27.854136	3.179784E-5	20.655571
2451.672529	-3.013800	3.159900	-9.522700	27.872276	3.301893E-5	20.670985
2452.672748	-3.003300	3.160900	-9.492200	27.920758	3.209486E-5	20.662881
2453.671951	-3.021300	3.159000	-9.542500	27.914602	3.295292E-5	20.665221
2454.673308	-3.003700	3.159600	-9.490100	27.939821	3.097278E-5	20.680174
2455.672771	-2.997100	3.158600	-9.465700	27.986782	3.278791E-5	20.681449
2456.674301	-2.995000	3.157700	-9.456500	27.968135	2.968568E-5	20.685439
2457.672616	-2.988600	3.157100	-9.434700	27.977703	2.978469E-5	20.672783
2458.678069	-3.000800	3.156100	-9.469400	28.000785	3.064275E-5	20.671835
2459.674416	-3.018200	3.154500	-9.520400	27.995310	2.912464E-5	20.671066
2460.673665	-3.005200	3.152900	-9.473700	27.921187	2.899263E-5	20.682281
2461.675840	-3.005200	3.153500	-9.475900	27.841953	2.994970E-5	20.673184
2462.675258	-2.984200	3.154100	-9.411200	27.869237	2.991670E-5	20.661761
2463.676367	-2.992300	3.152100	-9.430300	27.915478	2.882762E-5	20.674164
2464.678666	-3.027900	3.150200	-9.537700	27.893410	2.872861E-5	20.660486
2465.677927	-2.995200	3.150400	-9.436000	27.932340	2.892663E-5	20.669798
2466.678909	-2.974800	3.150200	-9.370800	27.968540	2.882762E-5	20.668301
2467.681393	-2.970100	3.148900	-9.351000	28.049927	2.664946E-5	20.646856
2468.679725	-3.000400	3.147800	-9.443700	28.090045	2.839859E-5	20.657370
2469.683754	-3.009100	3.146700	-9.467300	28.079389	2.767254E-5	20.668930
2470.678988	-2.984600	3.146800	-9.390100	28.035754	2.704549E-5	20.675741
2471.680317	-3.005300	3.145900	-9.452700	28.001368	2.770554E-5	20.676689
2472.682432	-3.008100	3.144800	-9.458800	27.983816	2.361324E-5	20.677515
2473.680482	-3.000700	3.143400	-9.431600	27.966680	2.688048E-5	20.677336
2474.679983	-2.985700	3.143800	-9.385800	27.946999	2.559338E-5	20.673173
2475.681296	-3.011700	3.141100	-9.459400	27.984929	2.635244E-5	20.651606
2476.682471	-3.003200	3.142800	-9.437300	27.936342	2.453730E-5	20.659600
2477.685028	-2.979000	3.141200	-9.356700	27.935847	2.664946E-5	20.679018
2478.683316	-3.017100	3.139800	-9.471600	27.984294	2.638544E-5	20.667564
2479.690941	-2.988100	3.138700	-9.378100	28.017837	2.552738E-5	20.662446
2480.685997	-3.009800	3.139800	-9.449700	28.046058	2.691348E-5	20.642487
2481.686996	-3.023500	3.136500	-9.482400	28.041818	2.671546E-5	20.670939
2482.686841	-3.003800	3.136800	-9.421800	28.024658	2.813457E-5	20.676426
2483.688192	-2.975800	3.137500	-9.335900	28.038539	2.605542E-5	20.678544
2484.693890	-3.003500	3.134300	-9.413300	28.063008	2.513135E-5	20.658603
2485.693855	-2.977500	3.136400	-9.337400	28.058353	2.417428E-5	20.675256
2486.691485	-2.989200	3.134900	-9.370300	28.097099	2.499934E-5	20.666369
2487.690376	-3.006300	3.133200	-9.418900	28.127342	2.466931E-5	20.674529
2488.691953	-3.008900	3.131000	-9.420300	28.013353	2.433929E-5	20.668839
2489.688872	-2.987900	3.132200	-9.357900	28.033308	2.572539E-5	20.660475
2490.691971	-3.019000	3.128500	-9.444300	28.056023	2.414128E-5	20.654416
2491.689919	-3.009600	3.129200	-9.415900	28.098066	2.391026E-5	20.667817
2492.689968	-2.989000	3.128300	-9.349600	28.147570	2.311820E-5	20.670711
2493.689771	-3.003500	3.127700	-9.393000	28.175383	2.417428E-5	20.673581
2494.688575	-3.001200	3.127200	-9.383600	28.170997	2.242515E-5	20.663949
2495.689960	-3.006500	3.125100	-9.394900	28.187952	2.325021E-5	20.671536
2496.689382	-2.987700	3.124900	-9.334900	28.170697	2.189711E-5	20.641359
2497.689738	-3.002400	3.124100	-9.378800	28.166507	2.295319E-5	20.665119
2498.689459	-3.001600	3.123700	-9.375300	28.149259	2.354723E-5	20.671937
2499.689592	-2.992100	3.122100	-9.341200	28.117328	2.443830E-5	20.667293
2500.689557	-3.001500	3.121000	-9.367100	28.101136	2.420728E-5	20.680392
2501.692457	-2.974500	3.120600	-9.280400	28.114527	2.311820E-5	20.687234
2502.690156	-3.001100	3.120100	-9.363200	28.139539	2.400927E-5	20.683016
2503.690454	-3.007200	3.118700	-9.377500	28.162366	2.358023E-5	20.660949
2504.693439	-3.011900	3.117600	-9.389400	28.202772	2.476832E-5	20.670335
2505.690404	-3.009000	3.116400	-9.376300	28.185420	2.549438E-5	20.677048
2506.693869	-2.995500	3.116400	-9.334100	28.165890	2.470232E-5	20.673981
2507.691052	-3.014800	3.114500	-9.389000	28.111450	2.265617E-5	20.642880
2508.693818	-3.019100	3.113900	-9.399600	28.058329	2.252416E-5	20.674758
2509.690927	-2.996600	3.113400	-9.328800	28.064470	2.047801E-5	20.665765
2510.691798	-2.991800	3.111600	-9.308500	28.137281	1.985096E-5	20.679320
2511.696317	-3.008200	3.111200	-9.357600	28.159320	2.298619E-5	20.665470
2512.695287	-3.002600	3.110900	-9.339800	28.142511	2.011498E-5	20.674628
2513.694942	-3.009200	3.109400	-9.355800	28.142965	2.064302E-5	20.692630
2514.691586	-3.038800	3.107100	-9.440800	28.150940	2.133607E-5	20.686908
2515.692286	-2.985000	3.106800	-9.272500	28.170502	2.285418E-5	20.683367
2516.692041	-2.990400	3.106500	-9.288100	28.151802	2.189711E-5	20.677343
2517.697451	-2.998900	3.105300	-9.311700	28.100770	1.985096E-5	20.681920
2518.694059	-3.007500	3.104400	-9.335000	28.105197	1.958694E-5	20.670728
2519.693290	-3.012900	3.102400	-9.345700	28.118790	1.991697E-5	20.675404
2520.696764	-2.965900	3.102600	-9.201500	28.095362	2.084103E-5	20.699237
2521.698808	-2.985500	3.101200	-9.257600	28.092633	1.975195E-5	20.686532
2522.697264	-2.972000	3.100700	-9.214400	28.161351	1.780481E-5	20.667040
2523.696537	-2.989600	3.099800	-9.266400	28.164672	2.077503E-5	20.667065
2524.696510	-3.011400	3.098200	-9.328600	28.138921	1.988396E-5	20.657735
2525.697530	-3.034400	3.096300	-9.394400	28.201984	2.031299E-5	20.666696
2526.698910	-2.978100	3.097400	-9.223100	28.242430	1.971895E-5	20.674701
2527.700110	-2.995600	3.095200	-9.271200	28.230981	1.747479E-5	20.669812
2528.700764	-2.972800	3.094300	-9.197400	28.286137	1.981796E-5	20.683620
2529.698490	-2.971800	3.095100	-9.197000	28.263264	1.925692E-5	20.686195
2530.699405	-2.986100	3.092300	-9.233000	28.227374	1.909190E-5	20.699374
2531.704260	-2.999100	3.090500	-9.268500	28.155566	1.757379E-5	20.688246
2532.700447	-3.010300	3.089700	-9.300100	28.125723	1.968595E-5	20.667683
2533.705712	-3.005000	3.090200	-9.285100	28.086378	1.655072E-5	20.699676
2534.705522	-3.009700	3.088100	-9.293200	28.122353	1.829985E-5	20.699381
2535.701560	-2.999100	3.087400	-9.258600	28.202469	2.011498E-5	20.693740
2536.712028	-2.986500	3.085500	-9.214500	28.140153	1.846486E-5	20.688376
2537.703300	-3.012500	3.085500	-9.294400	28.130457	1.767280E-5	20.662017
2538.704854	-3.015400	3.082700	-9.294500	28.127572	1.991697E-5	20.681874
2539.704142	-2.981000	3.084300	-9.192900	28.140606	1.757379E-5	20.686462
2540.703784	-2.977300	3.083200	-9.178900	28.153567	1.922391E-5	20.681017
2541.703168	-3.029400	3.080400	-9.331200	28.176921	1.734278E-5	20.673233
2542.703780	-2.965900	3.081900	-9.139800	28.149677	1.882789E-5	20.700336
2543.703119	-3.011300	3.078700	-9.269500	28.202922	1.843186E-5	20.685661
2544.706902	-2.986800	3.077500	-9.191100	28.251365	1.618769E-5	20.679904
2545.704660	-3.017500	3.074900	-9.277000	28.326180	1.892689E-5	20.686479
2546.705627	-2.990800	3.076300	-9.199200	28.398007	2.011498E-5	20.685309
2547.707359	-3.005600	3.074400	-9.239100	28.369461	1.787081E-5	20.687860
2548.706494	-3.013500	3.073500	-9.260500	28.371888	1.668273E-5	20.673233
2549.712554	-2.992900	3.072800	-9.195900	28.359070	1.750779E-5	20.677396
2550.705612	-3.012100	3.070000	-9.246200	28.372830	1.694675E-5	20.693150
2551.706381	-2.983000	3.070900	-9.159200	28.308714	1.711176E-5	20.699715
2552.707060	-2.993600	3.069800	-9.189100	28.263780	1.664973E-5	20.688611
2553.710109	-2.993700	3.068700	-9.186300	28.234103	1.839885E-5	20.690027
2554.708863	-3.007400	3.065900	-9.219800	28.257058	1.664973E-5	20.696543
2555.711630	-2.979100	3.064600	-9.129300	28.256262	1.615469E-5	20.695742
2556.708813	-2.997500	3.064000	-9.183700	28.282342	1.803583E-5	20.673159
2557.708188	-3.012400	3.062700	-9.224800	28.317839	1.674873E-5	20.689936
2558.713408	-2.985800	3.061500	-9.140600	28.314909	1.559365E-5	20.693150
2559.711596	-2.991300	3.059600	-9.150900	28.342051	1.727677E-5	20.692029
2560.713902	-3.013600	3.057600	-9.213500	28.412782	1.737578E-5	20.690705
2561.714782	-3.003900	3.056900	-9.182200	28.450476	1.734278E-5	20.701636
2562.710270	-2.986900	3.057100	-9.129700	28.467475	1.506561E-5	20.705479
2563.712398	-3.008100	3.055600	-9.190900	28.439751	1.638571E-5	20.683248
2564.712504	-2.980100	3.053900	-9.100000	28.374250	1.589067E-5	20.696476
2565.713466	-3.008600	3.052500	-9.182200	28.382206	1.549464E-5	20.681253
2566.713366	-3.009700	3.051700	-9.184100	28.335109	1.361350E-5	20.692626
2567.712780	-2.999900	3.051400	-9.153200	28.324334	1.509861E-5	20.689363
2568.712645	-3.007700	3.049500	-9.170900	28.399409	1.523062E-5	20.698577
2569.713622	-2.996300	3.048000	-9.132300	28.393214	1.674873E-5	20.696132
2570.713085	-2.995800	3.048300	-9.131700	28.397623	1.744178E-5	20.705314
2571.715881	-3.003500	3.046500	-9.149600	28.438914	1.678173E-5	20.691889
2572.712953	-3.007200	3.044600	-9.155200	28.478092	1.734278E-5	20.728025
2573.714204	-2.992400	3.043200	-9.105100	28.412625	1.721077E-5	20.702402
2574.715961	-3.000700	3.040800	-9.123500	28.428262	1.589067E-5	20.727632
2575.713399	-2.995500	3.040600	-9.107400	28.428066	1.595667E-5	20.700881
2576.717070	-3.002300	3.039100	-9.123400	28.413316	1.829985E-5	20.695510
2577.713235	-3.031300	3.037600	-9.206900	28.335472	1.315147E-5	20.700105
2578.712328	-2.986500	3.036200	-9.066500	28.361745	1.466958E-5	20.705697
2579.713233	-2.999200	3.037000	-9.107900	28.434798	1.615469E-5	20.719989
2580.712962	-2.996500	3.033600	-9.089000	28.479260	1.503261E-5	20.710235
2581.712968	-2.984000	3.033800	-9.051800	28.494610	1.559365E-5	20.696768
2582.715629	-3.023400	3.032600	-9.167700	28.465362	1.509861E-5	20.728482
2583.714605	-3.023800	3.030700	-9.163500	28.485266	1.503261E-5	20.686883
2584.714556	-2.998300	3.030000	-9.084200	28.509823	1.400953E-5	20.709244
2585.717918	-2.982800	3.028500	-9.032600	28.463095	1.595667E-5	20.698222
2586.716927	-2.996500	3.026500	-9.068100	28.486825	1.569265E-5	20.710266
2587.718506	-3.009300	3.025600	-9.103900	28.521991	1.532963E-5	20.700161
2588.715215	-2.988800	3.024200	-9.037700	28.574974	1.615469E-5	20.703733
2589.715419	-2.996000	3.023100	-9.056900	28.618531	1.605568E-5	20.707298
2590.717351	-2.993400	3.022900	-9.048000	28.617669	1.526362E-5	20.714966
2591.715929	-3.001500	3.020300	-9.064800	28.519125	1.532963E-5	20.713870
2592.717767	-3.040300	3.018100	-9.174600	28.493449	1.275544E-5	20.715514
2593.716717	-3.016200	3.017500	-9.100100	28.500469	1.466958E-5	20.711204
2594.716996	-2.997300	3.017000	-9.042500	28.464514	1.447156E-5	20.707239
2595.716632	-3.008300	3.015200	-9.069700	28.498164	1.516462E-5	20.717892
2596.716114	-3.008400	3.013500	-9.065000	28.522898	1.532963E-5	20.699177
2597.718104	-2.976000	3.013400	-8.967200	28.531317	1.585767E-5	20.711924
2598.719621	-3.016800	3.010000	-9.079700	28.526989	1.298646E-5	20.724636
2599.717829	-2.984500	3.009300	-8.980200	28.528377	1.387752E-5	20.712283
2600.716276	-2.973300	3.008400	-8.943900	28.560871	1.463658E-5	20.703280
2601.718712	-2.977500	3.006300	-8.950600	28.653884	1.523062E-5	20.715880
2602.717516	-3.013400	3.004100	-9.051500	28.617781	1.740878E-5	20.698008
2603.719659	-3.001800	3.004300	-9.016000	28.544978	1.440556E-5	20.712406
2604.721970	-3.009400	3.002600	-9.035400	28.549498	1.427355E-5	20.707000
2605.718365	-3.012500	3.000600	-9.038400	28.534951	1.536263E-5	20.713688
2606.717822	-2.992700	3.001200	-8.981600	28.536186	1.506561E-5	20.708293
2607.718032	-2.999800	3.000200	-8.999400	28.595173	1.341549E-5	20.721707
2608.721556	-3.009900	2.997900	-9.022200	28.556511	1.328348E-5	20.718806
2609.721421	-2.996000	2.997200	-8.979200	28.551364	1.516462E-5	20.738279
2610.718244	-2.980400	2.994100	-8.921600	28.578468	1.430655E-5	20.716737
2611.719090	-2.982800	2.992800	-8.925700	28.606887	1.265643E-5	20.740618
2612.723423	-3.001900	2.991500	-8.979000	28.590116	1.513161E-5	20.714717
2613.720729	-3.011700	2.990400	-9.005100	28.588833	1.631970E-5	20.736659
2614.723981	-3.002300	2.989100	-8.973500	28.485595	1.496660E-5	20.731788
2615.721498	-2.987000	2.987000	-8.921600	28.440246	1.513161E-5	20.737330
2616.723180	-2.982200	2.987800	-8.909400	28.448900	1.255742E-5	20.711429
2617.724577	-2.988900	2.985800	-8.923800	28.426567	1.361350E-5	20.725451
2618.721638	-3.002800	2.983600	-8.958600	28.449988	1.546164E-5	20.726751
2619.730994	-2.983900	2.983500	-8.900900	28.442974	1.252442E-5	20.732964
2620.723746	-2.995300	2.979300	-8.923800	28.560585	1.453757E-5	20.742350
2621.721893	-2.998300	2.978900	-8.931100	28.566778	1.490060E-5	20.722982
2622.723436	-3.001500	2.977400	-8.935600	28.636999	1.377851E-5	20.740126
2623.722801	-2.991300	2.977200	-8.904500	28.642837	1.453757E-5	20.736048
2624.724610	-2.968600	2.975300	-8.830800	28.674385	1.305246E-5	20.723252
2625.726511	-2.995000	2.972300	-8.900700	28.682656	1.605568E-5	20.737748
2626.724589	-2.978300	2.971300	-8.848400	28.636375	1.450457E-5	20.736178
2627.724263	-2.989600	2.971300	-8.882500	28.670312	1.539563E-5	20.740488
2628.726368	-2.995700	2.968600	-8.892200	28.687081	1.242541E-5	20.745999
2629.725008	-2.993400	2.968200	-8.884200	28.658567	1.235941E-5	20.740512
2630.725700	-2.998600	2.966500	-8.894700	28.611092	1.255742E-5	20.737741
2631.724133	-3.003600	2.965000	-8.905100	28.636159	1.447156E-5	20.748289
2632.725644	-2.994800	2.964000	-8.874500	28.705716	1.301946E-5	20.747225
2633.725525	-2.980500	2.961700	-8.826600	28.728953	1.387752E-5	20.730800
2634.725696	-2.983600	2.959700	-8.829300	28.676205	1.503261E-5	20.730776
2635.726762	-2.982400	2.957800	-8.820500	28.621864	1.358050E-5	20.736262
2636.727137	-3.012700	2.956000	-8.904500	28.637125	1.239241E-5	20.756374
2637.727982	-3.015600	2.954700	-8.909200	28.638139	1.331648E-5	20.748861
2638.727316	-2.994200	2.953500	-8.842700	28.649243	1.641871E-5	20.756251
2639.730128	-3.001800	2.952600	-8.862300	28.756646	1.410854E-5	20.744471
2640.729038	-3.014400	2.950700	-8.893500	28.843279	1.321747E-5	20.747815
2641.728487	-3.029600	2.947700	-8.929200	28.926709	1.381152E-5	20.747937
2642.731273	-3.004100	2.947700	-8.854400	28.943205	1.305246E-5	20.748910
2643.731940	-2.975700	2.945700	-8.764800	28.845242	1.272244E-5	20.752163
2644.729743	-3.002000	2.944500	-8.838200	28.774533	1.146834E-5	20.760118
2645.733151	-3.002400	2.943000	-8.835200	28.714109	1.282144E-5	20.754730
2646.728738	-3.000100	2.940500	-8.821600	28.762050	1.354750E-5	20.766985
2647.729075	-2.992700	2.939600	-8.796300	28.791607	1.259043E-5	20.745075
2648.729550	-3.028500	2.936600	-8.892300	28.771569	1.295345E-5	20.759504
2649.730572	-3.007400	2.935200	-8.826100	28.798748	1.351449E-5	20.738043
2650.728862	-3.000200	2.934500	-8.803200	28.810435	1.331648E-5	20.761671
2651.732571	-3.011500	2.932200	-8.829400	28.802441	1.183137E-5	20.753143
2652.728775	-2.983500	2.931800	-8.746300	28.837247	1.288745E-5	20.767818
2653.734129	-3.007000	2.929700	-8.808800	28.772023	1.245842E-5	20.738149
2654.731506	-3.008100	2.928900	-8.808600	28.762608	1.130333E-5	20.778453
2655.730595	-3.016000	2.927100	-8.827200	28.758330	1.318447E-5	20.768928
2656.733578	-3.020500	2.924800	-8.832900	28.765677	1.513161E-5	20.752146
2657.730002	-2.997500	2.924400	-8.765300	28.741311	1.176537E-5	20.754155
2658.732274	-3.028400	2.920500	-8.842800	28.724194	1.285445E-5	20.772949
2659.733575	-3.039400	2.918600	-8.869100	28.713886	1.344849E-5	20.756877
2660.731340	-2.985500	2.918300	-8.711700	28.795774	1.410854E-5	20.758756
2661.734878	-3.005300	2.916700	-8.764000	28.819205	1.235941E-5	20.770505
2662.731319	-3.026300	2.914800	-8.820000	28.761339	1.252442E-5	20.764372
2663.730404	-2.983700	2.913900	-8.693500	28.772514	1.430655E-5	20.762827
2664.732078	-2.996400	2.910900	-8.722100	28.774153	1.229340E-5	20.753098
2665.732234	-2.998300	2.909800	-8.723600	28.741478	1.410854E-5	20.787515
2666.733987	-2.992600	2.906900	-8.697800	28.773073	1.394353E-5	20.770976
2667.732880	-2.992600	2.905200	-8.693000	28.751737	1.331648E-5	20.765131
2668.732498	-2.977400	2.905300	-8.649700	28.811241	1.094031E-5	20.760112
2669.733634	-2.977900	2.904500	-8.647600	28.827535	1.282144E-5	20.769887
2670.734708	-2.973800	2.902000	-8.629400	28.907573	1.249142E-5	20.769912
2671.735106	-2.980500	2.900100	-8.642500	28.925165	1.328348E-5	20.755866
2672.736676	-3.030500	2.896800	-8.778200	28.943269	1.156735E-5	20.757984
2673.734145	-3.003800	2.894600	-8.693900	28.939218	1.328348E-5	20.774766
2674.736206	-2.989400	2.893900	-8.649600	28.977761	1.133633E-5	20.768553
2675.735782	-3.002800	2.891100	-8.680300	28.966142	1.176537E-5	20.774390
2676.736826	-3.004600	2.890500	-8.684500	28.903846	1.193038E-5	20.759993
2677.737556	-3.019900	2.888600	-8.722300	28.813996	1.232641E-5	20.780431
2678.738374	-3.023200	2.884900	-8.721000	28.829909	1.298646E-5	20.786030
2679.734957	-3.040800	2.884100	-8.769000	28.757048	1.179837E-5	20.801301
2680.736056	-3.005500	2.881500	-8.659800	28.733940	1.348149E-5	20.771862
2681.740751	-3.007500	2.881400	-8.664700	28.746894	1.140234E-5	20.766417
2682.739863	-2.996000	2.879000	-8.624600	28.825509	1.453757E-5	20.786813
2683.738807	-2.978300	2.877200	-8.567800	28.882810	1.420755E-5	20.774837
2684.736631	-3.027000	2.875200	-8.701400	28.879815	1.420755E-5	20.785570
2685.736842	-3.022900	2.873400	-8.685300	28.847858	1.367951E-5	20.781826
2686.738925	-2.976700	2.872700	-8.550400	28.845634	1.318447E-5	20.773895
2687.736597	-3.011100	2.868300	-8.636000	28.807962	1.308546E-5	20.759653
2688.736073	-2.976800	2.867900	-8.536000	28.781951	1.450457E-5	20.789402
2689.736544	-3.004000	2.864900	-8.605600	28.800057	1.298646E-5	20.784408
2690.735770	-3.010700	2.863500	-8.620400	28.846607	1.410854E-5	20.768711
2691.736632	-3.000700	2.861400	-8.585200	28.876089	1.338248E-5	20.790825
2692.736182	-2.981200	2.859600	-8.524000	28.939641	1.219440E-5	20.767605
2693.735901	-3.005300	2.857700	-8.587600	28.952714	1.559365E-5	20.778406
2694.739735	-3.032500	2.855100	-8.657600	29.011395	1.740878E-5	20.801966
2695.740537	-2.985500	2.854300	-8.519900	29.025733	1.569265E-5	20.811196
2696.738792	-3.044800	2.851300	-8.680800	29.062422	1.387752E-5	20.793635
2697.738831	-2.997400	2.849200	-8.539400	29.015411	1.371251E-5	20.799848
2698.736416	-2.987300	2.847900	-8.506500	28.955343	1.311847E-5	20.801443
2699.737697	-2.979800	2.846900	-8.482300	29.040994	1.466958E-5	20.772519
2700.738051	-2.965000	2.845100	-8.434100	29.110818	1.707876E-5	20.803993
2701.736255	-3.004300	2.841300	-8.535400	29.144698	1.565965E-5	20.786923
2702.737927	-2.985000	2.839700	-8.475800	29.106259	1.305246E-5	20.803192
2703.739380	-2.979000	2.838100	-8.453700	29.052215	1.404253E-5	20.787618
2704.742020	-3.002100	2.834800	-8.508900	29.016603	1.268943E-5	20.798204
2705.740061	-2.994200	2.833200	-8.482400	29.010907	1.311847E-5	20.800052
2706.740356	-2.924500	2.832200	-8.281700	29.016042	1.367951E-5	20.822769
2707.742706	-2.974900	2.828300	-8.413300	29.044969	1.397653E-5	20.799283
2708.740945	-3.008900	2.826400	-8.503600	29.111198	1.384452E-5	20.807221
2709.741363	-2.999000	2.823600	-8.466600	29.093041	1.526362E-5	20.800305
2710.741845	-3.009600	2.822000	-8.492000	29.132941	1.354750E-5	20.807793
2711.738471	-3.022800	2.818600	-8.519400	29.154862	1.516462E-5	20.791949
2712.741711	-3.005800	2.816700	-8.465500	29.205972	1.301946E-5	20.804098
2713.743397	-3.004300	2.814500	-8.454400	29.180766	1.427355E-5	20.805724
2714.741736	-2.996600	2.812400	-8.425900	29.213054	1.262343E-5	20.802226
2715.744665	-2.981000	2.810100	-8.376000	29.286104	1.259043E-5	20.808039
2716.741813	-3.012500	2.806300	-8.453000	29.160460	1.130333E-5	20.793797
2717.744860	-3.022200	2.804200	-8.474100	29.110874	1.262343E-5	20.815428
2718.742033	-3.007400	2.800600	-8.421500	29.154084	1.255742E-5	20.806813
2719.741602	-2.992500	2.800100	-8.377800	29.200253	1.427355E-5	20.816352
2720.742138	-3.011200	2.796300	-8.418700	29.293778	1.318447E-5	20.829997
2721.745454	-3.012200	2.792600	-8.411100	29.344540	1.433956E-5	20.798180
2722.744732	-3.019700	2.791700	-8.429300	29.350858	1.338248E-5	20.816401
2723.746494	-3.020300	2.788200	-8.420200	29.292820	1.222740E-5	20.814333
2724.748583	-3.016900	2.786100	-8.404600	29.264388	1.311847E-5	20.833095
2725.745529	-2.992000	2.783800	-8.328300	29.206937	1.334948E-5	20.810761
2726.745562	-2.981500	2.780900	-8.290400	29.128853	1.209539E-5	20.805570
2727.751236	-2.964100	2.778800	-8.235400	29.126029	1.268943E-5	20.821691
2728.746629	-3.026500	2.773700	-8.393500	29.054056	1.282144E-5	20.827879
2729.749020	-2.986300	2.772000	-8.277000	29.117211	1.308546E-5	20.805218
2730.746325	-2.986600	2.770500	-8.272900	29.161296	1.229340E-5	20.819770
2731.746915	-3.008500	2.765300	-8.318500	29.221077	1.275544E-5	20.798457
2732.746386	-2.944300	2.764600	-8.138000	29.239037	1.034626E-5	20.808495
2733.746203	-2.992000	2.759400	-8.254300	29.320180	1.239241E-5	20.808717
2734.750093	-2.997700	2.756400	-8.262100	29.406395	1.367951E-5	20.808840
2735.747255	-2.995600	2.752600	-8.244900	29.352196	1.473558E-5	20.801629
2736.750342	-3.019600	2.749500	-8.300700	29.319232	1.529663E-5	20.803968
2737.746482	-2.996600	2.746500	-8.229500	29.295099	1.440556E-5	20.791974
2738.749419	-3.008600	2.742200	-8.248700	29.282891	1.374551E-5	20.803852
2739.750401	-3.022900	2.739000	-8.278800	29.222067	1.212839E-5	20.785704
2740.754135	-3.016900	2.736800	-8.255300	29.228937	1.523062E-5	20.794998
2741.752159	-3.016200	2.733400	-8.243400	29.217198	1.292045E-5	20.809247
2742.751484	-3.014100	2.728500	-8.223100	29.306585	1.427355E-5	20.797860
2743.752847	-3.005900	2.725700	-8.191900	29.305652	1.305246E-5	20.803557
2744.751503	-2.959600	2.724500	-8.062600	29.273676	1.457057E-5	20.802626
2745.755692	-3.000100	2.719900	-8.158100	29.277172	1.490060E-5	20.773433
2746.750455	-2.986400	2.715500	-8.108900	29.322191	1.427355E-5	20.810743
2747.752283	-3.003200	2.712900	-8.147100	29.380601	1.391052E-5	20.774781
2748.751945	-3.002200	2.709200	-8.133000	29.380723	1.546164E-5	20.794345
2749.754127	-3.007400	2.704900	-8.133200	29.379977	1.186437E-5	20.775101
2750.755132	-3.004000	2.700300	-8.110100	29.249064	1.509861E-5	20.791573
2751.753525	-3.023800	2.695500	-8.149200	29.260802	1.503261E-5	20.800084
2752.756379	-3.015700	2.692200	-8.117900	29.306544	1.367951E-5	20.790232
2753.756192	-2.956000	2.690800	-7.952900	29.287027	1.476859E-5	20.781943
2754.756901	-3.031200	2.682700	-8.130100	29.304906	1.480159E-5	20.788107
2755.756431	-3.018100	2.680700	-8.090000	29.319839	1.529663E-5	20.778501
2756.757109	-3.027200	2.675400	-8.097600	29.396878	1.338248E-5	20.779333
2757.758141	-3.009100	2.673000	-8.042700	29.380455	1.308546E-5	20.802609
2758.758040	-2.998500	2.667400	-7.997200	29.372245	1.417454E-5	20.772049
2759.758700	-3.009900	2.663200	-8.014900	29.337285	1.364650E-5	20.758625
2760.758185	-3.016700	2.657800	-8.017200	29.349088	1.552764E-5	20.753451
2761.761950	-3.016400	2.652900	-8.000500	29.337041	1.612169E-5	20.773078
2762.759006	-3.016100	2.649900	-7.991400	29.453985	1.513161E-5	20.768614
2763.761096	-3.028000	2.644700	-8.006600	29.485494	1.556064E-5	20.767659
2764.758976	-3.043400	2.639400	-8.032200	29.497537	1.552764E-5	20.758934
2765.762018	-3.017100	2.636100	-7.952600	29.551557	1.503261E-5	20.783517
2766.760189	-3.011600	2.630200	-7.920400	29.563333	1.572566E-5	20.766465
2767.761038	-3.022800	2.624600	-7.933200	29.509474	1.371251E-5	20.763855
2768.761261	-3.039700	2.620000	-7.963200	29.496181	1.668273E-5	20.768000
2769.762834	-3.032400	2.615100	-7.928800	29.533836	1.516462E-5	20.765654
2770.760998	-2.994600	2.610400	-7.816400	29.549641	1.655072E-5	20.770680
2771.761189	-3.011800	2.606200	-7.848700	29.527081	1.796982E-5	20.779232
2772.763791	-2.965500	2.601100	-7.711700	29.595290	1.453757E-5	20.769282
2773.763845	-2.966700	2.594700	-7.697400	29.536771	1.496660E-5	20.753438
2774.764760	-2.988800	2.589000	-7.737000	29.598907	1.559365E-5	20.777195
2775.764116	-2.972200	2.584700	-7.680700	29.614557	1.499960E-5	20.777325
2776.764809	-2.997700	2.577400	-7.725400	29.628075	1.526362E-5	20.764874
2777.768210	-3.017000	2.572700	-7.761300	29.633297	1.450457E-5	20.764449
2778.765340	-2.994300	2.567200	-7.686000	29.701152	1.635270E-5	20.765054
2779.769087	-3.037200	2.560000	-7.774700	29.745408	1.447156E-5	20.757042
2780.766786	-3.046000	2.553800	-7.778000	29.749738	1.737578E-5	20.787012
2781.767409	-3.015600	2.548000	-7.682900	29.698306	1.800282E-5	20.759813
2782.770547	-2.990400	2.542000	-7.600700	29.695710	1.367951E-5	20.764783
2783.767188	-3.022100	2.535800	-7.662700	29.708506	1.582466E-5	20.745441
2784.772543	-2.967900	2.530900	-7.510600	29.749323	1.631970E-5	20.775215
2785.770041	-2.995000	2.524100	-7.559000	29.744871	1.747479E-5	20.763614
2786.769320	-2.987800	2.518700	-7.524400	29.781156	1.740878E-5	20.749462
2787.769216	-2.994600	2.511500	-7.520200	29.843358	1.496660E-5	20.748644
2788.769443	-3.031400	2.506600	-7.597000	29.756029	1.608868E-5	20.757319
2789.770562	-2.997700	2.499300	-7.491600	29.807643	1.631970E-5	20.756730
