LabVIEW Measurement	
Writer_Version	2
Reader_Version	2
Separator	Tab
Decimal_Separator	.
Multi_Headings	No
X_Columns	One
Time_Pref	Absolute
Operator	admin
Description	Clolumns are: time, Current, Voltage, Power, Battery Temp, and Chamber Temp
Date	2024/08/16
Time	13:07:17.8513970375061035156
***End_of_Header***	
	
Channels	6						
Samples	1	1	1	1	1	1	
Date	2024/09/01	2024/09/01	2024/09/01	2024/09/01	2024/09/01	2024/09/01	
Time	21:57:48.6719546318054199219	21:57:48.6784734725952148437	21:57:48.6843576431274414062	21:57:48.6569385528564453125	21:57:48.6569385528564453125	21:57:48.6569385528564453125	
X_Dimension	Time	Time	Time	Time	Time	Time	
X0	0.0000000000000000E+0	0.0000000000000000E+0	0.0000000000000000E+0	0.0000000000000000E+0	0.0000000000000000E+0	0.0000000000000000E+0	
Delta_X	1.000000	1.000000	1.000000	1.000000	1.000000	1.000000	
***End_of_Header***							
X_Value	Untitled	Untitled 1	Untitled 2	Untitled 3	Untitled 4	Untitled 5	Comment
0.000000	0.016205	4.086600	0.066242	20.795526	0.000457	20.713968
1.002820	-3.010000	3.925000	-11.814000	20.820322	0.000454	20.694667
2.009599	-2.979900	3.919500	-11.679000	20.812008	0.000454	20.690146
3.003929	-3.018800	3.914000	-11.814000	20.815285	0.000454	20.694372
4.005938	-2.998100	3.911900	-11.727000	20.808454	0.000454	20.692282
5.005309	-2.995800	3.910300	-11.714000	20.825973	0.000454	20.695102
6.005165	-3.006700	3.906100	-11.744000	20.842894	0.000453	20.701594
7.003258	-3.002200	3.905000	-11.723000	20.807832	0.000453	20.695928
8.006153	-2.999500	3.901800	-11.703000	20.840018	0.000451	20.698717
9.008902	-2.994700	3.901700	-11.683000	20.829938	0.000450	20.688161
10.004302	-3.009800	3.898400	-11.733000	20.850017	0.000451	20.700656
11.005978	-3.001700	3.898000	-11.700000	20.833749	0.000451	20.683911
12.005621	-3.006000	3.896600	-11.712000	20.861796	0.000449	20.691572
13.007353	-2.977900	3.896200	-11.602000	20.854358	0.000450	20.702152
14.009821	-2.998800	3.893400	-11.674000	20.874345	0.000448	20.692742
15.008526	-3.002800	3.893500	-11.691000	20.873274	0.000449	20.702103
16.006830	-2.994100	3.892500	-11.653000	20.887718	0.000447	20.698056
17.006193	-2.999100	3.891900	-11.671000	20.874647	0.000447	20.695415
18.009040	-3.012100	3.890200	-11.717000	20.901868	0.000447	20.690870
19.006948	-3.012800	3.889500	-11.717000	20.918708	0.000448	20.708661
20.014966	-3.003900	3.889900	-11.683000	20.923677	0.000445	20.702724
21.006379	-3.000300	3.889100	-11.668000	20.918160	0.000446	20.708113
22.008300	-3.015100	3.886600	-11.717000	20.920211	0.000445	20.702577
23.007132	-3.014500	3.886700	-11.715000	20.952720	0.000446	20.699528
24.006953	-3.007000	3.886000	-11.684000	20.958138	0.000445	20.719174
25.009377	-3.001400	3.885500	-11.661000	20.950978	0.000444	20.702054
26.010993	-3.003100	3.883800	-11.663000	20.970328	0.000444	20.721407
27.007622	-3.011700	3.884900	-11.699000	20.977544	0.000445	20.712029
28.008599	-2.999500	3.882900	-11.646000	20.985653	0.000444	20.701646
29.011621	-2.985100	3.882600	-11.589000	21.009953	0.000443	20.718840
30.012946	-2.999400	3.882500	-11.644000	21.026293	0.000443	20.714319
31.012770	-2.990200	3.882500	-11.609000	21.008900	0.000445	20.716838
32.009602	-2.981800	3.883200	-11.578000	21.013770	0.000442	20.703216
33.008882	-2.982000	3.882200	-11.576000	21.020702	0.000441	20.710624
34.008507	-2.967700	3.882800	-11.522000	21.035521	0.000443	20.719757
35.011120	-2.985000	3.880500	-11.583000	21.042934	0.000441	20.719110
36.011545	-2.988700	3.881700	-11.601000	21.049792	0.000441	20.720280
37.015734	-3.014500	3.879700	-11.694000	21.067405	0.000440	20.733631
38.014497	-3.007600	3.879300	-11.666000	21.056853	0.000441	20.695573
39.013964	-3.008600	3.879700	-11.672000	21.066180	0.000441	20.716283
40.014904	-3.016100	3.878000	-11.695000	21.074091	0.000441	20.716609
41.017714	-3.006400	3.879600	-11.663000	21.077255	0.000439	20.728784
42.018341	-3.002200	3.877700	-11.641000	21.096167	0.000441	20.729209
43.016107	-2.982600	3.877600	-11.565000	21.110282	0.000438	20.722465
44.015983	-2.980200	3.877100	-11.554000	21.117049	0.000442	20.709317
45.018709	-3.014800	3.876300	-11.686000	21.112709	0.000440	20.736746
46.018425	-2.998100	3.876000	-11.619000	21.146659	0.000438	20.722342
47.020473	-2.992400	3.877400	-11.602000	21.133934	0.000440	20.705819
48.017169	-2.982600	3.876400	-11.560000	21.138724	0.000439	20.706817
49.017404	-2.979300	3.876800	-11.549000	21.142498	0.000440	20.742837
50.019425	-2.994400	3.876500	-11.606000	21.155296	0.000440	20.725292
51.018816	-2.990400	3.874900	-11.586000	21.190716	0.000439	20.732749
52.021754	-2.979600	3.875900	-11.548000	21.203398	0.000439	20.727891
53.017178	-2.993000	3.874900	-11.596000	21.190797	0.000438	20.755116
54.017134	-3.007100	3.875000	-11.652000	21.194849	0.000438	20.740677
55.016865	-3.010900	3.874400	-11.665000	21.206544	0.000437	20.731039
56.018415	-3.021400	3.873800	-11.704000	21.213875	0.000438	20.719405
57.022719	-3.006700	3.875300	-11.650000	21.247282	0.000438	20.726272
58.020752	-2.996900	3.874800	-11.610000	21.244993	0.000437	20.736785
59.016815	-2.979800	3.873300	-11.541000	21.273553	0.000439	20.739753
60.016613	-3.002800	3.873300	-11.630000	21.269319	0.000440	20.731724
61.018190	-3.019400	3.873100	-11.694000	21.267596	0.000440	20.732844
62.018686	-2.981200	3.874300	-11.549000	21.285262	0.000437	20.737716
63.018912	-3.015200	3.871400	-11.671000	21.274786	0.000437	20.733399
64.019704	-2.981900	3.873700	-11.550000	21.284893	0.000440	20.725967
65.018126	-3.035200	3.871600	-11.750000	21.283872	0.000439	20.749128
66.020117	-3.026300	3.870700	-11.713000	21.320618	0.000441	20.738475
67.021921	-2.994900	3.872300	-11.595000	21.319172	0.000440	20.748882
68.023841	-3.012200	3.872100	-11.663000	21.297641	0.000437	20.743936
69.020425	-3.009900	3.872500	-11.655000	21.323616	0.000440	20.726775
70.019694	-2.991100	3.873300	-11.585000	21.349276	0.000440	20.724945
71.019642	-3.000600	3.870900	-11.614000	21.342247	0.000438	20.760114
72.019368	-2.998300	3.870600	-11.603000	21.355486	0.000438	20.735426
73.020053	-3.022000	3.869800	-11.694000	21.372315	0.000440	20.736142
74.025932	-2.974300	3.871000	-11.512000	21.378968	0.000438	20.746592
75.020090	-3.009000	3.870800	-11.646000	21.390668	0.000439	20.761143
76.021494	-3.017400	3.870900	-11.680000	21.387972	0.000440	20.719089
77.023564	-3.006000	3.871500	-11.637000	21.377479	0.000441	20.741309
78.020858	-3.013400	3.870000	-11.660000	21.397931	0.000439	20.754186
79.022068	-3.019500	3.870000	-11.685000	21.408954	0.000440	20.733445
80.019526	-2.990300	3.870400	-11.573000	21.421005	0.000442	20.736494
81.019004	-3.010300	3.869200	-11.646000	21.417042	0.000442	20.746279
82.021053	-3.003300	3.869400	-11.620000	21.437247	0.000441	20.754168
83.022143	-3.012700	3.867900	-11.652000	21.433561	0.000441	20.743367
84.023586	-3.003500	3.867900	-11.616000	21.449323	0.000439	20.758664
85.023844	-2.997700	3.867000	-11.591000	21.472224	0.000443	20.748861
86.021220	-2.994000	3.868400	-11.581000	21.462746	0.000441	20.754551
87.024257	-2.986000	3.868500	-11.550000	21.475418	0.000441	20.747790
88.022107	-2.977500	3.869600	-11.521000	21.480630	0.000442	20.743522
89.021893	-2.993200	3.867400	-11.574000	21.498065	0.000441	20.755278
90.023074	-3.009900	3.869300	-11.645000	21.513882	0.000444	20.744551
91.024175	-3.013100	3.868100	-11.654000	21.520263	0.000440	20.741927
92.023535	-2.986800	3.868800	-11.554000	21.519168	0.000441	20.743202
93.025234	-3.006200	3.868200	-11.628000	21.546055	0.000442	20.729802
94.024292	-3.018400	3.867500	-11.673000	21.549821	0.000441	20.763444
95.033175	-3.021400	3.865800	-11.679000	21.562499	0.000441	20.767596
96.028481	-2.993100	3.867000	-11.573000	21.548677	0.000442	20.766567
97.024428	-2.975800	3.867500	-11.508000	21.591297	0.000442	20.750420
98.024230	-2.969000	3.868100	-11.483000	21.574387	0.000443	20.767638
99.025567	-2.982000	3.865900	-11.527000	21.608755	0.000441	20.757933
100.025888	-3.004600	3.865100	-11.612000	21.597545	0.000444	20.752405
101.029111	-2.997500	3.866400	-11.589000	21.630035	0.000444	20.753150
102.024711	-2.990900	3.866300	-11.562000	21.626799	0.000442	20.759869
103.026185	-3.019600	3.864700	-11.668000	21.623156	0.000443	20.764284
104.031991	-2.993700	3.864700	-11.569000	21.608892	0.000443	20.748587
105.027985	-3.005900	3.864700	-11.616000	21.641635	0.000443	20.748636
106.029708	-3.001600	3.864700	-11.600000	21.639167	0.000442	20.782678
107.027545	-3.008000	3.864300	-11.623000	21.648201	0.000444	20.756630
108.027278	-2.998700	3.864100	-11.586000	21.655185	0.000444	20.765043
109.027599	-3.007100	3.864100	-11.619000	21.687926	0.000445	20.769833
110.026724	-3.017100	3.864900	-11.660000	21.691397	0.000443	20.778049
111.033024	-3.000900	3.864400	-11.596000	21.684445	0.000445	20.760659
112.034194	-2.988600	3.863900	-11.546000	21.692099	0.000446	20.772113
113.028876	-2.987500	3.865100	-11.546000	21.692148	0.000445	20.776430
114.027871	-3.000600	3.863000	-11.589000	21.705014	0.000446	20.764649
115.029435	-3.005300	3.864500	-11.613000	21.737687	0.000445	20.776486
116.032015	-2.996000	3.864100	-11.576000	21.733872	0.000443	20.754650
117.029304	-2.999800	3.863700	-11.589000	21.727787	0.000445	20.776535
118.031072	-3.011800	3.862100	-11.631000	21.736919	0.000445	20.771449
119.032675	-3.003700	3.864500	-11.607000	21.758017	0.000448	20.771702
120.030567	-3.014000	3.863600	-11.643000	21.748682	0.000449	20.763782
121.032783	-3.004100	3.863600	-11.606000	21.753851	0.000450	20.772275
122.033097	-3.012700	3.862700	-11.635000	21.764976	0.000447	20.773451
123.032809	-2.986000	3.863500	-11.536000	21.775258	0.000448	20.772837
124.033056	-3.010800	3.862100	-11.628000	21.788221	0.000448	20.771586
125.034469	-3.002600	3.861800	-11.595000	21.817569	0.000448	20.777726
126.038472	-3.009200	3.860800	-11.617000	21.822053	0.000449	20.774154
127.040936	-3.004100	3.861600	-11.599000	21.834174	0.000448	20.768267
128.035074	-3.005700	3.861100	-11.605000	21.836795	0.000449	20.779426
129.035616	-3.007200	3.860900	-11.609000	21.837367	0.000449	20.775731
130.034476	-3.001500	3.861400	-11.589000	21.838550	0.000449	20.780708
131.035517	-3.004500	3.861100	-11.599000	21.870142	0.000450	20.779612
132.037407	-3.011300	3.861800	-11.627000	21.846831	0.000449	20.773824
133.037154	-3.009600	3.860300	-11.618000	21.877795	0.000448	20.773522
134.036860	-3.011800	3.860700	-11.627000	21.873188	0.000451	20.787403
135.039011	-3.012800	3.860200	-11.628000	21.878047	0.000450	20.782784
136.036685	-2.998300	3.860200	-11.572000	21.875409	0.000451	20.795316
137.041167	-3.001500	3.860300	-11.585000	21.890690	0.000452	20.775524
138.037077	-2.998200	3.859400	-11.570000	21.912266	0.000451	20.786690
139.036559	-2.998100	3.860400	-11.573000	21.922744	0.000452	20.792910
140.036585	-2.986300	3.859500	-11.524000	21.926933	0.000453	20.791414
141.037205	-2.982500	3.860400	-11.513000	21.938744	0.000452	20.795649
142.034881	-3.007700	3.858400	-11.604000	21.939053	0.000451	20.804019
143.038380	-3.018600	3.859100	-11.648000	21.965972	0.000452	20.791136
144.037273	-3.018700	3.858000	-11.644000	21.962818	0.000453	20.802204
145.036475	-2.994000	3.859300	-11.554000	21.978442	0.000455	20.782756
146.041317	-3.000100	3.859100	-11.577000	21.974961	0.000452	20.802506
147.041844	-3.007400	3.858100	-11.602000	21.985848	0.000455	20.784955
148.042701	-3.007800	3.856300	-11.598000	21.977680	0.000456	20.800012
149.038454	-2.998700	3.858700	-11.570000	22.003928	0.000455	20.809692
150.038539	-3.006000	3.857100	-11.593000	21.992364	0.000454	20.805702
151.040261	-3.004800	3.858100	-11.592000	22.013808	0.000455	20.804409
152.041337	-3.009600	3.856900	-11.607000	22.033228	0.000456	20.809151
153.042474	-2.986700	3.856200	-11.517000	22.045616	0.000455	20.783146
154.040668	-2.960400	3.858300	-11.421000	22.047788	0.000457	20.789114
155.040901	-2.994700	3.856700	-11.549000	22.062127	0.000457	20.781657
156.042015	-2.997500	3.856100	-11.558000	22.085507	0.000454	20.795106
157.043714	-3.007900	3.856500	-11.599000	22.066513	0.000456	20.808333
158.041644	-3.005300	3.855800	-11.587000	22.065541	0.000461	20.798351
159.042458	-3.001400	3.856900	-11.575000	22.063482	0.000460	20.789651
160.043495	-3.015100	3.856600	-11.627000	22.077119	0.000458	20.793820
161.043544	-2.997400	3.855700	-11.555000	22.076719	0.000458	20.806696
162.044130	-3.016800	3.854800	-11.629000	22.091833	0.000460	20.826094
163.042808	-2.992800	3.854600	-11.534000	22.085325	0.000460	20.810570
164.047184	-2.985900	3.856700	-11.515000	22.118632	0.000460	20.803138
165.045806	-2.999700	3.854900	-11.563000	22.114696	0.000459	20.799198
166.043941	-2.998000	3.855100	-11.557000	22.127557	0.000458	20.812548
167.043809	-2.996500	3.855200	-11.551000	22.127238	0.000462	20.817444
168.044175	-3.005500	3.853100	-11.579000	22.143919	0.000459	20.800480
169.043683	-2.984100	3.854900	-11.502000	22.145291	0.000461	20.801853
170.047607	-3.004800	3.854400	-11.581000	22.156706	0.000462	20.809015
171.043828	-3.010300	3.853000	-11.598000	22.178702	0.000462	20.801165
172.047774	-3.008100	3.853500	-11.590000	22.159531	0.000463	20.805204
173.046781	-3.018000	3.852500	-11.626000	22.200462	0.000464	20.803985
174.045044	-2.991200	3.853700	-11.526000	22.208938	0.000464	20.807255
175.049918	-2.988900	3.854100	-11.518000	22.199350	0.000464	20.783906
176.046062	-3.025700	3.853200	-11.657000	22.194011	0.000464	20.802742
177.046634	-2.992500	3.853900	-11.532000	22.177222	0.000461	20.790674
178.047056	-3.010200	3.854100	-11.600000	22.191749	0.000463	20.781985
179.046258	-3.011300	3.853600	-11.603000	22.220546	0.000464	20.772885
180.048858	-2.999100	3.853400	-11.556000	22.225387	0.000465	20.798595
181.047342	-2.989000	3.853400	-11.517000	22.229642	0.000464	20.779621
182.048058	-2.984400	3.853300	-11.499000	22.235903	0.000464	20.792055
183.049444	-2.969400	3.852300	-11.438000	22.264667	0.000467	20.786716
184.048291	-2.996600	3.852900	-11.545000	22.271729	0.000466	20.778614
185.052877	-2.998400	3.851600	-11.548000	22.248272	0.000467	20.775041
186.049993	-3.001800	3.850300	-11.557000	22.258592	0.000466	20.800548
187.050475	-3.004700	3.852100	-11.573000	22.269982	0.000465	20.779709
188.050337	-3.005600	3.850900	-11.573000	22.286710	0.000468	20.767536
189.051283	-3.010200	3.850500	-11.590000	22.283918	0.000468	20.778017
190.049996	-2.990700	3.851400	-11.517000	22.305301	0.000469	20.774297
191.053384	-2.989300	3.850000	-11.508000	22.305504	0.000467	20.781139
192.050511	-3.003300	3.850100	-11.563000	22.313782	0.000470	20.768565
193.050298	-2.982000	3.850200	-11.480000	22.318893	0.000469	20.767044
194.051359	-3.000100	3.849000	-11.546000	22.339549	0.000469	20.766865
195.049424	-3.028700	3.849600	-11.659000	22.331801	0.000472	20.765745
196.055914	-3.015300	3.849900	-11.606000	22.342316	0.000468	20.780542
197.057292	-2.988100	3.849700	-11.502000	22.355256	0.000469	20.772162
198.050578	-3.023500	3.848600	-11.635000	22.353060	0.000469	20.769963
199.051661	-3.027300	3.849400	-11.652000	22.377405	0.000471	20.758305
200.053821	-3.005000	3.848900	-11.565000	22.374343	0.000470	20.787482
201.053738	-2.999700	3.848500	-11.544000	22.384262	0.000471	20.768965
202.054600	-3.006600	3.848800	-11.571000	22.368328	0.000472	20.782881
203.052974	-3.014200	3.847000	-11.595000	22.385675	0.000472	20.753311
204.057114	-2.985900	3.847600	-11.488000	22.397439	0.000474	20.769359
205.054502	-3.012500	3.848300	-11.592000	22.365715	0.000471	20.744702
206.058800	-3.005000	3.847000	-11.559000	22.383381	0.000474	20.777093
207.056487	-3.007900	3.846600	-11.569000	22.403335	0.000474	20.743019
208.054788	-3.016400	3.846600	-11.602000	22.399399	0.000473	20.780805
209.055152	-3.007400	3.847600	-11.571000	22.411408	0.000474	20.766278
210.055539	-2.997600	3.847100	-11.531000	22.405972	0.000475	20.745186
211.055876	-2.995400	3.847200	-11.522000	22.430021	0.000475	20.762158
212.057582	-2.999900	3.848100	-11.544000	22.440561	0.000474	20.771764
213.055812	-3.020000	3.845800	-11.613000	22.457076	0.000477	20.748000
214.057442	-3.020200	3.844300	-11.610000	22.459247	0.000474	20.755390
215.057294	-3.030700	3.844400	-11.650000	22.467394	0.000476	20.766394
216.059253	-3.017700	3.846400	-11.606000	22.479083	0.000476	20.778575
217.061987	-3.009300	3.845500	-11.570000	22.505239	0.000477	20.765888
218.062959	-2.997700	3.844500	-11.524000	22.504839	0.000477	20.758375
219.059619	-3.023100	3.844300	-11.621000	22.507900	0.000478	20.761441
220.060116	-3.016700	3.844500	-11.597000	22.481110	0.000477	20.761638
221.063361	-2.989600	3.843500	-11.489000	22.512554	0.000476	20.763731
222.062626	-3.017300	3.844700	-11.599000	22.509892	0.000480	20.741150
223.061548	-2.996600	3.844700	-11.519000	22.526536	0.000478	20.742646
224.061034	-3.022100	3.843200	-11.614000	22.507044	0.000478	20.753471
225.059308	-2.987700	3.844600	-11.485000	22.532512	0.000481	20.748157
226.063664	-2.992400	3.843900	-11.502000	22.562461	0.000480	20.755867
227.061359	-2.996300	3.844500	-11.518000	22.560111	0.000481	20.740237
228.068061	-3.027000	3.842700	-11.630000	22.549924	0.000481	20.749948
229.063536	-2.988500	3.844000	-11.487000	22.557646	0.000482	20.725913
230.062214	-3.004200	3.842900	-11.544000	22.577463	0.000481	20.749081
231.061669	-3.012500	3.842600	-11.574000	22.569751	0.000480	20.763169
232.065009	-2.988100	3.842100	-11.479000	22.598328	0.000481	20.742003
233.062777	-2.992000	3.841600	-11.494000	22.594639	0.000482	20.739256
234.065084	-2.978800	3.841000	-11.440000	22.635351	0.000484	20.766284
235.062506	-2.983000	3.841900	-11.460000	22.621265	0.000483	20.757865
236.062106	-2.982700	3.840600	-11.455000	22.636568	0.000486	20.757545
237.066696	-2.971000	3.841400	-11.411000	22.615633	0.000483	20.760759
238.063624	-3.001500	3.840300	-11.526000	22.641516	0.000483	20.740215
239.065054	-2.987200	3.840900	-11.472000	22.621836	0.000483	20.744686
240.064290	-2.995500	3.841000	-11.505000	22.639320	0.000486	20.738016
241.063613	-2.988500	3.839500	-11.472000	22.650804	0.000486	20.749519
242.064886	-3.001400	3.840000	-11.524000	22.664950	0.000485	20.746144
243.065460	-2.975800	3.841300	-11.430000	22.686480	0.000487	20.736889
244.066858	-2.994900	3.840000	-11.500000	22.675862	0.000486	20.739530
245.067978	-3.023500	3.838600	-11.605000	22.686890	0.000487	20.740619
246.065897	-2.990800	3.839100	-11.480000	22.682131	0.000487	20.723998
247.065655	-3.007600	3.837600	-11.541000	22.682654	0.000487	20.753920
248.065973	-2.993800	3.839000	-11.492000	22.690775	0.000486	20.733604
249.065473	-3.018600	3.837100	-11.582000	22.686963	0.000487	20.719354
250.065659	-3.012800	3.838500	-11.564000	22.663042	0.000487	20.745655
251.066300	-3.002500	3.838200	-11.523000	22.691511	0.000487	20.741454
252.066300	-3.018500	3.836600	-11.579000	22.703597	0.000488	20.739336
253.068756	-3.001300	3.838100	-11.518000	22.714011	0.000489	20.747397
254.065724	-2.997700	3.837800	-11.503000	22.745775	0.000491	20.730376
255.067934	-2.987500	3.837400	-11.463000	22.749783	0.000490	20.707837
256.067141	-3.018800	3.835200	-11.576000	22.748436	0.000490	20.745371
257.067219	-3.018200	3.837000	-11.580000	22.760312	0.000490	20.734981
258.066761	-2.993400	3.836500	-11.483000	22.749572	0.000491	20.733706
259.068648	-2.994600	3.837400	-11.490000	22.765911	0.000489	20.744858
260.068211	-3.006400	3.836000	-11.532000	22.756371	0.000491	20.731033
261.070689	-2.998200	3.836000	-11.500000	22.782152	0.000493	20.716080
262.071128	-3.024400	3.836200	-11.601000	22.802676	0.000492	20.747548
263.072572	-3.026200	3.835900	-11.606000	22.797298	0.000494	20.739789
264.074191	-2.984000	3.836000	-11.444000	22.790983	0.000493	20.731566
265.074119	-2.982800	3.834900	-11.437000	22.819081	0.000493	20.726997
266.074351	-2.987800	3.834400	-11.456000	22.801470	0.000495	20.740175
267.072650	-3.003800	3.833900	-11.516000	22.811557	0.000495	20.725623
268.072997	-2.987800	3.833700	-11.453000	22.813100	0.000493	20.719582
269.073290	-3.003600	3.835300	-11.518000	22.856294	0.000494	20.732982
270.076895	-3.004200	3.833100	-11.514000	22.858776	0.000496	20.736891
271.078195	-3.005600	3.832800	-11.519000	22.850453	0.000495	20.745623
272.073961	-2.993500	3.833200	-11.474000	22.847718	0.000497	20.737667
273.076766	-3.043800	3.832400	-11.664000	22.863379	0.000497	20.728700
274.078806	-3.005300	3.832500	-11.517000	22.904776	0.000496	20.726550
275.076252	-2.999200	3.832600	-11.494000	22.904898	0.000497	20.729044
276.078485	-2.984900	3.833600	-11.442000	22.913792	0.000496	20.739378
277.076864	-3.004500	3.832700	-11.514000	22.918493	0.000497	20.726069
278.078419	-2.992800	3.831100	-11.464000	22.928309	0.000496	20.733059
279.077571	-3.011600	3.831400	-11.538000	22.912888	0.000497	20.748903
280.078152	-2.993000	3.831100	-11.466000	22.932555	0.000498	20.733993
281.077964	-2.985400	3.833100	-11.442000	22.913280	0.000498	20.715156
282.081826	-3.012100	3.830000	-11.536000	22.891306	0.000497	20.732023
283.091819	-2.996500	3.830400	-11.477000	22.894612	0.000496	20.713996
284.080400	-2.992900	3.832100	-11.469000	22.902307	0.000499	20.718861
285.083674	-2.982100	3.830900	-11.423000	22.903671	0.000500	20.713589
286.078838	-3.011800	3.829700	-11.534000	22.900456	0.000498	20.728861
287.080004	-2.986900	3.830000	-11.439000	22.924144	0.000497	20.734576
288.078032	-2.995400	3.831900	-11.478000	22.930591	0.000499	20.730129
289.079744	-3.008100	3.829200	-11.518000	22.951808	0.000498	20.735264
290.079314	-3.005000	3.829300	-11.506000	22.971530	0.000500	20.711875
291.078181	-2.987900	3.830800	-11.445000	22.978955	0.000499	20.741601
292.080609	-3.009600	3.827700	-11.519000	22.974068	0.000502	20.726272
293.079190	-2.966200	3.829500	-11.358000	22.985615	0.000499	20.707495
294.080980	-3.006400	3.829200	-11.511000	23.008232	0.000501	20.715457
295.080369	-3.003700	3.826800	-11.493000	23.004944	0.000500	20.713585
296.079947	-2.987700	3.828000	-11.436000	22.993457	0.000501	20.733845
297.080090	-3.003800	3.826400	-11.493000	23.001544	0.000501	20.713497
298.085859	-3.003200	3.827600	-11.493000	23.014493	0.000499	20.724102
299.082855	-3.006200	3.828500	-11.509000	23.022089	0.000502	20.708004
300.081160	-2.986900	3.827200	-11.431000	23.037348	0.000505	20.708594
301.082890	-3.002300	3.827000	-11.489000	23.018020	0.000502	20.717203
302.081728	-2.994100	3.828000	-11.460000	23.030944	0.000503	20.702177
303.087474	-3.011200	3.826000	-11.519000	23.058065	0.000505	20.714179
304.083853	-2.999600	3.825900	-11.474000	23.031287	0.000505	20.690192
305.083014	-3.008600	3.826300	-11.512000	23.058832	0.000505	20.723958
306.085572	-2.982500	3.827600	-11.415000	23.062022	0.000505	20.732844
307.085134	-2.987200	3.825700	-11.427000	23.058278	0.000505	20.721506
308.087085	-3.006200	3.825100	-11.498000	23.083309	0.000506	20.717189
309.086556	-2.987400	3.825800	-11.427000	23.075535	0.000504	20.724572
310.085352	-2.994600	3.825200	-11.454000	23.115332	0.000506	20.713241
311.085358	-2.992200	3.823500	-11.440000	23.114533	0.000506	20.724769
312.086554	-3.015000	3.823500	-11.527000	23.110821	0.000508	20.706349
313.083480	-3.010800	3.823500	-11.511000	23.131267	0.000506	20.694593
314.086082	-2.991200	3.824400	-11.438000	23.121207	0.000506	20.713912
315.087000	-2.994900	3.824700	-11.454000	23.139784	0.000506	20.732054
316.087457	-3.017900	3.823400	-11.538000	23.156517	0.000506	20.718000
317.089571	-3.014800	3.823300	-11.525000	23.165679	0.000508	20.721492
318.087573	-2.991800	3.822700	-11.436000	23.179621	0.000507	20.717445
319.091441	-3.004600	3.822400	-11.484000	23.198548	0.000508	20.716497
320.088838	-3.015900	3.822600	-11.527000	23.184164	0.000508	20.720101
321.087294	-2.996500	3.823700	-11.457000	23.190406	0.000508	20.719244
322.089705	-3.013200	3.822700	-11.518000	23.183610	0.000510	20.701052
323.088799	-3.012700	3.821800	-11.512000	23.189214	0.000508	20.722317
324.090342	-2.972600	3.822100	-11.360000	23.206630	0.000509	20.705629
325.094655	-3.003800	3.820100	-11.474000	23.196164	0.000507	20.711738
326.093561	-2.977600	3.820900	-11.376000	23.224031	0.000509	20.714059
327.094093	-2.995300	3.820500	-11.443000	23.209609	0.000509	20.710986
328.098768	-2.977400	3.820800	-11.374000	23.205922	0.000511	20.705394
329.091796	-3.016700	3.820700	-11.525000	23.191310	0.000510	20.722047
330.094498	-3.001300	3.819700	-11.463000	23.174872	0.000510	20.707944
331.094271	-2.993900	3.819100	-11.433000	23.201800	0.000510	20.686563
332.093463	-2.998300	3.818900	-11.449000	23.239995	0.000510	20.677898
333.096342	-3.001900	3.819700	-11.465000	23.223989	0.000511	20.702637
334.096737	-2.961300	3.819100	-11.309000	23.192982	0.000511	20.690529
335.095665	-3.007800	3.819100	-11.486000	23.222717	0.000512	20.713691
336.093963	-3.011400	3.818400	-11.498000	23.213646	0.000513	20.698436
337.096981	-3.007600	3.817900	-11.482000	23.227693	0.000511	20.699711
338.097722	-2.998900	3.818100	-11.449000	23.242385	0.000513	20.686932
339.101927	-2.978000	3.819100	-11.373000	23.241211	0.000513	20.700930
340.099340	-2.992800	3.818200	-11.426000	23.244874	0.000514	20.677571
341.094914	-3.008000	3.816200	-11.479000	23.249002	0.000514	20.712531
342.096138	-3.010500	3.817500	-11.491000	23.248904	0.000513	20.695362
343.097309	-2.991400	3.818100	-11.421000	23.254434	0.000514	20.685257
344.098069	-2.972200	3.818200	-11.346000	23.251988	0.000516	20.674269
345.097268	-3.006300	3.816000	-11.471000	23.257315	0.000515	20.687670
346.100837	-3.009900	3.816300	-11.486000	23.281371	0.000515	20.707986
347.097916	-2.990600	3.817100	-11.414000	23.277635	0.000514	20.687171
348.099918	-3.012100	3.815500	-11.492000	23.283288	0.000516	20.702321
349.100517	-3.019900	3.815300	-11.521000	23.263588	0.000516	20.694906
350.096905	-3.019200	3.815500	-11.519000	23.294790	0.000516	20.671645
351.101402	-2.998300	3.815300	-11.437000	23.297204	0.000515	20.675014
352.097827	-3.008100	3.814900	-11.475000	23.317247	0.000516	20.704586
353.099504	-2.979400	3.815400	-11.367000	23.308927	0.000516	20.694825
354.099663	-2.976300	3.815400	-11.355000	23.319987	0.000516	20.690262
355.100241	-2.982100	3.814500	-11.375000	23.346106	0.000517	20.676609
356.101499	-2.994700	3.814400	-11.422000	23.341049	0.000516	20.689559
357.101269	-3.031100	3.812400	-11.554000	23.294131	0.000515	20.711292
358.099637	-2.998200	3.813200	-11.431000	23.339777	0.000517	20.683068
359.100957	-3.022700	3.811400	-11.520000	23.369140	0.000519	20.695429
360.100712	-2.982400	3.812700	-11.370000	23.366571	0.000518	20.690957
361.102606	-3.026100	3.810900	-11.532000	23.367713	0.000520	20.696844
362.103414	-2.987200	3.813000	-11.389000	23.363561	0.000519	20.694105
363.101602	-2.989600	3.811800	-11.394000	23.410738	0.000519	20.689707
364.103793	-2.983500	3.812200	-11.371000	23.426577	0.000520	20.696574
365.102889	-2.983500	3.811700	-11.371000	23.422239	0.000518	20.678948
366.103429	-2.987800	3.810900	-11.385000	23.434496	0.000519	20.693606
367.106834	-3.002100	3.811300	-11.441000	23.410265	0.000519	20.695397
368.104739	-3.002400	3.810500	-11.440000	23.413356	0.000520	20.661033
369.105262	-2.998800	3.811200	-11.428000	23.439994	0.000523	20.677304
370.105364	-2.999900	3.810900	-11.431000	23.465066	0.000519	20.681572
371.111917	-3.015400	3.809500	-11.486000	23.465711	0.000520	20.649972
372.110557	-3.010500	3.810300	-11.471000	23.479674	0.000520	20.686732
373.110384	-2.996300	3.809400	-11.413000	23.468272	0.000519	20.660127
374.107955	-3.016200	3.810100	-11.491000	23.439767	0.000520	20.682292
375.112087	-3.015600	3.808500	-11.483000	23.482137	0.000520	20.683985
376.115841	-3.000000	3.807700	-11.422000	23.467123	0.000520	20.694066
377.114377	-3.026400	3.808400	-11.524000	23.491843	0.000523	20.674747
378.108348	-3.020400	3.808400	-11.501000	23.501931	0.000524	20.673953
379.108325	-3.009100	3.808600	-11.459000	23.534692	0.000523	20.664118
380.113011	-3.005300	3.807200	-11.441000	23.505389	0.000523	20.679791
381.108285	-3.020900	3.805800	-11.496000	23.486990	0.000524	20.682211
382.112753	-2.996000	3.806800	-11.404000	23.508791	0.000523	20.676089
383.108513	-2.986100	3.807600	-11.370000	23.490620	0.000523	20.681582
384.107990	-3.004000	3.806800	-11.435000	23.488858	0.000523	20.701629
385.107697	-2.982900	3.806900	-11.354000	23.493882	0.000525	20.668730
386.109909	-2.997700	3.806400	-11.409000	23.511286	0.000525	20.687125
387.110821	-2.999800	3.806400	-11.417000	23.521072	0.000526	20.672752
388.112289	-3.005700	3.805400	-11.438000	23.515992	0.000524	20.679039
389.110697	-2.984200	3.805700	-11.356000	23.510869	0.000523	20.680543
390.110409	-2.984400	3.806000	-11.356000	23.523339	0.000524	20.673128
391.111744	-2.999300	3.804200	-11.409000	23.512842	0.000524	20.682520
392.111904	-2.992600	3.805300	-11.387000	23.563846	0.000525	20.677223
393.113915	-3.009400	3.804600	-11.449000	23.580278	0.000524	20.679471
394.113546	-3.002400	3.804500	-11.421000	23.589167	0.000525	20.692176
395.115025	-3.014900	3.803500	-11.466000	23.578681	0.000526	20.672653
396.112352	-2.991600	3.805000	-11.382000	23.557291	0.000526	20.686300
397.112884	-3.005800	3.803200	-11.431000	23.559835	0.000526	20.681737
398.116558	-3.019900	3.803600	-11.485000	23.560749	0.000525	20.669850
399.115955	-2.995500	3.802600	-11.390000	23.592611	0.000527	20.681877
400.114373	-3.003900	3.802500	-11.421000	23.593508	0.000526	20.685148
401.113611	-3.015500	3.802800	-11.466000	23.596598	0.000525	20.674020
402.116189	-3.004400	3.802000	-11.422000	23.566075	0.000525	20.690838
403.118193	-2.986400	3.802600	-11.355000	23.575209	0.000526	20.674389
404.119117	-3.003400	3.801500	-11.416000	23.553875	0.000525	20.692359
405.117130	-3.011200	3.801000	-11.445000	23.542922	0.000525	20.672369
406.117312	-2.984700	3.802600	-11.348000	23.543020	0.000527	20.688116
407.118415	-2.994500	3.801300	-11.382000	23.564207	0.000527	20.689914
408.117182	-3.005600	3.800200	-11.421000	23.565724	0.000528	20.669622
409.119302	-2.992400	3.800100	-11.371000	23.573064	0.000526	20.676032
410.118039	-2.999900	3.800100	-11.399000	23.567960	0.000528	20.665224
411.118639	-3.001800	3.799900	-11.406000	23.588950	0.000528	20.678681
412.118148	-3.004500	3.798800	-11.412000	23.612942	0.000529	20.679025
413.118507	-2.982800	3.799700	-11.333000	23.628974	0.000528	20.676131
414.118236	-2.998800	3.799200	-11.392000	23.636763	0.000529	20.690104
415.119924	-3.001200	3.798500	-11.399000	23.632457	0.000527	20.684839
416.118694	-2.985300	3.799400	-11.341000	23.640645	0.000528	20.688780
417.118980	-2.948000	3.798400	-11.196000	23.642911	0.000530	20.684888
418.126420	-2.989600	3.798200	-11.355000	23.666878	0.000529	20.687578
419.121144	-2.989100	3.797200	-11.349000	23.661707	0.000529	20.670539
420.121686	-2.998200	3.797500	-11.385000	23.678856	0.000529	20.686310
421.124887	-3.002000	3.797800	-11.400000	23.704052	0.000529	20.705408
422.118999	-2.986400	3.796700	-11.338000	23.716138	0.000531	20.690497
423.119286	-2.983100	3.796700	-11.325000	23.735903	0.000530	20.674750
424.120544	-3.000700	3.797000	-11.392000	23.723508	0.000529	20.671333
425.121753	-3.006000	3.795800	-11.410000	23.722832	0.000530	20.685829
426.120913	-2.995800	3.795200	-11.368000	23.700303	0.000531	20.686476
427.121575	-3.009800	3.794500	-11.420000	23.680390	0.000530	20.690220
428.121517	-3.009900	3.795500	-11.423000	23.671846	0.000530	20.705837
429.123523	-2.995600	3.794800	-11.367000	23.710676	0.000530	20.685970
430.122338	-2.984700	3.794700	-11.324000	23.719189	0.000531	20.691186
431.124908	-3.021000	3.793400	-11.459000	23.750402	0.000531	20.694505
432.123697	-2.993200	3.793800	-11.355000	23.756371	0.000530	20.688636
433.149384	-3.014400	3.794900	-11.438000	23.776756	0.000532	20.672562
434.144650	-3.003800	3.794100	-11.396000	23.765847	0.000533	20.691499
435.148788	-3.007300	3.794100	-11.408000	23.793854	0.000531	20.707726
436.145098	-3.016600	3.792800	-11.440000	23.788750	0.000532	20.678425
437.159185	-3.008200	3.793600	-11.411000	23.800989	0.000532	20.708717
438.152245	-3.002400	3.793500	-11.389000	23.814850	0.000532	20.693216
439.126191	-3.002500	3.792200	-11.385000	23.806990	0.000533	20.692447
440.129548	-3.003600	3.793300	-11.393000	23.772689	0.000532	20.681762
441.128124	-3.023700	3.791000	-11.462000	23.789086	0.000535	20.710533
442.130193	-3.008000	3.790300	-11.400000	23.766362	0.000534	20.710508
443.142590	-2.997800	3.792100	-11.367000	23.778724	0.000533	20.706782
444.145732	-2.992300	3.792400	-11.347000	23.773400	0.000531	20.696227
445.150116	-2.990500	3.791200	-11.337000	23.818651	0.000532	20.714572
446.160792	-3.019900	3.790900	-11.447000	23.826610	0.000533	20.695998
447.152548	-2.990500	3.791600	-11.338000	23.828746	0.000536	20.713315
448.130981	-3.006400	3.789700	-11.392000	23.842337	0.000533	20.679050
449.152303	-3.005000	3.791100	-11.391000	23.823422	0.000533	20.707976
450.152177	-2.998500	3.790700	-11.366000	23.813712	0.000534	20.684013
451.152404	-2.988800	3.789200	-11.324000	23.842061	0.000532	20.710544
452.160863	-2.988700	3.789300	-11.324000	23.851991	0.000535	20.717657
453.132327	-2.988400	3.789900	-11.325000	23.846390	0.000533	20.716782
454.131539	-3.008500	3.787300	-11.393000	23.868135	0.000534	20.694488
455.131711	-2.991000	3.787400	-11.327000	23.889869	0.000533	20.708222
456.130802	-2.975400	3.788100	-11.270000	23.873645	0.000533	20.696694
457.147114	-2.967200	3.787500	-11.238000	23.894402	0.000535	20.701387
458.135747	-2.992000	3.788100	-11.333000	23.889323	0.000532	20.708622
459.133720	-2.991900	3.786900	-11.330000	23.905295	0.000532	20.707569
460.135252	-3.003700	3.788100	-11.377000	23.878846	0.000533	20.680097
461.135191	-2.998800	3.785900	-11.353000	23.868713	0.000535	20.698861
462.135420	-3.003500	3.786200	-11.371000	23.857511	0.000536	20.693793
463.138273	-2.997600	3.787400	-11.351000	23.866773	0.000536	20.710192
464.135756	-3.003500	3.786300	-11.371000	23.888966	0.000536	20.737189
465.135808	-3.007500	3.784900	-11.382000	23.910668	0.000535	20.712483
466.140194	-3.010900	3.785900	-11.398000	23.892700	0.000537	20.712483
467.137155	-2.998300	3.785900	-11.349000	23.899712	0.000535	20.713825
468.140656	-3.025600	3.784800	-11.450000	23.889666	0.000534	20.702328
469.136111	-3.009100	3.784000	-11.384000	23.894185	0.000535	20.720611
470.135849	-3.007200	3.783900	-11.378000	23.884009	0.000535	20.711355
471.161382	-3.006200	3.783100	-11.372000	23.899460	0.000535	20.715468
472.153609	-2.995100	3.784800	-11.335000	23.892367	0.000536	20.724004
473.154146	-3.019200	3.783200	-11.420000	23.914412	0.000535	20.716712
474.139733	-2.992100	3.783100	-11.318000	23.939914	0.000537	20.711938
475.155565	-3.014400	3.781800	-11.399000	23.944023	0.000534	20.709894
476.164431	-2.978700	3.783000	-11.267000	23.932079	0.000536	20.719255
477.137484	-2.997700	3.782300	-11.336000	23.928647	0.000536	20.723400
478.138136	-3.002200	3.781400	-11.352000	23.960320	0.000536	20.738566
479.139790	-2.991000	3.782400	-11.313000	23.964771	0.000535	20.716951
480.138221	-2.997600	3.781500	-11.334000	23.960362	0.000533	20.736712
481.138811	-3.003100	3.781100	-11.355000	23.962922	0.000533	20.721735
482.156132	-3.001400	3.782200	-11.351000	23.954516	0.000535	20.712831
483.155981	-2.970900	3.782200	-11.234000	23.962849	0.000535	20.713600
484.163519	-2.984400	3.780400	-11.281000	23.943806	0.000537	20.711573
485.139565	-2.990500	3.779600	-11.302000	23.976252	0.000537	20.712343
486.139869	-2.998000	3.780200	-11.332000	23.979863	0.000536	20.721654
487.142093	-3.007800	3.778400	-11.364000	23.963780	0.000536	20.737769
488.145370	-3.001900	3.779300	-11.344000	23.998745	0.000536	20.714510
489.140760	-2.997400	3.778500	-11.324000	24.010418	0.000538	20.728588
490.141138	-3.008200	3.779300	-11.367000	24.044753	0.000538	20.708493
491.139570	-2.999700	3.779000	-11.334000	24.076504	0.000537	20.716628
492.140201	-3.008600	3.777300	-11.363000	24.057837	0.000537	20.719245
493.143094	-3.017700	3.777400	-11.398000	24.042733	0.000536	20.737763
494.158972	-2.966200	3.779200	-11.209000	24.039871	0.000536	20.718771
495.142978	-2.997600	3.778300	-11.325000	24.058727	0.000537	20.745269
496.141747	-3.000600	3.778600	-11.337000	24.064229	0.000538	20.731820
497.145031	-3.013800	3.776400	-11.381000	24.079708	0.000537	20.738809
498.139326	-2.988800	3.777500	-11.290000	24.099932	0.000537	20.749610
499.144754	-3.011600	3.776400	-11.371000	24.083539	0.000537	20.748342
500.140322	-3.003200	3.776400	-11.341000	24.069552	0.000539	20.749961
501.140666	-3.005700	3.775200	-11.347000	24.095180	0.000537	20.743895
502.148795	-3.010200	3.775400	-11.363000	24.111727	0.000537	20.745792
503.143353	-2.985500	3.775300	-11.269000	24.096199	0.000537	20.727847
504.141929	-2.978900	3.774400	-11.242000	24.055043	0.000538	20.726874
505.144776	-3.004400	3.775200	-11.342000	24.095849	0.000537	20.752153
506.141161	-2.996000	3.774300	-11.307000	24.105199	0.000540	20.757738
507.142027	-3.007200	3.773700	-11.347000	24.114938	0.000537	20.731942
508.147821	-2.985900	3.774300	-11.269000	24.138373	0.000539	20.748335
509.144482	-3.018600	3.774200	-11.392000	24.134118	0.000539	20.751180
510.145920	-2.994800	3.773700	-11.300000	24.148921	0.000537	20.743267
511.143561	-2.989900	3.773400	-11.282000	24.157111	0.000538	20.732989
512.143874	-2.991300	3.772500	-11.284000	24.199227	0.000536	20.731609
513.167942	-3.001000	3.772400	-11.320000	24.168751	0.000538	20.744665
514.143486	-2.989000	3.772300	-11.274000	24.155294	0.000538	20.747288
515.181081	-2.983300	3.773100	-11.256000	24.151431	0.000536	20.741043
516.158782	-2.990800	3.771900	-11.280000	24.165424	0.000539	20.736586
517.165732	-3.002700	3.770800	-11.322000	24.161569	0.000539	20.746944
518.144412	-3.003600	3.770900	-11.325000	24.146833	0.000536	20.731215
519.144853	-3.004900	3.771200	-11.332000	24.139049	0.000539	20.763712
520.145576	-2.991600	3.770700	-11.279000	24.112525	0.000538	20.743748
521.149165	-2.979600	3.772000	-11.238000	24.124190	0.000539	20.741222
522.164363	-2.989800	3.770900	-11.273000	24.093461	0.000537	20.745964
523.149352	-3.023100	3.769000	-11.392000	24.101098	0.000540	20.757418
524.151333	-2.989900	3.769900	-11.270000	24.122527	0.000537	20.760892
525.150324	-2.997100	3.769200	-11.296000	24.131404	0.000538	20.761261
526.153406	-2.991100	3.769700	-11.275000	24.139700	0.000539	20.752985
527.153954	-2.991900	3.769100	-11.275000	24.183388	0.000539	20.762665
528.150498	-2.995500	3.767900	-11.286000	24.226203	0.000538	20.756298
529.149915	-2.986000	3.768900	-11.254000	24.222446	0.000540	20.752529
530.151953	-2.997500	3.768900	-11.295000	24.201044	0.000538	20.765201
531.150251	-3.004000	3.767400	-11.317000	24.210498	0.000537	20.743864
532.158008	-3.009500	3.766800	-11.335000	24.206342	0.000538	20.756291
533.150330	-2.997700	3.768800	-11.296000	24.168180	0.000539	20.751205
534.151366	-3.019600	3.766200	-11.372000	24.172950	0.000538	20.759308
535.158497	-3.000800	3.766700	-11.302000	24.173699	0.000540	20.778078
536.152423	-3.021300	3.765800	-11.377000	24.168247	0.000539	20.761229
537.159596	-3.032500	3.766300	-11.420000	24.205936	0.000537	20.744029
538.174613	-2.978100	3.767200	-11.218000	24.185626	0.000538	20.783877
539.177425	-3.001200	3.766500	-11.303000	24.188414	0.000539	20.767706
540.171875	-3.005800	3.765200	-11.316000	24.202294	0.000539	20.772620
541.166769	-3.015600	3.766100	-11.356000	24.229110	0.000540	20.771067
542.180570	-3.005200	3.765000	-11.313000	24.237293	0.000538	20.776431
543.175481	-3.000400	3.763700	-11.292000	24.246593	0.000538	20.762526
544.171260	-3.006100	3.764900	-11.317000	24.248379	0.000539	20.782809
545.186049	-3.000000	3.765200	-11.295000	24.209365	0.000536	20.785876
546.173502	-3.005400	3.762300	-11.307000	24.201542	0.000541	20.777555
547.152838	-3.010300	3.763700	-11.328000	24.223466	0.000537	20.776786
548.177180	-3.002300	3.763200	-11.297000	24.245056	0.000538	20.784692
549.168622	-2.971000	3.763300	-11.179000	24.243159	0.000538	20.798436
550.172952	-2.980500	3.764700	-11.220000	24.230714	0.000536	20.762245
551.175097	-3.001800	3.762000	-11.291000	24.258254	0.000538	20.780861
552.189845	-3.001300	3.762900	-11.293000	24.253250	0.000540	20.781531
553.158631	-2.984800	3.761400	-11.226000	24.280943	0.000539	20.799827
554.154479	-2.980400	3.762400	-11.212000	24.266104	0.000537	20.795848
555.156798	-2.982900	3.762400	-11.222000	24.265110	0.000538	20.782522
556.155434	-2.982800	3.761500	-11.218000	24.286178	0.000536	20.795595
557.155042	-2.981100	3.761700	-11.214000	24.302519	0.000538	20.785434
558.157036	-2.994600	3.761100	-11.263000	24.289438	0.000536	20.787011
559.157197	-2.986000	3.761000	-11.229000	24.279228	0.000539	20.772976
560.153724	-3.000600	3.760300	-11.283000	24.313139	0.000537	20.797035
561.173402	-2.985000	3.759500	-11.222000	24.303636	0.000537	20.770907
562.177978	-2.988300	3.758700	-11.231000	24.324574	0.000538	20.797601
563.182414	-2.991200	3.759100	-11.243000	24.300818	0.000538	20.785150
564.181257	-3.007100	3.759100	-11.304000	24.305212	0.000538	20.792403
565.155407	-3.004200	3.757900	-11.288000	24.304998	0.000539	20.799775
566.155120	-2.976800	3.759000	-11.189000	24.268472	0.000536	20.781153
567.157157	-3.011500	3.757400	-11.314000	24.275090	0.000537	20.785894
568.156222	-3.015000	3.757400	-11.328000	24.319718	0.000539	20.797945
569.158906	-3.000700	3.756800	-11.273000	24.325390	0.000537	20.786091
570.181388	-3.003100	3.757100	-11.282000	24.319595	0.000537	20.804934
571.176200	-2.990000	3.756900	-11.233000	24.334924	0.000539	20.807983
572.190589	-3.011500	3.755300	-11.308000	24.335365	0.000535	20.786615
573.174463	-2.973400	3.756800	-11.170000	24.360962	0.000536	20.819879
574.190717	-3.027800	3.756600	-11.373000	24.373528	0.000537	20.805932
575.180649	-2.979600	3.757900	-11.195000	24.362485	0.000536	20.797225
576.190082	-3.001200	3.756200	-11.273000	24.356708	0.000538	20.787637
577.185037	-2.998800	3.755700	-11.261000	24.358126	0.000540	20.803284
578.180603	-2.977600	3.756200	-11.184000	24.347231	0.000538	20.813216
579.159625	-2.993200	3.756100	-11.242000	24.340890	0.000538	20.804011
580.161655	-3.005500	3.756100	-11.288000	24.356008	0.000537	20.788357
581.159894	-3.009100	3.754300	-11.296000	24.369544	0.000536	20.805728
582.158475	-3.004100	3.753700	-11.276000	24.395343	0.000539	20.812170
583.159466	-3.005400	3.753700	-11.280000	24.387406	0.000537	20.805156
584.181495	-2.999400	3.754700	-11.261000	24.388702	0.000535	20.819731
585.162066	-3.004300	3.753200	-11.276000	24.385883	0.000536	20.801731
586.163869	-2.999800	3.753300	-11.257000	24.399149	0.000536	20.810298
587.160829	-2.985300	3.752700	-11.202000	24.401284	0.000537	20.824294
588.161538	-2.990600	3.753500	-11.224000	24.408945	0.000538	20.811590
589.160784	-2.991200	3.752600	-11.224000	24.451358	0.000536	20.817631
590.181154	-2.999100	3.752500	-11.253000	24.454789	0.000536	20.821073
591.164372	-3.013900	3.752200	-11.308000	24.477180	0.000534	20.824571
592.178948	-2.999700	3.751600	-11.253000	24.488246	0.000536	20.802483
593.179202	-3.004000	3.751500	-11.269000	24.494789	0.000533	20.815211
594.179930	-3.008400	3.749800	-11.279000	24.497404	0.000535	20.804084
595.187577	-2.983200	3.751600	-11.191000	24.456564	0.000536	20.827595
596.184050	-2.980500	3.751300	-11.180000	24.459270	0.000536	20.802810
597.188758	-3.006400	3.749700	-11.272000	24.456981	0.000535	20.809521
598.181567	-2.991800	3.749500	-11.217000	24.466342	0.000535	20.829818
599.186745	-2.986700	3.750800	-11.201000	24.459050	0.000534	20.827244
600.181884	-2.986400	3.750200	-11.199000	24.455391	0.000534	20.824996
601.186618	-2.983000	3.749500	-11.184000	24.437782	0.000534	20.821554
602.196404	-2.991600	3.751000	-11.220000	24.424898	0.000533	20.822379
603.184402	-3.005100	3.749300	-11.267000	24.387676	0.000536	20.823444
604.183878	-2.976600	3.748400	-11.157000	24.384423	0.000535	20.814965
605.195562	-3.026500	3.748600	-11.344000	24.410166	0.000536	20.808074
606.185164	-2.998400	3.749600	-11.241000	24.438395	0.000534	20.839712
607.168775	-3.005800	3.747400	-11.262000	24.469661	0.000535	20.818450
608.166664	-3.000800	3.748800	-11.248000	24.447154	0.000534	20.842810
609.166738	-2.977800	3.748300	-11.161000	24.443391	0.000535	20.842828
610.170323	-2.982300	3.748600	-11.178000	24.451124	0.000535	20.845844
611.170665	-2.993600	3.747300	-11.217000	24.474730	0.000535	20.830173
612.187516	-3.007100	3.746400	-11.265000	24.472490	0.000535	20.820339
613.187671	-2.988700	3.747000	-11.197000	24.476166	0.000535	20.819286
614.185942	-2.999200	3.746300	-11.235000	24.477639	0.000533	20.824083
615.185913	-2.995300	3.746100	-11.219000	24.516631	0.000536	20.823848
616.186552	-2.983800	3.746500	-11.178000	24.515790	0.000533	20.832962
617.186604	-2.983300	3.747600	-11.179000	24.514292	0.000535	20.851373
618.197923	-2.986400	3.745600	-11.185000	24.569976	0.000532	20.832801
619.192780	-3.006200	3.745500	-11.258000	24.555799	0.000533	20.847973
620.190232	-3.011500	3.744700	-11.275000	24.553835	0.000532	20.813287
621.169362	-2.998900	3.744500	-11.229000	24.533140	0.000535	20.849894
622.170669	-2.993000	3.743000	-11.202000	24.517201	0.000534	20.853817
623.170771	-2.984200	3.743800	-11.172000	24.545224	0.000535	20.838786
624.171436	-2.991200	3.743800	-11.198000	24.562531	0.000535	20.864684
625.171405	-2.987100	3.744500	-11.184000	24.582263	0.000534	20.841810
626.171539	-2.991300	3.742300	-11.194000	24.558775	0.000533	20.840528
627.170436	-2.981600	3.742400	-11.156000	24.594689	0.000535	20.824407
628.189037	-3.015500	3.743200	-11.287000	24.618464	0.000533	20.825977
629.186704	-2.982800	3.742500	-11.162000	24.569276	0.000532	20.841581
630.170920	-2.992200	3.742400	-11.198000	24.563532	0.000533	20.845301
631.172359	-2.994700	3.741800	-11.203000	24.554896	0.000532	20.822412
632.172611	-3.000800	3.742200	-11.229000	24.564494	0.000529	20.838681
633.175225	-2.998900	3.741300	-11.218000	24.579420	0.000532	20.820941
634.192234	-3.004200	3.741600	-11.240000	24.590534	0.000532	20.843471
635.192076	-2.992400	3.739200	-11.188000	24.613500	0.000534	20.830005
636.194528	-2.981600	3.740800	-11.153000	24.609510	0.000531	20.823157
637.190626	-3.008800	3.741100	-11.255000	24.568152	0.000532	20.815325
638.176742	-3.005800	3.738600	-11.237000	24.559174	0.000532	20.808687
639.188774	-2.997400	3.738900	-11.206000	24.540964	0.000532	20.824081
640.189298	-3.018800	3.737300	-11.281000	24.559051	0.000532	20.829426
641.191932	-2.986700	3.739700	-11.168000	24.557087	0.000531	20.827456
642.189888	-2.995500	3.738600	-11.198000	24.588896	0.000529	20.828551
643.192219	-2.996800	3.738600	-11.203000	24.608964	0.000531	20.823083
644.196633	-3.010600	3.737900	-11.252000	24.569847	0.000531	20.828878
645.174966	-2.994100	3.738100	-11.192000	24.576984	0.000529	20.811384
646.175659	-3.000500	3.739100	-11.218000	24.592081	0.000531	20.833644
647.202206	-3.004400	3.736900	-11.226000	24.578230	0.000532	20.821643
648.201592	-3.008000	3.736700	-11.239000	24.570890	0.000533	20.819968
649.198896	-2.981900	3.737400	-11.144000	24.550674	0.000530	20.815331
650.191001	-2.977400	3.737100	-11.126000	24.574849	0.000531	20.822043
651.174964	-3.005400	3.737300	-11.232000	24.538191	0.000532	20.811816
652.197372	-3.010300	3.736400	-11.245000	24.532618	0.000531	20.819026
653.200068	-2.993700	3.737000	-11.186000	24.578850	0.000532	20.809937
654.195977	-3.000100	3.736300	-11.208000	24.595169	0.000532	20.813983
655.196233	-2.997100	3.735000	-11.193000	24.615488	0.000531	20.801655
656.191745	-2.982900	3.736400	-11.144000	24.618016	0.000533	20.803243
657.177299	-2.985700	3.735200	-11.151000	24.608068	0.000530	20.800373
658.201572	-3.021500	3.735300	-11.285000	24.588896	0.000529	20.816698
659.178569	-3.018600	3.734500	-11.272000	24.554098	0.000530	20.808335
660.179954	-3.000500	3.734000	-11.202000	24.614389	0.000531	20.816673
661.200962	-3.007600	3.734600	-11.231000	24.622496	0.000530	20.807264
662.199686	-2.997600	3.734400	-11.193000	24.644429	0.000530	20.804616
663.197141	-3.008500	3.734800	-11.235000	24.660292	0.000529	20.821956
664.203879	-2.991300	3.733300	-11.167000	24.649424	0.000528	20.802516
665.196784	-2.992900	3.734100	-11.175000	24.646141	0.000529	20.809178
666.194568	-3.013600	3.732100	-11.246000	24.629210	0.000528	20.804992
667.194203	-2.992800	3.732900	-11.171000	24.675959	0.000528	20.805909
668.196938	-2.987300	3.732600	-11.150000	24.683673	0.000527	20.805115
669.194557	-3.017600	3.732400	-11.262000	24.680254	0.000530	20.806899
670.204258	-2.997300	3.731600	-11.183000	24.679837	0.000528	20.799843
671.200929	-3.003700	3.731300	-11.207000	24.686158	0.000527	20.791961
672.199419	-3.003300	3.732300	-11.208000	24.657156	0.000527	20.805533
673.180818	-2.998900	3.732300	-11.192000	24.693890	0.000528	20.801617
674.200424	-3.000200	3.731200	-11.194000	24.684863	0.000527	20.794455
675.207342	-2.987500	3.732700	-11.149000	24.687324	0.000526	20.800718
676.200051	-3.005300	3.731300	-11.212000	24.700830	0.000527	20.776813
677.199293	-2.989300	3.730200	-11.150000	24.740723	0.000525	20.788871
678.197577	-3.016500	3.729600	-11.249000	24.753628	0.000528	20.790915
679.203572	-3.014400	3.729300	-11.240000	24.734532	0.000526	20.798779
680.200867	-2.993000	3.729500	-11.161000	24.730199	0.000525	20.778309
681.197801	-2.999200	3.730100	-11.186000	24.715387	0.000526	20.790472
682.199440	-3.008300	3.730100	-11.221000	24.709986	0.000523	20.774621
683.182368	-3.021300	3.727200	-11.260000	24.687932	0.000524	20.796113
684.204390	-3.003800	3.728600	-11.199000	24.686620	0.000526	20.782467
685.204160	-3.022600	3.728700	-11.269000	24.676721	0.000524	20.783914
686.200726	-3.012800	3.727400	-11.229000	24.686742	0.000527	20.774055
687.202592	-2.994400	3.728500	-11.163000	24.671891	0.000526	20.763894
688.184918	-2.985800	3.728600	-11.132000	24.710921	0.000524	20.794999
689.199096	-2.987100	3.728600	-11.137000	24.676973	0.000523	20.789857
690.202551	-3.006200	3.727400	-11.204000	24.682472	0.000522	20.786366
691.209157	-3.008300	3.726900	-11.210000	24.704103	0.000525	20.776777
692.202416	-3.000700	3.727200	-11.183000	24.747579	0.000523	20.778207
693.198324	-3.005400	3.726000	-11.196000	24.759790	0.000523	20.783823
694.201137	-3.001900	3.725800	-11.184000	24.759017	0.000524	20.803435
695.185225	-3.006600	3.726100	-11.202000	24.732288	0.000521	20.777086
696.187704	-3.000700	3.725600	-11.179000	24.732988	0.000523	20.781582
697.205473	-2.984600	3.725800	-11.119000	24.700564	0.000523	20.777019
698.206141	-3.004000	3.723800	-11.186000	24.712124	0.000522	20.773447
699.202369	-3.019500	3.724000	-11.244000	24.697354	0.000523	20.774273
700.205756	-2.994500	3.724200	-11.151000	24.741167	0.000522	20.771298
701.202573	-2.992800	3.723100	-11.142000	24.756367	0.000522	20.786552
702.202297	-3.012800	3.723700	-11.218000	24.728907	0.000522	20.783177
703.217522	-3.006000	3.723700	-11.193000	24.710665	0.000523	20.758232
704.202082	-2.995100	3.723500	-11.152000	24.704000	0.000520	20.779046
705.202290	-3.051800	3.722400	-11.359000	24.710493	0.000523	20.764224
706.187773	-2.982300	3.724500	-11.107000	24.687585	0.000523	20.788652
707.205961	-3.004000	3.723500	-11.184000	24.705117	0.000521	20.779218
708.205872	-2.985000	3.723600	-11.114000	24.690501	0.000521	20.769766
709.211035	-2.996900	3.723000	-11.156000	24.670784	0.000521	20.782698
710.207719	-2.985900	3.723000	-11.115000	24.661537	0.000520	20.759668
711.187534	-3.007100	3.722300	-11.192000	24.673914	0.000520	20.773984
712.190688	-2.998800	3.721100	-11.157000	24.721913	0.000520	20.781374
713.207085	-3.018800	3.721300	-11.233000	24.730499	0.000520	20.784774
714.192314	-3.006500	3.722500	-11.190000	24.747005	0.000519	20.777630
715.205307	-2.987500	3.721700	-11.118000	24.698393	0.000519	20.770100
716.204884	-3.034100	3.719900	-11.285000	24.688274	0.000520	20.767532
717.206761	-2.988000	3.721300	-11.118000	24.684095	0.000520	20.760493
718.213996	-3.013500	3.719500	-11.207000	24.715834	0.000519	20.764841
719.203050	-2.992500	3.720700	-11.133000	24.702831	0.000520	20.748948
720.188316	-2.998800	3.721300	-11.159000	24.698848	0.000521	20.762021
721.207309	-2.988800	3.721300	-11.122000	24.673388	0.000521	20.760655
722.210278	-2.989800	3.719200	-11.119000	24.744369	0.000518	20.755544
723.205298	-2.994200	3.719600	-11.136000	24.771073	0.000519	20.754842
724.210916	-3.022300	3.717900	-11.235000	24.815817	0.000519	20.760865
725.207561	-2.995500	3.719000	-11.139000	24.795728	0.000517	20.752558
726.211379	-2.995900	3.717800	-11.138000	24.756979	0.000518	20.743542
727.191784	-2.996500	3.718000	-11.140000	24.800348	0.000520	20.760988
728.192277	-3.008900	3.717100	-11.183000	24.786003	0.000517	20.737581
729.192841	-2.982700	3.718300	-11.090000	24.744750	0.000518	20.743124
730.194585	-3.017700	3.717700	-11.218000	24.737043	0.000515	20.770478
731.207842	-3.001900	3.718000	-11.160000	24.738362	0.000516	20.754732
732.195200	-3.024100	3.716700	-11.238000	24.764178	0.000518	20.746973
733.193217	-3.011800	3.716300	-11.191000	24.810081	0.000516	20.742780
734.192731	-3.004100	3.716800	-11.164000	24.816671	0.000517	20.757454
735.211898	-2.981100	3.718600	-11.084000	24.818665	0.000518	20.762775
736.217293	-2.987700	3.717800	-11.107000	24.774978	0.000515	20.762554
737.209890	-2.991800	3.716300	-11.118000	24.767313	0.000514	20.765294
738.215885	-3.013000	3.716400	-11.196000	24.759890	0.000517	20.747412
739.214903	-3.002900	3.715700	-11.157000	24.777813	0.000515	20.755442
740.211268	-2.999000	3.716100	-11.144000	24.775261	0.000514	20.750036
741.213661	-2.985700	3.715700	-11.094000	24.789159	0.000516	20.746439
742.212138	-3.003700	3.715600	-11.160000	24.783472	0.000513	20.728403
743.195315	-2.993400	3.716200	-11.123000	24.786877	0.000515	20.744623
744.197765	-3.020000	3.714800	-11.218000	24.798664	0.000512	20.717570
745.196965	-2.973800	3.715800	-11.049000	24.776581	0.000514	20.739506
746.219684	-3.013200	3.713900	-11.189000	24.788994	0.000517	20.744851
747.197208	-2.995000	3.713000	-11.119000	24.814010	0.000513	20.753836
748.196871	-2.996900	3.713300	-11.127000	24.845941	0.000513	20.719499
749.197705	-3.015300	3.712300	-11.192000	24.859348	0.000515	20.746706
750.197602	-3.023700	3.712900	-11.225000	24.853801	0.000513	20.747777
751.197492	-2.979900	3.714000	-11.067000	24.802612	0.000515	20.723903
752.214875	-3.002300	3.713200	-11.147000	24.773011	0.000513	20.729758
753.196242	-3.007000	3.712900	-11.164000	24.811140	0.000514	20.724876
754.197186	-3.019100	3.712300	-11.206000	24.807735	0.000512	20.744219
755.221418	-3.006800	3.712600	-11.163000	24.833174	0.000511	20.716643
756.214813	-2.990400	3.711600	-11.099000	24.824051	0.000512	20.731195
757.221178	-3.017400	3.710900	-11.196000	24.809552	0.000513	20.727549
758.214247	-3.006500	3.711200	-11.157000	24.789585	0.000509	20.745445
759.213924	-3.006000	3.710200	-11.151000	24.790604	0.000511	20.745044
760.224098	-3.012000	3.710200	-11.174000	24.793610	0.000511	20.733362
761.212895	-3.000300	3.711000	-11.133000	24.827529	0.000512	20.728996
762.199152	-3.007000	3.709800	-11.154000	24.843673	0.000513	20.719119
763.203528	-3.006600	3.710600	-11.155000	24.882658	0.000513	20.744022
764.197144	-3.005000	3.710300	-11.149000	24.906696	0.000510	20.757243
765.228493	-3.021400	3.708200	-11.203000	24.869307	0.000510	20.730622
766.217345	-2.995300	3.710900	-11.114000	24.879026	0.000511	20.727099
767.218650	-3.011400	3.709400	-11.169000	24.846532	0.000511	20.717721
768.201835	-3.019000	3.709000	-11.196000	24.814595	0.000509	20.729291
769.199639	-2.986700	3.709200	-11.077000	24.788487	0.000509	20.730116
770.201083	-2.988400	3.709700	-11.085000	24.812712	0.000509	20.730721
771.199940	-2.995800	3.708500	-11.109000	24.791566	0.000508	20.728940
772.199582	-2.987600	3.707100	-11.074000	24.794352	0.000509	20.732684
773.204132	-3.008000	3.707300	-11.150000	24.812190	0.000508	20.726404
774.221332	-3.004800	3.706700	-11.137000	24.793015	0.000509	20.747464
775.215609	-2.976000	3.709100	-11.037000	24.812582	0.000510	20.733436
776.203775	-2.974200	3.708400	-11.028000	24.790566	0.000505	20.726513
777.227389	-2.971200	3.708600	-11.019000	24.775926	0.000507	20.711346
778.198718	-2.964500	3.705800	-10.984000	24.815932	0.000506	20.736797
779.218872	-3.009400	3.705300	-11.149000	24.808967	0.000507	20.723169
780.228761	-3.009300	3.705400	-11.150000	24.850672	0.000508	20.739421
781.223003	-2.966600	3.707000	-10.995000	24.812152	0.000506	20.745332
782.220531	-2.999200	3.705400	-11.112000	24.784473	0.000506	20.730356
783.202688	-2.999200	3.705500	-11.113000	24.781092	0.000507	20.750197
784.205274	-3.011100	3.704500	-11.153000	24.795787	0.000506	20.708044
785.217849	-3.013100	3.704900	-11.162000	24.831946	0.000506	20.738171
786.219554	-2.987700	3.705100	-11.068000	24.815711	0.000506	20.719505
787.224269	-3.009100	3.704700	-11.147000	24.827792	0.000507	20.736846
788.225792	-3.019500	3.703300	-11.181000	24.850942	0.000506	20.731156
789.202556	-3.016200	3.702400	-11.166000	24.854802	0.000505	20.727444
790.205920	-2.979400	3.704300	-11.036000	24.828093	0.000504	20.716284
791.203718	-2.987300	3.703600	-11.063000	24.797831	0.000503	20.721476
792.222847	-2.992700	3.702600	-11.080000	24.780675	0.000503	20.729389
793.204526	-2.988500	3.703500	-11.067000	24.812502	0.000504	20.734778
794.220700	-3.003900	3.703100	-11.123000	24.843789	0.000504	20.711648
795.221104	-2.997400	3.702000	-11.095000	24.854053	0.000503	20.701560
796.219976	-2.989300	3.702800	-11.068000	24.902038	0.000504	20.722221
797.219651	-3.004400	3.701600	-11.120000	24.892019	0.000501	20.716432
798.223352	-2.982600	3.702300	-11.042000	24.903235	0.000502	20.730060
799.205582	-3.015300	3.701300	-11.159000	24.888915	0.000501	20.711420
800.205665	-2.979800	3.701500	-11.029000	24.856195	0.000502	20.708926
801.231282	-2.982800	3.701800	-11.041000	24.882007	0.000503	20.709702
802.225492	-2.985100	3.701200	-11.046000	24.868086	0.000502	20.733190
803.224808	-3.007100	3.700100	-11.126000	24.819344	0.000502	20.712245
804.232675	-2.983500	3.700200	-11.038000	24.807060	0.000500	20.717935
805.236163	-3.008800	3.699600	-11.131000	24.842893	0.000502	20.704584
806.223436	-3.021200	3.698600	-11.173000	24.842574	0.000501	20.711377
807.221848	-2.984200	3.700900	-11.043000	24.836261	0.000501	20.721163
808.227073	-2.996500	3.700600	-11.087000	24.874392	0.000500	20.712965
809.210570	-3.009300	3.698900	-11.130000	24.912046	0.000499	20.704289
810.225224	-3.026000	3.698500	-11.191000	24.881738	0.000500	20.693783
811.213614	-2.997900	3.698800	-11.088000	24.906801	0.000500	20.684798
812.223072	-3.023100	3.697500	-11.176000	24.923783	0.000500	20.709431
813.207364	-2.993500	3.697800	-11.067000	24.901580	0.000499	20.706586
814.210124	-2.995700	3.699000	-11.081000	24.888107	0.000498	20.714402
815.209868	-3.010900	3.696600	-11.130000	24.910034	0.000497	20.702744
816.210514	-3.003700	3.698900	-11.109000	24.886192	0.000499	20.709635
817.213954	-2.992700	3.696300	-11.061000	24.856331	0.000498	20.684879
818.210496	-2.992700	3.697900	-11.066000	24.876100	0.000496	20.714205
819.227900	-3.008300	3.697300	-11.122000	24.884905	0.000500	20.685581
820.211109	-3.021800	3.696500	-11.169000	24.928287	0.000498	20.697829
821.209776	-3.010400	3.697400	-11.130000	24.981251	0.000498	20.707844
822.213112	-3.022800	3.695400	-11.169000	24.944324	0.000499	20.690692
823.209774	-2.990300	3.695100	-11.049000	24.886444	0.000498	20.698033
824.212764	-3.000900	3.695300	-11.088000	24.845041	0.000497	20.712905
825.232354	-3.017300	3.694100	-11.145000	24.876352	0.000497	20.698335
826.227561	-3.002800	3.695000	-11.095000	24.866774	0.000496	20.696783
827.231994	-2.994700	3.695100	-11.064000	24.894378	0.000494	20.677070
828.227675	-3.002300	3.694400	-11.090000	24.916882	0.000497	20.698711
829.229309	-3.027900	3.693200	-11.182000	24.904169	0.000497	20.680734
830.235319	-2.984800	3.694600	-11.027000	24.919416	0.000496	20.687977
831.211989	-3.007900	3.693000	-11.107000	24.917274	0.000495	20.680611
832.213230	-2.974900	3.693900	-10.988000	24.887788	0.000494	20.690846
833.213875	-2.989200	3.693700	-11.040000	24.931023	0.000494	20.694412
834.229110	-2.979300	3.694600	-11.005000	24.922926	0.000495	20.699087
835.213483	-2.983600	3.693800	-11.020000	24.953153	0.000496	20.680112
836.216233	-2.980400	3.694200	-11.009000	24.951515	0.000495	20.698384
837.238857	-2.980700	3.693300	-11.007000	24.924906	0.000495	20.702498
838.215603	-3.000600	3.693300	-11.081000	24.909341	0.000493	20.662689
839.231603	-2.983100	3.692500	-11.014000	24.942035	0.000492	20.710682
840.213593	-2.992500	3.692700	-11.049000	24.937262	0.000491	20.690717
841.221153	-3.006400	3.692300	-11.099000	24.943428	0.000493	20.683154
842.213746	-3.001600	3.692300	-11.082000	24.925932	0.000493	20.671281
843.214070	-3.015000	3.690200	-11.124000	24.928164	0.000492	20.695336
844.231787	-3.017000	3.689200	-11.129000	24.913114	0.000493	20.674063
845.231283	-3.002400	3.690500	-11.078000	24.930397	0.000489	20.686196
846.242316	-3.001700	3.690700	-11.078000	24.893842	0.000491	20.700717
847.235149	-3.008700	3.690800	-11.104000	24.887424	0.000492	20.692852
848.236537	-3.008300	3.689900	-11.099000	24.872363	0.000489	20.691486
849.236079	-3.001800	3.689900	-11.075000	24.886861	0.000488	20.687071
850.232231	-2.987800	3.691900	-11.030000	24.897818	0.000489	20.691904
851.236010	-2.997000	3.689000	-11.055000	24.906419	0.000490	20.682518
852.218219	-3.002800	3.688400	-11.074000	24.938942	0.000489	20.662528
853.218439	-2.973900	3.689900	-10.973000	24.985384	0.000490	20.688757
854.219682	-3.010900	3.688800	-11.104000	24.987550	0.000490	20.694725
855.219053	-3.001600	3.688500	-11.070000	24.976188	0.000490	20.688535
856.238954	-2.985500	3.687600	-11.008000	24.952219	0.000489	20.681071
857.220681	-2.994600	3.687300	-11.041000	24.940108	0.000488	20.691676
858.234377	-3.003100	3.688300	-11.076000	24.925193	0.000487	20.679076
859.242023	-2.995300	3.687400	-11.044000	24.947372	0.000489	20.693752
860.222493	-2.989800	3.688400	-11.027000	24.952359	0.000488	20.687376
861.221364	-2.989400	3.688300	-11.024000	24.916365	0.000486	20.685388
862.220973	-3.008500	3.686500	-11.090000	24.928028	0.000485	20.684766
863.225733	-2.997000	3.685400	-11.044000	24.960477	0.000488	20.673238
864.245797	-3.016900	3.685000	-11.117000	24.967937	0.000486	20.685943
865.242794	-3.000100	3.685600	-11.056000	24.998488	0.000486	20.689582
866.239070	-3.002300	3.686200	-11.066000	25.029168	0.000485	20.671538
867.224065	-2.993800	3.685600	-11.033000	25.016064	0.000483	20.684464
868.224978	-2.993200	3.685500	-11.030000	24.948905	0.000486	20.679642
869.223831	-3.019600	3.685500	-11.128000	24.975537	0.000485	20.699263
870.242677	-2.991400	3.685400	-11.024000	24.967279	0.000485	20.662047
871.246176	-3.006200	3.684900	-11.077000	25.003138	0.000485	20.689034
872.243201	-3.010500	3.684100	-11.091000	25.003684	0.000485	20.677253
873.243887	-2.987800	3.684000	-11.006000	24.961470	0.000485	20.669968
874.248352	-3.010600	3.683400	-11.088000	24.945175	0.000484	20.674475
875.224867	-2.990700	3.682900	-11.014000	24.922751	0.000484	20.675676
876.228518	-3.008900	3.681800	-11.078000	24.920560	0.000487	20.669209
877.225156	-2.993100	3.683500	-11.024000	24.942162	0.000481	20.686625
878.226325	-2.969900	3.684200	-10.940000	24.978456	0.000481	20.672318
879.228163	-2.993900	3.682700	-11.025000	25.011572	0.000481	20.675687
880.228056	-2.973900	3.683200	-10.952000	25.009455	0.000481	20.683046
881.230552	-3.009000	3.682000	-11.078000	24.986357	0.000484	20.692105
882.228449	-2.997200	3.682000	-11.035000	25.000074	0.000483	20.670309
883.227763	-2.987000	3.682600	-10.998000	25.033213	0.000483	20.677496
884.228380	-3.000000	3.682100	-11.046000	25.056310	0.000479	20.673179
885.228132	-3.010400	3.681200	-11.081000	25.064168	0.000481	20.677749
886.230804	-3.007300	3.681700	-11.071000	25.044575	0.000479	20.686530
887.246079	-2.978600	3.680700	-10.963000	24.953976	0.000478	20.685680
888.242193	-2.995100	3.680900	-11.022000	24.944503	0.000483	20.685182
889.230595	-3.013400	3.680000	-11.089000	24.950883	0.000480	20.693008
890.231324	-2.988800	3.681900	-11.003000	24.977760	0.000479	20.696752
891.230482	-3.000400	3.680600	-11.042000	24.997502	0.000478	20.719889
892.232462	-3.000900	3.679100	-11.039000	24.996330	0.000478	20.691209
893.230558	-3.005200	3.678400	-11.053000	25.007349	0.000478	20.694209
894.230442	-3.031800	3.677600	-11.148000	25.016789	0.000479	20.688986
895.233160	-2.998100	3.677700	-11.026000	25.032605	0.000477	20.702492
896.234875	-3.004400	3.678500	-11.051000	24.995956	0.000476	20.688937
897.253303	-2.991100	3.678700	-11.002000	25.024071	0.000476	20.692502
898.254050	-2.992300	3.677400	-11.003000	25.073595	0.000477	20.702861
899.255409	-2.992800	3.677900	-11.006000	25.078717	0.000476	20.695674
900.259386	-3.001900	3.677500	-11.038000	25.083643	0.000479	20.697300
901.249331	-2.980700	3.677800	-10.962000	25.122767	0.000477	20.687261
902.258936	-2.992000	3.677000	-11.001000	25.127857	0.000475	20.699011
903.265216	-3.009000	3.676300	-11.061000	25.091593	0.000476	20.683942
904.236364	-2.976600	3.678100	-10.948000	25.076153	0.000477	20.690728
905.254285	-2.998600	3.675900	-11.022000	25.094420	0.000477	20.689626
906.255760	-3.000800	3.676200	-11.031000	25.067136	0.000477	20.701118
907.259680	-2.990800	3.675900	-10.993000	25.053977	0.000476	20.693124
908.269796	-2.987300	3.675600	-10.978000	25.060688	0.000472	20.690377
909.256169	-3.002900	3.674300	-11.033000	25.047756	0.000472	20.689724
910.258641	-2.996200	3.676000	-11.011000	25.076681	0.000475	20.680352
911.238931	-2.998300	3.675000	-11.018000	25.071699	0.000473	20.691473
912.237975	-2.992600	3.674200	-10.995000	25.033039	0.000475	20.655507
913.237990	-2.994500	3.674100	-11.001000	24.995330	0.000473	20.713440
914.240022	-2.976000	3.674700	-10.935000	24.969642	0.000473	20.700932
915.255460	-2.998900	3.673700	-11.016000	25.029351	0.000473	20.699226
916.261252	-2.989100	3.673600	-10.980000	25.066244	0.000470	20.714923
917.259291	-3.031400	3.671100	-11.128000	25.074697	0.000471	20.701597
918.239321	-3.013200	3.672500	-11.066000	25.105938	0.000472	20.698818
919.241806	-3.017900	3.671700	-11.080000	25.148325	0.000470	20.723353
920.239512	-3.001400	3.671500	-11.018000	25.130230	0.000473	20.705186
921.260283	-3.001500	3.672400	-11.021000	25.097381	0.000467	20.702556
922.239315	-2.965500	3.673700	-10.894000	25.109392	0.000470	20.691379
923.238982	-2.964900	3.672800	-10.889000	25.077689	0.000472	20.716929
924.248433	-3.003600	3.672400	-11.030000	25.031497	0.000471	20.700905
925.254387	-3.013100	3.671600	-11.061000	24.991614	0.000471	20.706866
926.261990	-3.005400	3.669700	-11.028000	24.986215	0.000470	20.691014
927.240583	-2.988500	3.671500	-10.971000	25.020275	0.000469	20.715247
928.246345	-3.017300	3.669900	-11.072000	25.029992	0.000469	20.699395
929.243920	-3.021900	3.669000	-11.086000	25.039685	0.000468	20.714815
930.245714	-2.995800	3.669600	-10.992000	25.040077	0.000470	20.710941
931.241414	-2.985600	3.671200	-10.960000	25.046175	0.000470	20.708528
932.262101	-3.002100	3.668100	-11.011000	25.095090	0.000469	20.728707
933.259761	-3.041400	3.668200	-11.156000	25.118871	0.000469	20.713699
934.242355	-2.988600	3.669600	-10.966000	25.149946	0.000468	20.706962
935.247552	-3.027900	3.666600	-11.100000	25.103903	0.000464	20.730443
936.242205	-3.014800	3.667100	-11.054000	25.099897	0.000467	20.706979
937.266656	-3.003200	3.667500	-11.013000	25.065637	0.000466	20.723797
938.262377	-2.979800	3.669100	-10.933000	25.077114	0.000465	20.713506
939.263061	-2.986200	3.667800	-10.952000	25.117262	0.000466	20.716351
940.267143	-2.983500	3.667100	-10.940000	25.118875	0.000464	20.699951
941.262310	-2.989900	3.668000	-10.966000	25.136670	0.000463	20.709755
942.268577	-2.997600	3.666000	-10.988000	25.122990	0.000465	20.721627
943.264353	-3.016800	3.665400	-11.057000	25.117826	0.000465	20.726401
944.261212	-3.006100	3.666600	-11.021000	25.124456	0.000465	20.719780
945.264528	-3.008800	3.666400	-11.031000	25.127811	0.000465	20.717458
946.273987	-2.997800	3.664700	-10.985000	25.074830	0.000463	20.724964
947.260537	-2.991000	3.664900	-10.961000	25.065701	0.000464	20.710584
948.244233	-3.007600	3.665500	-11.023000	25.110132	0.000463	20.733377
949.264659	-3.034200	3.664600	-11.118000	25.119124	0.000463	20.736714
950.266843	-3.005900	3.664700	-11.015000	25.120290	0.000464	20.729348
951.272361	-2.988900	3.665200	-10.954000	25.103961	0.000462	20.731923
952.264378	-2.996100	3.663700	-10.976000	25.097422	0.000462	20.722987
953.263497	-2.985300	3.663600	-10.936000	25.090288	0.000463	20.728154
954.264503	-2.991700	3.663900	-10.961000	25.074522	0.000462	20.734139
955.262848	-3.001400	3.662200	-10.990000	25.083546	0.000460	20.727550
956.273440	-2.994200	3.664800	-10.973000	25.131643	0.000461	20.727944
957.267807	-2.995600	3.662400	-10.970000	25.128466	0.000460	20.746092
958.246977	-2.999600	3.663500	-10.989000	25.129834	0.000459	20.709057
959.247437	-2.997600	3.661900	-10.976000	25.124687	0.000460	20.738505
960.265045	-2.990700	3.661100	-10.948000	25.129656	0.000461	20.744441
961.262765	-3.003800	3.662400	-11.001000	25.154216	0.000458	20.731164
962.279668	-2.994700	3.661300	-10.964000	25.139323	0.000459	20.720954
963.265527	-3.010900	3.660800	-11.022000	25.135219	0.000457	20.731533
964.251648	-2.986300	3.661000	-10.932000	25.111456	0.000458	20.733757
965.268667	-3.027700	3.659000	-11.077000	25.119625	0.000459	20.745752
966.269281	-3.007900	3.660100	-11.006000	25.124545	0.000459	20.747845
967.253595	-2.999700	3.660400	-10.980000	25.156263	0.000458	20.729426
968.254061	-3.023900	3.659300	-11.064000	25.144253	0.000458	20.749612
969.252530	-2.982200	3.659600	-10.912000	25.160109	0.000457	20.739451
970.253581	-2.974500	3.660600	-10.887000	25.197004	0.000457	20.721962
971.271872	-3.016100	3.658800	-11.035000	25.164317	0.000456	20.718070
972.274293	-2.977600	3.658500	-10.893000	25.168506	0.000457	20.744088
973.271461	-2.988400	3.659300	-10.935000	25.127488	0.000457	20.744161
974.274812	-3.023800	3.659000	-11.063000	25.153735	0.000453	20.739690
975.274825	-3.005900	3.658000	-10.995000	25.148595	0.000454	20.744488
976.272196	-2.985200	3.658200	-10.919000	25.166561	0.000454	20.753989
977.277162	-2.999800	3.657900	-10.972000	25.159280	0.000454	20.729135
978.278277	-3.003600	3.657200	-10.984000	25.118262	0.000454	20.724467
979.252180	-3.017400	3.656900	-11.033000	25.115680	0.000454	20.729462
980.268824	-2.991400	3.656500	-10.938000	25.103865	0.000451	20.730878
981.254523	-3.008700	3.656100	-11.000000	25.144761	0.000454	20.743958
982.255957	-3.003100	3.656200	-10.979000	25.140779	0.000452	20.757980
983.253847	-3.004600	3.656200	-10.984000	25.157163	0.000453	20.744081
984.272326	-2.981400	3.656500	-10.900000	25.127131	0.000454	20.758977
985.279830	-2.980200	3.655600	-10.893000	25.139657	0.000449	20.740256
986.273389	-2.989800	3.655900	-10.929000	25.110673	0.000453	20.736291
987.272758	-3.014200	3.654300	-11.014000	25.114182	0.000453	20.755461
988.273448	-3.019300	3.654700	-11.033000	25.100436	0.000449	20.745454
989.274980	-2.973200	3.654600	-10.865000	25.152962	0.000451	20.760726
990.270064	-2.997600	3.653700	-10.952000	25.136105	0.000450	20.750442
991.255022	-3.004700	3.653700	-10.977000	25.109214	0.000449	20.737671
992.277720	-2.977500	3.653900	-10.878000	25.118115	0.000448	20.743287
993.258525	-3.010800	3.653200	-10.999000	25.142087	0.000449	20.746016
994.274555	-2.989900	3.653600	-10.923000	25.163384	0.000450	20.766922
995.273768	-2.977400	3.654000	-10.878000	25.166266	0.000448	20.775032
996.257340	-3.013600	3.652900	-11.008000	25.176143	0.000447	20.761238
997.257470	-2.999900	3.652300	-10.956000	25.156747	0.000449	20.762155
998.259180	-3.017600	3.651700	-11.019000	25.185491	0.000447	20.779158
999.259727	-3.001600	3.652300	-10.962000	25.151828	0.000448	20.756743
1000.260958	-2.994100	3.653100	-10.937000	25.137634	0.000447	20.752925
1001.259441	-3.009000	3.650200	-10.983000	25.129359	0.000447	20.760740
1002.259543	-2.997500	3.651500	-10.945000	25.162219	0.000448	20.752949
1003.259990	-3.005800	3.650800	-10.972000	25.159759	0.000446	20.787939
1004.260086	-3.010900	3.651400	-10.992000	25.182086	0.000446	20.760093
1005.261494	-3.003100	3.650600	-10.963000	25.128838	0.000446	20.775864
1006.260344	-3.008400	3.649100	-10.977000	25.106313	0.000444	20.774589
1007.261256	-3.007700	3.649600	-10.977000	25.177707	0.000444	20.758541
1008.279827	-2.965700	3.650200	-10.824000	25.192299	0.000445	20.765604
1009.276990	-3.005600	3.648700	-10.967000	25.222256	0.000445	20.761066
1010.264700	-3.015400	3.648400	-10.999000	25.257155	0.000443	20.769078
1011.263173	-3.019200	3.647600	-11.011000	25.277805	0.000443	20.776061
1012.262925	-3.021100	3.648200	-11.021000	25.280670	0.000444	20.771824
1013.292676	-3.000200	3.647300	-10.942000	25.286362	0.000442	20.766159
1014.288472	-2.967500	3.648300	-10.825000	25.261454	0.000441	20.771498
1015.264325	-2.977800	3.648800	-10.865000	25.228493	0.000442	20.779657
1016.269335	-3.023200	3.646800	-11.024000	25.239300	0.000442	20.770118
1017.264288	-2.996000	3.647100	-10.926000	25.231131	0.000442	20.765709
1018.264246	-2.977500	3.647200	-10.859000	25.240031	0.000441	20.766584
1019.264273	-2.992900	3.646500	-10.913000	25.230505	0.000442	20.779306
1020.263628	-2.998200	3.645800	-10.929000	25.209332	0.000440	20.795034
1021.264077	-2.978700	3.646900	-10.863000	25.235878	0.000441	20.771424
1022.291425	-2.997300	3.646500	-10.929000	25.220765	0.000440	20.761941
1023.285657	-2.986200	3.645800	-10.886000	25.217680	0.000439	20.769749
1024.282116	-3.017600	3.643400	-10.993000	25.188797	0.000439	20.761140
1025.265962	-3.015600	3.643200	-10.985000	25.241871	0.000439	20.768431
1026.282436	-2.996300	3.643400	-10.915000	25.197752	0.000438	20.796210
1027.283485	-2.994600	3.643800	-10.911000	25.237799	0.000438	20.785680
1028.283907	-3.003000	3.642900	-10.938000	25.247286	0.000438	20.781455
1029.282225	-2.995800	3.643500	-10.915000	25.250819	0.000438	20.786425
1030.268901	-2.995500	3.643500	-10.913000	25.242994	0.000440	20.764343
1031.266113	-3.020400	3.643700	-11.005000	25.264840	0.000435	20.781062
1032.270377	-3.015200	3.641800	-10.980000	25.277493	0.000436	20.781912
1033.268517	-3.040400	3.641200	-11.070000	25.304240	0.000435	20.778894
1034.266901	-3.000100	3.642100	-10.926000	25.274537	0.000436	20.781789
1035.267669	-3.006000	3.642400	-10.948000	25.319818	0.000435	20.779362
1036.269589	-3.000100	3.641900	-10.925000	25.317806	0.000436	20.789670
1037.287612	-3.016100	3.640500	-10.979000	25.272820	0.000436	20.785280
1038.281457	-2.993300	3.640000	-10.895000	25.273831	0.000436	20.786769
1039.284027	-2.991500	3.640100	-10.889000	25.237302	0.000434	20.796087
1040.289720	-3.013200	3.641000	-10.970000	25.290944	0.000433	20.777398
1041.287440	-3.009700	3.638900	-10.951000	25.340351	0.000433	20.781487
1042.268737	-3.015200	3.640200	-10.974000	25.368985	0.000435	20.786530
1043.271584	-2.996100	3.640700	-10.908000	25.365060	0.000432	20.795392
1044.290764	-3.002200	3.639400	-10.925000	25.348802	0.000433	20.799930
1045.285093	-3.018600	3.637800	-10.981000	25.313451	0.000433	20.795729
1046.289548	-3.005800	3.638700	-10.936000	25.275702	0.000431	20.782484
1047.289032	-2.992600	3.638600	-10.888000	25.276965	0.000433	20.793710
1048.288573	-2.985700	3.640000	-10.867000	25.257155	0.000432	20.791838
1049.293197	-3.004900	3.638300	-10.932000	25.223323	0.000433	20.781104
1050.293133	-3.009000	3.637400	-10.944000	25.207646	0.000433	20.799979
1051.291949	-3.023600	3.636800	-10.995000	25.248280	0.000433	20.811376
1052.296513	-2.972800	3.638100	-10.815000	25.274321	0.000433	20.810969
1053.286291	-2.998300	3.635500	-10.899000	25.318695	0.000430	20.800994
1054.292164	-2.984500	3.636700	-10.852000	25.320105	0.000431	20.802410
1055.291729	-3.002400	3.637000	-10.919000	25.372792	0.000431	20.812637
1056.269447	-3.008200	3.634400	-10.932000	25.355295	0.000429	20.807397
1057.288924	-2.995900	3.635700	-10.891000	25.310555	0.000430	20.801830
1058.285674	-3.019300	3.635700	-10.976000	25.320196	0.000432	20.790648
1059.289827	-2.996000	3.635400	-10.891000	25.314253	0.000429	20.813129
1060.289589	-2.992300	3.635000	-10.876000	25.292683	0.000427	20.822767
1061.286499	-2.969800	3.636100	-10.797000	25.284225	0.000428	20.809059
1062.290637	-3.020900	3.633100	-10.974000	25.281784	0.000428	20.814194
1063.290385	-2.973600	3.634300	-10.805000	25.285758	0.000427	20.830037
1064.291303	-2.996700	3.633900	-10.889000	25.261924	0.000428	20.817963
1065.289627	-2.990500	3.632400	-10.862000	25.289567	0.000428	20.818215
1066.297517	-3.014600	3.631500	-10.947000	25.249467	0.000425	20.808301
1067.289422	-2.984000	3.632600	-10.838000	25.252791	0.000427	20.821595
1068.297673	-3.013900	3.631900	-10.945000	25.274515	0.000426	20.809741
1069.290689	-2.999400	3.631600	-10.890000	25.308517	0.000424	20.821120
1070.291214	-3.005900	3.630500	-10.912000	25.311252	0.000423	20.828134
1071.291847	-2.978800	3.632000	-10.818000	25.330460	0.000424	20.817075
1072.280316	-3.007400	3.630600	-10.918000	25.329540	0.000426	20.822315
1073.275654	-3.027900	3.631000	-10.994000	25.305628	0.000423	20.845246
1074.290599	-3.032700	3.629000	-11.005000	25.310871	0.000423	20.850036
1075.296449	-2.990100	3.630600	-10.854000	25.260763	0.000424	20.830073
1076.294946	-3.000200	3.631200	-10.893000	25.304382	0.000425	20.839254
1077.295747	-3.000300	3.630000	-10.890000	25.294343	0.000424	20.819691
1078.298195	-2.996200	3.629800	-10.874000	25.278703	0.000422	20.834334
1079.298022	-3.017600	3.628200	-10.947000	25.298219	0.000422	20.825479
1080.277707	-3.012900	3.628300	-10.931000	25.326952	0.000424	20.825406
1081.280795	-3.009600	3.627400	-10.917000	25.355580	0.000420	20.832813
1082.278309	-2.987200	3.628200	-10.837000	25.339076	0.000419	20.820984
1083.277413	-3.018200	3.627100	-10.946000	25.358315	0.000419	20.824180
1084.295397	-3.006300	3.627000	-10.903000	25.328761	0.000420	20.836704
1085.278033	-2.995500	3.626300	-10.861000	25.312330	0.000419	20.834906
1086.279757	-2.995800	3.627300	-10.866000	25.328963	0.000420	20.834063
1087.282566	-2.999300	3.627100	-10.878000	25.347251	0.000419	20.831089
1088.280073	-2.988300	3.626900	-10.837000	25.391265	0.000420	20.841144
1089.281139	-2.999800	3.625100	-10.874000	25.353691	0.000417	20.840399
1090.281946	-2.991600	3.625400	-10.844000	25.333661	0.000419	20.854426
1091.281260	-2.972400	3.624700	-10.773000	25.367434	0.000418	20.847086
1092.298333	-3.004400	3.623600	-10.886000	25.356279	0.000416	20.828774
1093.299727	-3.011100	3.624200	-10.913000	25.375315	0.000417	20.819913
1094.299957	-2.980600	3.625000	-10.803000	25.416428	0.000418	20.841280
1095.301638	-2.999900	3.624700	-10.873000	25.443570	0.000416	20.831077
1096.300432	-2.979200	3.625400	-10.799000	25.433721	0.000416	20.833515
1097.283964	-3.032600	3.622200	-10.983000	25.421702	0.000416	20.847525
1098.286195	-3.016200	3.624000	-10.930000	25.402489	0.000415	20.865689
1099.284673	-3.027000	3.623400	-10.967000	25.401091	0.000414	20.847216
1100.285400	-3.013500	3.623300	-10.918000	25.407652	0.000416	20.852856
1101.287799	-2.997200	3.623400	-10.860000	25.399338	0.000413	20.861102
1102.286742	-3.007000	3.622500	-10.892000	25.387403	0.000415	20.851490
1103.295742	-2.997700	3.622200	-10.857000	25.432881	0.000412	20.856853
1104.286426	-2.989300	3.623000	-10.830000	25.434476	0.000414	20.847075
1105.286074	-2.984300	3.620700	-10.805000	25.395903	0.000414	20.852912
1106.306145	-2.989400	3.621000	-10.824000	25.395081	0.000413	20.839760
1107.288065	-2.961600	3.621400	-10.724000	25.329050	0.000410	20.836521
1108.293715	-2.990600	3.620800	-10.827000	25.321470	0.000412	20.850246
1109.289306	-2.994600	3.620300	-10.840000	25.359469	0.000412	20.835770
1110.305214	-2.997200	3.620700	-10.851000	25.348779	0.000410	20.855855
1111.310119	-3.018800	3.618600	-10.923000	25.353925	0.000411	20.859599
1112.305360	-2.987500	3.620400	-10.816000	25.334563	0.000411	20.828306
1113.316719	-3.000500	3.618500	-10.856000	25.347265	0.000411	20.850542
1114.306589	-3.010100	3.618300	-10.891000	25.334686	0.000410	20.853084
1115.289301	-3.002500	3.618400	-10.863000	25.339653	0.000411	20.828201
1116.289198	-2.985600	3.619300	-10.805000	25.322230	0.000409	20.829199
1117.291620	-2.973700	3.618500	-10.759000	25.375199	0.000410	20.816952
1118.290360	-2.979100	3.618600	-10.779000	25.413196	0.000408	20.822863
1119.294250	-3.006300	3.616500	-10.872000	25.440608	0.000408	20.829999
1120.290132	-2.993700	3.617200	-10.828000	25.427093	0.000407	20.821644
1121.291554	-3.013000	3.617200	-10.898000	25.384913	0.000409	20.820541
1122.318610	-3.010200	3.615000	-10.882000	25.361442	0.000408	20.822104
1123.309052	-2.996500	3.616100	-10.834000	25.318133	0.000404	20.812758
1124.294965	-3.013500	3.615400	-10.893000	25.338569	0.000404	20.820948
1125.294312	-2.983900	3.615900	-10.789000	25.324573	0.000408	20.806896
1126.312252	-2.984700	3.616000	-10.792000	25.341948	0.000405	20.817229
1127.314896	-3.005800	3.615100	-10.866000	25.351392	0.000409	20.815806
1128.315628	-3.017200	3.613600	-10.902000	25.362652	0.000404	20.810043
1129.316939	-3.004500	3.614900	-10.860000	25.404427	0.000403	20.819747
1130.321938	-2.980700	3.614800	-10.774000	25.426946	0.000403	20.812962
1131.313899	-3.022300	3.611800	-10.915000	25.412902	0.000403	20.827309
1132.317725	-3.013600	3.612700	-10.886000	25.362260	0.000405	20.822925
1133.315501	-3.001500	3.611800	-10.840000	25.365608	0.000404	20.823916
1134.301877	-3.018600	3.612400	-10.904000	25.364712	0.000405	20.825862
1135.321094	-3.017500	3.612400	-10.900000	25.356489	0.000401	20.813811
1136.321309	-3.001600	3.611100	-10.838000	25.370232	0.000401	20.815757
1137.317410	-3.006900	3.612200	-10.861000	25.330160	0.000403	20.818669
1138.324743	-3.012100	3.611300	-10.877000	25.301709	0.000401	20.816656
1139.320341	-2.997000	3.610400	-10.820000	25.331534	0.000402	20.812937
1140.322390	-3.006900	3.610100	-10.854000	25.376868	0.000401	20.820997
1141.326825	-2.984700	3.610800	-10.777000	25.386711	0.000400	20.791526
1142.318132	-3.000000	3.610500	-10.830000	25.393094	0.000399	20.805997
1143.331800	-2.983800	3.610900	-10.773000	25.375580	0.000398	20.809274
1144.326543	-2.996200	3.610200	-10.816000	25.377592	0.000400	20.815560
1145.326944	-2.995600	3.609400	-10.812000	25.379855	0.000399	20.812617
1146.303667	-2.963800	3.610400	-10.700000	25.384552	0.000396	20.799791
1147.320652	-2.992900	3.609200	-10.801000	25.361284	0.000398	20.809618
1148.326964	-3.008600	3.608300	-10.854000	25.327266	0.000399	20.808652
1149.330725	-3.004600	3.607600	-10.839000	25.353067	0.000397	20.801842
1150.306797	-2.999700	3.607000	-10.819000	25.316503	0.000398	20.809224
1151.308607	-3.009500	3.607400	-10.856000	25.313375	0.000398	20.808929
1152.305967	-2.982400	3.607100	-10.757000	25.352203	0.000396	20.786749
1153.305196	-2.989500	3.606700	-10.782000	25.387105	0.000397	20.792871
1154.307282	-2.968400	3.607600	-10.707000	25.351958	0.000395	20.774175
1155.325842	-3.025100	3.606100	-10.908000	25.368902	0.000394	20.769377
1156.325323	-3.010700	3.605900	-10.856000	25.399407	0.000394	20.815180
1157.309659	-3.006300	3.605000	-10.837000	25.405171	0.000393	20.802951
1158.307493	-2.994200	3.604900	-10.793000	25.428659	0.000395	20.795716
1159.307598	-3.028100	3.604000	-10.913000	25.382162	0.000394	20.797391
1160.309611	-3.008600	3.604600	-10.843000	25.412887	0.000393	20.774188
1161.308769	-3.005200	3.604700	-10.832000	25.355204	0.000393	20.768425
1162.313627	-2.996600	3.603300	-10.796000	25.357988	0.000393	20.785919
1163.325793	-2.978100	3.605000	-10.734000	25.348152	0.000391	20.775094
1164.329348	-3.020500	3.603100	-10.882000	25.365697	0.000390	20.754305
1165.317055	-3.001600	3.601600	-10.810000	25.409448	0.000392	20.792547
1166.310013	-2.987200	3.602600	-10.761000	25.387727	0.000391	20.780693
1167.310543	-2.991000	3.601500	-10.771000	25.392553	0.000390	20.786488
1168.324557	-3.014600	3.602800	-10.859000	25.361038	0.000389	20.778076
1169.329653	-2.998500	3.602200	-10.801000	25.402519	0.000392	20.770890
1170.309369	-2.995300	3.601600	-10.786000	25.415299	0.000389	20.792732
1171.333664	-2.978100	3.600700	-10.723000	25.393302	0.000391	20.781549
1172.332681	-3.006300	3.600500	-10.824000	25.398080	0.000389	20.771648
1173.315010	-3.009000	3.600100	-10.832000	25.377449	0.000390	20.771321
1174.312478	-3.016400	3.598900	-10.855000	25.416030	0.000390	20.777819
1175.338145	-3.012000	3.599200	-10.840000	25.399877	0.000391	20.768711
1176.338459	-2.999200	3.599000	-10.794000	25.352337	0.000390	20.761279
1177.333662	-2.987900	3.598400	-10.750000	25.325745	0.000387	20.780572
1178.331623	-2.999800	3.598900	-10.795000	25.346818	0.000387	20.773755
1179.327704	-2.994800	3.599700	-10.779000	25.361359	0.000386	20.775553
1180.332211	-2.999000	3.598900	-10.792000	25.421826	0.000386	20.769414
1181.334894	-3.008100	3.598300	-10.823000	25.447079	0.000387	20.790979
1182.314567	-2.995400	3.597200	-10.774000	25.384798	0.000387	20.768743
1183.339559	-2.990800	3.597800	-10.760000	25.408156	0.000387	20.785560
1184.337913	-3.010000	3.596700	-10.825000	25.396285	0.000386	20.770794
1185.335476	-2.992900	3.598200	-10.767000	25.373091	0.000385	20.759832
1186.342159	-2.991400	3.596800	-10.759000	25.348805	0.000386	20.777647
1187.337602	-3.005900	3.597600	-10.813000	25.397971	0.000386	20.762055
1188.316752	-3.019800	3.595600	-10.857000	25.424953	0.000387	20.756906
1189.338053	-3.001300	3.595700	-10.791000	25.413645	0.000387	20.761673
1190.317730	-3.025300	3.595100	-10.875000	25.408248	0.000385	20.770478
1191.334950	-3.006600	3.594300	-10.806000	25.404652	0.000386	20.777300
1192.320450	-3.003900	3.594300	-10.796000	25.437356	0.000386	20.752292
1193.317458	-3.013000	3.594100	-10.829000	25.431089	0.000384	20.780612
1194.318385	-3.017900	3.594100	-10.846000	25.428592	0.000386	20.761035
1195.317101	-2.990200	3.593500	-10.745000	25.435458	0.000384	20.763663
1196.320486	-2.995800	3.594100	-10.766000	25.467763	0.000384	20.754376
1197.319409	-3.001500	3.594300	-10.787000	25.498814	0.000382	20.769438
1198.321277	-3.002000	3.593100	-10.785000	25.515732	0.000382	20.782634
1199.320163	-2.998900	3.593400	-10.775000	25.473248	0.000382	20.762256
1200.322007	-2.997000	3.592900	-10.768000	25.462344	0.000384	20.763159
1201.320614	-3.019900	3.591400	-10.845000	25.465177	0.000381	20.751779
1202.344475	-2.996200	3.591700	-10.761000	25.463023	0.000381	20.768583
1203.344709	-2.998700	3.590300	-10.766000	25.476353	0.000383	20.771538
1204.343184	-2.993300	3.591000	-10.748000	25.470894	0.000383	20.764633
1205.353431	-3.014100	3.591500	-10.823000	25.515638	0.000379	20.773057
1206.338370	-3.002200	3.590700	-10.779000	25.516373	0.000379	20.759096
1207.340274	-2.963300	3.590800	-10.640000	25.529556	0.000380	20.768067
1208.349359	-2.986300	3.589700	-10.719000	25.464255	0.000380	20.765553
1209.341945	-2.974200	3.590000	-10.676000	25.478432	0.000379	20.793540
1210.341196	-2.984600	3.590200	-10.714000	25.443999	0.000379	20.767023
1211.357000	-2.994400	3.588600	-10.745000	25.432831	0.000379	20.790896
1212.340820	-2.999700	3.588800	-10.765000	25.444279	0.000378	20.768253
1213.342768	-3.023400	3.588000	-10.847000	25.450975	0.000377	20.782089
1214.342946	-3.014000	3.587000	-10.811000	25.482328	0.000376	20.772796
1215.340776	-3.013900	3.588200	-10.813000	25.506549	0.000378	20.775308
1216.327452	-3.026000	3.585900	-10.850000	25.526072	0.000377	20.773103
1217.325701	-3.004600	3.587300	-10.777000	25.558790	0.000376	20.764235
1218.330983	-2.994800	3.586700	-10.741000	25.544221	0.000374	20.769044
1219.345262	-3.004800	3.585800	-10.773000	25.553350	0.000373	20.767306
1220.344728	-2.981000	3.585200	-10.687000	25.522881	0.000373	20.778908
1221.330316	-2.993300	3.585100	-10.730000	25.526155	0.000372	20.776506
1222.326967	-2.989900	3.585100	-10.718000	25.547524	0.000372	20.759559
1223.326761	-2.997300	3.584600	-10.744000	25.527541	0.000372	20.775052
1224.326584	-3.011900	3.584500	-10.796000	25.541171	0.000372	20.760291
1225.350758	-2.972200	3.584800	-10.654000	25.525681	0.000369	20.750899
1226.344193	-3.009100	3.583900	-10.783000	25.509107	0.000372	20.747056
1227.354279	-2.988600	3.584600	-10.713000	25.510419	0.000370	20.744106
1228.358092	-2.994900	3.583400	-10.731000	25.525497	0.000369	20.745972
1229.353841	-3.014400	3.584100	-10.802000	25.501018	0.000370	20.756003
1230.352240	-2.986700	3.583900	-10.703000	25.459664	0.000369	20.750036
1231.348295	-3.016300	3.583000	-10.806000	25.413530	0.000369	20.754919
1232.354121	-3.006100	3.580900	-10.764000	25.474362	0.000369	20.763374
1233.358624	-2.997000	3.581400	-10.733000	25.476961	0.000369	20.766458
1234.336132	-2.999300	3.582000	-10.742000	25.455395	0.000368	20.758077
1235.358843	-3.010700	3.580300	-10.778000	25.467696	0.000370	20.765689
1236.350485	-2.994600	3.582700	-10.728000	25.437071	0.000367	20.756747
1237.335096	-3.001800	3.579300	-10.743000	25.477102	0.000367	20.771815
1238.354649	-2.994700	3.580300	-10.721000	25.506075	0.000367	20.763453
1239.352710	-2.999300	3.580900	-10.739000	25.508761	0.000366	20.749554
1240.334936	-2.982600	3.580500	-10.678000	25.532117	0.000367	20.746930
1241.355000	-2.987000	3.579200	-10.690000	25.541333	0.000365	20.753815
1242.355122	-3.007900	3.577700	-10.760000	25.521251	0.000365	20.767313
1243.364137	-3.021700	3.577200	-10.807000	25.462206	0.000368	20.741683
1244.348531	-2.986500	3.578600	-10.687000	25.468639	0.000365	20.747195
1245.356558	-2.992500	3.577100	-10.704000	25.475077	0.000364	20.742755
1246.353220	-2.994100	3.578500	-10.713000	25.466995	0.000364	20.767356
1247.351211	-2.994300	3.578400	-10.714000	25.421690	0.000363	20.757423
1248.353585	-3.013900	3.578100	-10.783000	25.445569	0.000366	20.767177
1249.348713	-2.994300	3.577500	-10.711000	25.489328	0.000363	20.749479
1250.335314	-3.011200	3.576000	-10.768000	25.444226	0.000363	20.754923
1251.354631	-3.012400	3.576300	-10.773000	25.485795	0.000363	20.752096
1252.351635	-2.996800	3.576000	-10.715000	25.507809	0.000362	20.745753
1253.361508	-2.989200	3.576700	-10.690000	25.528982	0.000363	20.749472
1254.339432	-2.986500	3.575300	-10.677000	25.551792	0.000363	20.751517
1255.353079	-2.971900	3.575400	-10.624000	25.537873	0.000361	20.756030
1256.356163	-3.002300	3.574400	-10.731000	25.501566	0.000359	20.757976
1257.352877	-2.995400	3.575200	-10.708000	25.488070	0.000361	20.733516
1258.363182	-3.012500	3.575100	-10.769000	25.499794	0.000360	20.747661
1259.339161	-3.009500	3.573000	-10.752000	25.481453	0.000359	20.737303
1260.337814	-2.995500	3.573900	-10.705000	25.528001	0.000360	20.759392
1261.338716	-2.999800	3.572700	-10.716000	25.543410	0.000359	20.730295
1262.342273	-2.994000	3.572200	-10.694000	25.506183	0.000360	20.745069
1263.357521	-3.011200	3.571700	-10.754000	25.503117	0.000358	20.756689
1264.358872	-2.997600	3.573200	-10.710000	25.471366	0.000358	20.744718
1265.354807	-3.024500	3.570500	-10.797000	25.449664	0.000360	20.749952
1266.356410	-3.019300	3.571100	-10.781000	25.476253	0.000357	20.770489
1267.360559	-2.981200	3.571400	-10.646000	25.476903	0.000356	20.733682
1268.362504	-3.009200	3.570500	-10.744000	25.451399	0.000357	20.739840
1269.355762	-3.008800	3.571100	-10.743000	25.465068	0.000357	20.743609
1270.359025	-3.005000	3.570400	-10.727000	25.487879	0.000356	20.748498
1271.369973	-3.010800	3.571000	-10.750000	25.503859	0.000355	20.754588
1272.360587	-2.983600	3.570600	-10.652000	25.563944	0.000355	20.729580
1273.357415	-2.993800	3.570000	-10.687000	25.569046	0.000354	20.742291
1274.357673	-2.994600	3.569200	-10.687000	25.582829	0.000355	20.734796
1275.360314	-2.996600	3.568200	-10.691000	25.570057	0.000352	20.749945
1276.358505	-2.992900	3.568800	-10.680000	25.598661	0.000352	20.734575
1277.360540	-2.996800	3.567500	-10.690000	25.580990	0.000352	20.735320
1278.367208	-2.990400	3.568000	-10.669000	25.592817	0.000351	20.769010
1279.360686	-3.017900	3.566500	-10.762000	25.544782	0.000354	20.737364
1280.345967	-3.010200	3.566900	-10.736000	25.510647	0.000350	20.733904
1281.344614	-2.980400	3.568400	-10.634000	25.488474	0.000352	20.714480
1282.345792	-3.017300	3.565400	-10.757000	25.498266	0.000351	20.721470
1283.365936	-3.015400	3.564800	-10.749000	25.479901	0.000353	20.718200
1284.345596	-3.009900	3.565400	-10.730000	25.536854	0.000352	20.724660
1285.365813	-2.991700	3.566600	-10.669000	25.510175	0.000351	20.726317
1286.368857	-3.010100	3.564400	-10.728000	25.507262	0.000350	20.723865
1287.374568	-3.009600	3.563900	-10.725000	25.488228	0.000348	20.727037
1288.349772	-2.987000	3.566200	-10.652000	25.479429	0.000349	20.733848
1289.350412	-2.973900	3.565500	-10.602000	25.531569	0.000348	20.730732
1290.348767	-2.987900	3.564200	-10.649000	25.577562	0.000348	20.720971
1291.350970	-3.016800	3.564200	-10.752000	25.611604	0.000348	20.722443
1292.348535	-3.004400	3.563400	-10.705000	25.638220	0.000348	20.737321
1293.349214	-3.000500	3.562700	-10.689000	25.586833	0.000347	20.726489
1294.368855	-2.994200	3.563200	-10.667000	25.610040	0.000346	20.706647
1295.350005	-2.994600	3.562400	-10.667000	25.542312	0.000346	20.738202
1296.376769	-2.989800	3.561200	-10.646000	25.512627	0.000345	20.720244
1297.367294	-3.028400	3.561500	-10.785000	25.511168	0.000344	20.740591
1298.377760	-3.009900	3.561700	-10.720000	25.538437	0.000344	20.708230
1299.372837	-2.985100	3.562700	-10.634000	25.546512	0.000343	20.716815
1300.382572	-3.008000	3.560900	-10.711000	25.533384	0.000344	20.726391
1301.366061	-3.020200	3.561500	-10.755000	25.486297	0.000346	20.733159
1302.378185	-2.997200	3.559700	-10.669000	25.468600	0.000344	20.717283
1303.368761	-3.012600	3.560200	-10.724000	25.460052	0.000345	20.723398
1304.351377	-2.997700	3.559300	-10.668000	25.479932	0.000344	20.730560
1305.370389	-2.998700	3.559500	-10.673000	25.476651	0.000344	20.684588
1306.368578	-3.012200	3.558200	-10.717000	25.501106	0.000345	20.707251
1307.369041	-2.967600	3.559300	-10.562000	25.550479	0.000340	20.704202
1308.366648	-2.977400	3.560600	-10.601000	25.536370	0.000342	20.711371
1309.370490	-2.987300	3.558700	-10.630000	25.497378	0.000340	20.713464
1310.369194	-2.986300	3.557100	-10.621000	25.466711	0.000340	20.710170
1311.374266	-2.997900	3.557100	-10.663000	25.495041	0.000340	20.714437
1312.372980	-2.983100	3.556900	-10.610000	25.530183	0.000341	20.716063
1313.372098	-3.019000	3.555100	-10.732000	25.562681	0.000341	20.714086
1314.370301	-3.005700	3.556200	-10.688000	25.558267	0.000342	20.722930
1315.385962	-3.013400	3.554500	-10.710000	25.537063	0.000342	20.711118
1316.356625	-2.990900	3.556100	-10.634000	25.535432	0.000338	20.714697
1317.383907	-2.985500	3.555300	-10.613000	25.507526	0.000338	20.703741
1318.358458	-2.979300	3.555900	-10.593000	25.456508	0.000338	20.703716
1319.380846	-3.005900	3.554700	-10.684000	25.416617	0.000338	20.698272
1320.375919	-3.000000	3.554100	-10.660000	25.449026	0.000338	20.688142
1321.358277	-2.988800	3.554900	-10.623000	25.502186	0.000338	20.706438
1322.373060	-2.996400	3.552800	-10.645000	25.488566	0.000338	20.703667
1323.380082	-3.000800	3.553700	-10.663000	25.509967	0.000336	20.696234
1324.375841	-2.991100	3.553100	-10.626000	25.442845	0.000337	20.710860
1325.374862	-2.991600	3.552700	-10.628000	25.414342	0.000336	20.681762
1326.377149	-3.013900	3.552500	-10.706000	25.443496	0.000335	20.699658
1327.373088	-2.992700	3.552700	-10.632000	25.496373	0.000335	20.703920
1328.357451	-3.005700	3.551900	-10.675000	25.522942	0.000334	20.694565
1329.358588	-3.002400	3.552600	-10.665000	25.564760	0.000335	20.683456
1330.359140	-3.011600	3.550400	-10.692000	25.579893	0.000334	20.693912
1331.392544	-3.010100	3.551400	-10.690000	25.572591	0.000332	20.706494
1332.362233	-2.977900	3.550700	-10.573000	25.515965	0.000335	20.673331
1333.375525	-3.012400	3.550000	-10.693000	25.512481	0.000333	20.693543
1334.379414	-2.982400	3.550600	-10.589000	25.546777	0.000332	20.680093
1335.380473	-2.987200	3.550100	-10.604000	25.557164	0.000332	20.680568
1336.378628	-2.981300	3.549600	-10.581000	25.514996	0.000333	20.675204
1337.380930	-3.011800	3.549300	-10.689000	25.559800	0.000329	20.701709
1338.386381	-2.982600	3.549900	-10.587000	25.568366	0.000333	20.702725
1339.379689	-2.999900	3.549100	-10.646000	25.526254	0.000330	20.703107
1340.381323	-2.995800	3.548700	-10.630000	25.544367	0.000332	20.700909
1341.387885	-2.990500	3.547200	-10.607000	25.570047	0.000329	20.680704
1342.363393	-2.996300	3.548100	-10.631000	25.586565	0.000329	20.700613
1343.366338	-3.014200	3.546700	-10.690000	25.549769	0.000329	20.685470
1344.380064	-2.976000	3.545700	-10.550000	25.543307	0.000328	20.686092
1345.366305	-2.996300	3.545700	-10.622000	25.544244	0.000329	20.687982
1346.366217	-3.011600	3.545000	-10.675000	25.580599	0.000328	20.712166
1347.363617	-3.015500	3.546300	-10.693000	25.626621	0.000328	20.683468
1348.365073	-3.013200	3.543300	-10.675000	25.616283	0.000328	20.683043
1349.365027	-2.988900	3.545400	-10.595000	25.595234	0.000328	20.691302
1350.367157	-3.003400	3.544500	-10.645000	25.598895	0.000328	20.711101
1351.365374	-2.986500	3.545500	-10.588000	25.625708	0.000328	20.705313
1352.365541	-3.004800	3.544900	-10.650000	25.555282	0.000327	20.710922
1353.364455	-2.978400	3.545900	-10.560000	25.559261	0.000326	20.684571
1354.365956	-3.014000	3.543400	-10.679000	25.560451	0.000327	20.693827
1355.383732	-3.029100	3.542100	-10.729000	25.610999	0.000328	20.696703
1356.390919	-3.018900	3.542500	-10.693000	25.642654	0.000325	20.702892
1357.389372	-3.009400	3.542800	-10.661000	25.650232	0.000327	20.673991
1358.366954	-2.968300	3.543800	-10.518000	25.637731	0.000327	20.675660
1359.368811	-2.986900	3.542400	-10.580000	25.629656	0.000325	20.703114
1360.366789	-2.988100	3.541200	-10.581000	25.583266	0.000325	20.700146
1361.370547	-2.982900	3.542000	-10.564000	25.565620	0.000324	20.694751
1362.367712	-2.988000	3.541900	-10.583000	25.555233	0.000324	20.706131
1363.393249	-3.010400	3.540600	-10.658000	25.538064	0.000324	20.685569
1364.389149	-2.984600	3.541100	-10.568000	25.554582	0.000324	20.698365
1365.384514	-3.012800	3.540200	-10.665000	25.600207	0.000325	20.697719
1366.369320	-2.996100	3.540000	-10.606000	25.602151	0.000323	20.682600
1367.389807	-2.990300	3.540000	-10.585000	25.614101	0.000323	20.706458
1368.385587	-2.989800	3.538900	-10.580000	25.580924	0.000321	20.687835
1369.397122	-3.016500	3.538500	-10.673000	25.549438	0.000321	20.699363
1370.389252	-3.024600	3.538300	-10.701000	25.534648	0.000321	20.695415
1371.388905	-2.978200	3.538800	-10.538000	25.544661	0.000320	20.703575
1372.376836	-2.988700	3.538100	-10.574000	25.599508	0.000321	20.698439
1373.390224	-2.990000	3.537900	-10.577000	25.589188	0.000320	20.681910
1374.391620	-3.010700	3.536200	-10.645000	25.640882	0.000319	20.691628
1375.391576	-2.983800	3.537600	-10.555000	25.559322	0.000319	20.690797
1376.388995	-2.993000	3.535600	-10.581000	25.592542	0.000319	20.685753
1377.376188	-2.977800	3.535600	-10.527000	25.635473	0.000318	20.697576
1378.374016	-3.017500	3.534900	-10.666000	25.570825	0.000318	20.692391
1379.374079	-3.001400	3.534200	-10.607000	25.501542	0.000318	20.707214
1380.391276	-3.000700	3.535300	-10.608000	25.484127	0.000319	20.707270
1381.390542	-3.000900	3.535500	-10.609000	25.441551	0.000319	20.709087
1382.390065	-3.009300	3.533800	-10.634000	25.419358	0.000316	20.714303
1383.403418	-2.993500	3.533500	-10.575000	25.430685	0.000317	20.711925
1384.399307	-2.996100	3.533200	-10.584000	25.451289	0.000316	20.703218
1385.398695	-3.008500	3.532800	-10.627000	25.473034	0.000318	20.691862
1386.396568	-2.973700	3.534900	-10.510000	25.481956	0.000316	20.701296
1387.376741	-2.993200	3.532500	-10.573000	25.524548	0.000315	20.705188
1388.398109	-3.018900	3.531500	-10.660000	25.565073	0.000316	20.697521
1389.391575	-3.012600	3.531700	-10.639000	25.595547	0.000313	20.706790
1390.374743	-2.987700	3.532900	-10.555000	25.584209	0.000314	20.693031
1391.375118	-3.001100	3.532100	-10.600000	25.570867	0.000316	20.713773
1392.393540	-2.997600	3.530400	-10.582000	25.585699	0.000316	20.705909
1393.397997	-2.988200	3.531400	-10.552000	25.566986	0.000313	20.711297
1394.380556	-3.006400	3.531700	-10.617000	25.549768	0.000312	20.690685
1395.391128	-3.006800	3.529600	-10.611000	25.558334	0.000314	20.727739
1396.394813	-2.997400	3.529200	-10.578000	25.542851	0.000312	20.723570
1397.395178	-2.989600	3.531300	-10.555000	25.549412	0.000312	20.716408
1398.399306	-2.995500	3.530300	-10.574000	25.537265	0.000311	20.708002
1399.393856	-2.992300	3.527500	-10.554000	25.555029	0.000313	20.710669
1400.403193	-3.018100	3.528000	-10.646000	25.568003	0.000313	20.704258
1401.400499	-3.014000	3.527000	-10.630000	25.604749	0.000311	20.716032
1402.396269	-2.989400	3.527900	-10.546000	25.652278	0.000312	20.693117
1403.393198	-3.004700	3.527700	-10.598000	25.619255	0.000310	20.694090
1404.382136	-2.987200	3.525500	-10.530000	25.626865	0.000308	20.715010
1405.397431	-2.995100	3.527500	-10.563000	25.590328	0.000310	20.702022
1406.395951	-3.009900	3.526200	-10.613000	25.560786	0.000310	20.715977
1407.405946	-2.993200	3.525600	-10.553000	25.572117	0.000310	20.708390
1408.397690	-2.960800	3.525900	-10.438000	25.588911	0.000309	20.700599
1409.402978	-2.971400	3.526400	-10.477000	25.561245	0.000308	20.698419
1410.400343	-2.975500	3.527000	-10.494000	25.589782	0.000309	20.707164
1411.399701	-2.998900	3.525100	-10.571000	25.570523	0.000307	20.713901
1412.401494	-3.016400	3.524300	-10.629000	25.526387	0.000311	20.715570
1413.405720	-2.992300	3.523900	-10.544000	25.528870	0.000307	20.721857
1414.381214	-3.010000	3.524300	-10.607000	25.509941	0.000308	20.710434
1415.383668	-3.008100	3.523200	-10.597000	25.542587	0.000307	20.722356
1416.382089	-2.994000	3.522900	-10.546000	25.573129	0.000307	20.716518
1417.382443	-3.006200	3.522600	-10.589000	25.549620	0.000307	20.703339
1418.381617	-3.022800	3.521600	-10.644000	25.506599	0.000306	20.727467
1419.410969	-3.004000	3.521700	-10.577000	25.502202	0.000305	20.714517
1420.384082	-3.027600	3.520900	-10.659000	25.579407	0.000306	20.725195
1421.382417	-3.018800	3.520700	-10.628000	25.613951	0.000305	20.739500
1422.383281	-2.984600	3.520500	-10.506000	25.664687	0.000306	20.741619
1423.383183	-2.985200	3.521800	-10.512000	25.641530	0.000305	20.706030
1424.386649	-2.999800	3.520200	-10.559000	25.629059	0.000306	20.730017
1425.384218	-2.978500	3.519500	-10.482000	25.604859	0.000305	20.721359
1426.383956	-2.995300	3.519100	-10.539000	25.551036	0.000304	20.707607
1427.384079	-3.003900	3.519600	-10.571000	25.602572	0.000304	20.740874
1428.419866	-3.007800	3.517900	-10.580000	25.616563	0.000303	20.718889
1429.401064	-2.996800	3.518800	-10.544000	25.593227	0.000301	20.730066
1430.400620	-3.004900	3.516500	-10.565000	25.556101	0.000301	20.739722
1431.402061	-2.971700	3.519900	-10.459000	25.530409	0.000301	20.720084
1432.401740	-3.011400	3.516300	-10.588000	25.547081	0.000301	20.730189
1433.398594	-3.000900	3.517000	-10.553000	25.546462	0.000302	20.736206
1434.402121	-2.992100	3.517800	-10.525000	25.565672	0.000301	20.717565
1435.400675	-3.004800	3.516200	-10.565000	25.528226	0.000302	20.725004
1436.400927	-3.034000	3.514500	-10.663000	25.522554	0.000299	20.725946
1437.384146	-3.031300	3.515500	-10.655000	25.497334	0.000301	20.741871
1438.385408	-3.029100	3.515000	-10.646000	25.481759	0.000300	20.728127
1439.385170	-3.015000	3.514700	-10.596000	25.496960	0.000300	20.732960
1440.386706	-3.005600	3.515300	-10.564000	25.526405	0.000300	20.750677
1441.383840	-3.014800	3.515300	-10.598000	25.497358	0.000300	20.759440
1442.389465	-2.991700	3.515100	-10.516000	25.500271	0.000301	20.725854
1443.387530	-2.970500	3.515000	-10.440000	25.527852	0.000301	20.733164
1444.407578	-2.982900	3.513700	-10.480000	25.554341	0.000298	20.727997
1445.405572	-2.995200	3.511700	-10.517000	25.584711	0.000298	20.714874
1446.388913	-3.003000	3.511900	-10.545000	25.585379	0.000298	20.726926
1447.404730	-3.015600	3.512400	-10.591000	25.612468	0.000298	20.738485
1448.391276	-2.992800	3.512500	-10.511000	25.635056	0.000297	20.748369
1449.400768	-3.021300	3.511700	-10.609000	25.705476	0.000296	20.741336
1450.406017	-2.992900	3.512300	-10.511000	25.604074	0.000297	20.718200
1451.391992	-3.008100	3.511600	-10.562000	25.647281	0.000296	20.761122
1452.388986	-2.980800	3.512100	-10.468000	25.630764	0.000295	20.745955
1453.391598	-3.011900	3.511400	-10.575000	25.574883	0.000295	20.732980
1454.389288	-3.006600	3.510800	-10.554000	25.532789	0.000293	20.749502
1455.405604	-2.998500	3.510500	-10.525000	25.477676	0.000293	20.735881
1456.390439	-2.978900	3.509700	-10.454000	25.515774	0.000291	20.726723
1457.391328	-3.002300	3.509700	-10.537000	25.571210	0.000294	20.760587
1458.393994	-2.996400	3.507900	-10.510000	25.600513	0.000294	20.739280
1459.391100	-2.987300	3.509000	-10.482000	25.568881	0.000294	20.753980
1460.390708	-3.001500	3.507500	-10.527000	25.543784	0.000293	20.752009
1461.391122	-2.994700	3.506600	-10.500000	25.547592	0.000292	20.736392
1462.391240	-3.013600	3.506900	-10.567000	25.532532	0.000294	20.738338
1463.393993	-3.002800	3.507100	-10.530000	25.595203	0.000289	20.758130
1464.412217	-3.010900	3.506000	-10.555000	25.618858	0.000291	20.765766
1465.421590	-3.024500	3.505500	-10.602000	25.661801	0.000294	20.751049
1466.412627	-3.001700	3.505900	-10.522000	25.675964	0.000291	20.749626
1467.415905	-2.995300	3.505300	-10.498000	25.690353	0.000292	20.745113
1468.412787	-3.013500	3.504400	-10.560000	25.672739	0.000290	20.745913
1469.399194	-3.001700	3.503200	-10.514000	25.652194	0.000290	20.752306
1470.410753	-3.011100	3.504900	-10.553000	25.621557	0.000290	20.759942
1471.409444	-3.015800	3.503600	-10.566000	25.630153	0.000290	20.754824
1472.421528	-3.006600	3.504400	-10.536000	25.630796	0.000290	20.768273
1473.411157	-3.010400	3.502700	-10.544000	25.619227	0.000290	20.747644
1474.413249	-3.010300	3.502700	-10.543000	25.599325	0.000291	20.771753
1475.414539	-2.977200	3.502600	-10.427000	25.596468	0.000287	20.740433
1476.414136	-3.003900	3.502600	-10.520000	25.583843	0.000291	20.752885
1477.397422	-2.991700	3.501900	-10.475000	25.607529	0.000288	20.743482
1478.412836	-3.010000	3.501800	-10.538000	25.591526	0.000291	20.743531
1479.422524	-2.986200	3.502100	-10.456000	25.666419	0.000286	20.771335
1480.417390	-2.971200	3.501900	-10.404000	25.686945	0.000286	20.757338
1481.422934	-3.004000	3.501200	-10.516000	25.722473	0.000286	20.780695
1482.424761	-2.989700	3.501000	-10.466000	25.677203	0.000288	20.751820
1483.398733	-2.997100	3.499900	-10.488000	25.622538	0.000286	20.748599
1484.399299	-2.995900	3.499900	-10.485000	25.615641	0.000288	20.774390
1485.405857	-3.003900	3.499200	-10.511000	25.597921	0.000288	20.743316
1486.400179	-2.991300	3.499800	-10.468000	25.571605	0.000284	20.771889
1487.400865	-3.016000	3.498100	-10.550000	25.589154	0.000287	20.776237
1488.405692	-3.003500	3.498100	-10.506000	25.596579	0.000287	20.759512
1489.402670	-2.994900	3.498800	-10.478000	25.605800	0.000284	20.774938
1490.402358	-3.011400	3.497000	-10.530000	25.581195	0.000283	20.782468
1491.405096	-3.000500	3.498700	-10.497000	25.544337	0.000283	20.767738
1492.401246	-2.998500	3.496600	-10.483000	25.546012	0.000285	20.761359
1493.401121	-2.998500	3.497400	-10.486000	25.566786	0.000281	20.757566
1494.404766	-3.003700	3.496500	-10.501000	25.594635	0.000284	20.750447
1495.423135	-3.013800	3.496900	-10.538000	25.592354	0.000281	20.778503
1496.406887	-3.005000	3.496000	-10.504000	25.626867	0.000284	20.776655
1497.403947	-3.001700	3.496200	-10.494000	25.660184	0.000282	20.761279
1498.404105	-2.990600	3.494800	-10.450000	25.671091	0.000282	20.770811
1499.408375	-3.002300	3.494100	-10.490000	25.678785	0.000280	20.769530
1500.420053	-3.005300	3.494000	-10.500000	25.676259	0.000280	20.764148
1501.405849	-3.008900	3.495000	-10.515000	25.709028	0.000281	20.773829
1502.404170	-2.985600	3.493800	-10.430000	25.759839	0.000280	20.789778
1503.404357	-3.002200	3.493300	-10.486000	25.736132	0.000281	20.772129
1504.423378	-3.018600	3.493900	-10.546000	25.689373	0.000279	20.781587
1505.420570	-2.984400	3.494200	-10.427000	25.634279	0.000281	20.778409
1506.403956	-2.998300	3.494300	-10.476000	25.626155	0.000279	20.788268
1507.406276	-2.981800	3.493900	-10.417000	25.654401	0.000278	20.779179
1508.404258	-3.003300	3.490800	-10.482000	25.679348	0.000280	20.767251
1509.403543	-2.984700	3.491400	-10.420000	25.694731	0.000278	20.788866
1510.409389	-2.988600	3.490700	-10.431000	25.731000	0.000276	20.790208
1511.418714	-2.967900	3.492900	-10.365000	25.758005	0.000278	20.778452
1512.407235	-3.028000	3.490500	-10.568000	25.737161	0.000278	20.788810
1513.419333	-2.998000	3.489900	-10.462000	25.749103	0.000279	20.788003
1514.422306	-2.998000	3.491000	-10.466000	25.702093	0.000278	20.793415
1515.423201	-2.998600	3.490100	-10.465000	25.665743	0.000278	20.777768
1516.405515	-3.010000	3.490300	-10.505000	25.629864	0.000275	20.776820
1517.407506	-2.995700	3.490300	-10.455000	25.688525	0.000277	20.788797
1518.414343	-3.007100	3.488900	-10.490000	25.685760	0.000275	20.794554
1519.422809	-3.013200	3.487700	-10.509000	25.696894	0.000276	20.793409
1520.426594	-3.004800	3.487600	-10.478000	25.639845	0.000276	20.806759
1521.411541	-2.986700	3.489400	-10.421000	25.663370	0.000277	20.797670
1522.408894	-2.982900	3.488200	-10.404000	25.665153	0.000275	20.805151
1523.416890	-3.011600	3.487100	-10.501000	25.708910	0.000275	20.794098
1524.426730	-2.986500	3.485700	-10.408000	25.704980	0.000275	20.817177
1525.408986	-3.030100	3.486100	-10.562000	25.712061	0.000274	20.784935
1526.409904	-3.008200	3.487700	-10.491000	25.716897	0.000274	20.820139
1527.409884	-3.001200	3.486700	-10.463000	25.725346	0.000274	20.797330
1528.411322	-2.995100	3.485400	-10.438000	25.716296	0.000274	20.806733
1529.425343	-3.005200	3.485200	-10.473000	25.723678	0.000271	20.808932
1530.424131	-3.003000	3.484500	-10.463000	25.725713	0.000273	20.805760
1531.409710	-3.024000	3.484800	-10.537000	25.719398	0.000271	20.804633
1532.433177	-2.979700	3.484500	-10.382000	25.737631	0.000273	20.813463
1533.432213	-2.984800	3.484500	-10.400000	25.766702	0.000272	20.831758
1534.433398	-3.003300	3.483600	-10.461000	25.778447	0.000272	20.817004
1535.428814	-2.978300	3.484200	-10.376000	25.794546	0.000272	20.797139
1536.432439	-3.019900	3.482300	-10.515000	25.791511	0.000270	20.807367
1537.415268	-3.017200	3.481200	-10.502000	25.810938	0.000271	20.820717
1538.413549	-3.025200	3.481000	-10.530000	25.768455	0.000270	20.809337
1539.429352	-2.999300	3.482800	-10.446000	25.700723	0.000269	20.820489
1540.439153	-3.022400	3.481100	-10.521000	25.652945	0.000270	20.822287
1541.429948	-2.990100	3.480900	-10.406000	25.625728	0.000269	20.812021
1542.436677	-3.015500	3.481800	-10.498000	25.603650	0.000269	20.823986
1543.413176	-2.993100	3.480600	-10.417000	25.630008	0.000269	20.827699
1544.437497	-2.983300	3.481500	-10.385000	25.678358	0.000268	20.820784
1545.416381	-3.005200	3.480000	-10.457000	25.662779	0.000268	20.834534
1546.415036	-3.006500	3.480400	-10.462000	25.680442	0.000269	20.821929
1547.415448	-3.056800	3.478500	-10.632000	25.652957	0.000268	20.819928
1548.416975	-2.988000	3.479700	-10.397000	25.651302	0.000268	20.831068
1549.415676	-3.001400	3.479200	-10.442000	25.692765	0.000268	20.821030
1550.418128	-3.004100	3.478600	-10.449000	25.668217	0.000265	20.830039
1551.416303	-3.002700	3.479300	-10.446000	25.656397	0.000267	20.822434
1552.435207	-3.011400	3.476900	-10.470000	25.670479	0.000265	20.821406
1553.416682	-2.975900	3.477500	-10.348000	25.659824	0.000266	20.831566
1554.417152	-2.992600	3.477700	-10.406000	25.637237	0.000264	20.794657
1555.417285	-3.014900	3.476700	-10.481000	25.646532	0.000265	20.832441
1556.417383	-3.003100	3.476600	-10.440000	25.664146	0.000265	20.816468
1557.417031	-3.008000	3.475700	-10.453000	25.638524	0.000264	20.822976
1558.416832	-2.997500	3.475000	-10.415000	25.693691	0.000265	20.827176
1559.432929	-3.001800	3.476700	-10.435000	25.706039	0.000264	20.809706
1560.416216	-2.995000	3.474000	-10.403000	25.660173	0.000263	20.826702
1561.420804	-2.989700	3.473700	-10.385000	25.625067	0.000262	20.834116
1562.438676	-3.005400	3.474500	-10.440000	25.689817	0.000264	20.844621
1563.439650	-3.022600	3.473700	-10.499000	25.697977	0.000265	20.828162
1564.436628	-2.992400	3.473100	-10.392000	25.743289	0.000262	20.849491
1565.435662	-3.004100	3.473600	-10.434000	25.771440	0.000264	20.846948
1566.439754	-2.991000	3.473500	-10.388000	25.713825	0.000262	20.823217
1567.435626	-2.995000	3.472800	-10.401000	25.675888	0.000262	20.827312
1568.436612	-3.003500	3.471900	-10.426000	25.669002	0.000262	20.849319
1569.440521	-2.975800	3.472100	-10.331000	25.715370	0.000261	20.831881
1570.436290	-2.999700	3.472400	-10.415000	25.724315	0.000261	20.829012
1571.417912	-3.001900	3.472500	-10.423000	25.712839	0.000261	20.833131
1572.444698	-3.008600	3.470800	-10.441000	25.695770	0.000259	20.839221
1573.447980	-2.992300	3.470400	-10.384000	25.673503	0.000260	20.853839
1574.419346	-2.997700	3.470700	-10.403000	25.642498	0.000258	20.853993
1575.420962	-2.979400	3.470700	-10.340000	25.648531	0.000259	20.837293
1576.419940	-2.997100	3.469500	-10.398000	25.679916	0.000259	20.841314
1577.438701	-2.998800	3.470000	-10.405000	25.715965	0.000258	20.845280
1578.439713	-2.994900	3.468300	-10.386000	25.721710	0.000257	20.853420
1579.438865	-3.005500	3.468700	-10.424000	25.728018	0.000258	20.837946
1580.439748	-3.027500	3.468900	-10.501000	25.750254	0.000258	20.843211
1581.420313	-2.997900	3.467900	-10.395000	25.783346	0.000258	20.845631
1582.440539	-3.001100	3.468200	-10.407000	25.796091	0.000256	20.858907
1583.439703	-2.993700	3.467900	-10.380000	25.746030	0.000255	20.839917
1584.438932	-2.998100	3.468000	-10.396000	25.705187	0.000255	20.855791
1585.420767	-2.993000	3.467200	-10.377000	25.719325	0.000254	20.859559
1586.422142	-3.014900	3.465300	-10.447000	25.716192	0.000257	20.854042
1587.419585	-3.031700	3.466300	-10.508000	25.699197	0.000253	20.846930
1588.442412	-3.001300	3.466500	-10.403000	25.699277	0.000255	20.865027
1589.422158	-3.012700	3.464400	-10.436000	25.668831	0.000254	20.845828
1590.422595	-3.001100	3.465000	-10.397000	25.713482	0.000255	20.850372
1591.426146	-2.989500	3.465300	-10.359000	25.743326	0.000253	20.838150
1592.431319	-3.002800	3.464900	-10.404000	25.749960	0.000255	20.842916
1593.427020	-3.002900	3.463100	-10.399000	25.769289	0.000252	20.850477
1594.423698	-2.995000	3.465200	-10.377000	25.773789	0.000254	20.855471
1595.423066	-2.992600	3.464900	-10.368000	25.769240	0.000253	20.857540
1596.424001	-2.999200	3.463300	-10.386000	25.762337	0.000253	20.828322
1597.423452	-2.992600	3.463700	-10.363000	25.746061	0.000254	20.830939
1598.425901	-2.988700	3.463200	-10.350000	25.781716	0.000253	20.832140
1599.439918	-3.023100	3.461400	-10.463000	25.800198	0.000254	20.868248
1600.448985	-3.011700	3.461200	-10.424000	25.800450	0.000252	20.835785
1601.448476	-2.993700	3.463000	-10.366000	25.817044	0.000253	20.840127
1602.446275	-3.006000	3.460600	-10.402000	25.805072	0.000250	20.844221
1603.441783	-2.995000	3.461100	-10.365000	25.768725	0.000251	20.839954
1604.429245	-3.015300	3.460200	-10.433000	25.772900	0.000250	20.841303
1605.426282	-3.003800	3.461600	-10.396000	25.797023	0.000252	20.841826
1606.425408	-3.004700	3.460100	-10.395000	25.805397	0.000250	20.835539
1607.425689	-3.003800	3.460900	-10.395000	25.790789	0.000249	20.818969
1608.425562	-2.997500	3.459800	-10.369000	25.836103	0.000251	20.825607
1609.429553	-2.975100	3.459100	-10.289000	25.837568	0.000249	20.844622
1610.429300	-2.974200	3.459600	-10.289000	25.820250	0.000250	20.825330
1611.427134	-2.999500	3.459200	-10.375000	25.823603	0.000248	20.823482
1612.428523	-3.005800	3.457700	-10.393000	25.812348	0.000250	20.828772
1613.428299	-3.001700	3.458100	-10.380000	25.778282	0.000250	20.824898
1614.447390	-2.991200	3.458000	-10.343000	25.748225	0.000246	20.822208
1615.444409	-2.982000	3.458400	-10.312000	25.724972	0.000248	20.810231
1616.429298	-2.993700	3.457500	-10.350000	25.758058	0.000246	20.832558
1617.448066	-3.005600	3.457500	-10.390000	25.782954	0.000245	20.838599
1618.432300	-3.002000	3.456000	-10.374000	25.788440	0.000246	20.815188
1619.431925	-2.973900	3.457500	-10.282000	25.806702	0.000245	20.812195
1620.433764	-2.988400	3.455700	-10.326000	25.815346	0.000248	20.836524
1621.449605	-2.999600	3.455700	-10.365000	25.822457	0.000246	20.816641
1622.450375	-3.016500	3.455000	-10.420000	25.794975	0.000245	20.823648
1623.450925	-3.005500	3.456700	-10.387000	25.826779	0.000244	20.820034
1624.451493	-3.012400	3.454400	-10.405000	25.799475	0.000244	20.821530
1625.434834	-3.008600	3.455000	-10.394000	25.814457	0.000246	20.829942
1626.450460	-3.011900	3.454200	-10.403000	25.781838	0.000246	20.839375
1627.434819	-3.020000	3.454000	-10.430000	25.717020	0.000242	20.822633
1628.460234	-2.994600	3.453100	-10.340000	25.648795	0.000243	20.824283
1629.456343	-2.997500	3.452700	-10.349000	25.628305	0.000244	20.808446
1630.451161	-2.996500	3.452700	-10.345000	25.706040	0.000244	20.826777
1631.436777	-3.029000	3.451800	-10.454000	25.695287	0.000242	20.831149
1632.452153	-3.009400	3.451500	-10.386000	25.724555	0.000241	20.825459
1633.456981	-2.976600	3.453300	-10.278000	25.744388	0.000242	20.805552
1634.463977	-2.994700	3.451100	-10.334000	25.713134	0.000242	20.795496
1635.460426	-3.014300	3.451200	-10.402000	25.701357	0.000242	20.804055
1636.438386	-2.988100	3.451600	-10.313000	25.682179	0.000239	20.809450
1637.436332	-3.013100	3.450500	-10.395000	25.713637	0.000242	20.811174
1638.436486	-2.981900	3.451300	-10.291000	25.714042	0.000242	20.812529
1639.436556	-2.992300	3.450900	-10.325000	25.737075	0.000240	20.813853
1640.437304	-3.001700	3.449000	-10.352000	25.780773	0.000241	20.811279
1641.437934	-2.996800	3.450100	-10.339000	25.810364	0.000239	20.803545
1642.451505	-2.992100	3.449600	-10.321000	25.809616	0.000240	20.776241
1643.435923	-2.997900	3.449000	-10.339000	25.818811	0.000239	20.798754
1644.454948	-2.990400	3.448200	-10.310000	25.826664	0.000241	20.825134
1645.453019	-3.005700	3.448600	-10.365000	25.801469	0.000239	20.779911
1646.457981	-3.007900	3.446800	-10.366000	25.740931	0.000238	20.794493
1647.473397	-3.009100	3.448100	-10.375000	25.702670	0.000237	20.806322
1648.455522	-2.976800	3.447100	-10.260000	25.731018	0.000237	20.800657
1649.457406	-3.005000	3.446800	-10.356000	25.772111	0.000235	20.804001
1650.472654	-3.013000	3.446400	-10.383000	25.756950	0.000235	20.793988
1651.458330	-2.989700	3.447500	-10.306000	25.754768	0.000237	20.805546
1652.459134	-2.992700	3.445900	-10.312000	25.771222	0.000236	20.803582
1653.456472	-3.014000	3.446000	-10.386000	25.804614	0.000236	20.781174
1654.441071	-3.008200	3.444800	-10.361000	25.800439	0.000233	20.795947
1655.471965	-3.013900	3.444500	-10.379000	25.761058	0.000236	20.805226
1656.459962	-3.002200	3.444600	-10.340000	25.752837	0.000236	20.791753
1657.459739	-3.008600	3.444600	-10.363000	25.800586	0.000236	20.787086
1658.462443	-3.000000	3.444900	-10.334000	25.763596	0.000235	20.780275
1659.461610	-3.011500	3.443300	-10.369000	25.767103	0.000233	20.790436
1660.463483	-3.002500	3.443100	-10.336000	25.742385	0.000236	20.797850
1661.471278	-2.984000	3.443400	-10.275000	25.741784	0.000234	20.772590
1662.460804	-3.014100	3.442400	-10.374000	25.713313	0.000233	20.790460
1663.466254	-3.006500	3.443000	-10.351000	25.720995	0.000232	20.775891
1664.473392	-3.006800	3.442300	-10.349000	25.755106	0.000234	20.769850
1665.444087	-3.005700	3.441700	-10.343000	25.798558	0.000232	20.803066
1666.460960	-2.997400	3.440200	-10.311000	25.796988	0.000233	20.781574
1667.444130	-3.001900	3.440200	-10.326000	25.810708	0.000231	20.768803
1668.444383	-2.997700	3.440900	-10.313000	25.815624	0.000231	20.790811
1669.445766	-2.981200	3.441100	-10.258000	25.798527	0.000230	20.749928
1670.445188	-3.051100	3.439600	-10.493000	25.758882	0.000232	20.755625
1671.445754	-3.000100	3.438900	-10.316000	25.799747	0.000232	20.777233
1672.446856	-2.991800	3.440000	-10.291000	25.813632	0.000230	20.763205
1673.473229	-2.976400	3.439600	-10.236000	25.865762	0.000231	20.791391
1674.463485	-2.994100	3.438900	-10.295000	25.889778	0.000230	20.794654
1675.464231	-3.006900	3.438000	-10.337000	25.941395	0.000230	20.782972
1676.466131	-2.979100	3.438600	-10.243000	25.919384	0.000228	20.785041
1677.465111	-3.010900	3.437700	-10.350000	25.909399	0.000229	20.766001
1678.446737	-3.010100	3.437700	-10.347000	25.837803	0.000230	20.785115
1679.465941	-3.018900	3.435700	-10.371000	25.825009	0.000227	20.771315
1680.445508	-3.010600	3.435200	-10.341000	25.808433	0.000227	20.775053
1681.446630	-3.005600	3.436500	-10.328000	25.748981	0.000227	20.792147
1682.449745	-3.014600	3.435000	-10.354000	25.736480	0.000228	20.764892
1683.466009	-3.009100	3.436500	-10.339000	25.770265	0.000229	20.761843
1684.474986	-3.012100	3.435700	-10.348000	25.845415	0.000227	20.779960
1685.465284	-3.020300	3.435100	-10.374000	25.861709	0.000226	20.754601
1686.480433	-3.015700	3.434100	-10.355000	25.868488	0.000225	20.778482
1687.470435	-2.973200	3.436300	-10.215000	25.821098	0.000226	20.761222
1688.470018	-2.972300	3.436300	-10.212000	25.752702	0.000225	20.770754
1689.485623	-3.003700	3.433500	-10.313000	25.729963	0.000227	20.772096
1690.453420	-2.991900	3.433600	-10.272000	25.764895	0.000224	20.779209
1691.474944	-3.011700	3.432200	-10.336000	25.765066	0.000224	20.772269
1692.475599	-2.985000	3.433000	-10.246000	25.789815	0.000222	20.756350
1693.473809	-3.025500	3.431400	-10.380000	25.806967	0.000225	20.786856
1694.477127	-2.993200	3.432700	-10.274000	25.795344	0.000226	20.780397
1695.473802	-3.026500	3.431800	-10.386000	25.780312	0.000222	20.778574
1696.454982	-3.017000	3.431800	-10.353000	25.759444	0.000224	20.771837
1697.456613	-3.013300	3.431200	-10.338000	25.710546	0.000223	20.772983
1698.456780	-2.999100	3.431200	-10.291000	25.674197	0.000226	20.760180
1699.456650	-3.002100	3.431800	-10.301000	25.660947	0.000219	20.767736
1700.456283	-3.011600	3.430500	-10.330000	25.694165	0.000222	20.770753
1701.458750	-3.013800	3.429700	-10.335000	25.714740	0.000221	20.768185
1702.479604	-3.025000	3.430000	-10.375000	25.711166	0.000222	20.780717
1703.470052	-2.991500	3.430700	-10.262000	25.711411	0.000220	20.779066
1704.474929	-3.007200	3.430300	-10.314000	25.768547	0.000222	20.765334
1705.477525	-2.962500	3.431500	-10.165000	25.779551	0.000218	20.738928
1706.486024	-2.985800	3.429000	-10.237000	25.778883	0.000220	20.745369
1707.475064	-2.986100	3.428500	-10.236000	25.792321	0.000224	20.773567
1708.472121	-2.980100	3.428600	-10.216000	25.864662	0.000220	20.749982
1709.456826	-2.985800	3.427800	-10.233000	25.859721	0.000223	20.762563
1710.458317	-2.993300	3.428200	-10.261000	25.839321	0.000219	20.765777
1711.481241	-3.034300	3.425900	-10.394000	25.829016	0.000218	20.743571
1712.460004	-3.022600	3.427300	-10.358000	25.822751	0.000219	20.761934
1713.457609	-3.005500	3.427400	-10.300000	25.814758	0.000218	20.740153
1714.458536	-2.994800	3.427400	-10.263000	25.865060	0.000217	20.774564
1715.458519	-3.006900	3.426000	-10.300000	25.846236	0.000217	20.738583
1716.473046	-3.030200	3.424400	-10.375000	25.816450	0.000216	20.758449
1717.476388	-3.005800	3.424800	-10.293000	25.794558	0.000217	20.768702
1718.474845	-3.010500	3.423600	-10.306000	25.835397	0.000218	20.739550
1719.475518	-2.987200	3.425700	-10.233000	25.851348	0.000216	20.764582
1720.481761	-2.982800	3.425200	-10.216000	25.856313	0.000219	20.745862
1721.476949	-3.017100	3.424700	-10.331000	25.796324	0.000215	20.765260
1722.482525	-3.015600	3.423500	-10.323000	25.829495	0.000216	20.742155
1723.478981	-3.017900	3.421700	-10.325000	25.860340	0.000215	20.762236
1724.493490	-3.004700	3.422600	-10.283000	25.841583	0.000216	20.756195
1725.486986	-3.014200	3.420900	-10.310000	25.797538	0.000215	20.756521
1726.482278	-3.029500	3.421800	-10.365000	25.818086	0.000215	20.752981
1727.479914	-3.019300	3.422100	-10.331000	25.834895	0.000213	20.738570
1728.478193	-3.013000	3.421600	-10.308000	25.869676	0.000214	20.767347
1729.485386	-3.014300	3.420300	-10.308000	25.899558	0.000212	20.756589
1730.483344	-3.003300	3.421800	-10.276000	25.911113	0.000213	20.746385
1731.481138	-3.000100	3.420400	-10.261000	25.889769	0.000212	20.740590
1732.481178	-2.995000	3.420300	-10.243000	25.874291	0.000211	20.740214
1733.483163	-3.004500	3.420400	-10.276000	25.882934	0.000211	20.759329
1734.481455	-2.989600	3.420400	-10.224000	25.892374	0.000210	20.738940
1735.466228	-2.999000	3.419900	-10.256000	25.878987	0.000211	20.749199
1736.465396	-2.985500	3.420300	-10.211000	25.880801	0.000211	20.737271
1737.464955	-2.995800	3.419500	-10.243000	25.899748	0.000211	20.732122
1738.464977	-3.035000	3.417700	-10.371000	25.922648	0.000212	20.747068
1739.491327	-3.002300	3.417900	-10.261000	25.961202	0.000209	20.753559
1740.483196	-3.029200	3.417500	-10.351000	25.926123	0.000211	20.742024
1741.484605	-2.991100	3.418900	-10.225000	25.846584	0.000207	20.760271
1742.484269	-3.019800	3.417500	-10.319000	25.840147	0.000208	20.727725
1743.483821	-2.997300	3.416700	-10.240000	25.820746	0.000210	20.752333
1744.481968	-2.992500	3.417200	-10.225000	25.813672	0.000208	20.736692
1745.480064	-3.014100	3.415000	-10.293000	25.847552	0.000208	20.755080
1746.465952	-3.003100	3.414500	-10.253000	25.877785	0.000210	20.755104
1747.466631	-2.993700	3.416100	-10.226000	25.943789	0.000209	20.737486
1748.465017	-3.003200	3.415700	-10.257000	25.931812	0.000207	20.736833
1749.467802	-2.994100	3.414500	-10.222000	25.919761	0.000207	20.736106
1750.467316	-2.982100	3.415000	-10.182000	25.930438	0.000208	20.740195
1751.463397	-3.001400	3.415300	-10.249000	25.953166	0.000207	20.728889
1752.467895	-2.994900	3.414800	-10.226000	25.994404	0.000208	20.730490
1753.470326	-2.999600	3.415200	-10.243000	25.997303	0.000204	20.753792
1754.465938	-3.021200	3.413500	-10.312000	25.911161	0.000204	20.747856
1755.468527	-2.997200	3.412400	-10.226000	25.912626	0.000204	20.723248
1756.467092	-2.988200	3.413900	-10.201000	25.884772	0.000204	20.725612
1757.465960	-2.995100	3.413500	-10.223000	25.903229	0.000205	20.740835
1758.466162	-2.994900	3.412100	-10.218000	25.892447	0.000204	20.738064
1759.466201	-2.984900	3.412400	-10.185000	25.903921	0.000204	20.740108
1760.502319	-3.015600	3.411400	-10.286000	25.930628	0.000203	20.745602
1761.466190	-3.001900	3.410500	-10.238000	25.916340	0.000205	20.739308
1762.466493	-3.014400	3.410300	-10.278000	25.929880	0.000204	20.756230
1763.486505	-3.005200	3.409100	-10.243000	25.888744	0.000202	20.730551
1764.485728	-3.015100	3.409600	-10.279000	25.830995	0.000201	20.738446
1765.492348	-2.975800	3.409300	-10.145000	25.815565	0.000200	20.743810
1766.488580	-2.974700	3.411200	-10.147000	25.878888	0.000201	20.739616
1767.486333	-2.981100	3.410800	-10.167000	25.872605	0.000201	20.714811
1768.492225	-2.999300	3.408400	-10.222000	25.928648	0.000201	20.736500
1769.494134	-3.010100	3.408300	-10.259000	25.963856	0.000201	20.738680
1770.468528	-2.982400	3.408200	-10.163000	25.995317	0.000200	20.743736
1771.471242	-3.011200	3.408100	-10.262000	25.983133	0.000200	20.722010
1772.470372	-2.995100	3.408900	-10.209000	25.971132	0.000201	20.731765
1773.470541	-3.024600	3.406600	-10.302000	25.931039	0.000199	20.728944
1774.489512	-2.999600	3.406900	-10.218000	25.895451	0.000199	20.736341
1775.470091	-2.997800	3.406400	-10.210000	25.896622	0.000196	20.726611
1776.488665	-2.993300	3.406300	-10.195000	25.865667	0.000200	20.718273
1777.473498	-3.032800	3.406000	-10.327000	25.835636	0.000198	20.745005
1778.471583	-2.989600	3.406200	-10.182000	25.885423	0.000197	20.729585
1779.472321	-3.015200	3.405500	-10.267000	25.909201	0.000197	20.714590
1780.475713	-3.000000	3.405400	-10.215000	25.905572	0.000197	20.729912
1781.474096	-2.987200	3.405200	-10.171000	25.887556	0.000197	20.720822
1782.476920	-3.005900	3.404100	-10.230000	25.844163	0.000197	20.720379
1783.493988	-3.008800	3.404600	-10.242000	25.866525	0.000194	20.719609
1784.491524	-3.020200	3.403700	-10.278000	25.878595	0.000194	20.726045
1785.500548	-2.997500	3.403400	-10.200000	25.861609	0.000196	20.709929
1786.476327	-2.988000	3.402900	-10.167000	25.855945	0.000195	20.699022
1787.493845	-2.993000	3.403000	-10.184000	25.837788	0.000195	20.722984
1788.474726	-2.970400	3.403400	-10.108000	25.881562	0.000195	20.723336
1789.493580	-2.980200	3.402200	-10.138000	25.865931	0.000193	20.724702
1790.495581	-3.024900	3.402000	-10.289000	25.868800	0.000191	20.725214
1791.491997	-3.001900	3.402400	-10.213000	25.888054	0.000193	20.706622
1792.506083	-3.013700	3.401500	-10.250000	25.919205	0.000194	20.705200
1793.497973	-3.005000	3.401300	-10.219000	25.912597	0.000194	20.717055
1794.478018	-3.003100	3.401200	-10.212000	25.916827	0.000192	20.706604
1795.484588	-3.012400	3.399100	-10.238000	25.909447	0.000192	20.715312
1796.479671	-3.001200	3.399600	-10.202000	25.900829	0.000192	20.725147
1797.479362	-3.001700	3.400300	-10.206000	25.891193	0.000192	20.718311
1798.484989	-2.993500	3.399900	-10.177000	25.919567	0.000193	20.700822
1799.499186	-3.025000	3.399300	-10.282000	25.939359	0.000191	20.699842
1800.481987	-2.991500	3.399100	-10.167000	25.954150	0.000191	20.718022
1801.481826	-2.981200	3.399000	-10.132000	25.964159	0.000191	20.724285
1802.481509	-2.993800	3.398200	-10.172000	25.905445	0.000190	20.722198
1803.483949	-3.001800	3.398200	-10.199000	25.881944	0.000189	20.706648
1804.499300	-2.977700	3.398300	-10.119000	25.896760	0.000190	20.706834
1805.481857	-3.009100	3.397800	-10.224000	25.974684	0.000189	20.708305
1806.483045	-2.997000	3.397200	-10.181000	25.997239	0.000190	20.707733
1807.483078	-3.012900	3.396500	-10.233000	26.003001	0.000187	20.706409
1808.483374	-2.994700	3.397300	-10.172000	25.961801	0.000187	20.703422
1809.500314	-3.006400	3.394800	-10.205000	25.948666	0.000190	20.702554
1810.500507	-3.001500	3.395500	-10.190000	25.938398	0.000189	20.704093
1811.503769	-3.015400	3.395600	-10.238000	25.973060	0.000191	20.691026
1812.516705	-2.997500	3.395700	-10.177000	25.956842	0.000188	20.715512
1813.502224	-3.005800	3.394300	-10.202000	25.968672	0.000187	20.716491
1814.488004	-2.964200	3.395600	-10.063000	25.932258	0.000185	20.698398
1815.500137	-3.021000	3.392300	-10.247000	25.936309	0.000187	20.702469
1816.482919	-2.974900	3.394000	-10.095000	25.909836	0.000186	20.683932
1817.507239	-2.996900	3.394900	-10.173000	25.920741	0.000185	20.704372
1818.500852	-2.993300	3.392800	-10.154000	25.891925	0.000184	20.690596
1819.502050	-3.005400	3.393300	-10.197000	25.881744	0.000185	20.688902
1820.504057	-3.017400	3.392800	-10.236000	25.880905	0.000187	20.719830
1821.515572	-2.981200	3.392800	-10.113000	25.899711	0.000184	20.704582
1822.507352	-2.994100	3.393100	-10.158000	25.869007	0.000184	20.704083
1823.516964	-2.986600	3.392600	-10.131000	25.923984	0.000184	20.700044
1824.490279	-2.996700	3.392800	-10.167000	25.941080	0.000183	20.700148
1825.516328	-2.987300	3.392100	-10.132000	25.929207	0.000185	20.704817
1826.515653	-3.001400	3.391300	-10.177000	25.962863	0.000184	20.680306
1827.509526	-2.999800	3.390500	-10.170000	25.992400	0.000183	20.704293
1828.490583	-3.007800	3.390700	-10.198000	25.988558	0.000183	20.704700
1829.518348	-2.999800	3.390600	-10.170000	25.959045	0.000182	20.712509
1830.509914	-3.023200	3.389800	-10.248000	25.925585	0.000182	20.706393
1831.507322	-2.984200	3.390400	-10.117000	25.872949	0.000183	20.701879
1832.506377	-2.990800	3.390000	-10.138000	25.926308	0.000181	20.688152
1833.509298	-2.989200	3.388900	-10.130000	25.975797	0.000182	20.696146
1834.510068	-3.010000	3.387400	-10.195000	26.008036	0.000180	20.688233
1835.514497	-3.028800	3.387800	-10.260000	26.002226	0.000181	20.701363
1836.514529	-3.029700	3.387500	-10.262000	25.948301	0.000179	20.689859
1837.508404	-3.005600	3.387200	-10.180000	25.937096	0.000181	20.705156
1838.512396	-3.001500	3.386000	-10.161000	25.911665	0.000178	20.689089
1839.521761	-2.981300	3.388200	-10.100000	25.912211	0.000179	20.692008
1840.512166	-2.994700	3.386900	-10.142000	25.911763	0.000177	20.703414
1841.514638	-3.004800	3.385500	-10.172000	25.955185	0.000180	20.698197
1842.512280	-2.998000	3.385900	-10.150000	25.964802	0.000180	20.693160
1843.509201	-2.998600	3.385600	-10.152000	25.977673	0.000179	20.697558
1844.512849	-3.010800	3.385800	-10.193000	25.965997	0.000179	20.693413
1845.492889	-3.008600	3.385600	-10.184000	25.924593	0.000178	20.699233
1846.495173	-3.003900	3.383900	-10.164000	25.972506	0.000180	20.712282
1847.496236	-2.995200	3.385000	-10.138000	25.996037	0.000179	20.696092
1848.518937	-3.013900	3.384300	-10.199000	26.043451	0.000175	20.711488
1849.494052	-3.002100	3.383900	-10.158000	26.033939	0.000177	20.695292
1850.496182	-3.005700	3.384100	-10.170000	26.008712	0.000177	20.700293
1851.513881	-2.994500	3.382000	-10.126000	26.038101	0.000175	20.695206
1852.524629	-2.985000	3.382600	-10.096000	26.047711	0.000177	20.690162
1853.514354	-3.004000	3.383300	-10.162000	26.073194	0.000176	20.693956
1854.515511	-3.000200	3.381100	-10.143000	26.074365	0.000175	20.711729
1855.515930	-2.965000	3.382500	-10.028000	26.087903	0.000175	20.711581
1856.495160	-3.002900	3.381200	-10.152000	26.109513	0.000174	20.702948
1857.496234	-2.998000	3.382500	-10.140000	26.113245	0.000176	20.710492
1858.511068	-2.992000	3.380600	-10.114000	26.109673	0.000175	20.696470
1859.517398	-3.019700	3.379200	-10.202000	26.148686	0.000172	20.692996
1860.524493	-2.977900	3.380700	-10.066000	26.175914	0.000173	20.702813
1861.512588	-3.009000	3.379700	-10.169000	26.177280	0.000173	20.707506
1862.523529	-2.992100	3.379300	-10.110000	26.176092	0.000175	20.695879
1863.514941	-3.000100	3.380100	-10.139000	26.191271	0.000172	20.715875
1864.513872	-3.003300	3.379400	-10.148000	26.133623	0.000171	20.710579
1865.519403	-3.026200	3.378400	-10.223000	26.055791	0.000170	20.703497
1866.526861	-2.988200	3.378900	-10.095000	26.020120	0.000171	20.709384
1867.519760	-3.020400	3.376500	-10.197000	25.995936	0.000174	20.713061
1868.519702	-3.003500	3.377000	-10.142000	25.999981	0.000173	20.719971
1869.518833	-2.994900	3.376300	-10.111000	25.994170	0.000170	20.704649
1870.520604	-2.988600	3.378100	-10.095000	26.004970	0.000170	20.706964
1871.523541	-2.974800	3.377000	-10.045000	26.006588	0.000173	20.707642
1872.500200	-3.006600	3.376900	-10.152000	25.987410	0.000172	20.716350
1873.502526	-3.010000	3.376500	-10.163000	26.021763	0.000172	20.723364
1874.504081	-2.976600	3.378000	-10.054000	25.994642	0.000169	20.709391
1875.519306	-2.992500	3.375800	-10.101000	26.061209	0.000172	20.708467
1876.502182	-3.005200	3.374600	-10.140000	26.060859	0.000172	20.735619
1877.502387	-3.015600	3.375600	-10.179000	26.085724	0.000170	20.695639
1878.500840	-2.967600	3.376300	-10.018000	26.091030	0.000167	20.708085
1879.519869	-3.005900	3.374500	-10.143000	26.049282	0.000170	20.715450
1880.530156	-2.998500	3.373200	-10.114000	26.065149	0.000170	20.711478
1881.519860	-3.003100	3.373300	-10.129000	26.090381	0.000166	20.696525
1882.530740	-2.979500	3.372200	-10.046000	26.130865	0.000168	20.703540
1883.519621	-3.014200	3.372500	-10.164000	26.097386	0.000169	20.728696
1884.525580	-3.001100	3.372300	-10.120000	26.116635	0.000166	20.729546
1885.502425	-2.988200	3.373000	-10.078000	26.092384	0.000167	20.704229
1886.502022	-2.996500	3.372200	-10.104000	26.117940	0.000167	20.733228
1887.501658	-3.006700	3.371300	-10.135000	26.114839	0.000167	20.713516
1888.504037	-3.020200	3.369900	-10.176000	26.181055	0.000166	20.734534
1889.526193	-2.985800	3.372800	-10.069000	26.113730	0.000166	20.741327
1890.518262	-2.973300	3.371200	-10.023000	26.122690	0.000165	20.715240
1891.502841	-3.026500	3.370000	-10.198000	26.147602	0.000165	20.722255
1892.502112	-2.996800	3.371200	-10.102000	26.196455	0.000164	20.722507
1893.501581	-3.008600	3.370300	-10.139000	26.185553	0.000164	20.727674
1894.502630	-3.000700	3.369200	-10.109000	26.196553	0.000167	20.733512
1895.508673	-3.006900	3.368800	-10.128000	26.230250	0.000163	20.747460
1896.519321	-3.002800	3.368200	-10.112000	26.169811	0.000161	20.718492
1897.518532	-2.980600	3.369200	-10.041000	26.126220	0.000161	20.742971
1898.522108	-3.010200	3.369300	-10.141000	26.110476	0.000161	20.748963
1899.503962	-2.986600	3.369400	-10.062000	26.057102	0.000163	20.721411
1900.505101	-3.025600	3.367400	-10.188000	26.041081	0.000162	20.736610
1901.506350	-2.988600	3.368100	-10.065000	26.054522	0.000164	20.733993
1902.507973	-3.006100	3.366700	-10.119000	26.091030	0.000161	20.737484
1903.507513	-2.990400	3.368000	-10.070000	26.092054	0.000162	20.732349
1904.533584	-2.999100	3.366600	-10.096000	26.123616	0.000160	20.738457
1905.524351	-3.010100	3.364700	-10.128000	26.199618	0.000160	20.721892
1906.534301	-2.982400	3.364800	-10.034000	26.225373	0.000162	20.725963
1907.508334	-3.004900	3.366100	-10.114000	26.231452	0.000162	20.732546
1908.508074	-2.997400	3.364900	-10.085000	26.203393	0.000159	20.714779
1909.509354	-2.999300	3.364200	-10.090000	26.229883	0.000159	20.711527
1910.510101	-2.993700	3.366100	-10.076000	26.239455	0.000160	20.730631
1911.511920	-3.009600	3.363700	-10.123000	26.247844	0.000160	20.737164
1912.511303	-3.006500	3.362800	-10.110000	26.204109	0.000158	20.714077
1913.515373	-3.002600	3.363100	-10.097000	26.151715	0.000157	20.726862
1914.530339	-2.995500	3.363600	-10.074000	26.158345	0.000159	20.708868
1915.514830	-3.012600	3.361600	-10.125000	26.205409	0.000158	20.709693
1916.508666	-2.987100	3.361000	-10.039000	26.229449	0.000157	20.751870
1917.511168	-2.993900	3.362900	-10.067000	26.291828	0.000153	20.751969
1918.523192	-2.989100	3.362600	-10.051000	26.288850	0.000156	20.733328
1919.526303	-3.023900	3.361000	-10.162000	26.263452	0.000157	20.740047
1920.540242	-3.002700	3.361500	-10.093000	26.235583	0.000156	20.723894
1921.524646	-3.007500	3.360400	-10.105000	26.238787	0.000156	20.744659
1922.532191	-2.996700	3.361000	-10.071000	26.210434	0.000153	20.730391
1923.531715	-2.992800	3.360100	-10.055000	26.204367	0.000154	20.745632
1924.512605	-2.987500	3.361200	-10.041000	26.188527	0.000154	20.735878
1925.533959	-2.981000	3.359800	-10.014000	26.194465	0.000153	20.722404
1926.532535	-3.007700	3.360000	-10.105000	26.122758	0.000155	20.760830
1927.532756	-2.975300	3.359700	-9.995400	26.169107	0.000153	20.729166
1928.534167	-2.983700	3.358000	-10.018000	26.208767	0.000156	20.747209
1929.532484	-2.982300	3.359500	-10.017000	26.245872	0.000153	20.738502
1930.514231	-2.994500	3.358500	-10.056000	26.246392	0.000153	20.759889
1931.530359	-3.001900	3.358800	-10.080000	26.165577	0.000153	20.750276
1932.532020	-3.033800	3.356300	-10.181000	26.190519	0.000153	20.732190
1933.518209	-2.984600	3.358400	-10.023000	26.241901	0.000150	20.737356
1934.516574	-2.999600	3.356900	-10.068000	26.264052	0.000151	20.746815
1935.516438	-3.014500	3.356600	-10.118000	26.255284	0.000151	20.746538
1936.515982	-3.022500	3.356200	-10.143000	26.244481	0.000153	20.741845
1937.516889	-2.979900	3.357000	-10.002000	26.212874	0.000151	20.738533
1938.519415	-3.028700	3.354600	-10.158000	26.255517	0.000150	20.766688
1939.517181	-2.989400	3.354800	-10.028000	26.293575	0.000149	20.767475
1940.537766	-3.000900	3.354900	-10.067000	26.259267	0.000151	20.743429
1941.517352	-3.014400	3.353900	-10.109000	26.253029	0.000148	20.767981
1942.519045	-3.002700	3.354900	-10.073000	26.245805	0.000149	20.773523
1943.516831	-3.017900	3.353700	-10.121000	26.260389	0.000149	20.747401
1944.519152	-2.992400	3.354700	-10.038000	26.282558	0.000148	20.761620
1945.517800	-3.005700	3.353700	-10.079000	26.289114	0.000148	20.760622
1946.518986	-3.002900	3.351900	-10.063000	26.270469	0.000148	20.742357
1947.519580	-2.996400	3.353300	-10.047000	26.237276	0.000147	20.764004
1948.534611	-2.993400	3.352900	-10.036000	26.216956	0.000149	20.767292
1949.541823	-3.010900	3.352700	-10.093000	26.244028	0.000147	20.760832
1950.544898	-3.010700	3.351800	-10.090000	26.307975	0.000147	20.753024
1951.536204	-2.989100	3.351400	-10.016000	26.295384	0.000146	20.756491
1952.519701	-2.981400	3.351700	-9.992200	26.313165	0.000148	20.753972
1953.536186	-2.994700	3.351200	-10.036000	26.326897	0.000147	20.769669
1954.520922	-3.005700	3.348300	-10.064000	26.273736	0.000145	20.774091
1955.537544	-2.995500	3.350400	-10.035000	26.277486	0.000145	20.768850
1956.520353	-2.997900	3.349300	-10.040000	26.291420	0.000146	20.761516
1957.522006	-3.015100	3.349500	-10.098000	26.289655	0.000145	20.777287
1958.525266	-2.999200	3.349100	-10.044000	26.260923	0.000144	20.762163
1959.521801	-3.009300	3.348400	-10.075000	26.277321	0.000146	20.781961
1960.525483	-3.017600	3.348100	-10.103000	26.308031	0.000144	20.761615
1961.538098	-3.016300	3.349000	-10.101000	26.302897	0.000143	20.762145
1962.523955	-3.026500	3.348000	-10.131000	26.332019	0.000143	20.762015
1963.523851	-2.991000	3.348500	-10.014000	26.342356	0.000143	20.781413
1964.525058	-3.020000	3.347400	-10.108000	26.290556	0.000143	20.773925
1965.527042	-3.002100	3.348200	-10.051000	26.244464	0.000141	20.772650
1966.526237	-3.002000	3.347400	-10.048000	26.225891	0.000142	20.778168
1967.525772	-3.018300	3.346900	-10.101000	26.199174	0.000142	20.772183
1968.525159	-3.011400	3.346100	-10.075000	26.227926	0.000142	20.774997
1969.526356	-2.990300	3.347100	-10.008000	26.250752	0.000141	20.758580
1970.526530	-2.992400	3.346100	-10.012000	26.251395	0.000142	20.774399
1971.528516	-3.016300	3.346100	-10.093000	26.201355	0.000141	20.775323
1972.525775	-3.021100	3.344000	-10.101000	26.269349	0.000142	20.801925
1973.527162	-2.974600	3.346100	-9.952500	26.272051	0.000143	20.789467
1974.529220	-3.000000	3.344600	-10.033000	26.301953	0.000142	20.783008
1975.526717	-2.996500	3.344500	-10.021000	26.322143	0.000138	20.770581
1976.530378	-2.982300	3.344200	-9.972400	26.331229	0.000139	20.777343
1977.527883	-2.996100	3.343000	-10.015000	26.307027	0.000138	20.789056
1978.531672	-3.014600	3.342100	-10.073000	26.309575	0.000140	20.773124
1979.527663	-3.001300	3.342500	-10.031000	26.344544	0.000138	20.796414
1980.528699	-3.006800	3.342400	-10.049000	26.369751	0.000139	20.779548
1981.531204	-2.993700	3.343100	-10.007000	26.368133	0.000138	20.803526
1982.531016	-2.993600	3.341200	-10.002000	26.394455	0.000137	20.804376
1983.528226	-3.037800	3.341500	-10.149000	26.387280	0.000139	20.812812
1984.528141	-2.990700	3.341500	-9.992500	26.387329	0.000135	20.796266
1985.528145	-2.990800	3.341400	-9.992500	26.339648	0.000136	20.795287
1986.532577	-2.992000	3.341500	-9.997300	26.274514	0.000134	20.796685
1987.533749	-2.996200	3.339700	-10.006000	26.245335	0.000136	20.796759
1988.528672	-2.983200	3.341100	-9.966500	26.211694	0.000135	20.784289
1989.531275	-3.014400	3.338300	-10.061000	26.296917	0.000133	20.783636
1990.529925	-2.995500	3.340000	-10.004000	26.309656	0.000134	20.797861
1991.530205	-3.003300	3.338300	-10.025000	26.331156	0.000134	20.796709
1992.535669	-2.984600	3.338600	-9.963800	26.324722	0.000134	20.778389
1993.530347	-2.998600	3.340000	-10.014000	26.317603	0.000133	20.776924
1994.530128	-3.018200	3.337500	-10.072000	26.373617	0.000135	20.810460
1995.534007	-3.024700	3.336800	-10.091000	26.370412	0.000133	20.793015
1996.532481	-3.002900	3.337700	-10.022000	26.384198	0.000131	20.814456
1997.536733	-3.021000	3.337300	-10.080000	26.405624	0.000133	20.796636
1998.531377	-3.012400	3.336700	-10.051000	26.436539	0.000130	20.816802
1999.541048	-3.019700	3.334500	-10.068000	26.458589	0.000132	20.801507
2000.533388	-2.998400	3.335700	-10.000000	26.452205	0.000129	20.812159
2001.532946	-2.999600	3.334700	-10.002000	26.439688	0.000131	20.804795
2002.533089	-2.983000	3.336100	-9.951100	26.404907	0.000131	20.794493
2003.536250	-3.015800	3.334200	-10.055000	26.423361	0.000130	20.799764
2004.532809	-2.999100	3.334600	-10.000000	26.398100	0.000129	20.807566
2005.540191	-3.001900	3.334700	-10.010000	26.347399	0.000130	20.802128
2006.539874	-2.991600	3.333900	-9.972800	26.382943	0.000128	20.821729
2007.533479	-3.010300	3.333200	-10.033000	26.418546	0.000129	20.811994
2008.535274	-2.976500	3.334400	-9.924000	26.441361	0.000128	20.808373
2009.533251	-2.996700	3.333300	-9.987900	26.400521	0.000129	20.828490
2010.533320	-2.985500	3.333400	-9.951300	26.400178	0.000128	20.830517
2011.532217	-2.995600	3.332100	-9.980800	26.413111	0.000126	20.823601
2012.533350	-2.991600	3.330800	-9.963800	26.358246	0.000127	20.813503
2013.535789	-2.977200	3.331800	-9.918100	26.343351	0.000126	20.828879
2014.535259	-2.993500	3.331600	-9.972900	26.399517	0.000127	20.809464
2015.532696	-2.991900	3.330100	-9.963000	26.394296	0.000126	20.803743
2016.535091	-3.013700	3.330800	-10.038000	26.356634	0.000128	20.824686
2017.535173	-2.992800	3.330700	-9.967300	26.379237	0.000127	20.807100
2018.535267	-3.037800	3.329100	-10.111000	26.371015	0.000125	20.816854
2019.536482	-3.034400	3.328600	-10.099000	26.360814	0.000127	20.814662
2020.535204	-3.001400	3.330100	-9.993400	26.344007	0.000125	20.808203
2021.534953	-3.005400	3.329000	-10.005000	26.404094	0.000125	20.812168
2022.538133	-3.018200	3.328000	-10.044000	26.388875	0.000122	20.825795
2023.534837	-3.006200	3.328100	-10.005000	26.416489	0.000124	20.820358
2024.540281	-3.009800	3.328200	-10.016000	26.434496	0.000125	20.816645
2025.536926	-2.988300	3.327700	-9.943300	26.453041	0.000122	20.813000
2026.537617	-3.009100	3.328200	-10.014000	26.502426	0.000124	20.811904
2027.535804	-3.007700	3.327200	-10.007000	26.568789	0.000124	20.837360
2028.536547	-2.996100	3.327000	-9.966800	26.565616	0.000122	20.819472
2029.541561	-3.014800	3.326900	-10.028000	26.529100	0.000123	20.813586
2030.541769	-3.011500	3.326900	-10.018000	26.518072	0.000121	20.825735
2031.538692	-2.998200	3.326800	-9.973300	26.568576	0.000121	20.818180
2032.538592	-3.029000	3.325800	-10.073000	26.574309	0.000121	20.827262
2033.542128	-3.002100	3.326400	-9.985400	26.604570	0.000119	20.824965
2034.538620	-2.983200	3.326400	-9.921800	26.644246	0.000120	20.827392
2035.542686	-2.982700	3.325600	-9.918300	26.650286	0.000120	20.854326
2036.540465	-2.983200	3.324500	-9.915900	26.636731	0.000120	20.829794
2037.540009	-3.013800	3.323700	-10.016000	26.585318	0.000120	20.820311
2038.541509	-3.023900	3.323000	-10.047000	26.589147	0.000118	20.835539
2039.541997	-3.009900	3.322600	-10.000000	26.613870	0.000119	20.835262
2040.544327	-2.986400	3.324100	-9.926200	26.615114	0.000120	20.846469
2041.541805	-3.014500	3.323100	-10.017000	26.566831	0.000119	20.818797
2042.542505	-2.987200	3.321900	-9.922100	26.542034	0.000118	20.837966
2043.549714	-3.032700	3.321500	-10.072000	26.514528	0.000117	20.844930
2044.543257	-3.000800	3.320900	-9.964600	26.523441	0.000120	20.838243
2045.542348	-2.997000	3.322000	-9.955400	26.586778	0.000117	20.837899
2046.545549	-2.994400	3.322200	-9.947000	26.614030	0.000119	20.814087
2047.542981	-2.984000	3.320600	-9.907700	26.640223	0.000117	20.830934
2048.543582	-3.017100	3.319800	-10.016000	26.629773	0.000118	20.844136
2049.546687	-3.026600	3.319800	-10.047000	26.632310	0.000117	20.844315
2050.544203	-3.017300	3.319900	-10.016000	26.598650	0.000116	20.836083
2051.548652	-2.999300	3.319100	-9.953500	26.556044	0.000117	20.841144
2052.545460	-3.018500	3.318000	-10.015000	26.566778	0.000114	20.855252
2053.548645	-2.991800	3.318900	-9.928400	26.572120	0.000118	20.846397
2054.550818	-3.014700	3.317800	-10.001000	26.541435	0.000113	20.843054
2055.546823	-3.006000	3.317300	-9.970700	26.559580	0.000114	20.837111
2056.551093	-3.004000	3.318100	-9.965900	26.548241	0.000115	20.840887
2057.547739	-3.028800	3.317400	-10.047000	26.592360	0.000114	20.816484
2058.548660	-2.988900	3.318300	-9.917200	26.571477	0.000113	20.822992
2059.548104	-3.011100	3.315400	-9.981900	26.596710	0.000112	20.830813
2060.546797	-3.011400	3.315200	-9.982800	26.642486	0.000112	20.837950
2061.550683	-3.011400	3.315900	-9.985200	26.670240	0.000112	20.819385
2062.548632	-2.983600	3.315500	-9.890700	26.607834	0.000111	20.819237
2063.550558	-2.999800	3.315200	-9.944100	26.621145	0.000113	20.837360
2064.548221	-3.029200	3.315900	-10.043000	26.569034	0.000110	20.821485
2065.550356	-2.980100	3.314700	-9.877600	26.586909	0.000111	20.847987
2066.548809	-3.028300	3.313100	-10.032000	26.586137	0.000112	20.818289
2067.549696	-3.018800	3.312100	-9.997600	26.548279	0.000111	20.828597
2068.550220	-2.978200	3.314400	-9.870300	26.554816	0.000110	20.834220
2069.548564	-3.013100	3.313400	-9.982600	26.618714	0.000111	20.801251
2070.554985	-2.978900	3.312900	-9.868200	26.652827	0.000111	20.838388
2071.550436	-2.988400	3.313100	-9.899900	26.660055	0.000110	20.820525
2072.551558	-2.998200	3.311600	-9.927200	26.636252	0.000110	20.823149
2073.551108	-2.988300	3.312300	-9.897000	26.591038	0.000110	20.822742
2074.553273	-2.996800	3.311200	-9.922500	26.634617	0.000110	20.813445
2075.551995	-2.978000	3.310700	-9.858500	26.689304	0.000107	20.812472
2076.552253	-2.994800	3.311000	-9.915000	26.628356	0.000109	20.814737
2077.554373	-2.992600	3.311700	-9.909700	26.619995	0.000111	20.803013
2078.552944	-2.989300	3.311200	-9.897700	26.686596	0.000108	20.793154
2079.553338	-2.989000	3.309400	-9.891300	26.749200	0.000108	20.802040
2080.553860	-2.988900	3.309400	-9.891100	26.764071	0.000107	20.824578
2081.553680	-2.974000	3.310600	-9.844500	26.793789	0.000108	20.826007
2082.558649	-3.004300	3.307600	-9.936400	26.848461	0.000106	20.834036
2083.554239	-3.001300	3.307400	-9.926200	26.836923	0.000109	20.808685
2084.556536	-3.022600	3.307800	-9.997100	26.838037	0.000106	20.811702
2085.563819	-3.018500	3.308100	-9.984300	26.813589	0.000106	20.792336
2086.556224	-3.005200	3.307900	-9.940600	26.786212	0.000106	20.794682
2087.558590	-3.014200	3.306000	-9.964200	26.718778	0.000106	20.807965
2088.559362	-2.997900	3.306700	-9.911800	26.686156	0.000106	20.807885
2089.557537	-3.001800	3.304900	-9.918300	26.712176	0.000105	20.813181
2090.558846	-2.984100	3.307700	-9.869500	26.737147	0.000104	20.798457
2091.558707	-2.968800	3.306900	-9.816800	26.684950	0.000103	20.808569
2092.559277	-2.982400	3.305700	-9.858000	26.730967	0.000105	20.816900
2093.558377	-2.981900	3.306000	-9.857500	26.737454	0.000103	20.815835
2094.560159	-2.989100	3.304600	-9.876500	26.820051	0.000104	20.786031
2095.558367	-2.987500	3.304500	-9.871000	26.824895	0.000103	20.796592
2096.562539	-3.026600	3.303500	-9.996600	26.814863	0.000103	20.793617
2097.558241	-3.016600	3.303400	-9.964100	26.769248	0.000103	20.805127
2098.562157	-2.996500	3.303700	-9.898600	26.681508	0.000103	20.782350
2099.559219	-2.986900	3.303300	-9.866000	26.713230	0.000101	20.793852
2100.559136	-3.000900	3.303300	-9.911900	26.733265	0.000103	20.779382
2101.559540	-3.004900	3.302300	-9.922000	26.747536	0.000104	20.799893
2102.559500	-2.988200	3.303100	-9.868900	26.761170	0.000101	20.793687
2103.559678	-2.970100	3.303400	-9.810400	26.740346	0.000101	20.790294
2104.565773	-2.974900	3.302700	-9.824200	26.779783	0.000101	20.780632
2105.559165	-2.986200	3.301100	-9.857000	26.800840	9.991483E-5	20.773828
2106.561597	-2.977000	3.300600	-9.824700	26.850153	0.000102	20.775521
2107.563417	-2.995000	3.299600	-9.880600	26.868080	0.000101	20.787382
2108.559376	-3.019400	3.300600	-9.964500	26.912975	0.000101	20.766143
2109.563952	-3.020900	3.300000	-9.967900	26.971119	0.000101	20.788576
2110.560523	-2.982000	3.299300	-9.837600	26.997579	9.974981E-5	20.779149
2111.561278	-3.002500	3.298100	-9.901400	26.918780	9.984882E-5	20.763446
2112.561388	-2.985600	3.298800	-9.848200	26.905154	9.912277E-5	20.773452
2113.561018	-2.991000	3.298900	-9.865700	26.844030	9.866073E-5	20.788804
2114.563498	-2.988100	3.298400	-9.854700	26.803205	9.806669E-5	20.791379
2115.561884	-2.982400	3.297200	-9.833200	26.757306	9.905676E-5	20.792647
2116.560783	-3.003500	3.298100	-9.905100	26.702770	9.819870E-5	20.796138
2117.561794	-2.991800	3.296400	-9.861400	26.726235	9.796768E-5	20.770892
2118.561810	-2.993800	3.296000	-9.866900	26.744922	9.740664E-5	20.771187
2119.564163	-2.992100	3.297600	-9.865800	26.757037	9.687860E-5	20.790954
2120.561775	-2.963500	3.297000	-9.770200	26.791715	9.668059E-5	20.758015
2121.561073	-2.990900	3.297100	-9.860500	26.820335	9.644957E-5	20.782050
2122.562685	-3.000600	3.295500	-9.886800	26.816238	9.503047E-5	20.795474
2123.563643	-3.019800	3.296300	-9.952500	26.891737	9.595454E-5	20.770393
2124.562507	-2.973600	3.295700	-9.799000	26.905639	9.410640E-5	20.781527
2125.563565	-2.998500	3.293600	-9.874500	26.898681	9.463444E-5	20.767892
2126.562994	-2.998000	3.293300	-9.872700	26.937648	9.390839E-5	20.766772
2127.563350	-2.979100	3.294000	-9.812400	26.912510	9.470045E-5	20.790332
2128.572546	-3.003700	3.292200	-9.888000	26.896037	9.384238E-5	20.769026
2129.563545	-2.995500	3.292400	-9.860500	26.850271	9.314933E-5	20.781330
2130.572131	-3.007800	3.291700	-9.900100	26.818058	9.196124E-5	20.784027
2131.565485	-3.007600	3.292300	-9.901600	26.760866	9.291831E-5	20.778207
2132.566866	-2.997700	3.291000	-9.864300	26.815228	9.031112E-5	20.772173
2133.567045	-2.999900	3.291700	-9.873800	26.874995	9.140020E-5	20.780585
2134.568776	-3.008800	3.289500	-9.896500	26.892093	9.242328E-5	20.766009
2135.569865	-3.004100	3.290400	-9.883200	26.921874	9.093817E-5	20.773669
2136.569785	-3.001800	3.290100	-9.875600	26.945548	8.833098E-5	20.763336
2137.568786	-2.988300	3.289700	-9.829700	26.906962	9.090517E-5	20.791392
2138.568491	-3.000700	3.288500	-9.867200	26.882100	8.968408E-5	20.792944
2139.569765	-3.006300	3.289100	-9.887500	26.875351	9.004711E-5	20.755812
2140.571430	-3.006000	3.286500	-9.878600	26.866140	8.786895E-5	20.773104
2141.572737	-3.002700	3.288700	-9.873700	26.825438	9.169723E-5	20.774379
2142.570912	-3.017000	3.288400	-9.919700	26.864212	8.951907E-5	20.762155
2143.571116	-3.026500	3.286600	-9.946300	26.952421	8.965108E-5	20.765506
2144.572733	-2.981900	3.287100	-9.800600	27.008946	8.895803E-5	20.777778
2145.570346	-2.997500	3.286100	-9.849000	27.036666	8.862800E-5	20.785741
2146.574437	-2.978700	3.286400	-9.787600	27.016993	9.008011E-5	20.772120
2147.572293	-2.996100	3.286500	-9.845400	26.987515	8.767093E-5	20.783253
2148.574091	-3.010400	3.286500	-9.892800	26.956218	8.932105E-5	20.768376
2149.573051	-3.003800	3.285900	-9.869400	26.958526	8.948606E-5	20.760740
2150.573639	-2.999900	3.285100	-9.854400	27.006596	8.965108E-5	20.765931
2151.572970	-3.015500	3.285000	-9.905000	27.038461	8.753892E-5	20.766208
2152.576714	-3.003500	3.282800	-9.858600	27.054443	8.681287E-5	20.765211
2153.574412	-2.990900	3.284000	-9.821800	27.005953	8.575679E-5	20.767655
2154.576458	-2.996500	3.283000	-9.836700	27.060841	8.757192E-5	20.773068
2155.578186	-3.013700	3.283600	-9.895700	27.041817	8.476672E-5	20.754884
2156.576210	-3.002400	3.281400	-9.850900	27.116082	8.512975E-5	20.759398
2157.579917	-3.007500	3.282100	-9.869600	27.128640	8.542677E-5	20.768235
2158.577185	-2.982200	3.284900	-9.795600	27.077227	8.493173E-5	20.763468
2159.581697	-3.012900	3.280000	-9.881400	27.006731	8.311660E-5	20.764645
2160.576803	-3.023000	3.280100	-9.914600	27.010577	8.344662E-5	20.763296
2161.581217	-3.017800	3.279600	-9.896600	27.038615	8.338062E-5	20.745973
2162.578855	-2.990900	3.281300	-9.813100	26.995538	8.268757E-5	20.751491
2163.578891	-3.012600	3.280700	-9.882400	27.033233	8.199452E-5	20.757631
2164.579518	-3.011400	3.279100	-9.874200	27.011642	8.153248E-5	20.744927
2165.580453	-3.010000	3.279600	-9.870700	26.925233	8.305059E-5	20.752390
2166.580765	-3.029000	3.276500	-9.923800	26.959225	8.347963E-5	20.753381
2167.580340	-3.023200	3.278800	-9.911300	26.940769	8.384265E-5	20.749995
2168.582995	-2.987200	3.277600	-9.789800	26.997969	8.136747E-5	20.757729
2169.581619	-2.973100	3.278200	-9.745700	27.058263	8.199452E-5	20.755777
2170.580345	-2.996800	3.276700	-9.818000	27.064748	8.014638E-5	20.745229
2171.582664	-3.005700	3.274600	-9.841600	27.012934	8.212653E-5	20.766141
2172.580591	-2.990100	3.276200	-9.794900	27.013748	8.021239E-5	20.736613
2173.585907	-3.013400	3.277100	-9.874200	27.030257	8.008038E-5	20.742784
2174.581556	-3.010300	3.276800	-9.862200	27.069554	8.169749E-5	20.748165
2175.583016	-3.007900	3.274900	-9.849600	27.094922	7.876028E-5	20.732900
2176.582936	-3.000900	3.274700	-9.826600	27.106139	7.783621E-5	20.740863
2177.583592	-2.998200	3.274800	-9.817800	27.089191	7.852926E-5	20.750845
2178.585812	-3.007600	3.274500	-9.847900	27.121373	7.984936E-5	20.733897
2179.585598	-3.021100	3.273900	-9.889100	27.101596	7.922231E-5	20.743880
2180.583114	-2.988600	3.274400	-9.785100	27.117423	7.885929E-5	20.733244
2181.582876	-2.988700	3.273100	-9.781300	27.149310	7.648311E-5	20.745875
2182.583017	-2.998100	3.272200	-9.809200	27.075096	7.994837E-5	20.741885
2183.583808	-2.980000	3.273400	-9.753900	27.079242	7.856227E-5	20.734674
2184.586277	-2.981800	3.272200	-9.756000	27.159437	7.849626E-5	20.748000
2185.584184	-2.988900	3.270400	-9.772900	27.169882	7.740718E-5	20.739538
2186.584641	-3.001800	3.270800	-9.817800	27.215413	7.810023E-5	20.754515
2187.584174	-2.998800	3.272000	-9.810800	27.191616	7.750619E-5	20.746700
2188.584442	-3.022100	3.270000	-9.880800	27.133417	7.470098E-5	20.740796
2189.587268	-3.005800	3.269200	-9.826000	27.183242	7.615309E-5	20.752976
2190.587446	-3.007100	3.270000	-9.832700	27.208765	7.631810E-5	20.739292
2191.587153	-3.012700	3.267700	-9.843900	27.268436	7.446997E-5	20.757114
2192.586869	-3.012000	3.268300	-9.843100	27.243477	7.549304E-5	20.752397
2193.586349	-3.001800	3.269800	-9.814200	27.254392	7.407394E-5	20.728288
2194.586972	-2.990400	3.267700	-9.770900	27.223140	7.371091E-5	20.750433
2195.590378	-3.001600	3.267000	-9.805100	27.192946	7.658212E-5	20.739503
2196.587175	-2.983600	3.269000	-9.752700	27.114663	7.529503E-5	20.738530
2197.587134	-3.015100	3.266000	-9.845500	27.122556	7.331488E-5	20.736036
2198.592966	-2.977200	3.267700	-9.727600	27.049999	7.371091E-5	20.725179
2199.585953	-3.004100	3.266500	-9.811300	27.015605	7.413994E-5	20.749387
2200.589118	-3.004100	3.266700	-9.812600	26.998956	7.341389E-5	20.736436
2201.588316	-3.008500	3.265200	-9.822000	27.071223	7.202779E-5	20.732773
2202.586864	-3.004600	3.265400	-9.809800	27.084417	7.400793E-5	20.725179
2203.586837	-3.018800	3.263900	-9.851400	27.069759	7.027866E-5	20.742681
2204.587061	-2.998100	3.263100	-9.781900	27.113451	7.314987E-5	20.731621
2205.589331	-3.000300	3.264600	-9.793600	27.161587	7.473399E-5	20.723609
2206.588239	-3.002700	3.263000	-9.796900	27.149599	7.407394E-5	20.736208
2207.588017	-2.983900	3.264500	-9.740100	27.172730	7.278684E-5	20.729127
2208.588652	-2.988400	3.262300	-9.748000	27.225106	7.229181E-5	20.720641
2209.589180	-2.995900	3.262100	-9.771800	27.261232	7.186278E-5	20.729952
2210.589992	-2.981300	3.262800	-9.726900	27.249325	7.070769E-5	20.717500
2211.588771	-2.980400	3.262300	-9.722000	27.261183	7.070769E-5	20.738438
2212.589870	-2.992700	3.261400	-9.759500	27.287752	7.041067E-5	20.752361
2213.589699	-2.982700	3.260800	-9.725400	27.326159	7.239081E-5	20.731726
2214.588951	-2.998500	3.261000	-9.777200	27.353846	7.229181E-5	20.724490
2215.589045	-3.016400	3.259800	-9.833100	27.315140	7.252282E-5	20.713528
2216.592888	-2.996400	3.259300	-9.765700	27.303436	7.149975E-5	20.715031
2217.591919	-2.976200	3.259300	-9.699800	27.213101	6.981663E-5	20.732274
2218.590009	-2.991000	3.259100	-9.747000	27.202461	7.054268E-5	20.718252
2219.590752	-3.004700	3.258200	-9.789000	27.174616	6.684641E-5	20.725333
2220.592291	-2.971300	3.258000	-9.679200	27.152906	6.717643E-5	20.722938
2221.594981	-3.008100	3.256700	-9.796100	27.076286	6.724244E-5	20.747349
2222.592010	-3.008100	3.257900	-9.799500	27.067549	6.849653E-5	20.721965
2223.592406	-2.962000	3.257200	-9.646900	27.115858	6.951960E-5	20.718867
2224.592072	-2.977200	3.256500	-9.694100	27.162586	6.852953E-5	20.716078
2225.591306	-3.004500	3.256000	-9.782100	27.195610	6.701142E-5	20.725112
2226.599985	-2.986700	3.256100	-9.724300	27.257988	6.691241E-5	20.721473
2227.593890	-2.984100	3.255300	-9.713500	27.247122	6.701142E-5	20.710542
2228.592312	-3.001500	3.254700	-9.768800	27.252901	6.849653E-5	20.719675
2229.593855	-3.014800	3.252800	-9.805400	27.277063	6.516328E-5	20.715530
2230.594592	-2.985200	3.252900	-9.709700	27.332513	6.806750E-5	20.704926
2231.594216	-3.005000	3.253900	-9.777000	27.285897	6.928859E-5	20.707820
2232.595170	-3.010300	3.252500	-9.790000	27.215709	6.671440E-5	20.721621
2233.593949	-3.009900	3.252000	-9.787400	27.236720	6.707742E-5	20.729478
2234.594322	-2.986800	3.252300	-9.713400	27.258086	6.826551E-5	20.705923
2235.597146	-2.995900	3.253200	-9.744000	27.219124	6.760546E-5	20.712253
2236.596306	-2.984100	3.252600	-9.704800	27.197887	6.503128E-5	20.727402
2237.597701	-3.007700	3.250800	-9.776700	27.182257	6.592234E-5	20.714526
2238.597101	-3.010200	3.249600	-9.781300	27.239077	6.562532E-5	20.712407
2239.596092	-2.998400	3.250100	-9.744600	27.286858	6.707742E-5	20.717321
2240.600496	-3.009300	3.248800	-9.776000	27.287078	6.536130E-5	20.702369
2241.596839	-2.978900	3.250400	-9.681400	27.268118	6.592234E-5	20.716963
2242.597266	-3.053600	3.247200	-9.914300	27.267874	6.453624E-5	20.702492
2243.612092	-3.061800	3.248300	-9.944800	27.296816	6.334815E-5	20.702208
2244.599352	-3.000100	3.246900	-9.739600	27.297839	6.513028E-5	20.704185
2245.600742	-2.988300	3.246500	-9.700300	27.269403	6.384319E-5	20.702134
2246.604618	-2.990500	3.247400	-9.711000	27.293395	6.420621E-5	20.711568
2247.600888	-3.004500	3.245600	-9.750400	27.306195	6.216006E-5	20.713065
2248.603840	-3.024000	3.245900	-9.815100	27.339134	6.381019E-5	20.717751
2249.602329	-3.012800	3.245400	-9.777000	27.366392	6.176404E-5	20.703919
2250.601974	-3.005500	3.244400	-9.749900	27.321890	6.470125E-5	20.686651
2251.602048	-3.016900	3.243200	-9.783200	27.329652	6.173103E-5	20.692088
2252.602905	-2.985000	3.245300	-9.686100	27.359689	6.077396E-5	20.715194
2253.604162	-2.985900	3.245400	-9.689600	27.361599	6.311713E-5	20.718538
2254.603690	-2.981300	3.243500	-9.669200	27.335325	6.107099E-5	20.712496
2255.604506	-3.010100	3.242000	-9.758700	27.339396	6.301813E-5	20.708531
2256.605116	-3.006900	3.243000	-9.750500	27.386286	6.291912E-5	20.713027
2257.604470	-2.988200	3.243100	-9.690700	27.375089	6.143401E-5	20.696546
2258.604253	-3.023700	3.241900	-9.800400	27.365167	6.100498E-5	20.702212
2259.605664	-2.991000	3.241300	-9.693600	27.343265	6.093898E-5	20.698197
2260.605940	-2.993500	3.240200	-9.698800	27.359071	5.938786E-5	20.702717
2261.607012	-2.996800	3.241200	-9.712600	27.331579	5.753973E-5	20.705882
2262.608682	-2.995400	3.240200	-9.705100	27.355049	5.882682E-5	20.711949
2263.606701	-2.978300	3.240600	-9.651000	27.392609	6.196205E-5	20.694730
2264.609900	-2.995300	3.239500	-9.701800	27.419596	5.744072E-5	20.686317
2265.607102	-3.022300	3.238600	-9.787200	27.503494	5.734171E-5	20.692015
2266.606507	-3.020100	3.238200	-9.778400	27.471569	5.760573E-5	20.684076
2267.606921	-3.001600	3.236300	-9.712900	27.411842	5.720970E-5	20.710761
2268.609569	-2.996200	3.238300	-9.701300	27.392046	5.912384E-5	20.683732
2269.611496	-2.998900	3.237600	-9.707500	27.290640	5.572459E-5	20.713065
2270.610730	-3.011700	3.237200	-9.748200	27.260985	5.793576E-5	20.700304
2271.608787	-2.999100	3.236000	-9.703500	27.253694	5.727571E-5	20.707196
2272.609544	-2.983000	3.235000	-9.649500	27.300954	5.833178E-5	20.683135
2273.611318	-3.002300	3.234600	-9.709900	27.297190	5.681367E-5	20.679822
2274.608473	-3.002500	3.234500	-9.710600	27.325674	5.569159E-5	20.725548
2275.611738	-2.998900	3.236100	-9.703800	27.344650	5.621963E-5	20.694375
2276.613054	-2.995700	3.234200	-9.688000	27.394148	5.489953E-5	20.695804
2277.608734	-2.994500	3.234400	-9.684200	27.380455	5.539457E-5	20.701944
2278.611794	-2.988500	3.238200	-9.677000	27.390101	5.522956E-5	20.707856
2279.614753	-3.026300	3.233000	-9.783100	27.443587	5.628563E-5	20.688642
2280.609712	-3.018700	3.232300	-9.755900	27.476584	5.806777E-5	20.698607
2281.609682	-3.020900	3.231400	-9.760700	27.500026	5.466852E-5	20.697535
2282.609188	-2.999400	3.230500	-9.689100	27.501765	5.430549E-5	20.706872
2283.608989	-3.005200	3.229800	-9.705300	27.504323	5.404147E-5	20.708023
2284.611578	-2.994500	3.231900	-9.676500	27.480110	5.579060E-5	20.698361
2285.613276	-2.987700	3.231400	-9.653800	27.474241	5.450350E-5	20.711898
2286.610580	-3.008500	3.229300	-9.714900	27.484407	5.179731E-5	20.696994
2287.610380	-2.990900	3.230000	-9.659800	27.549638	5.285338E-5	20.680120
2288.615557	-2.992000	3.230900	-9.666700	27.557510	5.262237E-5	20.694679
2289.611151	-2.975600	3.229000	-9.607300	27.454618	5.225934E-5	20.710173
2290.613151	-2.986100	3.228100	-9.638400	27.422154	5.262237E-5	20.693632
2291.612134	-2.983700	3.228300	-9.631800	27.439145	5.374445E-5	20.694605
2292.612668	-2.992200	3.227300	-9.656000	27.525684	5.136827E-5	20.679726
2293.613137	-3.002400	3.226300	-9.686100	27.568673	5.318341E-5	20.709231
2294.613320	-3.010400	3.225000	-9.707900	27.540324	5.123626E-5	20.706313
2295.614275	-3.023100	3.224600	-9.747600	27.549976	5.031220E-5	20.698954
2296.613032	-2.986800	3.225400	-9.632500	27.553251	5.222634E-5	20.689919
2297.613040	-2.994700	3.225800	-9.659500	27.528843	4.905810E-5	20.707089
2298.615388	-3.022900	3.222700	-9.740500	27.486006	5.080723E-5	20.734641
2299.613771	-2.999200	3.223000	-9.665400	27.461645	4.971815E-5	20.707760
2300.620379	-3.000900	3.223200	-9.672100	27.468568	5.120326E-5	20.688644
2301.613714	-2.996200	3.222600	-9.654900	27.487940	4.886009E-5	20.704342
2302.613200	-2.992400	3.223400	-9.645000	27.484267	4.899210E-5	20.703018
2303.612791	-3.000300	3.222000	-9.665800	27.423648	4.773801E-5	20.697506
2304.612856	-2.994000	3.221800	-9.645100	27.477847	4.942113E-5	20.688497
2305.613724	-2.984900	3.221400	-9.615400	27.516963	4.697895E-5	20.693713
2306.616922	-3.009500	3.220500	-9.691100	27.559555	5.087324E-5	20.694366
2307.615429	-3.010800	3.221800	-9.700300	27.621141	4.833205E-5	20.685209
2308.615274	-2.984500	3.220900	-9.612700	27.591642	4.912411E-5	20.714799
2309.617022	-3.001500	3.220300	-9.664500	27.545246	4.813404E-5	20.690400
2310.616351	-3.028400	3.218300	-9.745200	27.613088	4.886009E-5	20.723102
2311.620282	-3.023700	3.219300	-9.733300	27.569011	5.021319E-5	20.698191
2312.615956	-3.033200	3.217300	-9.757700	27.582702	4.796902E-5	20.695845
2313.615810	-2.995700	3.218000	-9.639800	27.500856	4.922312E-5	20.697422
2314.616428	-3.005800	3.217800	-9.670200	27.508990	4.816704E-5	20.706080
2315.616249	-2.970900	3.216600	-9.555700	27.525491	4.849706E-5	20.696603
2316.618468	-2.966400	3.218300	-9.545800	27.537849	4.813404E-5	20.706666
2317.617220	-2.989300	3.214800	-9.608400	27.521305	4.621990E-5	20.705669
2318.616627	-2.996600	3.215500	-9.635200	27.559827	4.866208E-5	20.705072
2319.617440	-2.987400	3.215500	-9.603900	27.608340	4.740798E-5	20.705047
2320.617224	-2.991900	3.216600	-9.622600	27.651099	4.800203E-5	20.683585
2321.616653	-3.006400	3.213200	-9.659200	27.616700	4.605488E-5	20.703976
2322.618724	-2.994900	3.212300	-9.619800	27.563028	4.697895E-5	20.695964
2323.617406	-3.001600	3.212700	-9.643000	27.514617	4.803503E-5	20.694197
2324.616765	-3.010900	3.212400	-9.671700	27.549148	4.711096E-5	20.703810
2325.618499	-3.019900	3.210800	-9.695500	27.544704	4.549384E-5	20.707400
2326.619544	-3.007900	3.211500	-9.659000	27.518743	4.671493E-5	20.715419
2327.620170	-3.002900	3.211000	-9.641400	27.521986	4.605488E-5	20.707302
2328.618325	-2.993400	3.211900	-9.613400	27.587570	4.645091E-5	20.706434
2329.619556	-3.002000	3.209500	-9.633900	27.628390	4.555985E-5	20.699616
2330.620832	-2.993000	3.209700	-9.605300	27.659099	4.443777E-5	20.706336
2331.621422	-3.015400	3.208300	-9.673500	27.662453	4.546084E-5	20.706392
2332.625562	-2.998600	3.207800	-9.618100	27.639932	4.374472E-5	20.706964
2333.625573	-2.983800	3.208100	-9.571100	27.648414	4.753999E-5	20.708861
2334.621716	-3.002600	3.207400	-9.630000	27.697671	4.631890E-5	20.702475
2335.622479	-2.987400	3.207200	-9.580300	27.654638	4.519682E-5	20.719866
2336.622200	-2.989400	3.206800	-9.585200	27.679790	4.582387E-5	20.703448
2337.623505	-2.992100	3.206400	-9.593000	27.630319	4.252363E-5	20.722423
2338.622609	-2.991800	3.206400	-9.592500	27.644822	4.354670E-5	20.696711
2339.623755	-3.012500	3.204900	-9.653700	27.617076	4.506481E-5	20.692025
2340.622785	-3.001700	3.204000	-9.615900	27.598056	4.209459E-5	20.716037
2341.623245	-3.001000	3.203600	-9.613100	27.628954	4.311767E-5	20.716307
2342.625392	-3.033500	3.201900	-9.712000	27.623527	4.348070E-5	20.711319
2343.626489	-3.000300	3.202800	-9.608300	27.625387	4.268864E-5	20.717459
2344.624101	-2.998300	3.203500	-9.603700	27.671095	4.318367E-5	20.729314
2345.628273	-2.994300	3.201800	-9.585500	27.733623	4.232561E-5	20.707835
2346.626192	-2.982200	3.201700	-9.547600	27.722259	4.414074E-5	20.711098
2347.626705	-3.005800	3.201200	-9.620600	27.695426	4.390973E-5	20.710648
2348.630692	-2.995000	3.199400	-9.581200	27.711746	4.324968E-5	20.690086
2349.627753	-2.988200	3.203100	-9.571000	27.652773	4.417375E-5	20.721309
2350.626879	-2.999300	3.200600	-9.599000	27.649408	4.235861E-5	20.706068
2351.627223	-3.007100	3.199700	-9.621000	27.680306	4.407474E-5	20.717245
2352.626787	-2.977800	3.198900	-9.523300	27.696204	4.354670E-5	20.714751
2353.630742	-3.000700	3.197200	-9.592700	27.700316	3.955341E-5	20.700870
2354.630703	-3.013600	3.197000	-9.633300	27.700120	4.176457E-5	20.712527
2355.627933	-2.979300	3.198100	-9.527400	27.732834	4.070849E-5	20.735966
2356.630841	-3.010200	3.196600	-9.621800	27.705212	4.084050E-5	20.734723
2357.631136	-3.009300	3.194800	-9.612400	27.665974	4.179757E-5	20.703771
2358.628567	-2.989400	3.194900	-9.550000	27.694148	4.074149E-5	20.717898
2359.632193	-2.985300	3.194700	-9.535600	27.744816	3.968542E-5	20.739963
2360.630880	-2.994500	3.193800	-9.562700	27.779528	4.173157E-5	20.718945
2361.629506	-3.008900	3.193000	-9.606600	27.733654	3.965241E-5	20.731101
2362.631259	-2.998600	3.191300	-9.568100	27.672578	4.285365E-5	20.718003
2363.628994	-2.962700	3.192400	-9.457200	27.697502	3.925639E-5	20.724593
2364.629678	-2.967900	3.193500	-9.476900	27.771103	3.985043E-5	20.732278
2365.628768	-2.982100	3.191200	-9.514000	27.752452	4.018045E-5	20.717301
2366.630023	-3.018000	3.191600	-9.631400	27.690532	4.034547E-5	20.746029
2367.630574	-2.993100	3.192100	-9.553500	27.670124	3.945440E-5	20.724543
2368.629855	-3.021200	3.188500	-9.632700	27.698769	3.928939E-5	20.719229
2369.631603	-3.012500	3.189300	-9.606400	27.719526	3.866234E-5	20.724944
2370.633185	-3.018300	3.188300	-9.622600	27.696682	3.938840E-5	20.729457
2371.630443	-3.008300	3.188600	-9.591400	27.667394	3.879435E-5	20.724168
2372.631364	-3.030900	3.187000	-9.658800	27.656221	3.886036E-5	20.713398
2373.632215	-3.023200	3.187100	-9.634200	27.715212	4.064249E-5	20.739570
2374.632180	-3.024200	3.187200	-9.638000	27.783685	4.282065E-5	20.725024
2375.633970	-2.986400	3.185600	-9.512600	27.828437	3.915738E-5	20.741614
2376.632761	-2.997700	3.185700	-9.548900	27.805113	3.678120E-5	20.732840
2377.631876	-3.009000	3.184600	-9.581000	27.773895	3.942140E-5	20.722285
2378.632161	-3.006100	3.183400	-9.568900	27.765927	3.856333E-5	20.741768
2379.635289	-2.972800	3.184100	-9.465100	27.792417	3.780428E-5	20.736658
2380.635316	-2.968300	3.184000	-9.449600	27.764929	3.948740E-5	20.722271
2381.636649	-2.984100	3.182600	-9.496700	27.777162	3.631917E-5	20.738849
2382.632896	-2.980500	3.180600	-9.479700	27.755140	3.770527E-5	20.734705
2383.634060	-2.990400	3.181100	-9.511700	27.761980	3.823331E-5	20.767195
2384.633354	-3.011800	3.181100	-9.579900	27.748543	3.928939E-5	20.717160
2385.633164	-3.010200	3.179700	-9.570800	27.807064	3.589014E-5	20.746658
2386.645865	-2.991100	3.178800	-9.507700	27.849386	3.909137E-5	20.733774
2387.633767	-2.983400	3.179700	-9.485300	27.915422	3.697922E-5	20.733855
2388.634548	-2.986600	3.179900	-9.495700	27.845177	3.579113E-5	20.734280
2389.636202	-3.011100	3.176900	-9.565200	27.768454	3.414101E-5	20.759011
2390.635236	-2.994400	3.176300	-9.510500	27.738813	3.559312E-5	20.749095
2391.636856	-2.996200	3.175800	-9.514500	27.794263	3.556011E-5	20.737568
2392.634340	-2.993600	3.175200	-9.503900	27.860459	3.457004E-5	20.759145
2393.632751	-2.984800	3.176000	-9.478400	27.875469	3.506508E-5	20.756233
2394.634573	-3.001400	3.173800	-9.525000	27.895971	3.357997E-5	20.738934
2395.634610	-3.014500	3.173100	-9.564400	27.862815	3.354697E-5	20.765309
2396.634547	-2.991400	3.172700	-9.490200	27.811609	3.562612E-5	20.742696
2397.638606	-3.004400	3.171900	-9.529200	27.818051	3.414101E-5	20.749180
2398.634080	-2.995300	3.173100	-9.503700	27.806279	3.414101E-5	20.756774
2399.634424	-3.002400	3.170700	-9.518700	27.776761	3.334895E-5	20.745559
2400.641577	-3.011700	3.169400	-9.544800	27.800455	3.433902E-5	20.735738
2401.634202	-3.004900	3.169000	-9.521900	27.809602	3.103878E-5	20.764385
2402.636710	-3.022700	3.168100	-9.575500	27.760100	3.275491E-5	20.767673
2403.633544	-3.006500	3.167900	-9.523500	27.824225	3.420702E-5	20.763454
2404.636404	-3.010100	3.167000	-9.532100	27.884382	3.278791E-5	20.751927
2405.635177	-3.025500	3.165300	-9.575800	27.876275	3.351396E-5	20.756096
2406.635429	-3.007100	3.164600	-9.515400	27.867268	3.176484E-5	20.738021
2407.637114	-3.025200	3.164700	-9.573100	27.922963	3.295292E-5	20.756619
2408.636699	-2.998800	3.164800	-9.490100	27.894599	2.988370E-5	20.748934
2409.635104	-3.011500	3.163100	-9.525100	27.912794	3.216086E-5	20.754919
2410.635686	-3.008600	3.162900	-9.515000	27.964558	3.047774E-5	20.752018
2411.638496	-3.035700	3.161300	-9.595600	27.978195	3.018072E-5	20.759580
2412.635192	-2.986700	3.163600	-9.447700	28.024243	3.183084E-5	20.758516
2413.636076	-3.006700	3.161500	-9.504900	28.010307	2.968568E-5	20.768196
2414.634243	-3.002600	3.161100	-9.490600	27.933798	3.001571E-5	20.783172
2415.634465	-3.022600	3.159100	-9.548200	27.911803	2.886062E-5	20.762931
2416.639564	-3.003900	3.160000	-9.492000	27.846050	3.057675E-5	20.773092
2417.634804	-3.016700	3.157900	-9.526100	27.850664	3.067576E-5	20.748811
2418.642869	-3.001300	3.158600	-9.479100	27.889711	2.991670E-5	20.768670
2419.636349	-3.004300	3.155600	-9.479900	27.869857	2.866261E-5	20.762913
2420.637270	-3.012400	3.155200	-9.504300	27.844588	2.823358E-5	20.766405
2421.636453	-2.990900	3.155100	-9.435800	27.850095	3.123680E-5	20.779059
2422.636093	-2.986200	3.154200	-9.418500	27.882180	2.938866E-5	20.767729
2423.637737	-2.987200	3.153400	-9.419100	27.861377	2.994970E-5	20.768129
2424.640753	-3.000000	3.152500	-9.457100	27.925276	2.899263E-5	20.773647
2425.638002	-3.011500	3.151900	-9.491200	27.979750	2.915764E-5	20.785329
2426.639026	-2.996500	3.151100	-9.441600	28.035377	3.212786E-5	20.773991
2427.641584	-3.010200	3.151100	-9.483700	28.007861	2.895963E-5	20.771424
2428.640042	-3.039800	3.149600	-9.573300	27.985225	2.727651E-5	20.776141
2429.645604	-2.985300	3.148400	-9.397900	27.983617	2.783755E-5	20.761719
2430.642839	-3.000400	3.148300	-9.444500	27.997626	2.678147E-5	20.773450
2431.643511	-2.999300	3.148300	-9.441900	28.015178	2.707849E-5	20.762667
2432.641278	-3.014000	3.145600	-9.479500	28.082640	2.826658E-5	20.767514
2433.644338	-3.008300	3.146300	-9.464100	28.115458	3.011471E-5	20.764041
2434.642416	-3.010300	3.144300	-9.464100	28.128506	2.843159E-5	20.768167
2435.641645	-3.019300	3.145200	-9.495100	28.146153	2.757353E-5	20.774553
2436.643128	-3.023200	3.143100	-9.500100	28.123601	2.661646E-5	20.784092
2437.642243	-2.999500	3.143100	-9.427300	28.082598	2.694648E-5	20.776481
2438.643260	-3.018100	3.141300	-9.479500	28.064173	2.424028E-5	20.788279
2439.644218	-3.008600	3.139900	-9.445700	27.980033	2.582440E-5	20.764276
2440.642592	-3.009500	3.140200	-9.449300	27.936003	2.400927E-5	20.784918
2441.643121	-3.005000	3.139200	-9.432300	27.937636	2.661646E-5	20.779449
2442.645836	-2.989200	3.139900	-9.385200	27.924299	2.648445E-5	20.784043
2443.643844	-3.019500	3.137300	-9.471100	27.952393	2.638544E-5	20.801889
2444.649051	-3.006200	3.137100	-9.429300	28.040743	2.232614E-5	20.798359
2445.643077	-2.992200	3.136100	-9.382700	28.103940	2.612142E-5	20.772361
2446.643961	-2.993800	3.134900	-9.384700	28.165372	2.721050E-5	20.782522
2447.643026	-2.984100	3.134500	-9.352100	28.205681	2.440530E-5	20.779955
2448.643307	-2.985800	3.133700	-9.356000	28.189343	2.338222E-5	20.787215
2449.644157	-2.975500	3.134400	-9.326000	28.139370	2.374525E-5	20.787639
2450.647773	-2.991700	3.132200	-9.369800	28.078488	2.470232E-5	20.783723
2451.643301	-2.998200	3.131600	-9.388100	28.074842	2.344822E-5	20.787165
2452.643693	-3.006800	3.130300	-9.411400	28.066015	2.331622E-5	20.812893
2453.648066	-3.008400	3.128300	-9.410400	28.125143	2.430629E-5	20.777584
2454.643170	-3.006000	3.128300	-9.403000	28.200371	2.371224E-5	20.788360
2455.648196	-2.993700	3.128600	-9.364200	28.200151	2.440530E-5	20.804734
2456.644359	-2.988800	3.127500	-9.346700	28.145542	2.275517E-5	20.788163
2457.645474	-2.994600	3.126900	-9.363300	28.184512	2.285418E-5	20.803687
2458.645420	-2.988900	3.125300	-9.339500	28.197032	2.285418E-5	20.805387
2459.646883	-2.997000	3.124800	-9.364300	28.140912	2.173210E-5	20.786821
2460.648806	-2.991100	3.124400	-9.343800	28.117558	2.377825E-5	20.792233
2461.645135	-2.987400	3.122500	-9.327800	28.105263	2.087404E-5	20.813047
2462.645369	-3.006400	3.120900	-9.381700	28.097255	2.288718E-5	20.785072
2463.645593	-2.980300	3.122000	-9.303700	28.070285	2.070902E-5	20.800596
2464.646798	-2.991900	3.121000	-9.336700	28.048269	2.338222E-5	20.801667
2465.645877	-3.012600	3.118600	-9.393000	28.110151	2.140207E-5	20.802321
2466.646619	-2.997700	3.118500	-9.348100	28.172835	2.186411E-5	20.815639
2467.646293	-3.006000	3.116600	-9.366900	28.206825	2.107205E-5	20.812875
2468.647033	-3.007100	3.117200	-9.372900	28.241180	2.325021E-5	20.805264
2469.648892	-2.977300	3.114800	-9.272600	28.237608	2.110505E-5	20.802616
2470.647431	-3.005800	3.113100	-9.356700	28.275162	2.034600E-5	20.804389
2471.649849	-2.996900	3.113400	-9.329100	28.299081	2.235914E-5	20.814722
2472.647519	-3.030700	3.112300	-9.431100	28.321337	1.935592E-5	20.800621
2473.647217	-3.005300	3.112200	-9.352300	28.236642	2.186411E-5	20.807807
2474.646945	-3.004400	3.112000	-9.349300	28.282770	1.978496E-5	20.819636
2475.648819	-3.035100	3.108100	-9.432900	28.269803	2.054401E-5	20.814642
2476.651859	-3.016200	3.107700	-9.372800	28.281748	2.037900E-5	20.814340
2477.656834	-2.985800	3.108700	-9.280600	28.267895	2.090704E-5	20.817462
2478.648944	-3.013600	3.105800	-9.358700	28.228280	1.948793E-5	20.828785
2479.648329	-2.992200	3.105400	-9.290800	28.218146	1.915791E-5	20.828065
2480.654142	-2.994800	3.105100	-9.298000	28.215913	1.932292E-5	20.824869
2481.649484	-3.009500	3.103800	-9.340300	28.210806	1.955394E-5	20.824943
2482.653503	-2.977700	3.104200	-9.242400	28.275594	1.895989E-5	20.807196
2483.647377	-2.994000	3.102200	-9.286700	28.301202	1.793682E-5	20.832505
2484.649214	-3.004300	3.101500	-9.317000	28.317653	1.922391E-5	20.805921
2485.649450	-3.047000	3.098600	-9.441100	28.332552	1.922391E-5	20.833723
2486.649736	-3.017800	3.099600	-9.353000	28.358500	2.034600E-5	20.839462
2487.650107	-3.007000	3.097000	-9.312300	28.306700	1.876188E-5	20.827609
2488.649479	-3.012500	3.095300	-9.323300	28.273257	1.942193E-5	20.841826
2489.648931	-2.986500	3.095800	-9.244800	28.273655	1.849786E-5	20.827054
2490.653633	-3.006800	3.094500	-9.303800	28.277594	1.876188E-5	20.836709
2491.649077	-2.996200	3.094300	-9.270700	28.228915	1.664973E-5	20.822787
2492.649221	-3.009400	3.093100	-9.307400	28.294596	1.988396E-5	20.835336
2493.649239	-3.015000	3.091300	-9.319900	28.365801	1.905890E-5	20.825003
2494.649720	-2.996400	3.092400	-9.265400	28.349710	1.958694E-5	20.823974
2495.650537	-3.004800	3.089300	-9.280600	28.297488	1.806883E-5	20.828290
2496.649210	-3.026400	3.086900	-9.341400	28.284895	1.721077E-5	20.817982
2497.648981	-3.002900	3.086700	-9.268200	28.226840	1.849786E-5	20.820697
2498.653850	-2.982800	3.088000	-9.209900	28.246718	1.757379E-5	20.808468
2499.648736	-2.982100	3.086800	-9.204400	28.326525	1.839885E-5	20.846146
2500.649250	-3.003000	3.084500	-9.262400	28.375143	1.866287E-5	20.833935
2501.650379	-2.998600	3.083900	-9.246700	28.402234	1.866287E-5	20.842248
2502.650601	-2.974100	3.081900	-9.164400	28.454494	1.681474E-5	20.832284
2503.655870	-2.995400	3.080900	-9.227600	28.416849	1.730977E-5	20.840844
2504.654746	-2.996400	3.080600	-9.229900	28.396479	1.866287E-5	20.852100
2505.653437	-2.982400	3.078100	-9.179200	28.400710	1.833285E-5	20.867265
2506.652452	-3.003700	3.077100	-9.241300	28.394516	1.767280E-5	20.848226
2507.653685	-2.995300	3.077500	-9.217200	28.442844	1.813483E-5	20.856588
2508.653792	-2.986200	3.075500	-9.182700	28.494558	1.790382E-5	20.844654
2509.658026	-2.997000	3.074600	-9.213000	28.535715	1.618769E-5	20.850067
2510.655740	-3.012700	3.071800	-9.253000	28.518961	1.853086E-5	20.851212
2511.656231	-3.006000	3.072300	-9.234400	28.442513	1.730977E-5	20.849617
2512.656338	-3.020000	3.069100	-9.268100	28.376560	2.008198E-5	20.855749
2513.657001	-2.995800	3.069600	-9.195300	28.317990	1.846486E-5	20.880699
2514.658227	-2.992700	3.067800	-9.180000	28.314052	1.899290E-5	20.835959
2515.657968	-3.008000	3.066900	-9.224400	28.283954	1.919091E-5	20.849277
2516.656996	-3.017500	3.065800	-9.249600	28.311599	1.803583E-5	20.856248
2517.657381	-3.001600	3.066200	-9.202700	28.365080	1.754079E-5	20.859363
2518.657913	-3.015200	3.063900	-9.238000	28.410017	1.688074E-5	20.858145
2519.660745	-2.986000	3.062800	-9.143900	28.445105	1.780481E-5	20.851279
2520.657093	-3.015900	3.061600	-9.232600	28.396110	1.658372E-5	20.851254
2521.656848	-3.012200	3.059200	-9.214100	28.380027	1.813483E-5	20.852128
2522.657820	-2.964700	3.060700	-9.072400	28.376260	1.602268E-5	20.837904
2523.660249	-2.987800	3.057400	-9.134400	28.394673	1.664973E-5	20.865927
2524.662414	-2.995600	3.055700	-9.152700	28.384680	1.486759E-5	20.844486
2525.661014	-3.024500	3.054500	-9.237700	28.381457	1.556064E-5	20.855939
2526.659200	-3.004400	3.054600	-9.176200	28.411380	1.496660E-5	20.865207
2527.659857	-2.989700	3.054300	-9.130300	28.478731	1.717776E-5	20.834406
2528.661373	-3.007000	3.053500	-9.181100	28.480241	1.572566E-5	20.851574
2529.658871	-3.048700	3.049500	-9.295200	28.447411	1.367951E-5	20.836057
2530.663812	-3.000600	3.049100	-9.148200	28.417984	1.704575E-5	20.845779
2531.659006	-3.001400	3.047500	-9.145100	28.404042	1.641871E-5	20.838379
2532.659580	-3.012600	3.046800	-9.177600	28.388098	1.641871E-5	20.828489
2533.661027	-3.000600	3.045700	-9.138000	28.436518	1.453757E-5	20.847373
2534.660569	-3.015700	3.043200	-9.176100	28.488748	1.585767E-5	20.858243
2535.662430	-2.983600	3.043600	-9.080000	28.554186	1.569265E-5	20.842590
2536.659856	-2.990500	3.042200	-9.097500	28.592272	1.668273E-5	20.838273
2537.659931	-3.015600	3.041100	-9.169500	28.519816	1.565965E-5	20.842116
2538.660368	-3.010600	3.039600	-9.150000	28.501429	1.655072E-5	20.823600
2539.660020	-2.999800	3.038400	-9.114300	28.481678	1.470258E-5	20.840693
2540.660288	-3.008500	3.037500	-9.137000	28.515505	1.427355E-5	20.844413
2541.663005	-3.010900	3.035500	-9.138700	28.490129	1.473558E-5	20.827867
2542.662277	-2.997600	3.034300	-9.095100	28.455506	1.476859E-5	20.829511
2543.663165	-3.003300	3.032900	-9.107900	28.478034	1.358050E-5	20.829437
2544.668804	-3.030900	3.031700	-9.187900	28.517957	1.526362E-5	20.836451
2545.663894	-3.035100	3.030000	-9.195500	28.560250	1.651772E-5	20.827835
2546.665965	-3.005700	3.029300	-9.104900	28.625422	1.532963E-5	20.825668
2547.665104	-2.995900	3.028100	-9.071400	28.665591	1.483459E-5	20.834357
2548.663997	-2.966300	3.027700	-8.980200	28.699998	1.582466E-5	20.844357
2549.666896	-3.007600	3.024600	-9.096100	28.721310	1.496660E-5	20.808452
2550.666380	-2.984300	3.024400	-9.025400	28.718412	1.582466E-5	20.839197
2551.667524	-2.994500	3.022600	-9.050700	28.702603	1.457057E-5	20.842713
2552.666627	-3.011700	3.021900	-9.100400	28.742347	1.453757E-5	20.809726
2553.666225	-3.007000	3.018700	-9.076400	28.756064	1.582466E-5	20.817380
2554.666482	-2.996100	3.018900	-9.044300	28.736325	1.377851E-5	20.816937
2555.666029	-3.009600	3.016000	-9.076100	28.761542	1.486759E-5	20.829061
2556.666881	-3.042500	3.015600	-9.173700	28.658725	1.565965E-5	20.813218
2557.668605	-3.001800	3.016000	-9.052600	28.638628	1.473558E-5	20.816210
2558.667125	-2.999300	3.014100	-9.039200	28.668635	1.499960E-5	20.811820
2559.666975	-3.027100	3.011500	-9.115800	28.669130	1.661672E-5	20.822276
2560.668383	-2.996100	3.011100	-9.021200	28.691085	1.371251E-5	20.816888
2561.668706	-2.982700	3.009000	-8.973900	28.701190	1.486759E-5	20.799092
2562.672414	-3.007300	3.007900	-9.045000	28.741088	1.364650E-5	20.829795
2563.668608	-2.995900	3.006800	-9.006800	28.673343	1.427355E-5	20.810397
2564.668274	-3.016700	3.005600	-9.066400	28.643109	1.542864E-5	20.823094
2565.670456	-3.003100	3.003800	-9.019600	28.651712	1.424055E-5	20.804732
2566.668816	-3.025600	3.003300	-9.085900	28.692943	1.447156E-5	20.813070
2567.669178	-3.000800	3.000100	-9.002300	28.606113	1.410854E-5	20.805747
2568.673209	-2.980600	3.000200	-8.942100	28.599236	1.556064E-5	20.808778
2569.670674	-3.013100	2.997500	-9.031100	28.666905	1.364650E-5	20.824302
2570.670690	-3.001400	2.997500	-8.995800	28.730474	1.552764E-5	20.836647
2571.676396	-3.009600	2.995300	-9.013700	28.734546	1.384452E-5	20.796180
2572.669918	-2.972800	2.994400	-8.900400	28.667272	1.407554E-5	20.805231
2573.675791	-2.998500	2.992800	-8.973500	28.623521	1.450457E-5	20.807633
2574.672106	-2.979300	2.992100	-8.912000	28.618807	1.523062E-5	20.803359
2575.673397	-3.022500	2.989700	-9.034200	28.611470	1.424055E-5	20.799288
2576.673381	-3.021200	2.987900	-9.025800	28.564770	1.371251E-5	20.790188
2577.673996	-3.021300	2.986800	-9.022800	28.567985	1.473558E-5	20.790107
2578.673857	-2.999200	2.986400	-8.955400	28.545338	1.255742E-5	20.805231
2579.674955	-2.970500	2.985900	-8.869000	28.582336	1.513161E-5	20.791758
2580.675094	-2.993500	2.983100	-8.928500	28.629959	1.460357E-5	20.809849
2581.674102	-2.992400	2.981700	-8.921600	28.590486	1.394353E-5	20.807078
2582.674995	-3.003800	2.980000	-8.950600	28.661225	1.311847E-5	20.816210
2583.674744	-3.003300	2.978100	-8.943300	28.684072	1.585767E-5	20.796549
2584.677299	-2.988500	2.978400	-8.900500	28.764544	1.575866E-5	20.817387
2585.676221	-3.034700	2.974100	-9.024100	28.718608	1.371251E-5	20.795298
2586.676692	-2.986500	2.974800	-8.883100	28.746656	1.391052E-5	20.792257
2587.679365	-3.000000	2.973100	-8.917900	28.794449	1.397653E-5	20.787294
2588.678617	-3.015200	2.970200	-8.955400	28.794156	1.417454E-5	20.811654
2589.683839	-3.027300	2.969700	-8.989600	28.706424	1.460357E-5	20.808631
2590.680619	-3.024700	2.968200	-8.976800	28.635810	1.285445E-5	20.776862
2591.680561	-2.986200	2.968000	-8.862100	28.598050	1.354750E-5	20.794782
2592.680177	-3.021900	2.965300	-8.959700	28.615567	1.288745E-5	20.777810
2593.681628	-3.003400	2.963700	-8.899900	28.651872	1.219440E-5	20.793988
2594.682884	-3.026600	2.962400	-8.965200	28.626872	1.176537E-5	20.800577
2595.685342	-2.992800	2.961200	-8.862000	28.589380	1.457057E-5	20.788895
2596.682920	-2.997800	2.959000	-8.869300	28.527436	1.245842E-5	20.770606
2597.683554	-2.995000	2.958300	-8.859800	28.523736	1.341549E-5	20.801968
2598.686207	-2.967600	2.958200	-8.777900	28.514448	1.245842E-5	20.782657
2599.683653	-3.012700	2.955100	-8.901600	28.529863	9.719215E-6	20.781586
2600.686328	-2.988300	2.953700	-8.825800	28.595274	1.321747E-5	20.792934
2601.683797	-2.991100	2.952400	-8.830400	28.632686	1.460357E-5	20.780828
2602.685489	-3.000200	2.949500	-8.848400	28.659495	1.351449E-5	20.774165
2603.687766	-2.976700	2.949900	-8.780300	28.647757	1.400953E-5	20.780834
2604.686386	-3.008700	2.947600	-8.868000	28.698446	1.189738E-5	20.800120
2605.686162	-3.028300	2.943900	-8.914400	28.743368	1.572566E-5	20.776616
2606.685635	-2.997600	2.944000	-8.823800	28.704883	1.410854E-5	20.770094
2607.685512	-3.004600	2.942800	-8.841100	28.698732	1.338248E-5	20.782865
2608.687138	-2.976600	2.941900	-8.755500	28.666013	1.156735E-5	20.781203
2609.684731	-3.005000	2.938600	-8.830200	28.678075	1.199638E-5	20.788137
2610.685935	-2.997300	2.937400	-8.803000	28.718615	1.265643E-5	20.791512
2611.688917	-3.002100	2.936700	-8.815100	28.752549	1.249142E-5	20.758363
2612.685604	-2.991400	2.934100	-8.775700	28.785792	1.437256E-5	20.804177
2613.688194	-2.998900	2.935300	-8.801400	28.824885	1.255742E-5	20.778123
2614.691591	-2.993000	2.931800	-8.773900	28.783146	1.239241E-5	20.791080
2615.689534	-3.005000	2.929100	-8.800500	28.742469	1.374551E-5	20.781874
2616.690754	-3.016400	2.928400	-8.832800	28.680973	1.209539E-5	20.779676
2617.689065	-3.023900	2.925800	-8.846600	28.703966	1.334948E-5	20.782921
2618.689148	-3.015000	2.924700	-8.817500	28.738923	1.305246E-5	20.776880
2619.689591	-3.016400	2.924000	-8.818700	28.773334	1.556064E-5	20.790206
2620.691881	-2.988700	2.921600	-8.730700	28.719598	1.552764E-5	20.785390
2621.691119	-2.987800	2.920300	-8.723900	28.713081	1.222740E-5	20.782145
2622.691876	-2.975500	2.919100	-8.684100	28.761817	1.074229E-5	20.775285
2623.689985	-3.022700	2.914700	-8.809100	28.763815	1.321747E-5	20.767341
2624.695462	-3.008000	2.914300	-8.765000	28.790750	1.160035E-5	20.774084
2625.691476	-2.978600	2.913200	-8.675800	28.840797	1.249142E-5	20.789412
2626.691084	-2.989800	2.912100	-8.706200	28.903494	1.133633E-5	20.789984
2627.691043	-2.999500	2.909600	-8.726600	28.926183	1.387752E-5	20.796721
2628.691597	-2.963900	2.907700	-8.617000	28.958956	1.255742E-5	20.773789
2629.691550	-2.984200	2.906100	-8.671400	28.956879	1.136934E-5	20.766480
2630.694875	-3.002100	2.902500	-8.712600	28.964921	1.374551E-5	20.775057
2631.692429	-2.988400	2.903200	-8.675400	28.927595	1.483459E-5	20.785815
2632.694500	-2.991000	2.899900	-8.672900	28.958828	1.381152E-5	20.767021
2633.692348	-3.011100	2.899200	-8.728500	28.996411	1.466958E-5	20.781653
2634.692215	-3.014100	2.896200	-8.728300	28.949732	1.523062E-5	20.782988
2635.693779	-2.984100	2.895500	-8.638900	28.937405	1.176537E-5	20.781474
2636.692176	-3.027300	2.892600	-8.755700	28.893164	1.242541E-5	20.781474
2637.695354	-3.027600	2.890800	-8.751200	28.926727	1.127033E-5	20.766923
2638.695083	-2.986600	2.889600	-8.629600	28.965807	1.443856E-5	20.782588
2639.693849	-3.015900	2.887200	-8.706400	28.935338	1.499960E-5	20.755683
2640.693033	-2.991800	2.885500	-8.632100	28.987462	1.292045E-5	20.756990
2641.693766	-2.986500	2.884700	-8.614000	28.891177	1.321747E-5	20.757186
2642.697201	-2.986400	2.881800	-8.605800	28.899307	1.341549E-5	20.772964
2643.697160	-2.981300	2.879400	-8.584100	28.877057	1.394353E-5	20.777101
2644.696282	-2.994800	2.877900	-8.617600	28.954941	1.443856E-5	20.782071
2645.695007	-3.009000	2.876600	-8.654900	28.976136	1.354750E-5	20.760277
2646.695421	-3.039500	2.875300	-8.737500	29.070832	1.334948E-5	20.760383
2647.700712	-2.971100	2.874900	-8.540900	29.014256	1.331648E-5	20.768338
2648.695258	-2.997300	2.871700	-8.605700	29.020747	1.440556E-5	20.778197
2649.696286	-3.017600	2.867900	-8.653700	29.036967	1.364650E-5	20.767987
2650.695796	-3.013800	2.866500	-8.638900	28.990140	1.298646E-5	20.767274
2651.698751	-2.979700	2.866000	-8.538000	28.989589	1.275544E-5	20.742062
2652.697766	-3.003000	2.863400	-8.597700	28.930070	1.440556E-5	20.771713
2653.701965	-2.999900	2.862000	-8.584600	28.962244	1.219440E-5	20.760980
2654.698412	-2.993400	2.859800	-8.560000	28.922167	1.084130E-5	20.766122
2655.699033	-3.015700	2.857100	-8.615200	28.907852	1.367951E-5	20.750277
2656.701581	-3.016100	2.855200	-8.610700	28.888726	1.275544E-5	20.761830
2657.699321	-2.972100	2.854200	-8.482100	28.924973	1.133633E-5	20.760888
2658.699898	-3.006000	2.851700	-8.571200	28.956262	1.189738E-5	20.740253
2659.696788	-3.003700	2.849700	-8.558200	28.953455	1.153435E-5	20.761608
2660.697721	-3.048800	2.846600	-8.676400	29.053030	1.242541E-5	20.772791
2661.697829	-2.998500	2.845900	-8.532400	29.132678	1.414154E-5	20.759164
2662.700244	-2.968700	2.844400	-8.443100	29.060297	1.232641E-5	20.769683
2663.699914	-3.003800	2.842100	-8.535700	29.084931	1.255742E-5	20.745191
2664.699445	-2.985900	2.840400	-8.480700	29.112646	1.407554E-5	20.763161
2665.700218	-2.976300	2.838200	-8.446700	29.140287	1.212839E-5	20.747390
2666.697638	-3.010600	2.834600	-8.532500	29.146355	1.100631E-5	20.752557
2667.700008	-3.007000	2.831900	-8.515100	29.110586	1.186437E-5	20.759662
2668.699736	-3.004200	2.829400	-8.498600	29.169607	1.242541E-5	20.758918
2669.699994	-2.977800	2.827800	-8.420000	29.217081	1.268943E-5	20.774990
2670.698646	-3.004000	2.825400	-8.487100	29.223571	1.123733E-5	20.757822
2671.699623	-2.995100	2.822700	-8.453500	29.239690	1.186437E-5	20.748461
2672.708346	-3.016600	2.820400	-8.506700	29.222752	1.374551E-5	20.756996
2673.700386	-2.998900	2.819200	-8.454000	29.258253	1.212839E-5	20.749624
2674.705074	-3.008300	2.816000	-8.470600	29.281882	1.381152E-5	20.768696
2675.701738	-3.011300	2.813900	-8.472000	29.254422	1.272244E-5	20.750506
2676.701696	-3.024700	2.809900	-8.498200	29.281558	1.374551E-5	20.764102
2677.701210	-3.014200	2.808300	-8.463400	29.311895	1.440556E-5	20.758166
2678.701938	-3.019800	2.806400	-8.474100	29.320510	1.400953E-5	20.767323
2679.701121	-3.009100	2.802900	-8.432900	29.400205	1.292045E-5	20.765142
2680.706192	-2.976100	2.800000	-8.332200	29.380519	1.414154E-5	20.734869
2681.701776	-3.016800	2.798800	-8.442200	29.246856	1.242541E-5	20.739561
2682.700911	-3.015400	2.795700	-8.429400	29.241583	1.014825E-5	20.729979
2683.704232	-2.998600	2.793100	-8.374800	29.282241	1.130333E-5	20.748669
2684.701709	-2.975800	2.790700	-8.303600	29.299569	1.176537E-5	20.752856
2685.705810	-2.993800	2.789000	-8.348300	29.409607	1.476859E-5	20.750910
2686.702575	-3.039000	2.784500	-8.460900	29.383318	1.140234E-5	20.738163
2687.702814	-3.020800	2.781300	-8.400700	29.335551	1.374551E-5	20.751662
2688.702548	-3.009600	2.777900	-8.358200	29.348100	1.311847E-5	20.714521
2689.702952	-2.993700	2.776200	-8.309600	29.308257	1.417454E-5	20.727472
2690.705522	-2.990700	2.772800	-8.291500	29.317593	1.364650E-5	20.742098
2691.703399	-3.008600	2.769700	-8.331500	29.284660	1.315147E-5	20.736408
2692.704370	-2.983800	2.768300	-8.259200	29.242535	1.292045E-5	20.721455
2693.704313	-2.981300	2.764300	-8.240100	29.197683	1.252442E-5	20.717507
2694.704084	-2.970600	2.762100	-8.204100	29.214587	1.259043E-5	20.730749
2695.704523	-2.995700	2.757200	-8.258500	29.203238	1.367951E-5	20.741599
2696.708885	-2.979300	2.756600	-8.212100	29.195606	1.364650E-5	20.727742
2697.707552	-2.994400	2.750900	-8.236700	29.219951	1.295345E-5	20.731413
2698.705684	-3.009900	2.748200	-8.271000	29.231762	1.387752E-5	20.739523
2699.706728	-3.024800	2.745300	-8.302900	29.197439	1.272244E-5	20.751876
2700.706161	-2.994400	2.743300	-8.213500	29.169800	1.371251E-5	20.743464
2701.709194	-2.994700	2.739500	-8.203500	29.142735	1.130333E-5	20.743692
2702.706182	-2.985800	2.736900	-8.169900	29.189074	1.216140E-5	20.733014
2703.706017	-2.994700	2.732800	-8.183600	29.281311	1.278844E-5	20.733506
2704.711140	-3.014100	2.728400	-8.222800	29.379785	1.407554E-5	20.713264
2705.707163	-3.014000	2.725900	-8.215200	29.465280	1.394353E-5	20.724996
2706.714119	-3.009800	2.721000	-8.188800	29.532845	1.351449E-5	20.743791
2707.708721	-3.035600	2.717600	-8.248300	29.539204	1.301946E-5	20.728863
2708.708478	-3.038600	2.714700	-8.247700	29.490522	1.397653E-5	20.729102
2709.708020	-3.003900	2.710000	-8.139400	29.505434	1.222740E-5	20.744609
2710.707453	-3.010000	2.707400	-8.148400	29.391295	1.252442E-5	20.740988
2711.709914	-3.006400	2.703400	-8.126700	29.319915	1.140234E-5	20.729263
2712.708940	-3.019500	2.698700	-8.147400	29.406746	1.315147E-5	20.727637
2713.709487	-2.999700	2.694700	-8.082200	29.398010	1.344849E-5	20.737799
2714.708828	-3.005400	2.690700	-8.086200	29.469642	1.384452E-5	20.716116
2715.710013	-3.008500	2.687900	-8.085500	29.550127	1.430655E-5	20.739400
2716.711109	-2.973100	2.683500	-7.978400	29.548960	1.278844E-5	20.715463
2717.711745	-3.006400	2.678500	-8.052000	29.479862	1.146834E-5	20.738273
2718.710960	-2.998600	2.674700	-8.019300	29.375906	1.113832E-5	20.724054
2719.711261	-2.976500	2.671200	-7.950200	29.386597	1.051127E-5	20.721079
2720.712023	-2.988200	2.665300	-7.963300	29.313708	9.884227E-6	20.748613
2721.711354	-2.992500	2.662400	-7.966400	29.311875	1.021425E-5	20.732066
2722.717224	-2.993800	2.657200	-7.954000	29.321908	1.219440E-5	20.735540
2723.713946	-3.006700	2.652000	-7.972800	29.392500	1.262343E-5	20.725607
2724.712809	-2.980400	2.648500	-7.892400	29.486803	1.130333E-5	20.717767
2725.713798	-2.987000	2.642600	-7.891800	29.623160	1.298646E-5	20.714398
2726.712778	-2.970100	2.638800	-7.836700	29.625989	1.021425E-5	20.704921
2727.715315	-2.996000	2.634100	-7.891400	29.615324	1.113832E-5	20.715034
2728.716167	-3.004900	2.627700	-7.894200	29.552217	1.209539E-5	20.714479
2729.719189	-3.001900	2.622600	-7.871500	29.596908	1.186437E-5	20.711641
2730.714582	-2.991200	2.618800	-7.832200	29.599705	1.275544E-5	20.714461
2731.713025	-3.000500	2.612400	-7.837200	29.623271	1.077529E-5	20.705501
2732.734090	-3.012800	2.608100	-7.857000	29.616192	1.447156E-5	20.718279
2733.717001	-3.006700	2.602300	-7.823200	29.654539	1.127033E-5	20.722325
2734.716020	-2.978200	2.598200	-7.736700	29.682013	1.169936E-5	20.702132
2735.715295	-3.030500	2.589800	-7.847200	29.783674	1.410854E-5	20.702687
2736.717716	-3.016700	2.587500	-7.804200	29.752239	1.480159E-5	20.689483
2737.714537	-2.995800	2.580500	-7.729800	29.664789	1.400953E-5	20.714166
2738.719085	-3.004300	2.574500	-7.733700	29.693331	1.473558E-5	20.702164
2739.714637	-2.958300	2.570900	-7.604500	29.739151	1.245842E-5	20.716593
2740.715294	-3.011300	2.563000	-7.717600	29.815432	1.569265E-5	20.703414
2741.713996	-2.984000	2.557600	-7.630900	29.855207	1.328348E-5	20.698475
2742.715247	-3.017900	2.550500	-7.696200	29.909380	1.661672E-5	20.699522
2743.715083	-3.020700	2.545900	-7.689300	29.936415	1.377851E-5	20.703551
2744.717876	-3.004600	2.540100	-7.631600	29.949695	1.295345E-5	20.712676
2745.715308	-2.983200	2.533400	-7.556600	29.955881	1.295345E-5	20.690937
2746.715420	-3.024300	2.525500	-7.637100	29.936738	1.384452E-5	20.689651
2747.716661	-3.042100	2.519400	-7.663300	29.956187	1.410854E-5	20.685556
2748.715940	-3.016200	2.514300	-7.583200	29.810217	1.235941E-5	20.700526
2749.717437	-3.002600	2.509100	-7.533100	29.768371	1.414154E-5	20.701482
2750.714759	-2.966000	2.503600	-7.425200	29.774753	1.394353E-5	20.691794
2751.714919	-3.011200	2.496300	-7.516600	29.748766	1.400953E-5	20.676023
