LabVIEW Measurement	
Writer_Version	2
Reader_Version	2
Separator	Tab
Decimal_Separator	.
Multi_Headings	No
X_Columns	One
Time_Pref	Absolute
Operator	admin
Description	Clolumns are: time, Current, Voltage, Power, Battery Temp, and Chamber Temp
Date	2024/08/16
Time	13:07:17.8513970375061035156
***End_of_Header***	
	
Channels	6						
Samples	1	1	1	1	1	1	
Date	2024/09/04	2024/09/04	2024/09/04	2024/09/04	2024/09/04	2024/09/04	
Time	05:54:14.3727421760559082031	05:54:14.3781566619873046875	05:54:14.384159088134765625	05:54:14.3565425872802734375	05:54:14.3565425872802734375	05:54:14.3565425872802734375	
X_Dimension	Time	Time	Time	Time	Time	Time	
X0	0.0000000000000000E+0	0.0000000000000000E+0	0.0000000000000000E+0	0.0000000000000000E+0	0.0000000000000000E+0	0.0000000000000000E+0	
Delta_X	1.000000	1.000000	1.000000	1.000000	1.000000	1.000000	
***End_of_Header***							
X_Value	Untitled	Untitled 1	Untitled 2	Untitled 3	Untitled 4	Untitled 5	Comment
0.000000	0.025034	4.094100	0.102530	20.813609	0.000457	20.793695
0.999864	-3.003500	3.926300	-11.791000	20.811010	0.000458	20.803897
1.999919	-3.004600	3.919500	-11.776000	20.787645	0.000459	20.814198
3.001804	-2.981500	3.916700	-11.676000	20.808533	0.000457	20.809007
4.000866	-2.969100	3.914700	-11.622000	20.814770	0.000454	20.804339
4.998988	-3.008500	3.909000	-11.760000	20.814672	0.000455	20.800447
6.000151	-2.989500	3.908800	-11.684000	20.835828	0.000453	20.796000
6.998478	-2.997700	3.906700	-11.710000	20.821964	0.000453	20.808214
8.001890	-2.991200	3.904000	-11.677000	20.838551	0.000452	20.822904
9.005157	-2.975000	3.901900	-11.608000	20.863590	0.000452	20.821392
10.000236	-2.993200	3.900100	-11.673000	20.836515	0.000450	20.800480
11.001971	-2.997700	3.899100	-11.687000	20.828725	0.000450	20.816397
12.006834	-3.019400	3.896800	-11.765000	20.874413	0.000449	20.815620
13.004404	-3.024100	3.894800	-11.777000	20.866631	0.000450	20.828700
14.005536	-2.987800	3.895800	-11.638000	20.875508	0.000449	20.789215
15.004346	-2.988000	3.895500	-11.639000	20.888685	0.000446	20.824204
16.002709	-3.005800	3.892400	-11.698000	20.916691	0.000446	20.810487
17.005963	-3.011000	3.891400	-11.717000	20.909653	0.000448	20.827629
18.010671	-3.017300	3.890200	-11.737000	20.915914	0.000446	20.801175
19.005096	-3.006000	3.889600	-11.692000	20.916544	0.000444	20.819822
20.004447	-3.005600	3.889200	-11.689000	20.936480	0.000444	20.807045
21.004497	-2.993100	3.889000	-11.640000	20.922683	0.000446	20.812686
22.004660	-2.995000	3.888100	-11.644000	20.916070	0.000444	20.804650
23.005712	-3.000700	3.886800	-11.662000	20.949330	0.000443	20.816577
24.007360	-3.009900	3.886000	-11.695000	20.964427	0.000443	20.833572
25.007616	-2.997400	3.886000	-11.646000	20.952902	0.000443	20.804977
26.007224	-3.002400	3.884400	-11.662000	20.986366	0.000442	20.819479
27.006442	-2.973200	3.886200	-11.552000	21.000604	0.000444	20.824237
28.009339	-2.984900	3.884000	-11.593000	20.977309	0.000443	20.817534
29.006624	-2.995400	3.883900	-11.633000	21.007813	0.000443	20.810585
30.009608	-3.005200	3.882200	-11.666000	21.007143	0.000442	20.816078
31.006196	-3.003200	3.883100	-11.661000	21.014279	0.000440	20.833172
32.005974	-3.003100	3.882700	-11.660000	21.037663	0.000441	20.813413
33.005833	-2.984900	3.882500	-11.588000	21.029277	0.000440	20.815457
34.005834	-3.002800	3.880900	-11.653000	21.036290	0.000439	20.823894
35.010591	-3.021200	3.879000	-11.718000	21.061366	0.000441	20.821000
36.007804	-3.003500	3.878900	-11.650000	21.063131	0.000439	20.828929
37.005747	-2.987600	3.880700	-11.593000	21.065428	0.000439	20.834071
38.007918	-3.004800	3.878400	-11.652000	21.084994	0.000439	20.825193
39.009050	-3.010200	3.877700	-11.671000	21.068125	0.000439	20.823493
40.008550	-3.011500	3.878700	-11.680000	21.113207	0.000439	20.835870
41.009668	-2.991300	3.880000	-11.605000	21.108671	0.000440	20.821850
42.010381	-3.006100	3.876700	-11.652000	21.117678	0.000439	20.828962
43.008251	-2.971800	3.878100	-11.523000	21.129054	0.000437	20.815212
44.011680	-3.009700	3.876900	-11.667000	21.139433	0.000438	20.817059
45.008383	-3.004800	3.875700	-11.645000	21.151455	0.000437	20.842360
46.013365	-3.005500	3.876500	-11.650000	21.134121	0.000437	20.834505
47.008840	-3.005800	3.877800	-11.654000	21.145097	0.000439	20.855914
48.007781	-3.006100	3.876600	-11.652000	21.169247	0.000437	20.824123
49.009485	-2.972000	3.876900	-11.522000	21.176904	0.000438	20.833205
50.008556	-3.011700	3.875200	-11.670000	21.166599	0.000438	20.830008
51.014069	-3.009400	3.873900	-11.657000	21.195137	0.000437	20.827736
52.009444	-3.006600	3.875100	-11.650000	21.204788	0.000436	20.826959
53.010219	-2.986800	3.874900	-11.573000	21.220381	0.000437	20.839238
54.009767	-3.002900	3.873700	-11.631000	21.220495	0.000438	20.825128
55.009357	-3.005300	3.875100	-11.644000	21.220601	0.000438	20.837562
56.015307	-2.985900	3.874900	-11.570000	21.241668	0.000437	20.810748
57.012679	-2.997500	3.874200	-11.612000	21.243050	0.000438	20.814974
58.009813	-3.005800	3.874500	-11.645000	21.239527	0.000438	20.805287
59.010004	-2.982500	3.873300	-11.552000	21.248704	0.000439	20.835804
60.012171	-2.992700	3.873400	-11.590000	21.265547	0.000437	20.827997
61.010682	-2.987300	3.874000	-11.572000	21.281857	0.000435	20.823926
62.013239	-2.992400	3.873200	-11.589000	21.277240	0.000438	20.822152
63.011050	-3.010900	3.872300	-11.658000	21.312394	0.000437	20.820337
64.017361	-2.998700	3.872700	-11.611000	21.299663	0.000436	20.799540
65.014178	-2.999800	3.871900	-11.614000	21.289588	0.000436	20.819806
66.012983	-3.014500	3.871500	-11.669000	21.300407	0.000436	20.817827
67.014682	-3.000400	3.871900	-11.616000	21.314453	0.000435	20.816233
68.013048	-3.017800	3.870700	-11.680000	21.325852	0.000438	20.814361
69.014120	-3.010700	3.870200	-11.651000	21.316897	0.000438	20.817729
70.014256	-3.009200	3.870900	-11.647000	21.359354	0.000438	20.799989
71.019532	-2.981500	3.870900	-11.540000	21.381604	0.000437	20.800439
72.014231	-2.999500	3.870700	-11.609000	21.368931	0.000437	20.808622
73.019668	-3.018100	3.868600	-11.675000	21.379880	0.000438	20.817680
74.015809	-3.001800	3.870700	-11.618000	21.393125	0.000434	20.809121
75.016848	-3.005300	3.869300	-11.627000	21.409647	0.000437	20.822332
76.026231	-3.008700	3.869500	-11.641000	21.393852	0.000436	20.811271
77.019367	-2.993300	3.869200	-11.581000	21.422809	0.000435	20.817958
78.018499	-2.972500	3.870200	-11.503000	21.419590	0.000435	20.809047
79.017669	-2.997400	3.870500	-11.601000	21.438766	0.000435	20.799785
80.019007	-2.997700	3.870300	-11.600000	21.448702	0.000437	20.798821
81.018158	-2.984000	3.869300	-11.545000	21.446136	0.000435	20.807159
82.019682	-3.006500	3.869000	-11.630000	21.429134	0.000435	20.792044
83.021656	-2.994700	3.868500	-11.584000	21.451921	0.000437	20.820533
84.022063	-2.988900	3.869000	-11.564000	21.464544	0.000434	20.773895
85.021080	-3.010800	3.867100	-11.642000	21.477413	0.000438	20.813797
86.020988	-3.010300	3.867500	-11.641000	21.479088	0.000437	20.773748
87.030957	-3.018900	3.866900	-11.673000	21.497846	0.000438	20.803897
88.025785	-3.007600	3.868800	-11.635000	21.505306	0.000438	20.781964
89.021684	-3.017500	3.866700	-11.667000	21.505281	0.000436	20.791422
90.020890	-3.012500	3.867200	-11.649000	21.496629	0.000439	20.803628
91.021640	-2.997700	3.868200	-11.594000	21.515878	0.000439	20.784482
92.021686	-3.010200	3.866600	-11.638000	21.526638	0.000438	20.774860
93.022266	-3.028400	3.865700	-11.706000	21.540575	0.000438	20.790229
94.024763	-2.993700	3.866900	-11.575000	21.548100	0.000440	20.791594
95.025232	-3.006100	3.866000	-11.620000	21.551825	0.000438	20.773511
96.028008	-3.001200	3.866700	-11.603000	21.565019	0.000437	20.793826
97.027487	-2.984400	3.867500	-11.540000	21.565395	0.000439	20.797995
98.026136	-2.999200	3.866100	-11.594000	21.581677	0.000438	20.781097
99.028718	-2.996400	3.866300	-11.584000	21.587143	0.000440	20.797472
100.025341	-2.988500	3.867100	-11.556000	21.590075	0.000441	20.800881
101.026078	-2.980600	3.867300	-11.526000	21.600728	0.000440	20.804429
102.025642	-2.976500	3.866700	-11.508000	21.609208	0.000440	20.764551
103.025306	-2.996300	3.864700	-11.579000	21.619150	0.000438	20.762171
104.026648	-2.993500	3.866600	-11.574000	21.616511	0.000441	20.777075
105.025257	-2.977800	3.866200	-11.511000	21.634663	0.000441	20.787179
106.026035	-2.992500	3.865100	-11.565000	21.651369	0.000441	20.771181
107.026703	-2.991000	3.864200	-11.557000	21.645005	0.000441	20.773347
108.027834	-2.992500	3.864100	-11.562000	21.666596	0.000442	20.769823
109.030594	-2.971600	3.865600	-11.486000	21.668360	0.000441	20.784391
110.029150	-2.986800	3.863900	-11.540000	21.690702	0.000442	20.756489
111.027682	-2.987900	3.863500	-11.542000	21.721416	0.000442	20.781538
112.029017	-2.975500	3.865600	-11.501000	21.713263	0.000441	20.780492
113.028789	-2.981200	3.863400	-11.517000	21.727174	0.000442	20.758852
114.029068	-3.007900	3.863800	-11.621000	21.719741	0.000442	20.781759
115.030464	-2.988200	3.863400	-11.544000	21.719185	0.000441	20.765081
116.029711	-2.999700	3.864100	-11.589000	21.718360	0.000443	20.791283
117.031343	-2.993400	3.863600	-11.563000	21.750299	0.000443	20.772038
118.031944	-3.001900	3.864700	-11.601000	21.734436	0.000443	20.766119
119.031620	-3.006600	3.862200	-11.611000	21.766896	0.000443	20.749768
120.034026	-2.995100	3.862400	-11.567000	21.746999	0.000444	20.755933
121.036109	-3.004200	3.862500	-11.603000	21.774975	0.000444	20.783459
122.032967	-3.003800	3.862000	-11.600000	21.774117	0.000446	20.765056
123.034039	-3.003200	3.862900	-11.600000	21.772606	0.000446	20.762121
124.035904	-3.014900	3.862200	-11.643000	21.811796	0.000442	20.783802
125.035785	-2.983600	3.864300	-11.528000	21.817824	0.000446	20.777981
126.041464	-3.022400	3.860000	-11.666000	21.835654	0.000445	20.779706
127.036913	-3.008100	3.861200	-11.615000	21.828867	0.000444	20.785715
128.035470	-3.002600	3.862200	-11.596000	21.827699	0.000444	20.769373
129.039085	-2.988000	3.862400	-11.540000	21.834029	0.000445	20.768122
130.036862	-3.011800	3.861300	-11.629000	21.848649	0.000445	20.750512
131.036783	-3.003600	3.860700	-11.595000	21.839517	0.000446	20.781202
132.036666	-2.987400	3.859900	-11.530000	21.844606	0.000446	20.747414
133.036490	-3.008400	3.860100	-11.612000	21.843405	0.000447	20.757118
134.036665	-3.004900	3.859300	-11.596000	21.858042	0.000446	20.769871
135.036565	-2.990300	3.859100	-11.537000	21.882479	0.000447	20.753079
136.040642	-2.998200	3.860700	-11.574000	21.866797	0.000444	20.751608
137.041147	-3.008000	3.859800	-11.609000	21.868316	0.000448	20.755973
138.038979	-2.992500	3.859900	-11.550000	21.899834	0.000448	20.754330
139.039538	-2.998700	3.859600	-11.572000	21.905723	0.000449	20.743629
140.038950	-3.003500	3.859200	-11.590000	21.922024	0.000445	20.753308
141.040010	-2.998100	3.859200	-11.569000	21.933295	0.000447	20.748943
142.042466	-2.986300	3.860800	-11.529000	21.928681	0.000448	20.750014
143.039492	-2.992900	3.858000	-11.546000	21.938808	0.000448	20.777221
144.045510	-2.994400	3.859700	-11.556000	21.947203	0.000446	20.758598
145.039518	-2.974300	3.859900	-11.480000	21.956905	0.000448	20.761672
146.040808	-2.997500	3.859400	-11.567000	21.959756	0.000448	20.768793
147.046315	-2.994000	3.859000	-11.552000	21.967808	0.000449	20.729436
148.047295	-2.988900	3.858400	-11.531000	21.965816	0.000450	20.752099
149.042070	-2.972700	3.858100	-11.468000	21.965693	0.000448	20.747709
150.041855	-2.991100	3.859200	-11.543000	22.011932	0.000449	20.748477
151.043927	-2.972000	3.858900	-11.468000	21.991598	0.000449	20.753251
152.041781	-3.009600	3.856700	-11.606000	22.035868	0.000449	20.732134
153.044034	-2.981800	3.856900	-11.500000	22.010218	0.000448	20.747709
154.040824	-3.013600	3.856300	-11.619000	22.042621	0.000450	20.754069
155.040519	-2.972300	3.858600	-11.469000	22.034578	0.000449	20.740326
156.043715	-2.978800	3.855900	-11.485000	22.038367	0.000452	20.757396
157.041758	-2.976000	3.856300	-11.474000	22.059362	0.000451	20.750439
158.043929	-3.009900	3.856200	-11.606000	22.065740	0.000450	20.757773
159.042326	-3.001100	3.856800	-11.574000	22.048910	0.000452	20.745665
160.042693	-2.998600	3.857200	-11.565000	22.051564	0.000451	20.747374
161.042339	-2.982300	3.857200	-11.503000	22.042532	0.000454	20.741651
162.042308	-3.014700	3.856900	-11.626000	22.092492	0.000450	20.742828
163.043611	-2.968100	3.857000	-11.448000	22.088147	0.000452	20.739901
164.045407	-2.990000	3.855200	-11.526000	22.105582	0.000453	20.736966
165.045268	-2.979700	3.855800	-11.488000	22.095162	0.000455	20.737915
166.045156	-2.995200	3.855400	-11.546000	22.103565	0.000454	20.745853
167.047091	-2.983400	3.855000	-11.499000	22.114433	0.000455	20.755786
168.043929	-3.014300	3.854600	-11.617000	22.134447	0.000452	20.724613
169.045399	-3.000100	3.853500	-11.560000	22.140873	0.000455	20.746695
170.044303	-2.992800	3.853500	-11.532000	22.128054	0.000458	20.746663
171.045392	-2.986900	3.854600	-11.511000	22.118524	0.000456	20.715309
172.044867	-3.017500	3.854000	-11.629000	22.126371	0.000456	20.737391
173.044416	-3.017700	3.853600	-11.628000	22.152126	0.000458	20.751322
174.049609	-3.021700	3.853000	-11.641000	22.184877	0.000458	20.745706
175.047723	-2.994400	3.853500	-11.538000	22.164782	0.000455	20.749769
176.046290	-3.000000	3.854400	-11.561000	22.167779	0.000457	20.760356
177.046101	-3.023100	3.853600	-11.648000	22.194642	0.000458	20.741733
178.047988	-3.003700	3.853100	-11.572000	22.169591	0.000456	20.725659
179.048711	-3.013700	3.851800	-11.607000	22.196536	0.000457	20.743155
180.048461	-2.991000	3.852000	-11.520000	22.165182	0.000459	20.738315
181.051141	-3.007700	3.852700	-11.586000	22.196381	0.000458	20.737309
182.048727	-2.993200	3.852400	-11.530000	22.230984	0.000458	20.722643
183.049355	-2.978900	3.852900	-11.476000	22.211193	0.000459	20.722741
184.049560	-2.989500	3.850900	-11.511000	22.228412	0.000459	20.756579
185.051305	-2.990900	3.851800	-11.519000	22.253903	0.000457	20.738004
186.048772	-2.954400	3.852200	-11.380000	22.234046	0.000459	20.727131
187.050672	-2.990800	3.851200	-11.518000	22.246252	0.000460	20.727025
188.050380	-2.986700	3.851000	-11.501000	22.259055	0.000461	20.738895
189.049664	-3.008900	3.850700	-11.586000	22.241688	0.000459	20.708229
190.052525	-2.980900	3.851400	-11.480000	22.302776	0.000460	20.729567
191.049555	-2.987100	3.851100	-11.503000	22.286643	0.000460	20.715309
192.050612	-2.988100	3.851500	-11.508000	22.287271	0.000461	20.711671
193.053065	-2.990500	3.850600	-11.514000	22.323676	0.000460	20.733426
194.050945	-2.984700	3.849300	-11.488000	22.323847	0.000461	20.725062
195.054115	-2.991900	3.850200	-11.518000	22.326705	0.000460	20.728398
196.056216	-2.977200	3.850900	-11.464000	22.316589	0.000463	20.731071
197.052243	-2.966600	3.850800	-11.423000	22.307935	0.000462	20.723353
198.054237	-3.029300	3.848700	-11.658000	22.338028	0.000463	20.721718
199.054456	-3.010700	3.849100	-11.587000	22.346755	0.000462	20.735200
200.053206	-3.000600	3.848600	-11.547000	22.363018	0.000463	20.716396
201.056300	-2.996500	3.849000	-11.533000	22.360993	0.000463	20.733335
202.053305	-3.007800	3.848800	-11.575000	22.384619	0.000463	20.720483
203.053720	-3.007400	3.848500	-11.573000	22.419331	0.000465	20.740072
204.058522	-3.011200	3.848000	-11.586000	22.418523	0.000462	20.741159
205.054037	-3.006900	3.847400	-11.568000	22.399501	0.000464	20.734439
206.059979	-3.014300	3.847400	-11.597000	22.428857	0.000465	20.717842
207.055795	-2.995600	3.847900	-11.526000	22.425535	0.000465	20.718782
208.059382	-2.985800	3.848600	-11.490000	22.415110	0.000464	20.707394
209.058712	-3.013300	3.846600	-11.591000	22.430808	0.000467	20.720270
210.056734	-3.010400	3.846000	-11.577000	22.430008	0.000464	20.716624
211.058695	-2.985700	3.847800	-11.488000	22.435641	0.000467	20.734120
212.063804	-2.989400	3.847600	-11.501000	22.453967	0.000466	20.729239
213.057498	-3.013900	3.844500	-11.586000	22.448433	0.000466	20.722273
214.058079	-2.994500	3.846200	-11.516000	22.465298	0.000467	20.720670
215.058459	-2.986800	3.845800	-11.486000	22.476628	0.000466	20.718267
216.057569	-2.982600	3.846300	-11.471000	22.466530	0.000467	20.717637
217.059350	-2.993600	3.846100	-11.513000	22.476498	0.000469	20.733310
218.057471	-2.991800	3.845900	-11.506000	22.444849	0.000468	20.728641
219.059982	-3.015300	3.844200	-11.590000	22.465322	0.000469	20.741559
220.056541	-2.989300	3.844200	-11.490000	22.482465	0.000468	20.711783
221.057624	-3.003400	3.844500	-11.544000	22.501639	0.000469	20.721030
222.058067	-2.988900	3.846200	-11.495000	22.521450	0.000470	20.710524
223.059378	-3.014000	3.843500	-11.584000	22.518928	0.000468	20.706101
224.058846	-2.997700	3.844700	-11.523000	22.517712	0.000469	20.697770
225.060448	-2.999700	3.844400	-11.531000	22.516790	0.000470	20.721978
226.060471	-3.000200	3.843500	-11.530000	22.525679	0.000470	20.697214
227.060492	-2.997600	3.843900	-11.522000	22.518398	0.000471	20.719321
228.062697	-2.988200	3.844500	-11.487000	22.555725	0.000471	20.721618
229.061115	-2.991400	3.842700	-11.493000	22.559847	0.000470	20.726695
230.060973	-2.994300	3.843500	-11.507000	22.570246	0.000472	20.729998
231.062029	-3.012400	3.841800	-11.572000	22.546918	0.000472	20.721806
232.062268	-3.003100	3.842800	-11.540000	22.566377	0.000471	20.721381
233.066357	-2.989200	3.841500	-11.482000	22.561251	0.000473	20.703444
234.065459	-2.989100	3.842900	-11.486000	22.578564	0.000473	20.716042
235.064032	-2.987200	3.841600	-11.474000	22.628590	0.000474	20.711145
236.063690	-3.013200	3.842100	-11.574000	22.638800	0.000472	20.717579
237.064315	-2.995300	3.843200	-11.511000	22.632026	0.000474	20.736400
238.067732	-3.013300	3.839800	-11.570000	22.653842	0.000473	20.723637
239.068276	-3.007300	3.840800	-11.549000	22.653965	0.000475	20.709060
240.065404	-2.998000	3.841800	-11.517000	22.656887	0.000475	20.713884
241.065248	-2.974800	3.841000	-11.425000	22.642710	0.000476	20.696838
242.066885	-2.988200	3.842300	-11.481000	22.644775	0.000479	20.710287
243.065519	-2.989400	3.839900	-11.478000	22.643893	0.000477	20.714620
244.068385	-3.004300	3.840900	-11.539000	22.653638	0.000478	20.716794
245.065386	-3.006100	3.839500	-11.541000	22.673251	0.000477	20.697557
246.066959	-2.992400	3.841100	-11.493000	22.656356	0.000477	20.690591
247.068227	-2.988100	3.839500	-11.472000	22.679397	0.000477	20.704188
248.068280	-2.964200	3.839300	-11.380000	22.675438	0.000477	20.704964
249.069470	-2.988200	3.839300	-11.472000	22.705130	0.000478	20.707204
250.068052	-2.974800	3.840000	-11.422000	22.678262	0.000480	20.723441
251.068862	-2.977400	3.839800	-11.431000	22.719102	0.000479	20.706975
252.069144	-2.970500	3.839900	-11.405000	22.705775	0.000480	20.708324
253.073064	-3.003200	3.837300	-11.523000	22.697074	0.000479	20.712886
254.069109	-3.002200	3.837700	-11.521000	22.719820	0.000480	20.700108
255.069431	-3.005300	3.838100	-11.534000	22.751633	0.000482	20.703525
256.069705	-3.009700	3.837900	-11.551000	22.752000	0.000481	20.687771
257.068869	-3.019600	3.836700	-11.584000	22.763238	0.000482	20.711832
258.070336	-3.009400	3.836600	-11.544000	22.771684	0.000482	20.717923
259.072144	-2.992100	3.837200	-11.480000	22.780155	0.000482	20.705070
260.073555	-2.995600	3.837800	-11.495000	22.779282	0.000481	20.721266
261.072469	-3.009300	3.836800	-11.544000	22.773104	0.000481	20.714129
262.072642	-3.018700	3.836800	-11.581000	22.767196	0.000482	20.717694
263.071054	-3.002400	3.836200	-11.517000	22.810840	0.000481	20.697876
264.075426	-3.003900	3.835500	-11.520000	22.816617	0.000481	20.716942
265.072700	-3.011800	3.836100	-11.552000	22.827634	0.000482	20.705692
266.073526	-2.997700	3.835500	-11.496000	22.834057	0.000482	20.729197
267.077352	-2.981700	3.835200	-11.434000	22.854915	0.000481	20.696985
268.073089	-3.017900	3.835000	-11.572000	22.833159	0.000485	20.700320
269.074918	-2.982900	3.836100	-11.441000	22.839973	0.000484	20.694344
270.073579	-3.000600	3.833200	-11.501000	22.835232	0.000483	20.701923
271.077086	-2.978700	3.835000	-11.422000	22.829470	0.000486	20.708954
272.075312	-2.998300	3.833500	-11.493000	22.859713	0.000485	20.709853
273.075912	-3.015100	3.833600	-11.558000	22.872271	0.000487	20.711055
274.075869	-3.009600	3.833500	-11.537000	22.885124	0.000487	20.698325
275.078585	-3.006700	3.833400	-11.524000	22.860986	0.000484	20.707335
276.078515	-2.988500	3.833800	-11.457000	22.876180	0.000488	20.694107
277.077106	-2.995000	3.833700	-11.481000	22.888788	0.000487	20.714325
278.080813	-2.988200	3.833800	-11.455000	22.880244	0.000487	20.724733
279.078203	-2.993700	3.833400	-11.475000	22.887768	0.000486	20.709036
280.080586	-3.009300	3.831400	-11.528000	22.895389	0.000487	20.723784
281.076757	-2.997800	3.832800	-11.489000	22.870754	0.000489	20.707163
282.077199	-2.994400	3.831800	-11.474000	22.903916	0.000487	20.724267
283.077076	-2.994000	3.831500	-11.470000	22.920652	0.000489	20.713058
284.078336	-3.009800	3.831600	-11.531000	22.917960	0.000484	20.727431
285.082530	-3.005100	3.831500	-11.513000	22.944316	0.000489	20.716852
286.081504	-3.015200	3.829500	-11.547000	22.952418	0.000488	20.727815
287.079875	-3.003600	3.831100	-11.506000	22.973168	0.000488	20.723000
288.079958	-2.998100	3.831100	-11.485000	22.960186	0.000492	20.693870
289.082624	-3.009200	3.830700	-11.526000	22.979492	0.000491	20.731232
290.083268	-3.009600	3.830200	-11.526000	22.963548	0.000492	20.710990
291.084796	-3.014700	3.829800	-11.544000	22.959191	0.000490	20.705201
292.081757	-3.007900	3.829700	-11.518000	22.959566	0.000491	20.704629
293.082180	-3.015900	3.830000	-11.550000	22.951170	0.000490	20.720874
294.082330	-2.983700	3.829100	-11.424000	22.948730	0.000491	20.713688
295.082290	-2.991600	3.829900	-11.456000	22.953789	0.000491	20.710221
296.087818	-3.010200	3.830000	-11.528000	22.944552	0.000489	20.730840
297.082524	-3.013600	3.828800	-11.537000	22.974041	0.000493	20.724823
298.083541	-2.993100	3.830300	-11.464000	22.988589	0.000491	20.695775
299.084570	-3.014000	3.828800	-11.539000	22.975069	0.000493	20.727750
300.083766	-3.000900	3.828500	-11.488000	23.006034	0.000496	20.709935
301.083957	-3.005100	3.827800	-11.502000	23.016298	0.000494	20.707891
302.086637	-2.993000	3.827900	-11.455000	23.011762	0.000494	20.713778
303.084435	-3.005200	3.827900	-11.503000	23.019782	0.000495	20.740782
304.083354	-3.002800	3.826700	-11.490000	23.054531	0.000495	20.721545
305.087151	-3.000400	3.826900	-11.482000	23.061679	0.000493	20.733922
306.088823	-3.011700	3.827100	-11.524000	23.038320	0.000494	20.718577
307.088048	-2.987100	3.827900	-11.433000	23.032274	0.000496	20.721054
308.085757	-3.012300	3.826800	-11.527000	23.057126	0.000494	20.732206
309.087030	-2.998500	3.826900	-11.474000	23.103875	0.000496	20.717408
310.086795	-2.971500	3.827900	-11.373000	23.095088	0.000497	20.739899
311.086666	-3.003600	3.827300	-11.495000	23.086914	0.000498	20.731707
312.089451	-3.006100	3.826300	-11.501000	23.092290	0.000499	20.720024
313.089279	-2.995100	3.825500	-11.457000	23.097348	0.000498	20.737896
314.087045	-3.017700	3.824500	-11.540000	23.094256	0.000497	20.717727
315.088813	-3.023100	3.824300	-11.560000	23.117940	0.000499	20.738141
316.086559	-3.002700	3.825300	-11.485000	23.129607	0.000500	20.716165
317.086719	-3.028900	3.823700	-11.579000	23.104846	0.000497	20.725493
318.089632	-2.938000	3.826100	-11.240000	23.088488	0.000498	20.724275
319.087658	-2.993300	3.825200	-11.449000	23.128758	0.000497	20.724324
320.088331	-2.973300	3.823400	-11.367000	23.125373	0.000498	20.726622
321.090302	-3.000400	3.824500	-11.474000	23.141706	0.000499	20.717857
322.087160	-3.023300	3.822800	-11.556000	23.148452	0.000499	20.744060
323.092274	-2.973000	3.824500	-11.369000	23.143900	0.000501	20.729540
324.089051	-3.005400	3.822700	-11.488000	23.154979	0.000498	20.721201
325.088273	-2.996800	3.823100	-11.457000	23.157247	0.000499	20.729638
326.087527	-3.018900	3.821400	-11.535000	23.167339	0.000500	20.728371
327.089255	-2.982900	3.822400	-11.401000	23.147188	0.000499	20.751328
328.089550	-2.940800	3.824700	-11.247000	23.167534	0.000500	20.734732
329.093675	-2.991000	3.821700	-11.430000	23.161334	0.000500	20.730415
330.087706	-3.006400	3.820700	-11.485000	23.201610	0.000502	20.721463
331.090918	-3.000900	3.821000	-11.465000	23.206342	0.000499	20.716247
332.093217	-3.000500	3.821000	-11.464000	23.222380	0.000501	20.747494
333.090995	-2.992300	3.821500	-11.434000	23.255002	0.000501	20.724234
334.091823	-2.988900	3.820900	-11.419000	23.220487	0.000502	20.739907
335.090938	-2.977900	3.820800	-11.377000	23.238393	0.000502	20.730350
336.090464	-2.970100	3.821400	-11.349000	23.244519	0.000502	20.731748
337.090615	-2.978400	3.821300	-11.380000	23.275648	0.000505	20.730227
338.089339	-2.982300	3.821000	-11.393000	23.277393	0.000504	20.731977
339.093082	-2.995100	3.820600	-11.442000	23.302648	0.000502	20.725992
340.093968	-3.004900	3.818500	-11.474000	23.309418	0.000503	20.725665
341.093778	-2.988200	3.820100	-11.415000	23.298015	0.000504	20.750748
342.093782	-3.005800	3.818100	-11.475000	23.322788	0.000504	20.744281
343.094082	-3.010000	3.818600	-11.493000	23.329093	0.000504	20.737798
344.094756	-3.020000	3.817400	-11.527000	23.329240	0.000505	20.734626
345.095508	-3.014600	3.818900	-11.512000	23.351997	0.000505	20.723769
346.096285	-2.993900	3.819100	-11.433000	23.378865	0.000506	20.755914
347.095570	-2.998300	3.816900	-11.443000	23.344305	0.000505	20.747829
348.098496	-3.019400	3.818200	-11.528000	23.351752	0.000506	20.758138
349.095965	-3.016500	3.817400	-11.514000	23.361606	0.000508	20.753315
350.101254	-3.006300	3.817700	-11.476000	23.350651	0.000508	20.747077
351.096948	-3.011100	3.817400	-11.494000	23.376173	0.000506	20.745630
352.096965	-2.976500	3.818100	-11.363000	23.329892	0.000507	20.731960
353.102484	-2.995500	3.817800	-11.435000	23.355407	0.000509	20.758481
354.097727	-2.993500	3.815800	-11.421000	23.380977	0.000507	20.753764
355.100622	-3.004500	3.816100	-11.464000	23.395121	0.000505	20.727161
356.098380	-3.003200	3.815700	-11.458000	23.391728	0.000509	20.750314
357.097671	-3.002800	3.814900	-11.455000	23.415210	0.000510	20.759152
358.097422	-2.996000	3.815900	-11.432000	23.388294	0.000509	20.731225
359.099495	-3.024000	3.813700	-11.532000	23.389411	0.000508	20.779287
360.098367	-3.013000	3.813700	-11.490000	23.384460	0.000510	20.737340
361.097500	-3.029300	3.814200	-11.553000	23.395121	0.000509	20.758457
362.098934	-3.013300	3.814900	-11.495000	23.401972	0.000508	20.750625
363.098738	-2.995000	3.814400	-11.423000	23.400577	0.000509	20.759659
364.098707	-2.992800	3.814300	-11.414000	23.421335	0.000509	20.761972
365.099576	-3.021100	3.812400	-11.517000	23.418758	0.000510	20.760337
366.099538	-3.009300	3.812200	-11.471000	23.427387	0.000511	20.744804
367.099331	-3.011800	3.813900	-11.485000	23.434736	0.000512	20.748851
368.101692	-3.014400	3.812000	-11.489000	23.423138	0.000510	20.762831
369.101167	-3.006600	3.811800	-11.460000	23.419826	0.000511	20.772314
370.104405	-2.992900	3.813500	-11.413000	23.419027	0.000510	20.787634
371.102194	-3.008400	3.811300	-11.464000	23.418798	0.000513	20.758007
372.103065	-3.014800	3.812500	-11.493000	23.436872	0.000511	20.754786
373.103508	-3.017900	3.812400	-11.504000	23.439841	0.000513	20.785738
374.104413	-3.004100	3.810400	-11.446000	23.426767	0.000513	20.772633
375.105049	-2.988300	3.810900	-11.387000	23.417534	0.000513	20.766698
376.107902	-2.997000	3.810400	-11.419000	23.446236	0.000513	20.756585
377.105882	-2.992000	3.810000	-11.398000	23.455770	0.000513	20.769461
378.106179	-3.001600	3.811300	-11.439000	23.463942	0.000513	20.736874
379.107216	-3.013900	3.808400	-11.477000	23.477008	0.000514	20.745703
380.105627	-2.984200	3.810200	-11.370000	23.473648	0.000513	20.759879
381.106278	-3.022500	3.809300	-11.512000	23.507224	0.000514	20.781683
382.105750	-3.009100	3.810000	-11.464000	23.497389	0.000515	20.773246
383.106347	-3.019700	3.807900	-11.498000	23.486256	0.000516	20.759242
384.109164	-2.996300	3.809200	-11.413000	23.468387	0.000514	20.763616
385.106424	-3.015700	3.806700	-11.479000	23.473550	0.000515	20.771635
386.107016	-3.026300	3.808100	-11.524000	23.515453	0.000514	20.775707
387.106508	-3.005200	3.808700	-11.445000	23.546134	0.000516	20.752407
388.106253	-3.005900	3.806700	-11.442000	23.514825	0.000516	20.771284
389.106976	-2.968700	3.808000	-11.303000	23.509394	0.000516	20.769158
390.106260	-2.981600	3.807000	-11.349000	23.536780	0.000517	20.792343
391.108348	-3.007500	3.805900	-11.444000	23.533860	0.000518	20.774243
392.110081	-2.987100	3.807000	-11.371000	23.542814	0.000516	20.777055
393.107506	-2.990800	3.808000	-11.388000	23.538606	0.000517	20.758612
394.109303	-3.004400	3.805900	-11.433000	23.564344	0.000517	20.775404
395.109472	-2.991300	3.806000	-11.384000	23.598318	0.000516	20.762520
396.108176	-2.991000	3.805400	-11.382000	23.559264	0.000518	20.775527
397.113033	-2.994300	3.805100	-11.391000	23.571586	0.000517	20.768913
398.109039	-3.004700	3.806000	-11.435000	23.586591	0.000518	20.769256
399.110029	-2.992100	3.805200	-11.385000	23.647801	0.000517	20.779884
400.113372	-3.011900	3.804500	-11.458000	23.640780	0.000517	20.780906
401.109528	-2.998700	3.803400	-11.405000	23.617979	0.000518	20.772747
402.115319	-3.002600	3.804400	-11.422000	23.647695	0.000521	20.793528
403.112584	-3.001000	3.804400	-11.416000	23.649195	0.000518	20.777963
404.118922	-3.010800	3.803200	-11.450000	23.647295	0.000517	20.790757
405.112670	-2.988000	3.804400	-11.366000	23.668105	0.000518	20.794076
406.114762	-3.010100	3.804200	-11.449000	23.665716	0.000519	20.794526
407.112938	-2.995600	3.803000	-11.392000	23.661378	0.000520	20.776900
408.114779	-2.998700	3.802600	-11.402000	23.658565	0.000521	20.771234
409.116032	-3.027400	3.801600	-11.508000	23.672076	0.000520	20.785729
410.117723	-2.988700	3.803200	-11.366000	23.664803	0.000519	20.785549
411.115653	-2.984200	3.803700	-11.350000	23.668317	0.000521	20.801401
412.115914	-3.020900	3.799500	-11.477000	23.669239	0.000523	20.790945
413.116816	-3.003200	3.802000	-11.417000	23.707816	0.000520	20.782680
414.115293	-2.997300	3.801400	-11.393000	23.725885	0.000520	20.798425
415.116238	-3.005400	3.800900	-11.421000	23.769296	0.000522	20.793111
416.116677	-2.998600	3.800200	-11.395000	23.721213	0.000522	20.798956
417.118460	-2.998500	3.801000	-11.395000	23.754212	0.000522	20.804540
418.120503	-3.009700	3.799400	-11.433000	23.708542	0.000522	20.799054
419.118785	-3.006200	3.798800	-11.419000	23.725992	0.000521	20.788100
420.118110	-3.003900	3.800900	-11.417000	23.747069	0.000521	20.803543
421.121905	-3.016600	3.799100	-11.459000	23.768106	0.000521	20.807565
422.120972	-2.992900	3.799500	-11.370000	23.754041	0.000523	20.810058
423.122450	-3.004700	3.799100	-11.414000	23.753193	0.000521	20.801147
424.122427	-2.994800	3.799700	-11.379000	23.739633	0.000523	20.813630
425.119550	-2.991200	3.798300	-11.360000	23.780328	0.000522	20.772878
426.121653	-3.001800	3.797900	-11.398000	23.769060	0.000523	20.783865
427.121731	-2.994100	3.798000	-11.371000	23.761461	0.000524	20.794264
428.122724	-2.993400	3.797100	-11.364000	23.759846	0.000524	20.804973
429.122825	-2.994400	3.799100	-11.375000	23.707775	0.000524	20.800183
430.122732	-3.006100	3.797500	-11.415000	23.739413	0.000524	20.813884
431.122245	-3.012500	3.797900	-11.441000	23.748945	0.000522	20.810164
432.123191	-2.996800	3.797400	-11.379000	23.761077	0.000524	20.812372
433.124606	-3.005500	3.797200	-11.411000	23.750942	0.000526	20.796994
434.126717	-2.999600	3.795800	-11.385000	23.747607	0.000521	20.793177
435.124707	-3.003700	3.796000	-11.402000	23.764959	0.000524	20.805357
436.126807	-2.979100	3.794600	-11.303000	23.774767	0.000525	20.808080
437.126412	-2.988200	3.795500	-11.341000	23.802269	0.000522	20.806257
438.126338	-2.976500	3.796600	-11.300000	23.809640	0.000523	20.830242
439.130130	-3.006000	3.795300	-11.407000	23.812624	0.000524	20.788190
440.126683	-2.988600	3.794000	-11.337000	23.834148	0.000525	20.797918
441.126374	-3.015800	3.793700	-11.439000	23.835355	0.000526	20.795335
442.128783	-3.012300	3.792700	-11.423000	23.837450	0.000526	20.792694
443.127512	-2.990300	3.794000	-11.344000	23.861510	0.000525	20.815396
444.127250	-2.984500	3.794500	-11.324000	23.870625	0.000526	20.811260
445.129708	-3.004400	3.792500	-11.393000	23.866793	0.000527	20.786081
446.128477	-3.017500	3.792000	-11.442000	23.842750	0.000524	20.819819
447.127951	-3.005800	3.792400	-11.399000	23.835689	0.000528	20.794248
448.130962	-3.010800	3.792600	-11.418000	23.863785	0.000525	20.828108
449.128974	-2.994200	3.793700	-11.358000	23.898874	0.000526	20.837215
450.128026	-3.003900	3.792500	-11.390000	23.912595	0.000525	20.827741
451.130872	-2.993900	3.791500	-11.349000	23.898238	0.000527	20.810500
452.128553	-2.994200	3.792100	-11.352000	23.900350	0.000527	20.808824
453.130949	-3.004500	3.791200	-11.390000	23.936539	0.000526	20.808603
454.131146	-3.020700	3.790100	-11.447000	23.982289	0.000529	20.805644
455.131915	-3.034900	3.789400	-11.499000	23.954841	0.000528	20.806093
456.130608	-2.979300	3.790900	-11.293000	23.951980	0.000526	20.839733
457.132231	-2.984300	3.790500	-11.312000	23.979086	0.000528	20.824242
458.132524	-3.012600	3.789900	-11.417000	23.984335	0.000527	20.814334
459.132728	-2.988700	3.790500	-11.328000	23.981914	0.000527	20.838932
460.134384	-2.997300	3.790700	-11.361000	23.967020	0.000528	20.811669
461.132206	-3.013400	3.788700	-11.416000	23.941960	0.000529	20.819255
462.132587	-3.012900	3.789000	-11.415000	23.924172	0.000527	20.835082
463.133154	-2.983900	3.789600	-11.306000	23.931582	0.000532	20.853892
464.134369	-3.000800	3.788400	-11.367000	23.961020	0.000528	20.834101
465.137052	-2.995000	3.787000	-11.340000	23.952436	0.000529	20.819803
466.139304	-2.987700	3.788200	-11.317000	23.978963	0.000529	20.825067
467.140306	-2.999200	3.787600	-11.359000	24.002131	0.000530	20.835973
468.134776	-2.999400	3.786900	-11.358000	24.011367	0.000531	20.834804
469.137527	-2.984800	3.787400	-11.304000	24.011995	0.000529	20.817890
470.136798	-2.993000	3.787300	-11.335000	24.014253	0.000530	20.833904
471.140606	-3.015700	3.786800	-11.418000	24.002563	0.000530	20.832613
472.138752	-2.996800	3.787200	-11.349000	23.972768	0.000529	20.829760
473.137252	-2.999900	3.785800	-11.356000	23.990539	0.000531	20.835727
474.140296	-3.006200	3.786400	-11.381000	24.015777	0.000530	20.822157
475.137725	-3.018200	3.784700	-11.422000	23.983300	0.000530	20.822304
476.137787	-2.999200	3.785800	-11.353000	24.005897	0.000531	20.813198
477.138903	-3.009600	3.784200	-11.388000	24.046958	0.000532	20.807908
478.137202	-2.988900	3.784200	-11.310000	24.060245	0.000530	20.826449
479.140083	-2.972300	3.785500	-11.250000	24.013886	0.000532	20.816468
480.139077	-2.972400	3.785300	-11.250000	24.007022	0.000530	20.815748
481.141306	-2.999500	3.784400	-11.350000	24.037779	0.000532	20.821462
482.138544	-2.973700	3.784500	-11.252000	24.058402	0.000533	20.827921
483.138658	-3.016400	3.782900	-11.409000	24.083199	0.000531	20.796365
484.138080	-2.975400	3.783600	-11.257000	24.085326	0.000531	20.829793
485.140357	-3.002100	3.782500	-11.354000	24.034372	0.000533	20.800502
486.141664	-2.990300	3.783900	-11.314000	24.063065	0.000531	20.814579
487.143586	-2.996900	3.782000	-11.333000	24.076702	0.000533	20.807868
488.139417	-3.021600	3.781800	-11.426000	24.049680	0.000534	20.825337
489.139482	-3.014900	3.781800	-11.400000	24.108003	0.000533	20.803698
490.142056	-3.028700	3.780600	-11.449000	24.110864	0.000531	20.800404
491.140110	-3.015900	3.781200	-11.403000	24.117776	0.000531	20.798801
492.141375	-2.999600	3.781000	-11.341000	24.117279	0.000532	20.804941
493.139296	-3.009900	3.779700	-11.375000	24.125071	0.000532	20.808489
494.141108	-2.995000	3.781400	-11.324000	24.085628	0.000530	20.804491
495.140045	-3.028800	3.778800	-11.444000	24.104686	0.000531	20.818389
496.140841	-2.993100	3.781200	-11.316000	24.098295	0.000533	20.794436
497.142988	-2.988200	3.779700	-11.294000	24.088587	0.000531	20.804614
498.141579	-3.006000	3.778700	-11.358000	24.051694	0.000531	20.810762
499.141353	-2.996800	3.779800	-11.326000	24.038676	0.000530	20.791068
500.141022	-3.010700	3.777800	-11.372000	24.039173	0.000530	20.810058
501.140687	-3.002600	3.778600	-11.345000	24.112380	0.000533	20.796709
502.141356	-2.959100	3.779500	-11.183000	24.126791	0.000531	20.829654
503.144884	-2.989900	3.779600	-11.300000	24.125862	0.000534	20.796480
504.141808	-3.004200	3.778700	-11.351000	24.104914	0.000530	20.802497
505.141832	-2.990300	3.778300	-11.297000	24.111410	0.000530	20.811383
506.143454	-2.977800	3.778800	-11.251000	24.114271	0.000532	20.816623
507.144117	-3.001500	3.777400	-11.337000	24.109218	0.000533	20.790692
508.148340	-3.006100	3.778100	-11.357000	24.132481	0.000533	20.772298
509.145230	-3.001200	3.777300	-11.336000	24.157218	0.000533	20.786678
510.145456	-2.999900	3.777300	-11.331000	24.169363	0.000533	20.822092
511.146425	-3.008100	3.778000	-11.364000	24.193546	0.000531	20.789449
512.145559	-3.018300	3.774800	-11.393000	24.176446	0.000533	20.795057
513.147669	-2.978500	3.776400	-11.247000	24.175671	0.000533	20.797126
514.147666	-3.016000	3.774900	-11.384000	24.193146	0.000533	20.810385
515.146523	-2.988600	3.776200	-11.284000	24.177147	0.000532	20.764466
516.146851	-3.007100	3.774000	-11.348000	24.164138	0.000534	20.813059
517.147445	-3.010600	3.774600	-11.363000	24.159427	0.000534	20.795531
518.153979	-3.010300	3.775300	-11.364000	24.196455	0.000532	20.782885
519.149260	-3.014500	3.774600	-11.378000	24.170675	0.000533	20.784054
520.147587	-3.002700	3.774300	-11.333000	24.165051	0.000535	20.788844
521.146852	-3.006500	3.773900	-11.345000	24.144495	0.000532	20.789089
522.151018	-3.003100	3.772100	-11.325000	24.174808	0.000534	20.786776
523.149308	-3.021900	3.772700	-11.399000	24.179005	0.000533	20.790986
524.151631	-3.001000	3.773100	-11.322000	24.179070	0.000532	20.792948
525.149899	-3.005900	3.772900	-11.340000	24.256278	0.000535	20.778404
526.150684	-2.991500	3.774300	-11.290000	24.268153	0.000532	20.773246
527.149290	-3.023000	3.770900	-11.398000	24.270312	0.000530	20.795801
528.150004	-2.982600	3.771700	-11.248000	24.284892	0.000533	20.772968
529.149673	-3.015700	3.771100	-11.372000	24.249986	0.000532	20.782525
530.153487	-3.014600	3.770800	-11.366000	24.238413	0.000532	20.789882
531.150953	-3.018000	3.771500	-11.381000	24.214460	0.000533	20.777710
532.150532	-2.997700	3.770900	-11.303000	24.252121	0.000533	20.760958
533.152252	-2.994200	3.770900	-11.290000	24.269465	0.000532	20.781200
534.149569	-3.002100	3.770200	-11.318000	24.267378	0.000533	20.770573
535.152822	-2.991800	3.769700	-11.277000	24.247826	0.000533	20.765659
536.152054	-3.016700	3.768800	-11.369000	24.271087	0.000534	20.783776
537.151235	-2.986100	3.769300	-11.254000	24.300173	0.000534	20.767433
538.151888	-3.001600	3.769500	-11.314000	24.326399	0.000534	20.778094
539.156598	-3.000800	3.768300	-11.308000	24.316497	0.000532	20.779541
540.152692	-2.994600	3.768900	-11.286000	24.314688	0.000533	20.769665
541.153234	-3.021800	3.767500	-11.384000	24.340913	0.000532	20.773213
542.151755	-2.993200	3.768300	-11.278000	24.384699	0.000534	20.773990
543.153882	-2.983500	3.768400	-11.241000	24.396213	0.000532	20.759463
544.153080	-2.994100	3.767100	-11.278000	24.368515	0.000534	20.759177
545.159213	-2.999300	3.767900	-11.300000	24.339951	0.000532	20.764188
546.153851	-3.004300	3.767100	-11.317000	24.338688	0.000534	20.776197
547.153102	-3.003600	3.766300	-11.312000	24.303335	0.000534	20.770606
548.153359	-2.998100	3.767800	-11.295000	24.303433	0.000536	20.770704
549.152828	-2.992700	3.766700	-11.272000	24.303499	0.000535	20.761286
550.153956	-2.996100	3.766200	-11.283000	24.286254	0.000534	20.753470
551.156471	-2.997300	3.766800	-11.289000	24.289571	0.000532	20.765807
552.158539	-2.980700	3.765300	-11.221000	24.338811	0.000535	20.782010
553.154727	-2.992500	3.766200	-11.270000	24.329626	0.000534	20.775642
554.161309	-3.005500	3.764700	-11.314000	24.349234	0.000533	20.749317
555.155756	-3.006900	3.764300	-11.318000	24.352942	0.000535	20.775323
556.156624	-3.014600	3.764600	-11.348000	24.341060	0.000533	20.759610
557.156386	-3.020100	3.764500	-11.367000	24.339340	0.000533	20.754092
558.155684	-3.021600	3.763100	-11.369000	24.373380	0.000535	20.766429
559.156307	-3.029100	3.763100	-11.397000	24.374276	0.000536	20.747413
560.156812	-2.998900	3.763800	-11.286000	24.384699	0.000533	20.755024
561.157770	-3.014600	3.762300	-11.341000	24.368336	0.000535	20.755678
562.157517	-3.003000	3.762400	-11.298000	24.355819	0.000534	20.765407
563.157651	-2.992600	3.762500	-11.259000	24.337140	0.000533	20.767058
564.160885	-3.005000	3.762300	-11.305000	24.326970	0.000533	20.759226
565.158990	-2.978700	3.762400	-11.206000	24.339903	0.000533	20.753234
566.159627	-2.992500	3.763300	-11.261000	24.365581	0.000534	20.768088
567.160252	-3.017700	3.761500	-11.350000	24.356625	0.000533	20.759104
568.160132	-3.000500	3.761100	-11.285000	24.377104	0.000534	20.734602
569.161335	-3.000600	3.761600	-11.286000	24.384072	0.000535	20.743963
570.164475	-2.999900	3.761700	-11.284000	24.404795	0.000535	20.753847
571.163211	-3.015500	3.760000	-11.338000	24.428777	0.000534	20.749457
572.168664	-2.990400	3.761000	-11.246000	24.434799	0.000535	20.754550
573.165473	-3.007800	3.760000	-11.308000	24.431466	0.000533	20.745990
574.180284	-3.016000	3.760200	-11.339000	24.397885	0.000535	20.761614
575.164023	-2.997200	3.760500	-11.270000	24.405243	0.000534	20.766151
576.163617	-2.999900	3.758400	-11.274000	24.410923	0.000534	20.755253
577.167850	-3.002200	3.759600	-11.286000	24.390070	0.000534	20.762308
578.167451	-3.005100	3.759300	-11.296000	24.389108	0.000534	20.743325
579.164581	-3.006900	3.758700	-11.302000	24.371066	0.000533	20.729967
580.164318	-3.004300	3.757300	-11.287000	24.387511	0.000533	20.731765
581.168818	-2.998100	3.759500	-11.270000	24.374709	0.000535	20.745476
582.168036	-3.015600	3.758800	-11.334000	24.416448	0.000535	20.755106
583.168216	-3.009800	3.757000	-11.306000	24.415771	0.000535	20.744944
584.166429	-3.010900	3.756900	-11.311000	24.383738	0.000534	20.742680
585.168158	-3.001400	3.757800	-11.277000	24.394707	0.000535	20.751313
586.166409	-3.004300	3.756300	-11.284000	24.420286	0.000534	20.730506
587.166570	-2.986000	3.756100	-11.214000	24.444683	0.000533	20.718472
588.167542	-2.994400	3.756900	-11.249000	24.470970	0.000533	20.741053
589.167486	-3.001400	3.756700	-11.273000	24.498088	0.000533	20.748819
590.168046	-3.000000	3.756400	-11.268000	24.462488	0.000535	20.741551
591.166862	-2.983700	3.756500	-11.207000	24.432224	0.000534	20.749122
592.167103	-2.977600	3.756100	-11.183000	24.422934	0.000534	20.735534
593.168846	-2.991100	3.755300	-11.231000	24.438180	0.000534	20.740873
594.171495	-2.995100	3.754400	-11.243000	24.462007	0.000535	20.749130
595.168335	-3.013200	3.753800	-11.309000	24.455537	0.000533	20.748329
596.168464	-3.008900	3.754100	-11.295000	24.476454	0.000533	20.747029
597.170269	-3.023600	3.753900	-11.349000	24.473292	0.000535	20.728683
598.169303	-3.012200	3.753500	-11.305000	24.456971	0.000535	20.750716
599.172702	-3.000100	3.753400	-11.260000	24.450957	0.000533	20.727612
600.169435	-3.000300	3.753800	-11.261000	24.474735	0.000534	20.731552
601.170613	-3.020100	3.752300	-11.331000	24.426193	0.000534	20.735011
602.171930	-2.994300	3.753400	-11.238000	24.414174	0.000532	20.730538
603.170751	-3.008600	3.752600	-11.289000	24.440845	0.000533	20.759668
604.173456	-3.015400	3.753100	-11.314000	24.514685	0.000534	20.726590
605.173753	-3.008200	3.752100	-11.286000	24.481334	0.000533	20.753348
606.170573	-3.001500	3.750500	-11.257000	24.451299	0.000532	20.740758
607.173318	-2.990400	3.750700	-11.216000	24.497370	0.000533	20.730081
608.172892	-2.999500	3.750400	-11.248000	24.511043	0.000531	20.720564
609.173403	-2.984200	3.751200	-11.194000	24.482711	0.000533	20.733866
610.176011	-2.982100	3.751900	-11.188000	24.496115	0.000532	20.747788
611.174304	-3.000100	3.750900	-11.252000	24.499212	0.000530	20.729557
612.173367	-3.014000	3.749000	-11.298000	24.490379	0.000531	20.733024
613.176469	-2.999300	3.749300	-11.245000	24.480039	0.000533	20.746832
614.179080	-2.977000	3.750900	-11.165000	24.485172	0.000531	20.733964
615.179473	-2.995600	3.749500	-11.231000	24.519900	0.000532	20.738460
616.176389	-3.008700	3.749500	-11.280000	24.514872	0.000532	20.744322
617.175525	-2.991900	3.747200	-11.210000	24.545248	0.000530	20.743979
618.175783	-2.991400	3.749500	-11.216000	24.522678	0.000530	20.713271
619.175406	-3.021200	3.747200	-11.320000	24.558480	0.000531	20.707941
620.175968	-3.002700	3.748600	-11.255000	24.552117	0.000532	20.725265
621.178870	-3.014800	3.746600	-11.294000	24.551318	0.000530	20.722567
622.176622	-3.001500	3.747600	-11.248000	24.570971	0.000530	20.730906
623.178142	-3.011200	3.748100	-11.286000	24.586549	0.000528	20.713819
624.180832	-2.993000	3.746900	-11.213000	24.577220	0.000529	20.704932
625.178258	-3.005500	3.746100	-11.258000	24.569080	0.000529	20.711939
626.179998	-3.004200	3.747400	-11.257000	24.530753	0.000530	20.715683
627.177549	-2.963900	3.747300	-11.105000	24.548442	0.000529	20.715888
628.178555	-2.997100	3.746000	-11.226000	24.571745	0.000531	20.729786
629.180546	-3.017500	3.744800	-11.300000	24.555384	0.000530	20.710525
630.180330	-3.024900	3.744900	-11.326000	24.561079	0.000531	20.719085
631.180370	-2.992900	3.746300	-11.211000	24.558024	0.000530	20.707483
632.181051	-3.012500	3.745200	-11.281000	24.579892	0.000529	20.700976
633.180500	-2.994100	3.745600	-11.214000	24.599560	0.000530	20.715970
634.184773	-3.008100	3.743800	-11.261000	24.551962	0.000530	20.734120
635.183868	-3.014000	3.744200	-11.284000	24.559018	0.000527	20.736458
636.186427	-3.001900	3.745000	-11.242000	24.567182	0.000529	20.706241
637.184028	-3.013400	3.743900	-11.280000	24.541663	0.000529	20.721415
638.183891	-3.008200	3.743900	-11.261000	24.558774	0.000529	20.702545
639.188722	-3.003300	3.742400	-11.239000	24.589572	0.000529	20.734398
640.184053	-2.983600	3.743200	-11.167000	24.570889	0.000528	20.709012
641.188230	-2.981300	3.743500	-11.160000	24.591535	0.000527	20.705072
642.181972	-2.979400	3.743300	-11.152000	24.571867	0.000527	20.713787
643.188262	-3.008100	3.741800	-11.255000	24.536872	0.000527	20.713288
644.187808	-3.003900	3.741300	-11.237000	24.551229	0.000528	20.703036
645.184166	-3.003300	3.741300	-11.235000	24.508566	0.000527	20.705750
646.186616	-2.993000	3.740500	-11.194000	24.541647	0.000528	20.709544
647.187495	-2.990300	3.741500	-11.188000	24.547253	0.000527	20.717066
648.186803	-2.966500	3.741700	-11.098000	24.579208	0.000528	20.699341
649.186639	-3.008700	3.741100	-11.255000	24.622235	0.000527	20.714065
650.185995	-3.015500	3.740700	-11.279000	24.640297	0.000527	20.693781
651.191242	-3.014000	3.740800	-11.273000	24.648355	0.000526	20.707083
652.186388	-2.995400	3.740800	-11.204000	24.659687	0.000529	20.703281
653.186109	-3.008500	3.739100	-11.248000	24.657463	0.000527	20.713853
654.186389	-2.976400	3.740500	-11.132000	24.594673	0.000528	20.696839
655.186448	-2.982300	3.739600	-11.152000	24.610560	0.000524	20.708514
656.187089	-2.981400	3.738900	-11.147000	24.613770	0.000524	20.688974
657.197476	-3.003700	3.740200	-11.233000	24.595789	0.000525	20.691795
658.188184	-2.983600	3.738800	-11.154000	24.603048	0.000526	20.717098
659.186540	-3.021200	3.736900	-11.289000	24.591381	0.000525	20.678836
660.191847	-3.012500	3.737300	-11.257000	24.617029	0.000526	20.703151
661.186815	-3.040600	3.736900	-11.361000	24.636729	0.000524	20.698262
662.189778	-3.011800	3.738400	-11.258000	24.665374	0.000525	20.702349
663.188582	-2.991100	3.737200	-11.177000	24.663566	0.000528	20.698164
664.188217	-3.005400	3.736700	-11.229000	24.699852	0.000524	20.689530
665.189935	-3.000400	3.737600	-11.213000	24.672601	0.000525	20.693479
666.191391	-2.993800	3.736700	-11.187000	24.654979	0.000526	20.691918
667.192369	-3.017700	3.735800	-11.273000	24.635923	0.000525	20.688443
668.189639	-2.996900	3.736100	-11.195000	24.620296	0.000526	20.688410
669.189477	-2.973500	3.736400	-11.109000	24.654351	0.000524	20.705040
670.190948	-2.997900	3.736100	-11.200000	24.650522	0.000525	20.691713
671.193572	-2.993200	3.735000	-11.178000	24.675697	0.000524	20.686154
672.190238	-3.016800	3.734900	-11.266000	24.705563	0.000525	20.688623
673.193148	-3.011500	3.734900	-11.247000	24.670222	0.000522	20.687298
674.191463	-2.995000	3.734900	-11.185000	24.643320	0.000525	20.679744
675.191400	-2.990200	3.734800	-11.167000	24.669758	0.000525	20.699636
676.194110	-2.980500	3.734000	-11.128000	24.712724	0.000521	20.673996
677.193567	-2.989000	3.734400	-11.161000	24.697783	0.000525	20.699309
678.195504	-2.987000	3.734600	-11.154000	24.709180	0.000526	20.690356
679.192568	-2.985000	3.733900	-11.145000	24.719779	0.000523	20.690561
680.193667	-3.004200	3.732200	-11.212000	24.726117	0.000523	20.679376
681.193892	-3.008300	3.732700	-11.228000	24.713408	0.000523	20.712144
682.193589	-2.998800	3.732600	-11.192000	24.699257	0.000524	20.706005
683.195448	-2.990600	3.731900	-11.160000	24.711665	0.000524	20.699963
684.197888	-3.000000	3.733000	-11.197000	24.701449	0.000523	20.702988
685.194613	-2.997600	3.732900	-11.189000	24.696276	0.000524	20.669818
686.194717	-3.024300	3.731400	-11.283000	24.731567	0.000523	20.685320
687.197180	-2.981700	3.734000	-11.133000	24.749098	0.000523	20.673988
688.195350	-3.023000	3.730800	-11.277000	24.734035	0.000524	20.692539
689.201604	-3.014000	3.730900	-11.243000	24.751607	0.000522	20.696423
690.197586	-3.005200	3.731700	-11.213000	24.764641	0.000522	20.697649
691.196792	-2.993600	3.730500	-11.166000	24.754988	0.000522	20.702661
692.199214	-3.009300	3.730100	-11.224000	24.736121	0.000521	20.699848
693.197291	-2.956700	3.730000	-11.028000	24.744381	0.000519	20.681584
694.198105	-2.986600	3.730800	-11.141000	24.745196	0.000520	20.698524
695.201003	-3.000600	3.728900	-11.188000	24.724031	0.000520	20.694354
696.198468	-3.004000	3.729700	-11.203000	24.705628	0.000518	20.704337
697.197151	-3.008100	3.728800	-11.215000	24.695013	0.000521	20.694632
698.199181	-3.002000	3.728800	-11.193000	24.742369	0.000519	20.695687
699.197682	-3.034600	3.726600	-11.308000	24.778701	0.000521	20.691844
700.199067	-3.004800	3.728400	-11.201000	24.768576	0.000521	20.697805
701.198020	-2.996300	3.728800	-11.171000	24.757318	0.000520	20.685557
702.197951	-3.029100	3.727900	-11.290000	24.748560	0.000519	20.677717
703.196898	-3.000200	3.727100	-11.182000	24.785088	0.000519	20.702996
704.201325	-3.011500	3.726300	-11.220000	24.774767	0.000518	20.702595
705.202769	-3.007300	3.725400	-11.202000	24.804703	0.000520	20.692809
706.198273	-3.003300	3.727100	-11.192000	24.827650	0.000518	20.699243
707.199845	-2.996200	3.726200	-11.164000	24.836431	0.000519	20.687192
708.200462	-2.991900	3.725700	-11.146000	24.862098	0.000520	20.701099
709.200528	-2.979800	3.726500	-11.103000	24.852128	0.000519	20.687299
710.204498	-3.022400	3.725200	-11.258000	24.786627	0.000517	20.683677
711.204840	-3.012000	3.724800	-11.218000	24.807685	0.000520	20.688214
712.201999	-2.989600	3.725400	-11.137000	24.810519	0.000518	20.712398
713.201377	-3.022300	3.723900	-11.254000	24.794733	0.000520	20.697502
714.204298	-3.009000	3.723900	-11.204000	24.805770	0.000517	20.692457
715.202227	-2.980000	3.724700	-11.099000	24.797559	0.000519	20.687536
716.204709	-2.982800	3.726000	-11.113000	24.798358	0.000517	20.683595
717.204062	-2.969900	3.724200	-11.059000	24.827878	0.000515	20.709904
718.205041	-2.982900	3.724300	-11.108000	24.782619	0.000519	20.691035
719.207492	-2.993200	3.724200	-11.147000	24.794708	0.000516	20.687994
720.204684	-2.988800	3.724700	-11.132000	24.782945	0.000519	20.699897
721.210164	-3.007800	3.724300	-11.200000	24.776934	0.000518	20.707141
722.206928	-3.013100	3.723500	-11.218000	24.785585	0.000518	20.697805
723.206185	-3.003400	3.722700	-11.181000	24.818828	0.000518	20.712676
724.207116	-2.990200	3.721700	-11.128000	24.833507	0.000518	20.689948
725.208722	-3.002600	3.721100	-11.172000	24.829459	0.000516	20.692049
726.207560	-2.981700	3.723000	-11.100000	24.856193	0.000516	20.709398
727.211590	-3.020200	3.721600	-11.239000	24.866806	0.000518	20.692548
728.207960	-2.984300	3.722500	-11.108000	24.900699	0.000515	20.687209
729.207108	-3.005700	3.721000	-11.183000	24.884237	0.000515	20.704353
730.212836	-3.011700	3.721100	-11.205000	24.906124	0.000517	20.718735
731.207154	-3.012100	3.721000	-11.207000	24.884588	0.000514	20.689531
732.209853	-3.006800	3.720500	-11.186000	24.826388	0.000514	20.699399
733.208190	-2.984800	3.720100	-11.103000	24.817330	0.000516	20.709749
734.210724	-2.980200	3.721200	-11.088000	24.832807	0.000512	20.695884
735.208076	-3.003700	3.720800	-11.175000	24.829662	0.000517	20.704108
736.208117	-2.990100	3.720100	-11.123000	24.800427	0.000513	20.698001
737.209642	-2.983600	3.719100	-11.095000	24.744919	0.000512	20.691133
738.208965	-2.987600	3.719000	-11.110000	24.761855	0.000515	20.715718
739.212123	-3.015600	3.718300	-11.213000	24.783997	0.000515	20.710437
740.210015	-3.020400	3.717600	-11.227000	24.777773	0.000513	20.698026
741.210524	-2.988500	3.719800	-11.115000	24.790530	0.000512	20.714622
742.215197	-2.970300	3.717300	-11.040000	24.822657	0.000513	20.698974
743.215066	-2.997400	3.717100	-11.141000	24.802016	0.000512	20.699595
744.212762	-2.976700	3.718500	-11.067000	24.815269	0.000515	20.709104
745.212559	-2.998100	3.717300	-11.144000	24.766507	0.000512	20.690986
746.213693	-3.023300	3.716900	-11.236000	24.795303	0.000512	20.705662
747.212405	-2.983900	3.718400	-11.095000	24.824376	0.000512	20.700699
748.213733	-3.007900	3.718400	-11.184000	24.846158	0.000513	20.714500
749.213646	-3.004600	3.716800	-11.166000	24.857912	0.000512	20.714917
750.214783	-3.013300	3.714900	-11.193000	24.861512	0.000511	20.687708
751.218113	-2.985200	3.717100	-11.095000	24.824865	0.000512	20.695499
752.215434	-3.009700	3.715100	-11.181000	24.777569	0.000510	20.709676
753.218538	-3.007300	3.715700	-11.173000	24.737384	0.000512	20.712971
754.217471	-2.980800	3.715200	-11.072000	24.710077	0.000512	20.723501
755.216643	-2.999600	3.715300	-11.142000	24.747200	0.000509	20.704803
756.222342	-2.989300	3.716100	-11.108000	24.767142	0.000511	20.724817
757.215917	-2.997900	3.716200	-11.140000	24.799075	0.000512	20.730311
758.218936	-2.986400	3.714000	-11.091000	24.839608	0.000510	20.710771
759.219554	-3.008600	3.713400	-11.171000	24.832872	0.000510	20.694526
760.216093	-3.024400	3.712700	-11.227000	24.882828	0.000511	20.723329
761.216655	-2.999800	3.712800	-11.136000	24.887504	0.000511	20.725651
762.218562	-3.007700	3.713100	-11.167000	24.889394	0.000510	20.722332
763.219828	-2.992100	3.714200	-11.112000	24.843021	0.000510	20.708507
764.218461	-3.004500	3.711800	-11.151000	24.880743	0.000510	20.728823
765.217308	-2.983700	3.712700	-11.077000	24.911052	0.000509	20.725578
766.218032	-2.993800	3.713600	-11.117000	24.923563	0.000509	20.699252
767.221147	-3.027700	3.712300	-11.239000	24.910832	0.000508	20.719667
768.218555	-3.001200	3.711800	-11.139000	24.867670	0.000507	20.719021
769.221390	-3.006100	3.712600	-11.159000	24.875759	0.000508	20.704853
770.220462	-2.966100	3.713000	-11.012000	24.868118	0.000509	20.717100
771.221771	-2.996400	3.712400	-11.122000	24.910465	0.000508	20.711238
772.220588	-2.980700	3.711500	-11.062000	24.890550	0.000506	20.714484
773.220336	-2.987200	3.710900	-11.084000	24.887048	0.000507	20.725668
774.222610	-2.998600	3.712200	-11.130000	24.869161	0.000507	20.729526
775.224818	-3.007000	3.710300	-11.155000	24.832221	0.000507	20.720901
776.221772	-3.022200	3.710100	-11.211000	24.857529	0.000507	20.720697
777.223128	-3.004400	3.710000	-11.145000	24.826201	0.000505	20.710118
778.225883	-2.994200	3.711300	-11.112000	24.877078	0.000507	20.716609
779.222606	-2.982400	3.710400	-11.065000	24.908006	0.000508	20.727736
780.225786	-2.983800	3.711600	-11.074000	24.915442	0.000507	20.736149
781.224043	-2.994600	3.709200	-11.107000	24.926585	0.000508	20.713666
782.224530	-2.993100	3.710300	-11.104000	24.922553	0.000505	20.735699
783.224238	-3.000000	3.709100	-11.127000	24.921087	0.000506	20.728537
784.224324	-3.018400	3.708000	-11.192000	24.935039	0.000508	20.736852
785.229567	-2.985600	3.707800	-11.069000	24.951964	0.000507	20.744357
786.229207	-2.996100	3.707800	-11.108000	24.974590	0.000507	20.722021
787.225278	-3.002800	3.708300	-11.135000	24.998038	0.000505	20.730385
788.225299	-2.989300	3.707600	-11.082000	25.006468	0.000506	20.732208
789.227881	-2.995200	3.707300	-11.103000	25.024581	0.000505	20.715301
790.227784	-3.000300	3.706700	-11.120000	24.958195	0.000504	20.715047
791.228456	-2.989600	3.706300	-11.080000	24.919963	0.000503	20.724564
792.228767	-2.981900	3.707700	-11.055000	24.926071	0.000502	20.722160
793.227724	-2.999800	3.705600	-11.115000	24.911052	0.000505	20.742174
794.231130	-2.999000	3.707000	-11.116000	24.917763	0.000502	20.728995
795.227811	-3.014900	3.705800	-11.171000	24.900088	0.000503	20.719315
796.242006	-2.999600	3.706800	-11.119000	24.931667	0.000504	20.733467
797.229218	-3.031600	3.705500	-11.232000	24.965973	0.000502	20.733287
798.230708	-2.993400	3.706400	-11.093000	24.967064	0.000502	20.734383
799.229997	-2.992100	3.705500	-11.086000	24.980869	0.000504	20.731644
800.230323	-3.006800	3.705700	-11.141000	24.964604	0.000504	20.736655
801.232264	-2.992700	3.705100	-11.087000	24.946540	0.000501	20.750292
802.233551	-2.965400	3.706700	-10.990000	24.968709	0.000504	20.743147
803.230730	-2.956900	3.704200	-10.952000	24.963888	0.000502	20.736884
804.231434	-2.971100	3.704000	-11.004000	24.959856	0.000500	20.742795
805.233182	-2.984700	3.705100	-11.058000	24.952697	0.000500	20.732290
806.231117	-2.977000	3.703300	-11.024000	24.977709	0.000500	20.739378
807.234416	-2.982100	3.704800	-11.048000	24.975575	0.000500	20.733443
808.231727	-2.992800	3.702800	-11.081000	24.976374	0.000500	20.754159
809.231767	-2.965200	3.702500	-10.978000	24.939747	0.000499	20.738732
810.234922	-2.998800	3.703100	-11.104000	24.945839	0.000500	20.737260
811.237623	-2.980300	3.703500	-11.036000	24.998478	0.000498	20.736991
812.233269	-2.981300	3.702900	-11.038000	24.978434	0.000500	20.733941
813.233256	-3.007200	3.701300	-11.130000	24.991767	0.000497	20.760127
814.234227	-2.998200	3.701200	-11.096000	25.003601	0.000500	20.750668
815.233738	-2.992000	3.701900	-11.075000	24.982295	0.000499	20.742084
816.233296	-2.981800	3.701200	-11.035000	25.008325	0.000499	20.756833
817.236680	-2.991500	3.700700	-11.070000	25.043133	0.000503	20.754315
818.235955	-3.006600	3.701600	-11.128000	25.080254	0.000499	20.754118
819.235600	-2.984600	3.701200	-11.045000	25.095694	0.000498	20.748281
820.238719	-2.978900	3.700800	-11.022000	25.131372	0.000498	20.758967
821.234396	-3.008800	3.698800	-11.128000	25.108798	0.000498	20.747684
822.238600	-3.013400	3.700800	-11.151000	25.033817	0.000496	20.753971
823.236008	-2.977200	3.700900	-11.016000	25.015500	0.000496	20.745543
824.234530	-2.994100	3.698600	-11.073000	25.031593	0.000498	20.757430
825.234851	-3.002600	3.699300	-11.106000	25.024524	0.000499	20.763136
826.234248	-3.002300	3.698300	-11.103000	25.035340	0.000499	20.745543
827.236705	-2.987100	3.698300	-11.047000	25.058363	0.000498	20.752533
828.235321	-3.006700	3.698200	-11.119000	25.066694	0.000497	20.761844
829.235028	-3.010800	3.696900	-11.130000	25.039624	0.000500	20.757904
830.237395	-2.987100	3.698400	-11.046000	25.020998	0.000496	20.764338
831.238564	-2.994500	3.697400	-11.071000	25.025127	0.000494	20.760422
832.238245	-2.991000	3.698500	-11.062000	25.008749	0.000495	20.766742
833.237491	-3.002100	3.697600	-11.100000	24.979062	0.000496	20.750219
834.236604	-3.011500	3.696800	-11.131000	24.976521	0.000497	20.759523
835.235300	-3.034100	3.695700	-11.212000	24.972058	0.000495	20.774958
836.237794	-3.005400	3.697200	-11.110000	24.964719	0.000494	20.764273
837.241104	-3.007100	3.695900	-11.113000	24.958383	0.000495	20.780672
838.243126	-3.018700	3.695900	-11.156000	25.005646	0.000494	20.773110
839.238725	-2.987600	3.696300	-11.041000	24.997567	0.000494	20.770690
840.238852	-3.016100	3.695600	-11.146000	25.011070	0.000494	20.761485
841.240286	-3.012100	3.695800	-11.131000	25.023572	0.000493	20.786362
842.239567	-3.029700	3.695100	-11.194000	25.067232	0.000493	20.751953
843.242355	-3.015700	3.695400	-11.143000	25.045968	0.000494	20.768066
844.239814	-2.993300	3.694500	-11.058000	25.034753	0.000494	20.758705
845.239716	-3.008300	3.694600	-11.113000	25.031528	0.000492	20.766374
846.240674	-3.010600	3.694600	-11.120000	25.021780	0.000492	20.793098
847.240303	-3.011800	3.693000	-11.122000	24.997542	0.000492	20.786787
848.242908	-3.002200	3.694200	-11.090000	25.033687	0.000492	20.766643
849.244729	-2.992900	3.694000	-11.055000	25.064846	0.000492	20.773266
850.241268	-2.993100	3.692700	-11.051000	25.054845	0.000492	20.761330
851.241809	-3.014600	3.692800	-11.131000	25.093504	0.000492	20.771688
852.243402	-2.999100	3.692400	-11.073000	25.125639	0.000491	20.780713
853.243074	-2.986500	3.694000	-11.031000	25.136038	0.000492	20.766971
854.244380	-3.004000	3.692200	-11.090000	25.149906	0.000491	20.797962
855.243762	-3.011000	3.690900	-11.113000	25.125395	0.000490	20.775252
856.244606	-2.982200	3.693600	-11.014000	25.066271	0.000488	20.774222
857.247989	-2.973400	3.691600	-10.975000	25.059332	0.000489	20.789068
858.244339	-2.993600	3.691600	-11.050000	25.064561	0.000488	20.796213
859.249053	-3.005600	3.690100	-11.089000	25.056979	0.000490	20.787654
860.246804	-3.005200	3.691300	-11.092000	25.080971	0.000489	20.787081
861.247342	-3.016300	3.689500	-11.128000	25.105280	0.000488	20.805794
862.248104	-3.007200	3.690500	-11.097000	25.091378	0.000487	20.779511
863.248938	-3.001600	3.689200	-11.072000	25.092177	0.000488	20.786950
864.248028	-2.995400	3.690200	-11.051000	25.077135	0.000488	20.795085
865.252430	-3.018500	3.689400	-11.136000	25.082827	0.000485	20.787997
866.249936	-2.982200	3.689100	-11.000000	25.094270	0.000487	20.795690
867.248381	-2.998500	3.689400	-11.062000	25.124914	0.000485	20.787098
868.254917	-2.988900	3.689600	-11.027000	25.140786	0.000487	20.781220
869.249562	-3.008300	3.688500	-11.095000	25.119132	0.000486	20.796941
870.257255	-2.997600	3.688300	-11.055000	25.135737	0.000484	20.772832
871.250238	-3.005300	3.687200	-11.080000	25.113440	0.000486	20.785536
872.249610	-2.996600	3.687400	-11.048000	25.079977	0.000486	20.786084
873.251147	-2.998000	3.687600	-11.054000	25.063747	0.000485	20.787809
874.251839	-2.999400	3.687700	-11.059000	25.039901	0.000484	20.805124
875.255085	-3.006300	3.687200	-11.084000	25.086614	0.000485	20.792273
876.250596	-2.992700	3.686400	-11.031000	25.111127	0.000485	20.793172
877.251735	-3.006900	3.686000	-11.082000	25.089229	0.000483	20.800587
878.251506	-3.011200	3.686800	-11.100000	25.146527	0.000483	20.803579
879.251751	-2.991600	3.686900	-11.029000	25.118587	0.000483	20.813936
880.251206	-2.989100	3.685400	-11.015000	25.077616	0.000484	20.794619
881.253078	-2.999600	3.685000	-11.052000	25.087861	0.000482	20.800636
882.251516	-3.008700	3.685300	-11.087000	25.110704	0.000483	20.793695
883.250496	-3.001400	3.686200	-11.063000	25.175737	0.000482	20.812988
884.254482	-2.989900	3.685200	-11.017000	25.150167	0.000482	20.790638
885.252999	-2.988900	3.685400	-11.014000	25.166152	0.000481	20.807160
886.256551	-3.009600	3.685100	-11.090000	25.164353	0.000480	20.800611
887.254187	-3.008900	3.683600	-11.083000	25.154817	0.000481	20.791038
888.255059	-2.998500	3.683200	-11.043000	25.103879	0.000482	20.792535
889.253580	-3.004800	3.682600	-11.065000	25.069798	0.000480	20.799573
890.254259	-2.985200	3.683400	-10.994000	25.080295	0.000480	20.796361
891.257648	-3.023900	3.682200	-11.134000	25.099979	0.000480	20.786248
892.262135	-2.998500	3.683000	-11.043000	25.085638	0.000479	20.787025
893.256397	-3.002400	3.682500	-11.055000	25.065433	0.000481	20.800882
894.256359	-3.005100	3.683800	-11.069000	25.109930	0.000479	20.813782
895.258860	-2.979700	3.683400	-10.975000	25.122512	0.000479	20.794644
896.257043	-3.012100	3.682000	-11.090000	25.139068	0.000480	20.810315
897.261301	-3.002300	3.683100	-11.057000	25.080222	0.000477	20.813831
898.257583	-3.008600	3.682500	-11.079000	25.097406	0.000477	20.800260
899.256949	-2.987800	3.681300	-10.998000	25.095492	0.000477	20.804503
900.261637	-2.999500	3.681500	-11.042000	25.087617	0.000481	20.809874
901.261138	-3.000700	3.680700	-11.044000	25.124663	0.000479	20.814820
902.261594	-3.025800	3.681400	-11.138000	25.143677	0.000477	20.793606
903.259035	-3.013000	3.681100	-11.090000	25.131699	0.000478	20.812400
904.258911	-3.000600	3.680900	-11.044000	25.135656	0.000478	20.814477
905.257311	-3.006800	3.679400	-11.062000	25.142521	0.000475	20.818050
906.262049	-3.003300	3.679000	-11.047000	25.127350	0.000476	20.796181
907.259340	-3.002800	3.680300	-11.050000	25.201633	0.000474	20.800580
908.262994	-3.010100	3.679300	-11.074000	25.225524	0.000475	20.804177
909.260048	-3.008800	3.680400	-11.073000	25.192219	0.000478	20.811518
910.260693	-3.015800	3.679600	-11.096000	25.180917	0.000477	20.822456
911.264246	-2.975300	3.679000	-10.945000	25.196527	0.000475	20.822007
912.262765	-3.002600	3.679300	-11.047000	25.149468	0.000475	20.834980
913.265095	-2.995500	3.679400	-11.021000	25.152473	0.000474	20.832307
914.264408	-2.999000	3.677700	-11.028000	25.141691	0.000474	20.829070
915.264174	-2.971600	3.679000	-10.931000	25.143809	0.000474	20.813178
916.264287	-2.977200	3.677800	-10.949000	25.182912	0.000475	20.824933
917.266012	-2.976700	3.678000	-10.947000	25.212789	0.000475	20.828375
918.266735	-2.997000	3.676500	-11.018000	25.238145	0.000475	20.833917
919.266638	-2.997500	3.677400	-11.023000	25.206120	0.000473	20.828317
920.264668	-2.993700	3.677500	-11.009000	25.242046	0.000473	20.834988
921.266039	-2.999200	3.676700	-11.026000	25.262166	0.000473	20.829585
922.266575	-3.028200	3.675800	-11.130000	25.251345	0.000473	20.818720
923.266387	-3.016000	3.674400	-11.081000	25.237356	0.000472	20.820323
924.268317	-2.991600	3.677000	-10.999000	25.221396	0.000472	20.826585
925.266737	-2.995400	3.676200	-11.011000	25.215110	0.000470	20.815532
926.266400	-2.998700	3.674900	-11.019000	25.203905	0.000472	20.822301
927.270015	-3.005100	3.673600	-11.039000	25.195200	0.000471	20.814036
928.267179	-3.003200	3.675000	-11.036000	25.234221	0.000470	20.829977
929.270593	-3.004100	3.674500	-11.038000	25.240996	0.000472	20.830615
930.266238	-3.011700	3.674100	-11.065000	25.251956	0.000472	20.811748
931.268588	-3.001000	3.673600	-11.023000	25.224287	0.000471	20.819530
932.268991	-2.998300	3.674300	-11.016000	25.238065	0.000468	20.831466
933.268936	-2.996200	3.672500	-11.003000	25.225353	0.000470	20.804954
934.269650	-3.006500	3.673600	-11.044000	25.238618	0.000469	20.814004
935.274533	-2.987200	3.673100	-10.972000	25.238390	0.000471	20.832267
936.271676	-3.008300	3.671900	-11.045000	25.267997	0.000470	20.820266
937.272856	-2.992800	3.672200	-10.989000	25.229295	0.000472	20.817920
938.279093	-3.007100	3.671700	-11.039000	25.225069	0.000469	20.817944
939.276028	-2.978800	3.672600	-10.938000	25.203466	0.000469	20.823283
940.279570	-3.021600	3.670900	-11.091000	25.238692	0.000469	20.811233
941.275434	-3.006900	3.670600	-11.036000	25.220452	0.000468	20.808094
942.277087	-2.967700	3.673100	-10.900000	25.230639	0.000466	20.803148
943.276693	-2.993900	3.670900	-10.989000	25.204150	0.000466	20.799314
944.276952	-3.002200	3.670200	-11.018000	25.207253	0.000467	20.799109
945.276781	-2.991100	3.671500	-10.981000	25.228603	0.000465	20.794466
946.275253	-2.970700	3.671000	-10.904000	25.234645	0.000465	20.788678
947.276954	-2.986300	3.670800	-10.961000	25.267386	0.000467	20.797842
948.276598	-3.004800	3.669700	-11.026000	25.318373	0.000466	20.817266
949.278901	-2.993500	3.668200	-10.980000	25.313968	0.000466	20.809999
950.276247	-2.981100	3.669500	-10.937000	25.278900	0.000464	20.793281
951.277998	-3.001500	3.669400	-11.012000	25.310988	0.000466	20.802265
952.276579	-2.997500	3.669500	-10.998000	25.286440	0.000466	20.817921
953.277843	-3.008800	3.668200	-11.036000	25.270685	0.000464	20.811111
954.277715	-2.997300	3.667700	-10.992000	25.268372	0.000466	20.805470
955.279531	-3.030100	3.666800	-11.109000	25.243415	0.000465	20.790371
956.279883	-3.010300	3.668000	-11.040000	25.233945	0.000464	20.794614
957.277657	-3.015300	3.667000	-11.056000	25.232431	0.000461	20.785507
958.279174	-2.992200	3.667300	-10.972000	25.199078	0.000462	20.797541
959.279355	-3.003900	3.667700	-11.017000	25.242528	0.000463	20.789954
960.279541	-2.992000	3.667400	-10.972000	25.233783	0.000462	20.803459
961.281309	-2.987500	3.666500	-10.953000	25.253667	0.000461	20.782646
962.281772	-3.000500	3.665700	-10.998000	25.272305	0.000460	20.793298
963.280352	-3.022900	3.665100	-11.078000	25.270343	0.000461	20.803181
964.279843	-2.973700	3.668000	-10.906000	25.283859	0.000459	20.804424
965.283583	-3.002200	3.665000	-11.003000	25.300420	0.000461	20.805879
966.280111	-3.019800	3.664900	-11.066000	25.304720	0.000460	20.773212
967.284162	-3.004800	3.665300	-11.012000	25.320075	0.000459	20.792897
968.280821	-3.005100	3.664900	-11.012000	25.315182	0.000461	20.790829
969.282726	-2.971500	3.666100	-10.892000	25.331629	0.000461	20.778419
970.281907	-3.027400	3.663600	-11.090000	25.346691	0.000459	20.802552
971.281119	-3.013200	3.664400	-11.040000	25.373266	0.000458	20.793200
972.283979	-3.010000	3.664000	-11.028000	25.349973	0.000458	20.789251
973.282399	-2.979800	3.664600	-10.918000	25.329072	0.000457	20.790077
974.282565	-3.028200	3.662600	-11.090000	25.329219	0.000457	20.787379
975.283103	-2.979100	3.663900	-10.914000	25.336156	0.000454	20.772059
976.283683	-3.008000	3.661900	-11.014000	25.334715	0.000457	20.771560
977.286369	-3.009100	3.661900	-11.019000	25.358856	0.000457	20.784894
978.286708	-2.992800	3.662900	-10.962000	25.371174	0.000457	20.772606
979.285090	-2.984300	3.664000	-10.934000	25.334910	0.000456	20.789774
980.285036	-3.008300	3.661900	-11.015000	25.342840	0.000455	20.771184
981.285761	-3.017000	3.660300	-11.042000	25.361526	0.000454	20.793739
982.287818	-2.979800	3.662100	-10.911000	25.369505	0.000455	20.766189
983.294376	-3.002100	3.660100	-10.988000	25.326736	0.000453	20.774928
984.286506	-2.985300	3.661600	-10.930000	25.285846	0.000454	20.775598
985.286882	-3.001300	3.660500	-10.986000	25.274625	0.000451	20.797050
986.287857	-3.001600	3.660000	-10.985000	25.278460	0.000452	20.784305
987.287294	-2.968500	3.661200	-10.867000	25.335431	0.000453	20.790771
988.288710	-3.002600	3.660100	-10.989000	25.320214	0.000453	20.813424
989.286642	-3.008500	3.658700	-11.006000	25.308008	0.000452	20.774143
990.287061	-2.991000	3.658500	-10.941000	25.304955	0.000451	20.755430
991.286247	-2.997500	3.660100	-10.970000	25.291814	0.000451	20.769737
992.286112	-3.010600	3.658700	-11.015000	25.271898	0.000453	20.771552
993.289757	-3.003000	3.658600	-10.986000	25.250426	0.000453	20.771331
994.286307	-2.978800	3.658800	-10.898000	25.277223	0.000449	20.762673
995.286212	-2.986500	3.658600	-10.925000	25.297399	0.000452	20.772500
996.286187	-3.007400	3.657300	-10.998000	25.304906	0.000449	20.770080
997.286602	-3.005800	3.657100	-10.990000	25.285129	0.000449	20.765396
998.288230	-2.998800	3.655700	-10.961000	25.314994	0.000452	20.749862
999.287525	-3.004600	3.658000	-10.989000	25.323422	0.000450	20.756427
1000.285709	-3.004500	3.657500	-10.989000	25.335952	0.000449	20.760000
1001.287310	-2.998400	3.656900	-10.964000	25.311469	0.000447	20.769557
1002.288916	-3.001400	3.657300	-10.976000	25.303017	0.000451	20.774822
1003.289576	-3.018000	3.655700	-11.031000	25.305102	0.000451	20.748939
1004.290732	-2.991600	3.656700	-10.938000	25.298743	0.000448	20.765788
1005.288305	-3.006900	3.653700	-10.985000	25.329813	0.000450	20.750042
1006.289825	-3.016400	3.654000	-11.020000	25.334910	0.000450	20.759428
1007.293108	-3.006700	3.654100	-10.986000	25.361379	0.000448	20.772729
1008.290226	-3.011600	3.654700	-11.006000	25.369179	0.000448	20.769181
1009.291876	-3.004700	3.653500	-10.977000	25.373901	0.000446	20.764439
1010.294315	-2.991300	3.653900	-10.929000	25.347457	0.000446	20.753533
1011.291678	-2.984500	3.653500	-10.903000	25.336408	0.000448	20.759036
1012.291346	-2.995300	3.654300	-10.945000	25.324448	0.000445	20.773105
1013.295611	-2.993900	3.652800	-10.936000	25.324627	0.000445	20.764750
1014.292411	-3.002000	3.652000	-10.962000	25.363268	0.000444	20.776048
1015.295071	-3.005300	3.652800	-10.977000	25.319978	0.000444	20.767669
1016.292356	-2.996800	3.653800	-10.949000	25.326312	0.000444	20.771658
1017.292492	-3.010000	3.651400	-10.989000	25.290747	0.000443	20.741638
1018.295275	-3.007800	3.650300	-10.979000	25.299696	0.000443	20.760581
1019.292485	-2.997200	3.651700	-10.944000	25.368845	0.000442	20.741818
1020.296196	-3.005100	3.651900	-10.973000	25.372297	0.000441	20.764726
1021.292275	-3.016400	3.650300	-11.010000	25.358505	0.000444	20.762731
1022.293344	-2.996600	3.650200	-10.937000	25.342849	0.000441	20.759812
1023.292704	-2.943300	3.651400	-10.746000	25.324212	0.000442	20.756747
1024.292943	-2.987400	3.649800	-10.902000	25.318309	0.000442	20.768364
1025.294412	-2.997600	3.649300	-10.938000	25.344103	0.000441	20.749446
1026.299354	-2.975100	3.649100	-10.855000	25.315476	0.000441	20.744656
1027.293771	-2.970100	3.648900	-10.836000	25.284438	0.000443	20.747158
1028.295794	-2.993400	3.649100	-10.922000	25.320500	0.000440	20.756715
1029.295338	-2.999500	3.647700	-10.940000	25.320052	0.000439	20.750673
1030.295423	-3.017700	3.648000	-11.008000	25.303377	0.000439	20.751474
1031.297890	-2.986000	3.649600	-10.897000	25.315883	0.000437	20.744591
1032.294903	-3.015700	3.647500	-10.999000	25.294510	0.000437	20.749210
1033.294807	-2.987600	3.647800	-10.897000	25.280684	0.000441	20.744811
1034.295848	-3.014500	3.649100	-10.999000	25.309549	0.000439	20.751033
1035.294814	-3.009600	3.647100	-10.975000	25.303328	0.000439	20.729139
1036.295259	-3.009500	3.647600	-10.976000	25.320654	0.000436	20.725672
1037.297234	-3.041900	3.644700	-11.086000	25.336792	0.000437	20.741402
1038.296504	-3.003900	3.645500	-10.949000	25.320752	0.000440	20.750428
1039.298889	-3.006100	3.646600	-10.961000	25.344397	0.000436	20.738606
1040.296571	-2.990800	3.646900	-10.906000	25.343322	0.000437	20.730888
1041.301971	-3.001100	3.645700	-10.941000	25.316828	0.000439	20.747436
1042.296529	-2.990500	3.646200	-10.902000	25.306308	0.000436	20.749201
1043.296865	-2.992600	3.645800	-10.910000	25.318016	0.000437	20.751474
1044.300051	-3.024600	3.644200	-11.021000	25.340130	0.000437	20.733373
1045.298619	-3.004400	3.645100	-10.950000	25.339234	0.000434	20.738638
1046.300148	-2.978000	3.644700	-10.852000	25.372265	0.000434	20.747623
1047.298145	-2.982900	3.645100	-10.872000	25.310086	0.000434	20.735450
1048.298049	-2.988700	3.642800	-10.885000	25.330164	0.000434	20.731428
1049.299218	-3.000000	3.642600	-10.927000	25.376890	0.000434	20.746577
1050.298980	-2.992100	3.643300	-10.901000	25.390657	0.000432	20.718200
1051.300603	-3.015100	3.641300	-10.978000	25.420064	0.000433	20.735875
1052.299888	-2.996600	3.642400	-10.914000	25.433676	0.000433	20.737216
1053.298997	-3.005600	3.641600	-10.945000	25.424330	0.000433	20.746797
1054.299605	-2.992200	3.641200	-10.895000	25.415114	0.000432	20.727585
1055.300944	-2.994000	3.642700	-10.905000	25.420300	0.000433	20.715248
1056.300518	-2.998000	3.641300	-10.915000	25.399605	0.000433	20.730504
1057.303573	-2.984400	3.641000	-10.866000	25.427635	0.000431	20.749643
1058.302227	-3.003700	3.639300	-10.930000	25.440914	0.000431	20.713662
1059.303345	-2.965700	3.641100	-10.797000	25.485648	0.000430	20.742465
1060.305810	-3.009200	3.640100	-10.952000	25.460916	0.000429	20.725689
1061.304384	-2.991800	3.639800	-10.889000	25.451171	0.000431	20.729179
1062.309404	-3.002500	3.639300	-10.926000	25.443893	0.000430	20.723767
1063.305751	-2.999900	3.639000	-10.916000	25.493553	0.000428	20.742816
1064.303055	-3.000000	3.638800	-10.915000	25.520409	0.000430	20.734698
1065.304664	-2.973300	3.638900	-10.819000	25.511633	0.000429	20.732049
1066.311397	-3.013000	3.637500	-10.959000	25.480943	0.000426	20.723988
1067.303765	-3.015800	3.636000	-10.965000	25.439790	0.000429	20.731501
1068.308053	-3.001400	3.637000	-10.914000	25.465117	0.000427	20.720423
1069.311003	-3.009300	3.637700	-10.945000	25.480829	0.000427	20.734306
1070.305949	-3.001800	3.636400	-10.914000	25.451098	0.000427	20.715355
1071.310843	-2.983900	3.637700	-10.852000	25.408723	0.000428	20.733970
1072.305626	-3.013900	3.636600	-10.959000	25.400362	0.000425	20.715142
1073.309431	-3.011600	3.634400	-10.944000	25.369766	0.000424	20.731837
1074.305193	-2.984100	3.636700	-10.850000	25.366900	0.000426	20.729907
1075.306931	-2.989900	3.635200	-10.868000	25.382540	0.000422	20.721429
1076.306495	-2.990600	3.635900	-10.872000	25.416865	0.000424	20.717489
1077.305862	-2.977700	3.634800	-10.823000	25.481758	0.000423	20.702993
1078.307726	-2.989600	3.634200	-10.863000	25.518814	0.000423	20.730251
1079.307240	-2.990500	3.633700	-10.866000	25.515509	0.000424	20.714603
1080.305972	-2.998700	3.634500	-10.898000	25.482653	0.000422	20.714325
1081.306306	-2.989300	3.635300	-10.866000	25.460893	0.000421	20.724242
1082.306651	-3.010000	3.634200	-10.938000	25.428988	0.000421	20.718757
1083.307413	-3.009000	3.633100	-10.930000	25.455561	0.000423	20.713197
1084.308666	-2.975700	3.635100	-10.816000	25.436454	0.000422	20.721038
1085.307655	-3.002300	3.633400	-10.908000	25.440850	0.000423	20.701743
1086.306902	-2.999000	3.632900	-10.895000	25.432594	0.000421	20.725224
1087.307645	-2.984800	3.632300	-10.841000	25.418885	0.000421	20.690592
1088.308590	-3.003600	3.632500	-10.909000	25.452353	0.000419	20.713770
1089.312005	-3.005400	3.630600	-10.910000	25.422019	0.000420	20.716975
1090.309898	-3.014700	3.630700	-10.944000	25.383177	0.000421	20.714956
1091.310047	-2.983900	3.630200	-10.831000	25.377290	0.000419	20.730857
1092.312202	-3.004500	3.629700	-10.905000	25.391546	0.000419	20.721463
1093.309688	-3.012300	3.629400	-10.932000	25.403783	0.000418	20.712413
1094.312660	-2.987500	3.631100	-10.847000	25.459029	0.000419	20.714310
1095.310096	-2.975600	3.630400	-10.802000	25.449251	0.000417	20.705439
1096.309587	-3.004700	3.628900	-10.902000	25.456611	0.000418	20.710459
1097.310773	-2.978800	3.629300	-10.809000	25.465631	0.000419	20.736588
1098.312163	-2.997500	3.628900	-10.877000	25.483769	0.000417	20.709281
1099.313985	-2.995500	3.628500	-10.867000	25.490404	0.000416	20.724480
1100.312227	-2.990700	3.627800	-10.849000	25.492919	0.000417	20.726532
1101.312355	-2.982900	3.628300	-10.821000	25.490632	0.000415	20.708587
1102.313052	-3.020900	3.627200	-10.956000	25.481579	0.000416	20.710875
1103.311596	-2.996700	3.628300	-10.872000	25.484559	0.000416	20.715290
1104.312438	-3.013900	3.627300	-10.931000	25.506799	0.000417	20.712494
1105.313131	-3.003200	3.626400	-10.890000	25.535413	0.000416	20.706616
1106.313046	-2.985000	3.627200	-10.827000	25.566688	0.000413	20.705782
1107.313442	-2.986600	3.626600	-10.830000	25.563700	0.000415	20.698988
1108.315260	-2.994600	3.626000	-10.858000	25.555292	0.000416	20.688646
1109.314815	-3.001700	3.625300	-10.882000	25.536422	0.000414	20.702888
1110.317376	-3.008800	3.624600	-10.905000	25.479520	0.000414	20.711178
1111.316129	-3.000100	3.625200	-10.875000	25.493350	0.000413	20.710843
1112.316240	-3.014500	3.623300	-10.921000	25.508264	0.000413	20.712069
1113.315566	-2.988500	3.625300	-10.833000	25.544522	0.000412	20.701065
1114.315395	-2.978800	3.624000	-10.794000	25.544074	0.000412	20.696821
1115.318290	-2.980100	3.625500	-10.803000	25.537008	0.000413	20.680715
1116.320245	-2.977300	3.622700	-10.785000	25.559923	0.000414	20.713213
1117.315773	-3.003800	3.622800	-10.881000	25.558206	0.000410	20.702005
1118.316827	-3.002400	3.622100	-10.873000	25.532653	0.000410	20.710008
1119.322930	-2.983000	3.622500	-10.805000	25.516128	0.000410	20.707637
1120.319506	-3.005500	3.622200	-10.886000	25.474602	0.000408	20.698652
1121.319273	-2.988500	3.623000	-10.826000	25.451197	0.000407	20.700754
1122.317744	-3.011800	3.621900	-10.907000	25.479315	0.000409	20.695324
1123.317144	-2.999000	3.621900	-10.860000	25.504006	0.000409	20.704474
1124.319631	-2.991000	3.621300	-10.830000	25.454477	0.000409	20.685555
1125.317371	-2.990200	3.620800	-10.826000	25.490460	0.000408	20.702724
1126.318572	-3.018800	3.620300	-10.928000	25.527874	0.000408	20.719435
1127.318323	-3.002200	3.620900	-10.870000	25.525449	0.000404	20.711308
1128.317488	-3.003300	3.619600	-10.869000	25.557945	0.000405	20.701268
1129.317595	-3.002700	3.620300	-10.870000	25.553810	0.000406	20.698538
1130.317784	-2.988700	3.619900	-10.818000	25.544888	0.000407	20.691948
1131.319303	-3.009800	3.618800	-10.891000	25.502631	0.000406	20.718741
1132.320660	-2.998700	3.618800	-10.850000	25.507841	0.000404	20.681295
1133.319517	-2.991800	3.617500	-10.822000	25.485348	0.000404	20.713712
1134.319647	-2.994000	3.617800	-10.831000	25.489597	0.000405	20.695219
1135.320511	-3.007100	3.617300	-10.877000	25.514573	0.000405	20.686160
1136.319332	-3.014400	3.616600	-10.900000	25.529161	0.000404	20.698440
1137.322224	-3.007300	3.616200	-10.874000	25.519946	0.000404	20.699617
1138.321395	-2.982600	3.616500	-10.785000	25.479788	0.000401	20.695325
1139.319907	-3.012700	3.615400	-10.891000	25.399818	0.000401	20.688989
1140.322147	-3.016900	3.615900	-10.907000	25.389779	0.000400	20.693134
1141.320327	-3.013400	3.614300	-10.891000	25.463018	0.000402	20.705512
1142.323496	-3.003800	3.614700	-10.857000	25.498007	0.000401	20.701768
1143.323746	-3.002000	3.614100	-10.848000	25.536260	0.000402	20.697509
1144.326162	-3.004200	3.615900	-10.862000	25.548503	0.000401	20.708856
1145.325418	-2.989100	3.613800	-10.801000	25.574641	0.000402	20.720882
1146.325405	-3.007000	3.613300	-10.864000	25.545849	0.000401	20.695285
1147.326371	-3.001900	3.615000	-10.851000	25.542145	0.000399	20.711481
1148.326306	-3.010700	3.613500	-10.878000	25.524692	0.000399	20.685890
1149.325037	-2.996500	3.613400	-10.827000	25.519547	0.000400	20.711546
1150.324050	-2.995300	3.613600	-10.823000	25.496159	0.000397	20.709395
1151.327167	-2.976500	3.613800	-10.755000	25.486350	0.000398	20.711399
1152.323235	-3.005500	3.612800	-10.857000	25.520394	0.000396	20.698645
1153.329788	-3.005500	3.611500	-10.853000	25.566761	0.000395	20.702062
1154.326092	-2.977600	3.614300	-10.761000	25.551914	0.000398	20.692840
1155.326088	-3.018100	3.612200	-10.901000	25.576261	0.000394	20.704490
1156.326394	-2.998500	3.611600	-10.828000	25.554372	0.000396	20.688670
1157.325830	-2.998900	3.611700	-10.830000	25.523276	0.000395	20.711971
1158.329027	-3.002200	3.610200	-10.838000	25.464011	0.000395	20.690387
1159.329844	-3.005300	3.610100	-10.848000	25.504520	0.000394	20.708308
1160.326275	-3.001200	3.610300	-10.835000	25.495321	0.000394	20.686741
1161.328066	-3.010300	3.609800	-10.866000	25.470499	0.000394	20.715397
1162.332062	-3.002200	3.609200	-10.835000	25.449976	0.000392	20.710908
1163.328144	-3.001500	3.609300	-10.833000	25.517724	0.000394	20.707818
1164.331721	-2.999500	3.609000	-10.824000	25.552956	0.000395	20.699577
1165.330015	-2.988300	3.608900	-10.783000	25.566257	0.000393	20.702504
1166.329870	-3.007100	3.609200	-10.852000	25.540265	0.000391	20.718128
1167.331642	-2.991200	3.608300	-10.791000	25.550807	0.000391	20.687935
1168.331666	-3.013500	3.607400	-10.869000	25.546598	0.000391	20.691295
1169.332626	-3.019200	3.607200	-10.890000	25.498252	0.000392	20.699643
1170.332807	-2.999300	3.607200	-10.818000	25.494679	0.000390	20.702218
1171.333367	-2.994800	3.607700	-10.803000	25.521811	0.000391	20.715242
1172.331925	-3.013400	3.606100	-10.865000	25.531881	0.000389	20.695007
1173.333772	-2.996400	3.606100	-10.805000	25.543782	0.000389	20.688467
1174.337171	-2.999900	3.605700	-10.816000	25.486172	0.000390	20.697469
1175.334953	-2.983600	3.606300	-10.759000	25.473863	0.000388	20.695539
1176.336752	-3.001100	3.604900	-10.817000	25.427760	0.000388	20.718946
1177.334347	-2.994100	3.605300	-10.793000	25.466341	0.000390	20.713117
1178.334363	-3.005900	3.604700	-10.835000	25.458110	0.000389	20.700584
1179.335172	-2.997900	3.603900	-10.803000	25.509959	0.000387	20.697649
1180.337683	-2.994200	3.604600	-10.792000	25.569873	0.000387	20.709455
1181.333914	-3.015000	3.604200	-10.866000	25.536734	0.000387	20.703675
1182.335540	-3.015500	3.602300	-10.862000	25.516627	0.000388	20.711932
1183.340417	-3.002500	3.603900	-10.820000	25.541065	0.000388	20.710870
1184.337033	-2.998400	3.601700	-10.798000	25.545436	0.000385	20.684912
1185.338042	-3.008000	3.602200	-10.834000	25.521308	0.000386	20.702882
1186.335884	-2.986400	3.603700	-10.761000	25.536450	0.000384	20.720460
1187.336260	-2.980300	3.601700	-10.733000	25.524174	0.000386	20.701018
1188.336452	-3.000300	3.601700	-10.806000	25.482486	0.000384	20.701828
1189.337076	-3.002900	3.601600	-10.814000	25.462402	0.000386	20.709162
1190.336406	-2.990300	3.601600	-10.769000	25.490382	0.000385	20.717819
1191.336730	-2.986700	3.601800	-10.756000	25.508284	0.000386	20.696440
1192.335571	-3.001000	3.600500	-10.803000	25.532315	0.000385	20.704927
1193.336855	-2.971000	3.600300	-10.695000	25.528220	0.000383	20.701289
1194.336567	-3.011000	3.598900	-10.835000	25.499419	0.000382	20.713618
1195.336360	-2.999100	3.600500	-10.797000	25.539634	0.000383	20.704690
1196.337298	-2.973100	3.600400	-10.703000	25.596453	0.000382	20.690154
1197.336919	-2.975000	3.599800	-10.709000	25.568638	0.000382	20.691143
1198.336367	-2.997800	3.598900	-10.787000	25.569989	0.000382	20.686810
1199.337447	-3.003400	3.598500	-10.807000	25.604552	0.000381	20.732905
1200.338886	-3.016600	3.598200	-10.853000	25.594963	0.000381	20.703832
1201.340446	-3.001000	3.597800	-10.796000	25.613506	0.000383	20.703015
1202.338672	-2.988400	3.598500	-10.752000	25.638552	0.000381	20.710153
1203.338967	-2.988400	3.597600	-10.750000	25.638357	0.000379	20.726553
1204.339145	-3.011200	3.597600	-10.832000	25.601850	0.000379	20.717388
1205.338076	-2.995400	3.597600	-10.775000	25.645121	0.000378	20.721018
1206.337994	-3.002300	3.595400	-10.794000	25.669971	0.000379	20.707570
1207.344303	-3.000300	3.596100	-10.789000	25.703757	0.000379	20.737713
1208.340012	-3.000400	3.596100	-10.789000	25.673634	0.000378	20.721681
1209.343432	-3.000000	3.595600	-10.786000	25.676190	0.000378	20.710497
1210.341727	-2.994700	3.595600	-10.767000	25.675824	0.000377	20.733838
1211.340061	-3.006300	3.596100	-10.810000	25.620336	0.000376	20.709875
1212.341599	-3.002400	3.594300	-10.791000	25.564211	0.000375	20.686698
1213.345436	-2.993700	3.595800	-10.764000	25.524999	0.000377	20.728876
1214.341216	-3.010500	3.593800	-10.818000	25.507033	0.000378	20.723635
1215.342105	-3.002100	3.593800	-10.788000	25.474706	0.000375	20.726260
1216.342078	-2.992800	3.594500	-10.757000	25.441288	0.000375	20.708822
1217.344656	-3.002000	3.593800	-10.788000	25.463952	0.000372	20.711193
1218.342439	-2.994900	3.592100	-10.757000	25.527198	0.000376	20.725868
1219.344291	-3.026200	3.592600	-10.870000	25.534996	0.000375	20.705249
1220.343498	-3.013800	3.591100	-10.822000	25.574591	0.000376	20.735057
1221.342431	-3.013000	3.592700	-10.824000	25.618986	0.000375	20.712313
1222.346329	-3.013700	3.591700	-10.823000	25.617538	0.000373	20.722713
1223.342815	-2.998600	3.590300	-10.765000	25.609104	0.000376	20.724674
1224.341156	-3.004900	3.591400	-10.791000	25.536030	0.000372	20.729997
1225.343336	-3.011400	3.589700	-10.810000	25.546466	0.000373	20.724356
1226.343570	-2.988500	3.589500	-10.727000	25.578465	0.000370	20.714291
1227.345691	-3.021500	3.588700	-10.842000	25.600745	0.000370	20.741884
1228.345767	-2.997500	3.589500	-10.759000	25.642599	0.000372	20.728443
1229.343359	-3.021800	3.589300	-10.845000	25.628119	0.000370	20.727176
1230.343843	-2.976700	3.588800	-10.682000	25.570301	0.000372	20.726956
1231.347923	-2.976000	3.590200	-10.683000	25.577261	0.000371	20.730153
1232.344232	-2.995300	3.588700	-10.749000	25.615771	0.000370	20.727577
1233.348378	-3.014300	3.587600	-10.813000	25.601266	0.000371	20.750469
1234.344282	-2.992400	3.587800	-10.736000	25.597538	0.000369	20.712109
1235.345880	-3.000100	3.586300	-10.759000	25.627346	0.000366	20.711226
1236.347192	-2.988100	3.586800	-10.717000	25.593460	0.000367	20.710384
1237.344479	-2.985700	3.587800	-10.711000	25.569528	0.000367	20.720015
1238.345816	-3.005100	3.585800	-10.775000	25.542787	0.000368	20.725876
1239.345411	-2.999400	3.585700	-10.755000	25.552726	0.000368	20.733014
1240.345005	-2.993000	3.586600	-10.734000	25.591115	0.000368	20.750231
1241.346121	-3.005000	3.584800	-10.771000	25.565702	0.000365	20.743200
1242.346101	-3.004700	3.586100	-10.775000	25.584904	0.000365	20.750632
1243.346343	-2.986100	3.585500	-10.705000	25.604627	0.000366	20.745309
1244.347320	-3.002300	3.584700	-10.762000	25.628835	0.000364	20.739276
1245.347017	-3.002900	3.584400	-10.762000	25.591204	0.000364	20.728508
1246.346354	-2.999800	3.583500	-10.749000	25.595608	0.000363	20.739096
1247.347044	-2.994900	3.584000	-10.733000	25.619458	0.000364	20.755463
1248.346643	-3.003300	3.583000	-10.760000	25.660034	0.000364	20.739316
1249.351002	-3.014000	3.582100	-10.795000	25.700185	0.000363	20.763524
1250.348330	-3.020000	3.580000	-10.810000	25.666391	0.000365	20.733847
1251.348459	-3.000400	3.583100	-10.749000	25.714396	0.000365	20.757883
1252.348586	-3.016500	3.582000	-10.804000	25.620744	0.000363	20.754383
1253.351059	-2.992800	3.581100	-10.717000	25.620703	0.000363	20.741066
1254.349169	-2.992500	3.580800	-10.715000	25.574501	0.000363	20.749666
1255.347929	-3.006200	3.580900	-10.763000	25.580288	0.000361	20.761643
1256.348230	-3.019200	3.579700	-10.807000	25.543657	0.000362	20.739079
1257.350376	-2.981600	3.579700	-10.672000	25.576666	0.000359	20.756583
1258.350299	-2.981000	3.580400	-10.672000	25.563283	0.000359	20.745513
1259.349847	-2.984000	3.580000	-10.682000	25.595908	0.000359	20.755519
1260.350064	-2.992200	3.579700	-10.710000	25.637902	0.000358	20.756917
1261.350122	-3.009200	3.579200	-10.769000	25.632219	0.000361	20.744572
1262.352751	-3.019600	3.578400	-10.804000	25.622427	0.000358	20.744694
1263.350541	-2.999400	3.579100	-10.734000	25.584878	0.000358	20.755347
1264.353010	-3.002500	3.578600	-10.744000	25.677206	0.000359	20.759884
1265.352227	-2.963200	3.578400	-10.603000	25.635613	0.000359	20.748455
1266.352849	-2.983400	3.577800	-10.673000	25.591845	0.000358	20.748593
1267.352560	-2.999100	3.577300	-10.728000	25.608393	0.000357	20.753834
1268.351517	-2.984300	3.578000	-10.677000	25.648782	0.000356	20.757414
1269.354661	-3.011300	3.576800	-10.770000	25.686574	0.000358	20.766922
1270.356834	-2.998800	3.576600	-10.725000	25.686077	0.000356	20.752198
1271.353118	-3.001800	3.576400	-10.735000	25.652974	0.000357	20.764469
1272.352935	-2.994400	3.574700	-10.703000	25.635083	0.000356	20.765466
1273.358765	-2.981700	3.575800	-10.661000	25.607399	0.000354	20.756154
1274.353986	-2.994900	3.574700	-10.704000	25.602271	0.000354	20.763806
1275.358583	-3.000100	3.575000	-10.724000	25.584485	0.000355	20.786247
1276.360211	-3.012200	3.574700	-10.767000	25.622279	0.000353	20.762089
1277.356416	-3.006800	3.574100	-10.746000	25.670506	0.000354	20.770698
1278.357153	-3.008400	3.574400	-10.753000	25.671596	0.000354	20.772268
1279.356732	-3.009600	3.573300	-10.754000	25.679972	0.000352	20.788741
1280.359478	-2.989200	3.574400	-10.684000	25.750928	0.000354	20.786991
1281.355994	-2.979200	3.573700	-10.646000	25.751848	0.000353	20.777483
1282.356559	-2.995400	3.572200	-10.699000	25.801168	0.000350	20.756849
1283.355450	-3.006800	3.572200	-10.740000	25.757887	0.000351	20.760315
1284.358756	-2.995400	3.572600	-10.700000	25.780374	0.000351	20.770101
1285.358803	-2.987100	3.571900	-10.669000	25.764740	0.000350	20.776682
1286.362944	-2.980900	3.571700	-10.646000	25.708174	0.000349	20.774867
1287.359703	-3.007000	3.570700	-10.736000	25.692645	0.000350	20.756424
1288.360257	-2.985100	3.572100	-10.662000	25.776720	0.000348	20.788716
1289.361387	-2.995100	3.570300	-10.693000	25.753565	0.000348	20.783950
1290.361886	-2.985100	3.571600	-10.661000	25.719528	0.000348	20.784849
1291.365585	-2.994000	3.570500	-10.689000	25.743481	0.000346	20.779511
1292.361767	-2.972700	3.570100	-10.611000	25.724103	0.000347	20.768581
1293.361515	-2.998800	3.569000	-10.702000	25.704976	0.000348	20.773077
1294.364704	-3.008000	3.570000	-10.737000	25.673396	0.000346	20.784506
1295.361446	-2.991900	3.569200	-10.678000	25.680184	0.000348	20.775203
1296.363866	-3.016300	3.567600	-10.759000	25.674975	0.000347	20.792257
1297.362255	-3.015100	3.568700	-10.759000	25.657207	0.000346	20.793377
1298.363390	-2.995100	3.569200	-10.690000	25.637135	0.000345	20.771794
1299.364268	-2.983000	3.567900	-10.642000	25.625780	0.000345	20.780779
1300.367398	-2.996900	3.567500	-10.691000	25.616859	0.000343	20.772293
1301.366946	-2.970800	3.569200	-10.602000	25.600343	0.000345	20.793639
1302.364853	-2.982600	3.568500	-10.642000	25.641620	0.000345	20.790998
1303.364494	-2.996600	3.566800	-10.688000	25.651518	0.000344	20.811845
1304.369868	-2.989700	3.566200	-10.661000	25.664753	0.000343	20.793369
1305.374732	-2.992600	3.567300	-10.674000	25.680470	0.000341	20.796354
1306.368174	-2.982300	3.566800	-10.636000	25.689570	0.000343	20.773251
1307.365675	-3.010200	3.565100	-10.731000	25.663980	0.000342	20.795913
1308.365895	-3.003800	3.565100	-10.708000	25.632155	0.000343	20.764896
1309.365515	-3.004500	3.564000	-10.707000	25.672934	0.000344	20.780249
1310.366200	-2.986500	3.564200	-10.644000	25.666919	0.000342	20.802657
1311.367374	-3.000800	3.562600	-10.688000	25.705239	0.000342	20.801317
1312.366164	-2.998400	3.563900	-10.685000	25.693739	0.000341	20.788817
1313.369949	-3.001800	3.562600	-10.693000	25.721852	0.000343	20.798562
1314.367335	-3.005200	3.563600	-10.708000	25.714893	0.000340	20.785883
1315.367173	-3.000800	3.562800	-10.690000	25.716960	0.000338	20.785589
1316.376497	-2.969900	3.562700	-10.580000	25.752894	0.000339	20.787543
1317.368068	-3.007700	3.561800	-10.712000	25.723626	0.000341	20.798923
1318.368435	-3.010600	3.560000	-10.716000	25.775406	0.000337	20.797353
1319.369492	-3.005300	3.562100	-10.705000	25.757973	0.000341	20.790748
1320.370371	-3.002700	3.561100	-10.692000	25.732661	0.000339	20.803256
1321.370068	-3.001000	3.560200	-10.683000	25.742623	0.000337	20.808047
1322.369319	-3.016200	3.559900	-10.737000	25.772493	0.000339	20.786841
1323.369224	-2.995800	3.561100	-10.667000	25.743715	0.000336	20.804876
1324.373404	-2.985200	3.561000	-10.630000	25.738400	0.000336	20.811866
1325.372181	-3.015200	3.559300	-10.732000	25.767960	0.000337	20.796038
1326.376739	-3.002300	3.560100	-10.687000	25.796014	0.000339	20.792924
1327.371429	-3.002600	3.559200	-10.686000	25.807010	0.000337	20.789270
1328.374301	-3.002300	3.557800	-10.681000	25.781797	0.000336	20.818946
1329.373836	-3.005900	3.557600	-10.693000	25.782400	0.000337	20.813387
1330.372150	-3.009100	3.558000	-10.706000	25.797358	0.000335	20.799964
1331.373128	-2.995200	3.556400	-10.651000	25.802193	0.000336	20.799131
1332.374160	-3.004000	3.557600	-10.685000	25.782514	0.000336	20.811606
1333.372658	-3.001900	3.558200	-10.681000	25.767515	0.000334	20.806971
1334.373893	-3.000800	3.556000	-10.669000	25.740364	0.000334	20.800562
1335.377350	-3.001200	3.556700	-10.674000	25.711699	0.000332	20.804486
1336.377572	-3.016600	3.555700	-10.724000	25.729695	0.000332	20.806441
1337.374901	-3.000900	3.555400	-10.668000	25.737671	0.000330	20.804021
1338.376483	-2.999800	3.554500	-10.661000	25.742099	0.000332	20.805623
1339.375317	-2.971000	3.556800	-10.566000	25.726774	0.000332	20.820576
1340.375343	-3.014300	3.554800	-10.714000	25.768591	0.000332	20.810897
1341.377612	-3.003100	3.555000	-10.675000	25.773019	0.000331	20.816766
1342.375776	-3.007100	3.553000	-10.683000	25.786041	0.000331	20.798079
1343.375247	-2.980500	3.554900	-10.595000	25.784576	0.000331	20.826478
1344.376276	-2.998100	3.554100	-10.654000	25.742646	0.000331	20.824664
1345.374599	-3.004000	3.552900	-10.672000	25.760763	0.000330	20.802085
1346.375145	-3.022500	3.552000	-10.735000	25.772938	0.000330	20.807203
1347.375379	-3.009900	3.552500	-10.692000	25.780670	0.000330	20.820659
1348.375794	-3.030900	3.550900	-10.762000	25.836068	0.000328	20.799968
1349.375947	-2.998700	3.551900	-10.650000	25.824618	0.000327	20.813596
1350.379158	-2.990000	3.552100	-10.619000	25.837574	0.000328	20.810016
1351.376643	-2.984600	3.551300	-10.598000	25.781607	0.000328	20.812117
1352.379413	-2.991400	3.551100	-10.622000	25.773534	0.000328	20.811594
1353.377603	-2.998200	3.551400	-10.647000	25.754375	0.000327	20.812738
1354.379062	-3.015100	3.548900	-10.700000	25.771743	0.000329	20.810270
1355.378847	-2.987100	3.550100	-10.604000	25.806210	0.000327	20.825925
1356.378954	-2.998300	3.549300	-10.641000	25.813315	0.000325	20.814570
1357.381043	-2.997600	3.549200	-10.638000	25.812200	0.000326	20.819140
1358.378288	-2.996400	3.549000	-10.633000	25.786784	0.000325	20.823481
1359.380484	-2.994600	3.548500	-10.625000	25.804851	0.000325	20.823612
1360.384586	-3.009900	3.547800	-10.677000	25.820437	0.000327	20.816983
1361.379724	-3.016800	3.549100	-10.706000	25.797487	0.000322	20.812895
1362.380410	-3.010200	3.547700	-10.678000	25.787437	0.000322	20.821766
1363.384823	-3.029500	3.546300	-10.743000	25.710410	0.000324	20.807933
1364.381274	-2.992200	3.548600	-10.617000	25.710020	0.000321	20.827456
1365.383368	-3.032700	3.545500	-10.751000	25.764641	0.000323	20.822576
1366.381674	-2.994600	3.547300	-10.622000	25.704934	0.000321	20.821872
1367.382794	-2.986100	3.545200	-10.585000	25.700767	0.000325	20.814842
1368.382107	-2.976600	3.546300	-10.555000	25.718404	0.000321	20.819755
1369.383943	-2.981000	3.545300	-10.567000	25.675706	0.000322	20.824285
1370.386565	-2.975600	3.545700	-10.550000	25.703136	0.000320	20.815325
1371.383697	-2.990200	3.546400	-10.603000	25.719048	0.000323	20.827041
1372.385999	-2.992700	3.544200	-10.606000	25.685963	0.000320	20.827000
1373.385421	-3.030700	3.543000	-10.737000	25.679305	0.000319	20.813201
1374.384295	-2.987300	3.544600	-10.588000	25.661667	0.000320	20.815400
1375.387546	-3.004700	3.543200	-10.646000	25.684653	0.000321	20.791072
1376.384704	-3.008600	3.542800	-10.658000	25.690400	0.000321	20.788309
1377.385693	-3.006400	3.542200	-10.649000	25.714402	0.000322	20.812891
1378.384687	-3.019600	3.543000	-10.698000	25.775851	0.000317	20.811077
1379.392467	-2.967900	3.543700	-10.516000	25.753820	0.000318	20.803172
1380.386240	-2.977100	3.542100	-10.544000	25.726922	0.000317	20.820724
1381.386539	-2.985400	3.542600	-10.575000	25.726099	0.000318	20.803303
1382.385850	-2.978600	3.542100	-10.549000	25.752193	0.000317	20.804857
1383.389743	-3.013000	3.541000	-10.668000	25.740270	0.000319	20.805209
1384.385280	-2.994500	3.540800	-10.602000	25.767347	0.000317	20.797794
1385.392098	-2.978700	3.541900	-10.549000	25.776699	0.000315	20.794385
1386.389135	-2.977200	3.539600	-10.537000	25.774388	0.000315	20.812452
1387.386890	-3.004000	3.540100	-10.632000	25.770157	0.000315	20.781649
1388.391507	-2.994400	3.538600	-10.595000	25.762303	0.000313	20.798416
1389.388466	-3.007000	3.539600	-10.643000	25.770604	0.000312	20.775461
1390.386982	-2.998100	3.539800	-10.612000	25.763508	0.000314	20.795834
1391.392444	-2.980300	3.538500	-10.545000	25.762768	0.000313	20.803625
1392.389623	-2.998800	3.537300	-10.607000	25.749705	0.000313	20.785763
1393.387285	-2.986800	3.538100	-10.566000	25.730726	0.000311	20.807002
1394.392735	-2.996300	3.537400	-10.598000	25.764966	0.000313	20.783074
1395.389482	-2.990400	3.537600	-10.578000	25.762118	0.000313	20.802024
1396.388343	-3.004900	3.536500	-10.626000	25.745703	0.000313	20.784587
1397.389795	-2.984900	3.538800	-10.562000	25.736261	0.000311	20.772259
1398.389030	-3.012300	3.535900	-10.650000	25.728294	0.000311	20.798869
1399.389335	-3.017700	3.536100	-10.670000	25.728790	0.000310	20.780402
1400.388527	-3.028500	3.536000	-10.708000	25.720945	0.000310	20.795755
1401.393898	-3.008800	3.534000	-10.632000	25.744630	0.000312	20.794415
1402.390594	-3.001200	3.535700	-10.610000	25.766386	0.000308	20.788293
1403.389729	-2.985000	3.534200	-10.548000	25.795798	0.000309	20.770422
1404.390711	-2.990000	3.532300	-10.560000	25.793748	0.000310	20.792070
1405.390697	-2.982000	3.534300	-10.538000	25.794595	0.000309	20.787231
1406.391984	-3.005600	3.533400	-10.619000	25.784365	0.000309	20.778377
1407.391574	-2.995600	3.531800	-10.579000	25.752747	0.000310	20.783602
1408.391538	-3.010000	3.532100	-10.630000	25.757866	0.000310	20.768355
1409.389633	-2.994100	3.534100	-10.580000	25.725099	0.000308	20.768634
1410.389991	-3.002100	3.531800	-10.602000	25.732140	0.000310	20.757213
1411.391151	-2.989000	3.532300	-10.557000	25.772094	0.000309	20.774112
1412.390138	-3.028000	3.530900	-10.690000	25.820640	0.000310	20.765503
1413.390800	-2.998200	3.531900	-10.588000	25.844673	0.000308	20.772576
1414.391799	-3.007300	3.530400	-10.615000	25.840229	0.000307	20.760051
1415.390738	-3.004400	3.530200	-10.605000	25.806765	0.000308	20.766265
1416.392275	-2.990800	3.530100	-10.557000	25.789235	0.000306	20.763829
1417.391937	-2.992000	3.529400	-10.559000	25.766114	0.000305	20.786598
1418.392938	-3.020600	3.527600	-10.655000	25.763404	0.000305	20.773444
1419.394383	-2.980000	3.528800	-10.515000	25.740672	0.000305	20.778112
1420.394600	-3.017200	3.527100	-10.641000	25.774425	0.000303	20.754642
1421.394361	-2.983400	3.528900	-10.527000	25.764789	0.000304	20.767248
1422.394560	-2.986200	3.529300	-10.538000	25.779723	0.000304	20.786517
1423.395398	-3.006300	3.528200	-10.606000	25.758116	0.000305	20.764813
1424.395447	-3.006500	3.526200	-10.601000	25.766832	0.000304	20.762662
1425.396379	-3.013500	3.526900	-10.628000	25.756139	0.000303	20.758559
1426.403620	-3.018400	3.526200	-10.643000	25.766573	0.000303	20.768092
1427.395406	-2.982200	3.527200	-10.517000	25.794480	0.000304	20.766727
1428.398736	-2.985200	3.525400	-10.524000	25.780067	0.000303	20.753671
1429.399709	-3.000900	3.526300	-10.581000	25.746503	0.000304	20.761208
1430.397283	-3.013600	3.526000	-10.625000	25.747382	0.000302	20.740754
1431.398922	-2.974600	3.527100	-10.489000	25.744794	0.000302	20.761389
1432.399151	-2.999900	3.523900	-10.571000	25.756254	0.000302	20.756304
1433.398587	-3.011600	3.524600	-10.614000	25.770969	0.000303	20.754016
1434.397848	-2.991200	3.524900	-10.542000	25.769748	0.000301	20.756582
1435.398282	-2.991600	3.523200	-10.539000	25.812085	0.000301	20.765919
1436.398968	-3.005300	3.523500	-10.588000	25.848113	0.000300	20.749479
1437.401045	-2.979200	3.523300	-10.496000	25.883985	0.000301	20.752798
1438.398814	-3.018900	3.522300	-10.633000	25.852663	0.000298	20.748833
1439.398553	-3.017000	3.522100	-10.626000	25.839479	0.000301	20.742228
1440.398379	-3.012900	3.521900	-10.611000	25.792180	0.000300	20.768209
1441.399352	-3.008000	3.521100	-10.591000	25.758616	0.000297	20.744452
1442.401519	-2.970800	3.522900	-10.465000	25.784773	0.000300	20.748915
1443.404688	-2.981600	3.522300	-10.501000	25.793897	0.000298	20.759977
1444.399650	-3.014600	3.520100	-10.611000	25.815187	0.000299	20.760974
1445.400009	-2.993300	3.520800	-10.538000	25.770344	0.000298	20.756233
1446.399420	-3.014200	3.520000	-10.610000	25.746693	0.000295	20.738165
1447.399471	-3.017200	3.519600	-10.619000	25.761750	0.000297	20.750919
1448.398920	-3.008600	3.519600	-10.588000	25.765005	0.000297	20.761302
1449.400339	-3.006900	3.519700	-10.582000	25.771361	0.000297	20.742081
1450.399630	-2.985700	3.519400	-10.507000	25.749468	0.000297	20.753755
1451.404631	-2.993100	3.518200	-10.530000	25.766869	0.000297	20.736146
1452.404776	-3.013900	3.517900	-10.602000	25.759731	0.000296	20.765961
1453.403272	-3.020200	3.517700	-10.622000	25.760358	0.000295	20.749995
1454.404685	-3.004100	3.518000	-10.567000	25.784514	0.000297	20.748655
1455.405915	-2.995200	3.518100	-10.536000	25.770149	0.000295	20.748924
1456.404107	-3.010000	3.516400	-10.584000	25.754416	0.000296	20.746397
1457.405693	-3.002900	3.516200	-10.557000	25.786475	0.000295	20.748728
1458.404587	-2.991100	3.517400	-10.520000	25.812102	0.000295	20.762617
1459.405638	-2.963400	3.516300	-10.418000	25.770475	0.000292	20.756838
1460.405519	-2.995100	3.516500	-10.531000	25.755866	0.000295	20.752121
1461.406075	-2.992000	3.514500	-10.515000	25.757493	0.000296	20.725779
1462.405023	-2.976500	3.515800	-10.464000	25.733427	0.000293	20.740013
1463.405673	-2.978000	3.515500	-10.468000	25.705054	0.000294	20.734274
1464.406622	-3.010700	3.514100	-10.579000	25.723635	0.000290	20.735868
1465.408636	-3.019000	3.511800	-10.601000	25.773925	0.000290	20.741812
1466.408428	-3.000300	3.513600	-10.541000	25.769001	0.000293	20.743503
1467.407774	-3.024900	3.513500	-10.627000	25.822341	0.000292	20.747771
1468.408211	-3.000300	3.512100	-10.537000	25.844370	0.000293	20.743822
1469.407792	-3.021100	3.510600	-10.604000	25.842979	0.000290	20.740527
1470.406952	-3.004700	3.512500	-10.553000	25.775561	0.000292	20.743929
1471.407248	-2.983200	3.512500	-10.477000	25.778052	0.000291	20.748328
1472.406752	-2.983600	3.511800	-10.477000	25.791293	0.000289	20.746455
1473.408055	-2.988700	3.511300	-10.493000	25.770231	0.000291	20.754222
1474.408825	-3.014300	3.510700	-10.581000	25.774406	0.000290	20.740872
1475.408972	-3.007900	3.510400	-10.558000	25.820583	0.000291	20.744109
1476.409536	-3.016500	3.510700	-10.589000	25.781292	0.000289	20.742099
1477.410207	-3.001900	3.510200	-10.536000	25.772299	0.000288	20.736858
1478.410851	-3.013700	3.509200	-10.574000	25.781292	0.000288	20.738779
1479.411870	-3.000800	3.509300	-10.529000	25.791954	0.000289	20.736687
1480.410512	-2.996100	3.507800	-10.509000	25.781618	0.000288	20.730097
1481.412277	-3.005700	3.508700	-10.545000	25.788804	0.000288	20.751542
1482.411528	-2.996100	3.507400	-10.508000	25.807954	0.000288	20.757501
1483.409980	-3.020700	3.508100	-10.596000	25.851656	0.000288	20.742132
1484.411363	-3.001000	3.508300	-10.527000	25.858322	0.000287	20.728439
1485.411809	-3.031100	3.507100	-10.630000	25.924254	0.000288	20.724972
1486.428284	-2.996400	3.507200	-10.508000	25.919160	0.000288	20.724596
1487.413831	-2.998600	3.506300	-10.513000	25.902038	0.000286	20.733000
1488.416358	-2.993800	3.505100	-10.492000	25.879342	0.000288	20.747185
1489.415792	-2.991200	3.506700	-10.488000	25.870277	0.000286	20.749932
1490.414126	-2.999100	3.506600	-10.515000	25.834234	0.000283	20.732216
1491.417759	-3.000900	3.504300	-10.515000	25.842803	0.000285	20.714271
1492.414198	-3.005600	3.505500	-10.536000	25.852350	0.000284	20.716749
1493.414576	-3.000200	3.505000	-10.515000	25.861960	0.000286	20.720714
1494.424967	-2.993700	3.504800	-10.492000	25.871522	0.000282	20.726526
1495.415291	-3.000800	3.504400	-10.515000	25.858388	0.000283	20.728031
1496.416730	-3.010400	3.503400	-10.545000	25.873297	0.000282	20.720248
1497.416678	-3.001900	3.503700	-10.517000	25.900998	0.000283	20.721524
1498.416331	-3.005000	3.502800	-10.525000	25.918681	0.000283	20.724589
1499.419171	-3.024300	3.502200	-10.591000	25.857730	0.000282	20.745863
1500.416592	-2.978200	3.502200	-10.429000	25.817055	0.000281	20.727288
1501.417280	-2.993400	3.501900	-10.481000	25.725789	0.000282	20.713374
1502.418069	-2.993300	3.502300	-10.483000	25.760420	0.000279	20.738677
1503.416279	-2.993100	3.501900	-10.481000	25.810212	0.000278	20.709507
1504.419143	-3.005200	3.500400	-10.519000	25.854402	0.000278	20.706955
1505.419543	-2.998900	3.501200	-10.499000	25.882877	0.000279	20.720863
1506.419196	-3.045500	3.498600	-10.653000	25.889290	0.000279	20.731573
1507.419387	-2.982000	3.501100	-10.440000	25.880020	0.000279	20.736960
1508.419651	-2.981800	3.500100	-10.436000	25.838371	0.000279	20.715509
1509.424597	-2.991000	3.500000	-10.468000	25.828678	0.000279	20.724739
1510.419831	-3.008100	3.498900	-10.524000	25.814249	0.000278	20.716408
1511.420909	-2.992400	3.497800	-10.466000	25.849992	0.000279	20.723864
1512.424403	-3.009900	3.498400	-10.529000	25.854891	0.000277	20.719776
1513.420583	-2.971400	3.499400	-10.397000	25.873071	0.000279	20.710063
1514.419746	-3.019000	3.497300	-10.557000	25.896052	0.000275	20.711339
1515.425196	-3.013600	3.497900	-10.540000	25.956782	0.000277	20.721141
1516.419542	-3.006300	3.497200	-10.512000	25.959004	0.000277	20.714364
1517.423074	-3.002800	3.496700	-10.499000	25.943600	0.000277	20.713587
1518.424800	-3.036400	3.496500	-10.615000	25.946603	0.000277	20.698585
1519.422645	-2.994800	3.496700	-10.471000	25.896613	0.000277	20.697202
1520.422158	-3.020900	3.495300	-10.558000	25.907876	0.000276	20.704251
1521.422623	-2.979100	3.496300	-10.415000	25.853947	0.000275	20.704602
1522.424787	-2.982900	3.495700	-10.426000	25.790843	0.000277	20.722768
1523.424066	-3.011500	3.494100	-10.521000	25.784381	0.000273	20.711061
1524.424234	-2.983000	3.494400	-10.423000	25.810367	0.000276	20.712033
1525.426727	-3.008000	3.494900	-10.512000	25.873869	0.000271	20.703752
1526.426012	-3.015700	3.492700	-10.532000	25.861524	0.000272	20.713636
1527.425658	-3.002600	3.493600	-10.489000	25.859416	0.000274	20.715313
1528.428805	-2.986900	3.492700	-10.431000	25.873299	0.000272	20.713138
1529.426396	-3.016600	3.491400	-10.531000	25.808707	0.000272	20.700408
1530.429150	-3.009000	3.491400	-10.505000	25.828093	0.000272	20.699967
1531.430423	-3.000300	3.490700	-10.472000	25.813598	0.000272	20.708166
1532.429329	-3.007100	3.490900	-10.496000	25.814453	0.000274	20.710448
1533.428254	-2.997600	3.491600	-10.466000	25.829232	0.000272	20.686886
1534.429231	-2.966600	3.492200	-10.358000	25.815446	0.000270	20.693901
1535.428896	-3.019400	3.489800	-10.536000	25.808570	0.000268	20.715918
1536.430560	-2.995000	3.491000	-10.454000	25.757891	0.000268	20.692037
1537.429225	-3.008800	3.489800	-10.499000	25.756271	0.000271	20.688513
1538.429150	-2.997800	3.490200	-10.462000	25.779980	0.000269	20.717071
1539.427896	-3.018000	3.490400	-10.533000	25.803182	0.000270	20.723783
1540.429699	-2.982600	3.489600	-10.407000	25.797265	0.000268	20.707407
1541.430701	-2.999100	3.488500	-10.462000	25.821518	0.000266	20.710433
1542.429352	-2.987900	3.488300	-10.422000	25.837323	0.000266	20.704023
1543.429680	-2.981000	3.488700	-10.399000	25.863381	0.000268	20.695112
1544.430323	-2.997300	3.487000	-10.450000	25.868451	0.000266	20.671753
1545.429708	-3.018400	3.486900	-10.523000	25.812729	0.000266	20.705871
1546.431376	-3.002800	3.487100	-10.470000	25.815333	0.000266	20.700900
1547.431919	-2.983900	3.488600	-10.408000	25.806837	0.000266	20.698529
1548.434346	-2.987900	3.485600	-10.413000	25.787191	0.000266	20.697761
1549.430189	-3.012200	3.486100	-10.499000	25.826223	0.000263	20.706149
1550.435579	-2.992200	3.486500	-10.431000	25.794630	0.000266	20.699544
1551.433664	-3.016700	3.485700	-10.514000	25.796787	0.000262	20.706926
1552.429379	-3.001000	3.486500	-10.462000	25.768611	0.000263	20.694744
1553.431353	-3.003800	3.484900	-10.467000	25.795200	0.000263	20.701539
1554.434114	-3.020300	3.483900	-10.522000	25.723766	0.000264	20.680044
1555.429911	-2.994900	3.484000	-10.434000	25.721999	0.000262	20.685857
1556.433736	-2.983000	3.484100	-10.392000	25.771735	0.000263	20.673225
1557.431039	-2.974700	3.484100	-10.363000	25.719420	0.000261	20.695121
1558.432034	-2.980600	3.484400	-10.385000	25.781283	0.000263	20.696093
1559.431280	-2.990600	3.481700	-10.411000	25.827289	0.000262	20.693943
1560.431265	-3.005200	3.482100	-10.463000	25.837225	0.000263	20.691122
1561.430966	-2.994600	3.482200	-10.427000	25.859255	0.000261	20.677689
1562.431090	-3.014200	3.480700	-10.491000	25.861395	0.000261	20.681736
1563.431352	-2.998900	3.482300	-10.442000	25.825888	0.000260	20.668352
1564.429756	-3.014200	3.481500	-10.493000	25.820224	0.000261	20.688268
1565.431516	-2.997600	3.480200	-10.431000	25.849757	0.000259	20.680002
1566.432269	-2.990100	3.480900	-10.407000	25.826059	0.000259	20.688914
1567.433896	-2.990300	3.480700	-10.408000	25.802506	0.000259	20.680901
1568.432281	-2.981400	3.480900	-10.378000	25.792521	0.000258	20.661860
1569.433501	-2.990200	3.480700	-10.408000	25.836541	0.000258	20.691857
1570.434202	-3.002300	3.478300	-10.442000	25.867766	0.000260	20.685766
1571.433315	-2.979700	3.478300	-10.364000	25.838112	0.000258	20.697703
1572.433732	-2.987700	3.478900	-10.392000	25.836443	0.000257	20.689862
1573.433232	-2.993800	3.478100	-10.411000	25.825367	0.000257	20.687745
1574.433361	-2.995200	3.478000	-10.417000	25.820973	0.000257	20.666733
1575.433234	-2.998100	3.477400	-10.425000	25.789176	0.000257	20.676520
1576.435244	-3.000900	3.477800	-10.436000	25.757940	0.000255	20.681180
1577.437061	-2.998000	3.476300	-10.421000	25.761814	0.000257	20.673690
1578.436124	-2.996000	3.476900	-10.415000	25.745447	0.000255	20.687598
1579.439925	-3.025100	3.476500	-10.515000	25.814544	0.000254	20.690149
1580.437738	-2.987200	3.476100	-10.383000	25.859857	0.000255	20.671656
1581.436383	-2.981800	3.475200	-10.360000	25.879437	0.000254	20.665720
1582.438787	-2.999400	3.474700	-10.421000	25.911313	0.000256	20.674510
1583.436371	-3.030200	3.475100	-10.529000	25.954938	0.000254	20.678982
1584.437893	-2.986100	3.475000	-10.376000	25.934066	0.000253	20.675082
1585.436256	-2.975600	3.475400	-10.341000	25.904371	0.000254	20.659947
1586.437836	-2.998600	3.473200	-10.414000	25.869452	0.000254	20.674182
1587.438045	-3.019100	3.473800	-10.487000	25.856203	0.000252	20.688375
1588.439927	-3.006100	3.474400	-10.443000	25.824880	0.000252	20.672555
1589.440916	-3.012500	3.472000	-10.458000	25.785759	0.000252	20.678777
1590.438487	-2.993200	3.472400	-10.392000	25.805225	0.000251	20.678417
1591.437703	-2.995400	3.472600	-10.401000	25.813877	0.000249	20.684737
1592.439384	-3.007500	3.473600	-10.445000	25.830316	0.000251	20.662367
1593.438402	-3.002700	3.472300	-10.426000	25.882416	0.000253	20.680567
1594.438674	-2.998000	3.472100	-10.409000	25.931730	0.000252	20.668942
1595.438079	-2.980600	3.472600	-10.350000	25.925049	0.000251	20.657961
1596.438732	-2.993500	3.470700	-10.388000	25.847512	0.000251	20.688179
1597.439302	-3.009900	3.470800	-10.446000	25.865555	0.000247	20.681173
1598.441761	-3.002400	3.470300	-10.418000	25.855521	0.000249	20.665402
1599.440876	-2.990600	3.471000	-10.379000	25.872366	0.000250	20.668100
1600.439572	-3.011200	3.468800	-10.445000	25.917473	0.000249	20.661256
1601.440092	-3.002300	3.468500	-10.412000	25.943636	0.000247	20.665729
1602.441690	-3.027000	3.468500	-10.498000	25.942756	0.000248	20.683339
1603.439467	-3.016100	3.467000	-10.456000	25.969365	0.000248	20.685890
1604.439410	-2.984500	3.468100	-10.349000	25.973287	0.000247	20.682718
1605.440043	-2.990800	3.468300	-10.372000	25.921021	0.000249	20.664821
1606.439757	-2.997200	3.468400	-10.395000	25.923283	0.000248	20.669465
1607.439652	-2.985600	3.468900	-10.355000	25.943407	0.000250	20.664551
1608.440465	-3.001400	3.466900	-10.405000	25.945816	0.000244	20.667446
1609.440447	-3.012100	3.466300	-10.439000	25.976868	0.000247	20.681574
1610.440823	-3.017000	3.465300	-10.454000	25.955834	0.000244	20.674191
1611.441908	-3.008000	3.466000	-10.425000	25.921989	0.000244	20.672907
1612.440508	-3.001500	3.466100	-10.403000	25.901475	0.000244	20.670315
1613.440603	-3.000400	3.464600	-10.394000	25.871316	0.000245	20.662303
1614.444752	-2.993600	3.464700	-10.371000	25.853657	0.000243	20.676807
1615.440802	-3.007100	3.464600	-10.418000	25.834003	0.000242	20.679824
1616.441636	-2.972400	3.465000	-10.298000	25.822455	0.000244	20.677232
1617.442442	-2.996400	3.463500	-10.377000	25.805609	0.000243	20.672163
1618.441501	-2.982300	3.463700	-10.329000	25.863959	0.000241	20.662973
1619.442298	-2.997200	3.463200	-10.378000	25.884590	0.000244	20.658567
1620.441175	-2.992500	3.462800	-10.362000	25.916310	0.000243	20.688066
1621.441773	-2.979700	3.462200	-10.315000	25.871593	0.000243	20.684394
1622.442636	-3.002000	3.462900	-10.394000	25.809857	0.000242	20.682596
1623.442388	-3.005400	3.461400	-10.402000	25.790260	0.000241	20.683773
1624.445151	-3.002900	3.460800	-10.392000	25.808197	0.000244	20.671444
1625.443488	-3.008100	3.461100	-10.411000	25.778883	0.000240	20.672343
1626.447724	-2.982000	3.461400	-10.320000	25.760156	0.000240	20.676293
1627.443642	-2.973500	3.460900	-10.290000	25.773340	0.000240	20.686218
1628.443661	-2.994100	3.461000	-10.362000	25.812153	0.000239	20.664985
1629.448884	-2.995800	3.460000	-10.364000	25.824849	0.000240	20.691018
1630.444667	-2.995100	3.459100	-10.360000	25.841589	0.000240	20.672270
1631.443537	-3.011800	3.459100	-10.417000	25.859501	0.000239	20.661339
1632.444905	-3.006800	3.459000	-10.399000	25.834810	0.000238	20.667831
1633.445738	-3.008800	3.459500	-10.409000	25.851281	0.000236	20.673472
1634.446135	-2.998600	3.459300	-10.373000	25.896374	0.000237	20.680365
1635.448028	-2.999900	3.458000	-10.373000	25.856352	0.000237	20.672876
1636.444932	-3.001900	3.457400	-10.378000	25.879854	0.000236	20.684633
1637.446940	-3.010800	3.458300	-10.411000	25.915749	0.000238	20.660473
1638.445555	-2.999100	3.456800	-10.366000	25.887488	0.000238	20.677602
1639.448044	-2.991400	3.457000	-10.340000	25.829627	0.000235	20.670685
1640.448613	-3.002700	3.456300	-10.377000	25.823198	0.000237	20.669443
1641.446341	-3.016100	3.455900	-10.423000	25.871538	0.000236	20.681494
1642.446892	-3.003200	3.457200	-10.381000	25.891288	0.000236	20.666720
1643.447181	-3.010600	3.454700	-10.399000	25.894145	0.000236	20.656312
1644.447009	-3.001200	3.455000	-10.368000	25.914863	0.000236	20.687560
1645.448190	-3.010500	3.453500	-10.396000	25.929503	0.000236	20.680456
1646.447096	-2.997600	3.453800	-10.352000	25.889662	0.000234	20.677889
1647.450531	-2.993800	3.453200	-10.337000	25.859055	0.000233	20.696931
1648.450054	-3.004600	3.454400	-10.379000	25.907019	0.000234	20.695328
1649.449184	-2.997300	3.452800	-10.348000	25.924116	0.000231	20.691167
1650.451476	-2.990800	3.454700	-10.332000	25.989271	0.000233	20.672223
1651.448180	-3.007700	3.452300	-10.383000	25.994983	0.000234	20.688395
1652.449047	-3.011200	3.453900	-10.400000	25.994390	0.000234	20.699179
1653.449847	-3.019800	3.451600	-10.422000	26.026636	0.000232	20.683686
1654.448389	-3.028600	3.452600	-10.456000	25.996749	0.000229	20.694437
1655.450010	-2.994200	3.451800	-10.335000	25.947252	0.000232	20.688330
1656.451408	-2.974100	3.452200	-10.266000	25.888498	0.000232	20.680988
1657.452987	-3.006200	3.450300	-10.371000	25.926567	0.000230	20.665651
1658.451180	-3.000600	3.450900	-10.354000	25.887978	0.000232	20.668610
1659.453109	-3.008100	3.450300	-10.377000	25.893715	0.000231	20.698084
1660.456644	-2.998500	3.451100	-10.347000	25.885846	0.000231	20.672159
1661.450084	-3.004700	3.449900	-10.365000	25.927609	0.000229	20.671914
1662.451206	-3.000500	3.450400	-10.352000	25.867536	0.000229	20.696915
1663.453492	-3.005000	3.449900	-10.366000	25.852343	0.000227	20.679281
1664.451647	-3.014000	3.449000	-10.394000	25.880036	0.000229	20.675331
1665.454990	-2.988300	3.448400	-10.304000	25.887140	0.000229	20.694798
1666.454827	-2.984700	3.448800	-10.292000	25.914101	0.000228	20.680630
1667.451874	-2.986700	3.447300	-10.295000	25.904954	0.000228	20.701314
1668.451757	-2.994200	3.447900	-10.323000	25.862036	0.000226	20.686647
1669.453070	-3.007500	3.446600	-10.365000	25.880118	0.000229	20.680156
1670.455831	-3.015500	3.445600	-10.389000	25.929009	0.000224	20.688495
1671.458432	-2.982700	3.448000	-10.283000	25.885392	0.000228	20.674548
1672.452324	-2.988700	3.446100	-10.298000	25.920498	0.000226	20.680893
1673.458134	-3.034700	3.444800	-10.453000	25.932876	0.000224	20.681948
1674.452755	-2.984000	3.446800	-10.284000	25.933762	0.000225	20.697538
1675.453337	-3.002300	3.446100	-10.346000	25.928677	0.000224	20.697171
1676.454829	-3.019800	3.443900	-10.398000	25.931110	0.000226	20.682070
1677.455350	-2.996200	3.444300	-10.318000	25.971007	0.000227	20.700818
1678.454576	-3.015400	3.444400	-10.385000	25.970511	0.000227	20.697000
1679.455337	-2.988400	3.444800	-10.293000	25.951593	0.000225	20.688424
1680.454271	-3.017200	3.443300	-10.388000	25.983881	0.000225	20.695733
1681.457574	-2.988100	3.444700	-10.292000	25.963538	0.000224	20.682406
1682.454505	-2.995300	3.442900	-10.311000	25.928402	0.000227	20.703060
1683.454439	-2.978700	3.442600	-10.253000	25.913518	0.000225	20.693796
1684.455535	-3.000300	3.442100	-10.327000	25.849059	0.000223	20.688785
1685.455368	-3.008700	3.442400	-10.356000	25.846480	0.000224	20.705635
1686.457746	-3.017100	3.441700	-10.383000	25.851696	0.000224	20.705186
1687.455967	-2.998100	3.442300	-10.319000	25.891271	0.000223	20.683299
1688.456403	-2.994100	3.441800	-10.304000	25.850737	0.000223	20.695686
1689.460189	-3.010400	3.441000	-10.358000	25.878088	0.000222	20.681910
1690.456942	-3.008100	3.440900	-10.350000	25.916319	0.000223	20.690446
1691.456330	-3.021800	3.439500	-10.392000	25.884550	0.000221	20.722544
1692.458786	-2.983800	3.440600	-10.265000	25.870740	0.000221	20.714360
1693.455693	-3.013500	3.439800	-10.365000	25.916328	0.000221	20.681919
1694.455991	-3.014800	3.439200	-10.368000	25.951050	0.000220	20.704950
1695.457359	-3.011500	3.438800	-10.355000	25.979319	0.000220	20.693046
1696.461274	-3.005300	3.437600	-10.330000	25.956177	0.000219	20.702040
1697.457256	-3.003100	3.438700	-10.326000	25.894096	0.000219	20.706054
1698.457961	-3.019500	3.436500	-10.375000	25.931017	0.000217	20.712800
1699.461234	-2.984400	3.439200	-10.262000	25.944412	0.000218	20.699703
1700.461994	-3.002700	3.438600	-10.325000	25.966512	0.000217	20.693456
1701.459547	-2.975900	3.438800	-10.232000	25.971313	0.000219	20.708712
1702.462840	-2.984700	3.438200	-10.261000	25.960744	0.000220	20.697145
1703.457699	-2.998100	3.435600	-10.300000	25.927153	0.000218	20.702753
1704.460272	-3.020500	3.436700	-10.380000	25.937560	0.000218	20.707993
1705.462172	-2.991500	3.434800	-10.273000	25.968661	0.000217	20.698460
1706.458568	-3.014500	3.435900	-10.356000	25.976645	0.000218	20.708379
1707.462810	-2.959000	3.435200	-10.164000	25.963771	0.000217	20.712989
1708.462427	-3.004500	3.434700	-10.319000	25.948123	0.000215	20.718132
1709.461164	-2.998700	3.434500	-10.297000	25.940450	0.000217	20.697145
1710.461856	-2.978900	3.434900	-10.230000	25.988818	0.000215	20.698797
1711.465570	-2.965900	3.436100	-10.190000	26.011431	0.000217	20.710612
1712.462554	-2.988200	3.434600	-10.263000	25.962300	0.000215	20.715304
1713.464384	-2.999000	3.433800	-10.297000	25.944064	0.000215	20.712157
1714.461768	-2.985700	3.433500	-10.249000	25.962885	0.000214	20.722056
1715.466984	-2.993600	3.432400	-10.275000	25.967531	0.000214	20.733838
1716.463952	-2.991900	3.433400	-10.271000	25.967881	0.000216	20.696729
1717.463952	-2.997100	3.432100	-10.286000	25.960510	0.000213	20.714454
1718.468665	-3.004900	3.430700	-10.308000	25.919823	0.000214	20.715304
1719.463564	-2.994100	3.432400	-10.275000	25.963326	0.000213	20.728190
1720.462411	-3.009000	3.431600	-10.325000	25.921516	0.000213	20.706573
1721.466866	-3.038000	3.428700	-10.416000	25.879217	0.000214	20.704857
1722.464543	-3.005400	3.430600	-10.309000	25.920785	0.000213	20.714374
1723.465588	-3.010900	3.429400	-10.325000	25.881781	0.000213	20.729245
1724.466416	-2.986900	3.430400	-10.245000	25.867898	0.000213	20.695382
1725.464807	-3.030600	3.428300	-10.389000	25.915846	0.000211	20.721266
1726.465316	-3.005800	3.429700	-10.307000	25.927304	0.000210	20.733727
1727.464010	-3.019100	3.429000	-10.351000	25.881473	0.000209	20.705227
1728.464379	-2.999100	3.428100	-10.281000	25.875279	0.000210	20.709910
1729.465215	-3.003400	3.428000	-10.295000	25.899710	0.000211	20.711220
1730.467568	-3.023500	3.427400	-10.361000	25.946794	0.000210	20.721064
1731.466945	-3.001600	3.426800	-10.285000	25.986682	0.000212	20.710877
1732.464704	-3.008400	3.426700	-10.308000	26.015242	0.000211	20.735305
1733.466274	-2.992200	3.426600	-10.252000	26.050475	0.000214	20.700527
1734.468559	-3.008100	3.425000	-10.302000	26.058717	0.000208	20.733940
1735.466401	-2.994800	3.425100	-10.257000	26.063616	0.000211	20.738388
1736.466112	-3.012100	3.425200	-10.316000	26.037791	0.000209	20.738046
1737.470300	-3.005200	3.425500	-10.294000	26.019736	0.000208	20.720853
1738.468089	-3.012400	3.425200	-10.317000	26.019931	0.000208	20.725316
1739.467208	-3.011600	3.425000	-10.313000	26.006327	0.000207	20.728244
1740.467751	-2.981600	3.425000	-10.211000	26.030030	0.000208	20.728825
1741.466774	-3.021100	3.423300	-10.341000	25.997929	0.000209	20.734506
1742.469729	-3.007300	3.425400	-10.300000	25.982160	0.000206	20.712498
1743.470137	-3.022900	3.422900	-10.345000	25.947619	0.000205	20.726634
1744.468163	-3.005600	3.423000	-10.287000	25.928984	0.000206	20.742053
1745.470036	-3.003800	3.423600	-10.283000	25.952542	0.000205	20.729684
1746.471906	-2.997200	3.423800	-10.261000	25.923256	0.000207	20.737247
1747.469771	-3.011400	3.423200	-10.308000	25.900854	0.000204	20.739872
1748.469615	-3.013300	3.422400	-10.312000	25.925698	0.000204	20.728794
1749.472178	-3.001900	3.422000	-10.271000	25.976174	0.000204	20.729718
1750.468374	-2.967800	3.422800	-10.157000	25.997518	0.000204	20.716074
1751.474793	-2.986200	3.421500	-10.216000	25.930101	0.000203	20.723734
1752.472824	-3.007500	3.420600	-10.286000	25.961902	0.000203	20.720121
1753.470466	-3.011900	3.419300	-10.298000	25.978795	0.000204	20.736619
1754.470825	-2.999700	3.420600	-10.259000	26.011237	0.000203	20.727013
1755.472599	-3.010100	3.419600	-10.293000	26.047625	0.000206	20.750771
1756.474190	-2.990100	3.420200	-10.226000	26.064793	0.000202	20.731510
1757.471046	-2.985200	3.418200	-10.203000	26.067999	0.000204	20.739473
1758.472927	-2.996300	3.417500	-10.240000	26.099592	0.000203	20.739449
1759.475813	-2.994900	3.417500	-10.235000	26.082132	0.000201	20.729965
1760.472301	-3.009100	3.417600	-10.283000	26.086014	0.000201	20.722485
1761.477675	-2.998100	3.417600	-10.245000	26.037276	0.000201	20.734209
1762.475244	-2.983200	3.419400	-10.200000	26.003321	0.000198	20.726172
1763.472990	-2.982000	3.418600	-10.194000	25.997520	0.000199	20.747846
1764.475732	-3.036700	3.416000	-10.373000	25.946102	0.000200	20.754983
1765.475188	-2.998700	3.417800	-10.248000	25.894998	0.000199	20.740627
1766.476422	-3.005600	3.415700	-10.265000	25.940103	0.000197	20.747534
1767.476628	-3.010100	3.415600	-10.281000	26.021824	0.000200	20.743814
1768.476032	-3.018800	3.415700	-10.311000	26.082409	0.000198	20.736882
1769.478097	-2.996600	3.416600	-10.237000	26.094133	0.000199	20.733490
1770.475071	-2.980200	3.416000	-10.180000	26.113408	0.000199	20.756176
1771.475907	-2.984700	3.415300	-10.193000	26.091399	0.000198	20.726949
1772.477315	-2.999000	3.414500	-10.239000	26.026031	0.000198	20.728601
1773.475907	-3.004900	3.414100	-10.258000	25.983329	0.000196	20.746390
1774.475714	-2.993100	3.414300	-10.218000	25.974566	0.000196	20.746121
1775.475388	-2.983700	3.413200	-10.183000	25.975826	0.000195	20.732688
1776.475426	-3.000200	3.412600	-10.237000	26.034127	0.000197	20.751909
1777.477085	-3.011600	3.411900	-10.273000	26.051856	0.000196	20.757394
1778.476411	-2.986500	3.413400	-10.194000	26.074021	0.000196	20.743628
1779.478396	-2.995700	3.412300	-10.222000	26.065746	0.000197	20.738158
1780.476016	-2.996400	3.411600	-10.221000	26.049978	0.000195	20.744126
1781.481557	-3.019100	3.411500	-10.299000	26.039115	0.000195	20.738427
1782.478755	-2.986900	3.411200	-10.188000	26.032654	0.000194	20.732884
1783.476419	-3.006000	3.410800	-10.252000	25.986087	0.000193	20.769077
1784.478887	-3.029600	3.409700	-10.329000	25.989528	0.000195	20.732229
1785.477449	-3.023800	3.409600	-10.309000	26.002621	0.000195	20.748229
1786.476119	-3.030500	3.409300	-10.331000	26.026193	0.000194	20.752946
1787.475538	-3.011500	3.409400	-10.266000	26.011310	0.000193	20.757908
1788.477548	-3.008600	3.409900	-10.257000	26.011213	0.000191	20.768716
1789.476172	-2.992200	3.410600	-10.204000	26.010659	0.000195	20.769582
1790.477442	-3.009300	3.407500	-10.253000	26.067119	0.000195	20.761350
1791.477191	-3.012700	3.409700	-10.272000	26.108385	0.000193	20.750655
1792.477386	-3.029000	3.407400	-10.320000	26.067339	0.000192	20.767734
1793.478098	-2.988200	3.408000	-10.182000	26.004140	0.000192	20.772042
1794.478239	-2.979100	3.408700	-10.154000	25.990308	0.000193	20.763360
1795.480164	-3.005300	3.407200	-10.238000	26.017281	0.000190	20.758217
1796.479186	-2.998300	3.407700	-10.216000	26.019967	0.000189	20.774192
1797.479052	-3.019300	3.405200	-10.280000	26.066946	0.000190	20.755012
1798.481484	-2.997600	3.406100	-10.209000	26.081185	0.000190	20.770267
1799.477751	-2.996300	3.405900	-10.204000	26.021894	0.000189	20.749101
1800.478017	-3.023900	3.405300	-10.296000	26.041122	0.000189	20.764152
1801.481566	-3.010600	3.405500	-10.251000	26.031503	0.000190	20.762075
1802.480400	-3.012300	3.403800	-10.252000	26.071129	0.000191	20.750680
1803.479457	-3.001200	3.405200	-10.218000	26.032797	0.000189	20.774281
1804.483643	-2.996800	3.404600	-10.202000	26.037940	0.000188	20.752895
1805.480224	-2.987300	3.405700	-10.173000	26.037492	0.000188	20.773782
1806.481673	-2.980100	3.405400	-10.147000	26.009843	0.000190	20.769711
1807.480132	-3.005100	3.404900	-10.231000	25.960021	0.000188	20.774657
1808.482022	-2.995300	3.402700	-10.192000	25.960377	0.000187	20.786869
1809.482319	-2.970100	3.402800	-10.105000	25.953803	0.000186	20.766988
1810.483076	-3.003000	3.400900	-10.212000	25.951988	0.000187	20.781761
1811.484744	-2.991900	3.402500	-10.179000	25.946976	0.000187	20.798062
1812.482940	-3.003800	3.401900	-10.218000	25.961330	0.000186	20.788775
1813.483798	-2.990400	3.402000	-10.173000	25.982029	0.000184	20.775432
1814.484838	-2.994300	3.401000	-10.182000	26.014277	0.000186	20.776062
1815.483388	-2.997500	3.401000	-10.194000	26.059785	0.000183	20.784327
1816.482428	-3.015700	3.400100	-10.253000	26.033553	0.000184	20.784049
1817.484832	-2.999600	3.400800	-10.200000	26.087677	0.000182	20.787221
1818.485075	-2.990600	3.400900	-10.170000	26.132930	0.000183	20.792388
1819.486083	-2.995000	3.398200	-10.177000	26.210087	0.000184	20.799271
1820.485810	-2.984000	3.400600	-10.147000	26.194598	0.000185	20.780387
1821.486301	-2.989400	3.399100	-10.160000	26.187040	0.000185	20.788439
1822.486898	-2.996000	3.398100	-10.179000	26.130872	0.000183	20.780363
1823.486144	-2.989700	3.398500	-10.160000	26.184412	0.000182	20.773945
1824.493533	-2.975600	3.399200	-10.114000	26.196681	0.000183	20.780109
1825.486746	-3.007000	3.398100	-10.217000	26.189067	0.000181	20.793321
1826.489282	-2.989300	3.397600	-10.155000	26.123346	0.000180	20.799353
1827.490533	-2.992900	3.397000	-10.166000	26.071860	0.000181	20.807365
1828.487822	-3.003600	3.396800	-10.201000	26.030331	0.000179	20.800727
1829.489429	-3.001400	3.396300	-10.193000	26.057207	0.000181	20.795487
1830.489899	-3.019200	3.396900	-10.255000	26.073032	0.000180	20.790051
1831.487311	-2.994400	3.396400	-10.169000	26.108367	0.000177	20.803269
1832.486855	-2.982700	3.396600	-10.131000	26.124615	0.000179	20.809164
1833.493452	-2.998800	3.394700	-10.178000	26.156679	0.000178	20.802501
1834.488006	-3.012200	3.394800	-10.225000	26.163985	0.000181	20.797041
1835.488530	-3.011200	3.394100	-10.218000	26.111402	0.000177	20.786879
1836.491810	-2.997700	3.394200	-10.174000	26.105700	0.000179	20.815762
1837.488238	-2.988600	3.394900	-10.145000	26.062577	0.000179	20.797090
1838.490202	-2.995200	3.393900	-10.165000	26.086017	0.000177	20.812581
1839.489815	-3.019900	3.391800	-10.242000	26.115528	0.000178	20.815205
1840.490632	-2.998100	3.393300	-10.173000	26.141938	0.000176	20.813767
1841.490968	-2.990000	3.394300	-10.147000	26.130881	0.000177	20.798390
1842.489831	-2.986800	3.393400	-10.134000	26.111795	0.000176	20.811455
1843.491855	-2.985300	3.393500	-10.130000	26.124405	0.000176	20.779555
1844.490666	-3.016000	3.391600	-10.228000	26.122688	0.000177	20.807227
1845.491165	-2.964500	3.391700	-10.053000	26.156542	0.000176	20.804734
1846.491996	-2.996300	3.391200	-10.161000	26.180305	0.000174	20.806328
1847.492069	-2.986500	3.392000	-10.129000	26.158551	0.000176	20.816236
1848.492608	-3.006800	3.391200	-10.195000	26.164393	0.000176	20.820210
1849.492466	-2.987000	3.391000	-10.128000	26.150057	0.000174	20.821926
1850.492312	-2.985800	3.390800	-10.124000	26.135794	0.000176	20.800482
1851.494273	-2.997200	3.389700	-10.158000	26.161382	0.000175	20.815762
1852.495763	-2.970900	3.390400	-10.071000	26.168077	0.000175	20.814428
1853.494222	-3.011100	3.388800	-10.203000	26.162195	0.000174	20.838863
1854.495345	-2.990800	3.389500	-10.136000	26.111159	0.000173	20.809393
1855.495236	-3.008500	3.388900	-10.195000	26.092259	0.000172	20.817903
1856.496520	-3.010400	3.388300	-10.199000	26.116773	0.000174	20.814560
1857.495691	-2.998800	3.388000	-10.159000	26.063545	0.000173	20.818451
1858.495501	-3.008000	3.386300	-10.185000	26.106480	0.000175	20.825554
1859.496836	-2.992000	3.387500	-10.135000	26.096895	0.000173	20.813553
1860.497355	-3.000200	3.386800	-10.161000	26.173283	0.000172	20.827246
1861.496714	-2.997700	3.386300	-10.150000	26.219753	0.000170	20.816096
1862.495885	-2.988400	3.386300	-10.118000	26.241652	0.000170	20.821033
1863.495760	-2.996500	3.387000	-10.149000	26.207801	0.000171	20.805034
1864.497086	-2.988500	3.386400	-10.120000	26.148249	0.000169	20.824376
1865.496319	-3.010100	3.385200	-10.188000	26.145467	0.000167	20.803563
1866.496661	-2.986600	3.386800	-10.114000	26.151144	0.000170	20.828708
1867.498773	-2.988600	3.384000	-10.112000	26.200243	0.000168	20.816405
1868.502510	-3.001800	3.385100	-10.160000	26.208021	0.000170	20.822324
1869.497914	-3.000200	3.385000	-10.155000	26.195524	0.000168	20.805499
1870.497567	-2.992900	3.384100	-10.126000	26.165626	0.000170	20.821449
1871.501892	-2.994400	3.384100	-10.132000	26.123507	0.000169	20.824171
1872.498356	-3.008100	3.383100	-10.177000	26.122603	0.000168	20.824686
1873.501663	-3.010800	3.383300	-10.185000	26.135499	0.000167	20.833850
1874.502408	-2.999200	3.383000	-10.145000	26.171679	0.000167	20.804771
1875.498767	-2.991000	3.382100	-10.115000	26.205001	0.000168	20.815496
1876.498750	-2.977400	3.382800	-10.071000	26.229488	0.000167	20.811654
1877.499212	-2.985400	3.381900	-10.095000	26.284205	0.000166	20.819225
1878.499247	-3.008400	3.381500	-10.172000	26.289483	0.000168	20.796555
1879.499182	-2.990200	3.380400	-10.107000	26.299888	0.000164	20.807485
1880.499734	-3.011600	3.380700	-10.180000	26.323664	0.000167	20.816681
1881.499335	-3.005400	3.381200	-10.160000	26.281779	0.000167	20.815839
1882.499024	-2.987300	3.379100	-10.093000	26.274148	0.000164	20.802481
1883.501172	-3.005500	3.379100	-10.154000	26.264915	0.000163	20.794625
1884.502455	-3.016600	3.378900	-10.191000	26.238907	0.000165	20.797886
1885.499784	-3.012800	3.378700	-10.178000	26.287709	0.000165	20.802832
1886.505142	-2.996900	3.378400	-10.124000	26.306825	0.000164	20.795017
1887.502953	-2.974700	3.378500	-10.049000	26.261555	0.000164	20.790774
1888.503184	-3.005900	3.377500	-10.151000	26.238329	0.000163	20.812004
1889.505158	-2.995500	3.378800	-10.120000	26.227486	0.000163	20.822444
1890.508816	-3.009800	3.378200	-10.167000	26.239817	0.000163	20.791214
1891.505012	-3.010400	3.377200	-10.166000	26.281664	0.000162	20.785852
1892.506036	-3.006900	3.375800	-10.150000	26.175777	0.000164	20.796561
1893.506005	-2.995400	3.376700	-10.114000	26.157797	0.000163	20.818323
1894.506777	-3.003300	3.376600	-10.139000	26.189159	0.000161	20.802423
1895.507613	-3.002000	3.377200	-10.137000	26.222977	0.000160	20.813646
1896.508748	-3.008300	3.375800	-10.154000	26.268346	0.000162	20.795702
1897.510914	-3.023400	3.374500	-10.202000	26.297225	0.000165	20.799593
1898.513408	-2.994800	3.375000	-10.107000	26.276684	0.000162	20.776580
1899.514051	-2.986500	3.375800	-10.081000	26.244901	0.000162	20.777357
1900.511075	-3.025800	3.374400	-10.209000	26.263278	0.000160	20.800566
1901.512485	-3.011900	3.374300	-10.163000	26.271022	0.000159	20.801710
1902.509775	-3.009900	3.374300	-10.156000	26.278693	0.000160	20.775754
1903.512316	-3.001800	3.374900	-10.130000	26.286641	0.000159	20.782319
1904.513435	-3.011900	3.373800	-10.161000	26.229924	0.000160	20.777953
1905.510130	-3.005300	3.372600	-10.135000	26.172985	0.000158	20.792808
1906.511297	-3.018900	3.372400	-10.180000	26.188060	0.000157	20.791361
1907.513354	-3.004900	3.371800	-10.131000	26.187321	0.000156	20.787299
1908.509997	-3.007100	3.373500	-10.144000	26.256487	0.000158	20.788999
1909.510922	-2.986900	3.372400	-10.072000	26.273488	0.000156	20.801817
1910.514336	-3.006300	3.371100	-10.133000	26.272285	0.000156	20.771211
1911.512328	-3.000700	3.371400	-10.115000	26.305881	0.000156	20.774154
1912.513298	-2.987200	3.372500	-10.074000	26.319685	0.000156	20.776647
1913.513247	-3.010400	3.370800	-10.146000	26.310070	0.000154	20.770302
1914.511240	-3.018600	3.370400	-10.173000	26.335304	0.000154	20.781437
1915.513564	-3.018800	3.369700	-10.171000	26.366898	0.000154	20.784741
1916.513492	-3.010800	3.370300	-10.146000	26.371436	0.000157	20.792147
1917.512259	-3.002700	3.368700	-10.114000	26.318279	0.000156	20.768121
1918.515766	-3.015900	3.369800	-10.163000	26.298902	0.000155	20.758130
1919.514184	-3.004800	3.368700	-10.122000	26.314091	0.000154	20.772920
1920.512341	-3.000000	3.370000	-10.109000	26.328814	0.000152	20.773967
1921.514009	-3.035900	3.368000	-10.224000	26.340682	0.000153	20.776885
1922.514560	-2.987700	3.368800	-10.065000	26.304989	0.000153	20.776576
1923.512990	-3.002400	3.366700	-10.107000	26.301239	0.000154	20.796041
1924.513041	-3.014200	3.367600	-10.149000	26.284132	0.000153	20.763201
1925.512202	-2.998500	3.367200	-10.095000	26.250453	0.000153	20.789100
1926.512389	-3.001600	3.367400	-10.106000	26.250112	0.000151	20.774058
1927.512166	-3.008000	3.366600	-10.126000	26.278202	0.000151	20.767674
1928.514101	-3.019700	3.364900	-10.160000	26.300173	0.000151	20.781220
1929.513590	-3.006300	3.365600	-10.117000	26.315134	0.000152	20.763063
1930.516944	-3.018600	3.365500	-10.158000	26.343223	0.000153	20.765688
1931.516434	-2.992900	3.365500	-10.071000	26.348689	0.000152	20.766915
1932.516667	-2.989800	3.364300	-10.058000	26.352040	0.000151	20.766490
1933.516024	-3.000100	3.364000	-10.091000	26.388303	0.000151	20.767848
1934.516595	-2.986300	3.364600	-10.047000	26.376688	0.000151	20.759019
1935.519546	-2.995600	3.363500	-10.075000	26.403725	0.000148	20.758692
1936.516442	-2.989100	3.364000	-10.054000	26.395511	0.000149	20.749961
1937.516601	-3.005700	3.361400	-10.103000	26.401083	0.000149	20.750346
1938.519157	-3.023200	3.361900	-10.163000	26.385987	0.000149	20.756510
1939.517044	-2.988400	3.362700	-10.048000	26.379251	0.000149	20.763017
1940.518519	-3.026100	3.362200	-10.174000	26.372135	0.000144	20.753968
1941.520355	-2.996300	3.362200	-10.073000	26.436864	0.000149	20.739841
1942.522917	-2.992600	3.361500	-10.059000	26.446576	0.000147	20.750551
1943.519036	-2.975700	3.362000	-10.003000	26.425347	0.000146	20.767147
1944.519642	-3.007600	3.360000	-10.105000	26.387037	0.000148	20.746185
1945.519814	-3.002200	3.361200	-10.090000	26.382523	0.000148	20.758245
1946.518996	-2.998800	3.360700	-10.077000	26.414773	0.000146	20.749881
1947.518219	-3.000900	3.359600	-10.081000	26.420444	0.000146	20.748467
1948.519230	-3.010300	3.359800	-10.114000	26.425575	0.000142	20.728494
1949.518853	-2.985200	3.359600	-10.028000	26.410576	0.000144	20.775535
1950.519754	-2.989800	3.357900	-10.039000	26.394162	0.000144	20.741018
1951.519717	-3.021800	3.357300	-10.144000	26.351717	0.000145	20.759052
1952.521120	-3.001900	3.357600	-10.078000	26.399075	0.000143	20.759707
1953.524234	-2.993300	3.358900	-10.053000	26.406428	0.000143	20.739596
1954.523308	-2.974200	3.359200	-9.990200	26.443517	0.000144	20.737993
1955.522851	-2.991000	3.357900	-10.042000	26.484184	0.000143	20.751842
1956.527131	-3.006200	3.356700	-10.090000	26.491464	0.000139	20.739718
1957.524550	-2.999200	3.357000	-10.067000	26.502158	0.000142	20.738614
1958.522602	-2.988800	3.356600	-10.032000	26.447461	0.000143	20.725361
1959.522664	-2.969500	3.357400	-9.968500	26.439092	0.000140	20.753934
1960.524534	-3.022600	3.356300	-10.144000	26.415373	0.000140	20.738629
1961.522647	-3.012200	3.356100	-10.108000	26.408866	0.000140	20.769548
1962.523316	-2.996700	3.354600	-10.052000	26.383342	0.000140	20.751481
1963.525798	-3.012900	3.354300	-10.104000	26.319374	0.000141	20.739348
1964.524521	-3.007200	3.355200	-10.089000	26.325979	0.000142	20.723700
1965.524508	-3.005000	3.354800	-10.080000	26.318902	0.000140	20.740771
1966.524994	-2.999500	3.353500	-10.058000	26.301990	0.000138	20.747009
1967.526006	-2.981900	3.355700	-10.005000	26.334943	0.000138	20.736978
1968.525856	-3.001700	3.352700	-10.062000	26.384919	0.000142	20.743108
1969.525900	-2.989300	3.352600	-10.021000	26.387497	0.000137	20.745225
1970.531638	-3.006600	3.352200	-10.078000	26.380454	0.000137	20.737672
1971.527220	-2.987800	3.353400	-10.018000	26.389840	0.000137	20.736675
1972.527723	-3.010000	3.353300	-10.091000	26.361802	0.000138	20.749273
1973.530341	-2.989900	3.352000	-10.021000	26.377142	0.000138	20.747147
1974.526246	-2.993000	3.352400	-10.033000	26.321447	0.000138	20.720094
1975.526127	-2.991700	3.350900	-10.022000	26.344443	0.000139	20.747474
1976.530013	-3.005300	3.350200	-10.067000	26.385716	0.000138	20.724943
1977.528368	-2.996800	3.350400	-10.039000	26.337814	0.000137	20.736543
1978.527782	-3.011200	3.350000	-10.087000	26.349365	0.000137	20.727763
1979.526922	-2.999700	3.351100	-10.052000	26.366398	0.000137	20.736822
1980.527383	-3.002700	3.349300	-10.056000	26.359467	0.000134	20.737443
1981.528515	-2.991000	3.349000	-10.017000	26.393192	0.000134	20.744785
1982.528919	-3.009000	3.349900	-10.079000	26.441938	0.000135	20.727870
1983.532226	-2.990100	3.350400	-10.017000	26.442400	0.000134	20.731655
1984.528310	-3.016100	3.349100	-10.100000	26.488119	0.000132	20.731141
1985.527391	-3.017000	3.347100	-10.098000	26.534664	0.000132	20.725769
1986.532288	-2.998300	3.347600	-10.035000	26.497651	0.000135	20.731713
1987.530058	-2.992300	3.347600	-10.016000	26.485654	0.000133	20.735301
1988.532355	-2.996700	3.346300	-10.028000	26.475903	0.000132	20.714119
1989.532362	-3.011900	3.347500	-10.082000	26.451869	0.000131	20.752078
1990.536653	-3.005400	3.346100	-10.055000	26.473146	0.000133	20.736479
1991.533415	-2.997900	3.346500	-10.032000	26.442686	0.000129	20.730045
1992.534382	-2.994000	3.347000	-10.019000	26.464989	0.000131	20.729228
1993.531623	-2.996600	3.345800	-10.025000	26.451878	0.000130	20.729800
1994.531116	-3.001700	3.345600	-10.041000	26.465631	0.000130	20.725132
1995.531700	-2.985500	3.346100	-9.989000	26.456196	0.000129	20.724658
1996.533559	-3.003100	3.343400	-10.040000	26.408875	0.000130	20.737788
1997.531994	-3.027400	3.343100	-10.120000	26.398545	0.000129	20.734044
1998.532806	-2.968900	3.345600	-9.932000	26.421734	0.000127	20.719417
1999.534723	-2.987000	3.345000	-9.990600	26.424891	0.000126	20.727332
2000.533623	-3.019100	3.344000	-10.095000	26.417099	0.000128	20.717129
2001.535182	-2.991200	3.343000	-9.998000	26.427989	0.000129	20.729023
2002.535094	-2.991400	3.342000	-9.995900	26.481850	0.000127	20.746176
2003.535982	-3.005300	3.343500	-10.047000	26.497709	0.000127	20.702845
2004.535700	-3.004700	3.342200	-10.042000	26.504158	0.000127	20.729244
2005.536647	-3.007000	3.341600	-10.047000	26.476229	0.000127	20.705911
2006.536156	-3.006900	3.341400	-10.046000	26.438115	0.000126	20.733037
2007.537416	-2.997200	3.341900	-10.016000	26.505378	0.000126	20.713874
2008.539050	-3.009300	3.341500	-10.055000	26.472601	0.000125	20.719809
2009.536220	-2.991200	3.341300	-9.993400	26.472592	0.000123	20.722171
2010.537932	-2.995000	3.340100	-10.003000	26.499928	0.000127	20.724992
2011.540852	-2.980100	3.341400	-9.956500	26.501188	0.000124	20.727207
2012.538605	-2.994300	3.340900	-10.003000	26.532345	0.000123	20.722489
2013.539051	-2.991700	3.338900	-9.987400	26.528523	0.000124	20.717224
2014.541016	-3.012800	3.339400	-10.059000	26.486336	0.000124	20.718916
2015.539447	-2.945600	3.338900	-9.833600	26.454550	0.000124	20.686965
2016.537732	-2.985000	3.338700	-9.965000	26.431134	0.000122	20.716062
2017.541587	-2.968300	3.339000	-9.910800	26.449824	0.000121	20.686956
2018.538907	-2.982500	3.339100	-9.957500	26.423747	0.000121	20.696308
2019.538774	-3.005700	3.337200	-10.030000	26.474029	0.000121	20.711761
2020.539688	-2.990800	3.338000	-9.982300	26.477851	0.000122	20.694265
2021.542615	-3.019300	3.336700	-10.073000	26.476354	0.000123	20.726427
2022.539866	-3.001000	3.337100	-10.014000	26.465456	0.000121	20.701720
2023.540236	-2.975400	3.337900	-9.929800	26.471832	0.000121	20.717139
2024.542117	-3.004200	3.336300	-10.022000	26.474653	0.000119	20.717130
2025.542003	-3.009900	3.336000	-10.040000	26.503486	0.000122	20.697272
2026.545360	-2.984600	3.335700	-9.954800	26.537547	0.000120	20.697844
2027.545139	-3.012900	3.335700	-10.049000	26.525014	0.000121	20.698049
2028.543418	-2.987000	3.334900	-9.960500	26.523079	0.000120	20.724555
2029.544309	-3.014100	3.334800	-10.050000	26.540532	0.000121	20.688991
2030.542583	-3.002400	3.333200	-10.007000	26.589116	0.000118	20.714597
2031.542557	-3.016200	3.332600	-10.049000	26.606894	0.000117	20.721089
2032.543567	-2.994200	3.333200	-9.979900	26.640236	0.000120	20.701974
2033.544987	-2.996300	3.333400	-9.986900	26.659565	0.000117	20.704336
2034.545277	-2.957100	3.334500	-9.858600	26.706933	0.000116	20.687944
2035.545172	-2.988000	3.332400	-9.956800	26.650394	0.000116	20.711238
2036.545687	-2.966300	3.332900	-9.885400	26.649295	0.000118	20.703969
2037.546576	-2.988100	3.331700	-9.955200	26.548088	0.000117	20.713658
2038.545154	-3.010800	3.330600	-10.027000	26.513036	0.000116	20.684585
2039.546109	-3.017800	3.330600	-10.050000	26.507920	0.000116	20.701255
2040.550072	-3.002000	3.331900	-10.002000	26.497314	0.000116	20.690594
2041.546998	-3.002100	3.330400	-9.997400	26.516590	0.000115	20.695745
2042.548396	-3.048200	3.328500	-10.144000	26.563761	0.000114	20.717084
2043.553483	-3.018700	3.329200	-10.049000	26.596584	0.000115	20.699343
2044.549998	-3.008000	3.328000	-10.009000	26.572227	0.000114	20.700463
2045.549949	-2.986700	3.331000	-9.947300	26.599593	0.000114	20.686246
2046.552575	-3.000300	3.329700	-9.989400	26.605652	0.000114	20.691389
2047.551913	-3.015400	3.327400	-10.032000	26.644679	0.000113	20.691266
2048.552104	-3.027300	3.328100	-10.074000	26.674548	0.000113	20.709916
2049.555520	-2.989000	3.328100	-9.946500	26.660000	0.000111	20.699083
2050.553015	-3.001100	3.327200	-9.984400	26.658390	0.000113	20.694619
2051.553750	-2.976200	3.328900	-9.905500	26.612322	0.000111	20.695723
2052.558610	-3.016100	3.326500	-10.032000	26.590649	0.000109	20.691006
2053.555962	-3.020700	3.325700	-10.045000	26.603978	0.000111	20.687335
2054.555770	-2.991300	3.328000	-9.954300	26.563161	0.000110	20.695142
2055.558302	-2.991400	3.325700	-9.947900	26.533030	0.000110	20.683345
2056.556866	-3.008600	3.325700	-10.005000	26.545595	0.000107	20.683174
2057.560001	-3.003200	3.325600	-9.986700	26.603865	0.000109	20.682954
2058.559181	-3.000200	3.324400	-9.973100	26.572856	0.000109	20.687818
2059.559201	-2.996600	3.325000	-9.962300	26.593911	0.000108	20.690966
2060.562103	-2.996700	3.324100	-9.961100	26.600515	0.000107	20.688121
2061.562566	-3.013600	3.322200	-10.011000	26.667865	0.000107	20.673323
2062.559893	-3.005300	3.322200	-9.983200	26.715038	0.000108	20.693248
2063.560023	-2.986200	3.322700	-9.921500	26.720527	0.000106	20.687860
2064.560674	-3.006500	3.322500	-9.988600	26.710200	0.000107	20.686487
2065.563220	-3.017900	3.321900	-10.025000	26.708249	0.000107	20.693061
2066.562327	-3.001100	3.322700	-9.970600	26.647219	0.000107	20.682914
2067.561549	-2.993200	3.322300	-9.943700	26.646838	0.000105	20.701973
2068.565832	-3.011200	3.321200	-9.999900	26.680569	0.000106	20.695105
2069.563856	-2.983500	3.320800	-9.906800	26.705599	0.000104	20.689922
2070.564078	-2.987700	3.320900	-9.920800	26.681765	0.000105	20.682555
2071.564579	-3.018800	3.319900	-10.020000	26.652051	0.000105	20.672597
2072.564466	-3.006200	3.321100	-9.983300	26.716732	0.000104	20.681200
2073.564359	-2.985500	3.319200	-9.909000	26.734198	0.000106	20.679319
2074.565514	-3.016000	3.319100	-10.009000	26.725562	0.000103	20.688181
2075.565047	-3.000800	3.320000	-9.962600	26.677872	0.000103	20.699981
2076.564567	-3.003700	3.317600	-9.964500	26.634894	0.000104	20.679532
2077.564223	-2.996300	3.317900	-9.940300	26.646044	0.000102	20.683155
2078.564721	-2.999700	3.317500	-9.950800	26.599991	0.000102	20.687120
2079.565420	-3.002300	3.317900	-9.960800	26.595876	0.000102	20.677767
2080.567595	-3.003000	3.317300	-9.961500	26.607139	0.000101	20.690038
2081.567267	-2.987800	3.317700	-9.911800	26.597145	0.000103	20.676198
2082.565332	-3.009900	3.316800	-9.982200	26.649662	0.000100	20.677783
2083.570749	-3.007600	3.316700	-9.974000	26.681353	0.000103	20.686884
2084.567906	-2.992400	3.316400	-9.922900	26.707050	9.958480E-5	20.687113
2085.565647	-3.016900	3.316300	-10.004000	26.687591	0.000103	20.705484
2086.569618	-3.019200	3.315600	-10.010000	26.649558	0.000100	20.688111
2087.569556	-2.986700	3.316200	-9.903400	26.693820	0.000100	20.700366
2088.565772	-2.994400	3.313500	-9.921000	26.636400	9.951880E-5	20.673934
2089.569844	-2.993700	3.314600	-9.922300	26.623958	9.974981E-5	20.681815
2090.566782	-3.029700	3.313000	-10.037000	26.648712	0.000100	20.678725
2091.570077	-3.003900	3.313600	-9.953000	26.671896	0.000100	20.677850
2092.566722	-2.987400	3.313800	-9.898900	26.688851	0.000102	20.693948
2093.569003	-3.010200	3.312500	-9.970700	26.719230	9.770366E-5	20.709792
2094.568291	-3.013000	3.311900	-9.977400	26.769002	0.000101	20.672110
2095.567604	-3.000300	3.312100	-9.937400	26.777150	9.826471E-5	20.683623
2096.568474	-3.002500	3.313000	-9.945800	26.723450	9.783567E-5	20.674677
2097.569300	-2.971200	3.311900	-9.838900	26.716181	9.648258E-5	20.691078
2098.568995	-2.984600	3.312500	-9.885600	26.719686	9.780267E-5	20.680851
2099.569453	-2.986800	3.310700	-9.886800	26.692274	9.694461E-5	20.676999
2100.569866	-2.999900	3.310700	-9.931000	26.702805	9.522848E-5	20.693278
2101.570240	-3.010500	3.311400	-9.968100	26.693251	9.522848E-5	20.680826
2102.571723	-2.998200	3.310100	-9.922800	26.796315	9.704362E-5	20.699100
2103.571992	-2.998200	3.309800	-9.922600	26.826545	9.575652E-5	20.708158
2104.571986	-2.999300	3.308900	-9.923900	26.790476	9.611955E-5	20.691332
2105.571853	-2.988000	3.309100	-9.886800	26.825048	9.582253E-5	20.696221
2106.575583	-2.997700	3.308400	-9.916600	26.827707	9.400739E-5	20.686566
2107.572963	-2.986500	3.310100	-9.884900	26.820837	9.206025E-5	20.687245
2108.575112	-2.991600	3.309200	-9.898800	26.789907	9.311633E-5	20.706408
2109.575648	-3.002300	3.307000	-9.928100	26.758392	9.618555E-5	20.681833
2110.572063	-3.012500	3.307300	-9.962600	26.715256	9.427141E-5	20.677819
2111.572721	-2.981500	3.307300	-9.859700	26.751741	9.166422E-5	20.687000
2112.575552	-2.994600	3.306800	-9.901100	26.793145	9.334735E-5	20.690221
2113.573641	-3.002400	3.305400	-9.923500	26.844498	9.328134E-5	20.681637
2114.572898	-2.991800	3.306000	-9.890500	26.815741	9.314933E-5	20.679749
2115.577840	-2.989000	3.306700	-9.882600	26.815026	9.060815E-5	20.674762
2116.578824	-3.010200	3.304600	-9.947000	26.844434	9.219226E-5	20.692479
2117.575531	-2.974500	3.306400	-9.834200	26.864094	8.978309E-5	20.710352
2118.575582	-2.994200	3.305500	-9.896600	26.844312	8.998110E-5	20.681450
2119.579832	-2.994700	3.303600	-9.892000	26.851142	9.024512E-5	20.670773
2120.575683	-2.996600	3.303200	-9.896700	26.878526	9.017911E-5	20.694991
2121.578516	-3.018900	3.302700	-9.968900	26.830077	8.998110E-5	20.692742
2122.577518	-3.005900	3.302700	-9.926600	26.902162	8.780294E-5	20.693626
2123.576333	-3.005300	3.303000	-9.925700	26.927844	9.044313E-5	20.687208
2124.575749	-2.988600	3.302700	-9.868800	26.907504	9.011311E-5	20.676237
2125.576099	-3.012600	3.303100	-9.950000	26.898602	8.803396E-5	20.701427
2126.575706	-3.018300	3.301900	-9.965300	26.841656	8.776994E-5	20.702489
2127.576526	-2.999700	3.301000	-9.901200	26.849682	8.743991E-5	20.696808
2128.575880	-3.009800	3.301000	-9.935000	26.820721	8.856200E-5	20.702776
2129.575027	-3.008100	3.300300	-9.926500	26.816583	8.879301E-5	20.699564
2130.577564	-3.006500	3.299400	-9.919000	26.892603	8.965108E-5	20.723371
2131.579831	-3.014700	3.299700	-9.946100	26.906019	8.826497E-5	20.703195
2132.578768	-3.018900	3.299500	-9.960000	26.922416	8.691188E-5	20.708304
2133.578289	-2.998600	3.299800	-9.894500	26.929197	8.479972E-5	20.690940
2134.579820	-3.001000	3.299000	-9.899300	26.892767	8.648284E-5	20.697930
2135.582607	-2.980700	3.299200	-9.833300	26.926629	8.618582E-5	20.704480
2136.580589	-3.009200	3.298400	-9.924300	26.958368	8.684587E-5	20.709369
2137.580349	-3.003900	3.298200	-9.906900	26.963059	8.483272E-5	20.680419
2138.584135	-3.009900	3.297500	-9.923500	26.898337	8.450270E-5	20.693574
2139.583005	-3.015000	3.296300	-9.937100	26.909663	8.476672E-5	20.693109
2140.584335	-3.012000	3.296800	-9.929000	26.880996	8.235754E-5	20.710277
2141.583091	-3.010300	3.296000	-9.921300	26.923508	8.549277E-5	20.696599
2142.581569	-2.997500	3.296100	-9.879300	26.909119	8.298459E-5	20.697777
2143.581859	-3.002800	3.295400	-9.894800	26.925987	8.341362E-5	20.687712
2144.583369	-2.986300	3.295900	-9.841400	26.933508	8.503074E-5	20.701439
2145.581497	-2.974600	3.295800	-9.802500	26.986415	8.354563E-5	20.716711
2146.583517	-2.989900	3.294500	-9.849400	26.974457	8.334762E-5	20.705159
2147.585259	-3.013300	3.294900	-9.927600	26.972668	8.298459E-5	20.722802
2148.584779	-2.989300	3.295600	-9.850500	26.955514	8.275357E-5	20.704603
2149.594281	-3.006400	3.293200	-9.899900	26.897361	8.219253E-5	20.674572
2150.586638	-3.001700	3.293500	-9.885100	26.910345	7.925532E-5	20.703278
2151.585428	-3.002900	3.292700	-9.887200	26.905149	8.037740E-5	20.702795
2152.585931	-2.991600	3.293500	-9.852400	26.923596	7.925532E-5	20.697162
2153.584936	-2.996500	3.292100	-9.863100	26.908206	7.938733E-5	20.718672
2154.590465	-3.024300	3.290100	-9.948400	26.902392	8.103745E-5	20.697178
2155.585335	-2.985300	3.291500	-9.824800	26.931123	7.912331E-5	20.713267
2156.585292	-2.994900	3.292200	-9.859100	26.975324	7.922231E-5	20.710299
2157.588623	-2.990600	3.292200	-9.845200	26.976015	7.951934E-5	20.705303
2158.585280	-3.014800	3.289900	-9.917600	26.983145	7.763820E-5	20.714845
2159.587150	-3.009300	3.290600	-9.901100	26.961699	7.747319E-5	20.718883
2160.588561	-3.009600	3.287900	-9.894900	26.932309	7.691214E-5	20.732005
2161.587038	-3.013600	3.289300	-9.911500	26.957455	7.697815E-5	20.730264
2162.586133	-2.989700	3.290100	-9.835100	27.030237	7.833125E-5	20.697716
2163.587135	-2.992800	3.289500	-9.844200	27.031521	7.717616E-5	20.698059
2164.589085	-2.979700	3.289400	-9.800100	26.990631	7.826524E-5	20.697716
2165.586628	-3.000000	3.287300	-9.860600	26.944171	7.862827E-5	20.701256
2166.586845	-3.000400	3.287900	-9.864200	26.996810	7.724217E-5	20.721475
2167.591760	-3.011400	3.285400	-9.892700	27.029188	7.654912E-5	20.720370
2168.588249	-3.012300	3.286700	-9.898600	27.035010	7.641711E-5	20.715793
2169.589794	-3.021000	3.285000	-9.923300	27.070288	7.720917E-5	20.709547
2170.591311	-3.012000	3.286300	-9.896600	27.101478	7.605408E-5	20.709620
2171.587414	-2.980200	3.286700	-9.793900	27.072694	7.645011E-5	20.730460
2172.597793	-3.013800	3.284300	-9.897500	27.091358	7.668113E-5	20.715564
2173.590065	-3.012400	3.285000	-9.895200	27.136788	7.539403E-5	20.738022
2174.589972	-2.989800	3.285500	-9.821800	27.166610	7.539403E-5	20.725342
2175.592704	-3.014700	3.284200	-9.900900	27.184767	7.437096E-5	20.724164
2176.591138	-2.991700	3.285700	-9.829100	27.196188	7.483299E-5	20.735177
2177.589760	-2.978000	3.283100	-9.775700	27.214962	7.539403E-5	20.715653
2178.590419	-2.971800	3.282900	-9.755300	27.141673	7.153275E-5	20.723494
2179.590151	-2.989900	3.281900	-9.811700	27.050876	7.245682E-5	20.725586
2180.592843	-2.986600	3.282200	-9.800800	27.042292	7.199478E-5	20.709840
2181.590253	-2.996100	3.281300	-9.829900	27.008841	7.331488E-5	20.746851
2182.590880	-2.989600	3.281300	-9.808600	27.017629	7.380992E-5	20.717280
2183.595520	-2.973600	3.280700	-9.754300	27.075182	7.380992E-5	20.721107
2184.592034	-2.991800	3.280000	-9.812100	27.109736	7.242382E-5	20.733100
2185.594459	-2.968200	3.280200	-9.735000	27.133838	7.140074E-5	20.732684
2186.598484	-2.987100	3.279500	-9.795500	27.143014	7.050968E-5	20.740017
2187.593480	-2.989500	3.279700	-9.803500	27.084156	7.291885E-5	20.714484
2188.593449	-2.986700	3.280000	-9.795500	27.074848	7.159876E-5	20.721245
2189.598047	-3.005400	3.277600	-9.849500	27.054648	6.988263E-5	20.707567
2190.594447	-2.987800	3.278700	-9.795300	27.080700	6.843052E-5	20.733296
2191.594115	-2.995900	3.276700	-9.816200	27.115612	7.060868E-5	20.733794
2192.598707	-3.020100	3.276400	-9.894400	27.121197	6.938759E-5	20.736092
2193.594886	-3.014500	3.278100	-9.881400	27.152142	6.872755E-5	20.722169
2194.593987	-3.020300	3.276800	-9.895900	27.130455	6.786948E-5	20.727385
2195.597617	-2.981400	3.278800	-9.774500	27.163879	6.833152E-5	20.739665
2196.593599	-3.003300	3.276600	-9.839300	27.105745	6.618636E-5	20.726241
2197.594376	-2.999100	3.275700	-9.823900	27.117954	6.648338E-5	20.729985
2198.594147	-2.997300	3.275900	-9.817000	27.105551	6.793549E-5	20.759712
2199.594679	-2.973600	3.276900	-9.742300	27.069418	6.780348E-5	20.712939
2200.596067	-3.021300	3.274200	-9.891400	27.098333	6.786948E-5	20.729692
2201.594544	-3.015800	3.273800	-9.872200	27.166668	6.618636E-5	20.744841
2202.597885	-3.011600	3.274700	-9.861200	27.095845	6.674740E-5	20.732405
2203.596502	-3.012100	3.272300	-9.855800	27.133244	6.483326E-5	20.734458
2204.599280	-2.997000	3.272500	-9.806800	27.086741	6.522929E-5	20.750751
2205.597559	-2.979100	3.274700	-9.754600	27.063037	6.318314E-5	20.732601
2206.596645	-3.014100	3.271900	-9.860900	27.085603	6.635137E-5	20.736330
2207.595884	-2.996500	3.272700	-9.805400	27.080019	6.427222E-5	20.757741
2208.598458	-3.003400	3.271200	-9.823800	27.096991	6.427222E-5	20.730713
2209.596970	-2.994700	3.270800	-9.794400	27.096812	6.476726E-5	20.718678
2210.597203	-3.014100	3.269700	-9.854200	27.137390	6.470125E-5	20.739576
2211.598114	-3.012000	3.268600	-9.844400	27.132554	6.410721E-5	20.741824
2212.597720	-2.971300	3.271100	-9.718400	27.117151	6.334815E-5	20.750990
2213.599034	-2.979700	3.270400	-9.743600	27.117735	6.275411E-5	20.749206
2214.600100	-2.985200	3.269000	-9.757900	27.087693	6.034493E-5	20.749338
2215.599206	-2.996200	3.268800	-9.792300	27.099105	6.258910E-5	20.735685
2216.599423	-2.997900	3.269000	-9.799000	27.141511	6.255609E-5	20.739454
2217.602181	-2.981600	3.268900	-9.746000	27.249310	6.116999E-5	20.761110
2218.599707	-3.001100	3.268000	-9.806200	27.281981	6.209406E-5	20.760782
2219.598484	-2.994400	3.267100	-9.780900	27.328972	6.120299E-5	20.750678
2220.600163	-2.971100	3.267400	-9.706700	27.338594	6.202806E-5	20.756564
2221.599344	-2.994300	3.264700	-9.775700	27.359382	6.272111E-5	20.751871
2222.601048	-2.980800	3.266500	-9.736000	27.313165	6.113699E-5	20.751372
2223.601727	-3.000700	3.265200	-9.797200	27.280063	6.116999E-5	20.744627
2224.601195	-3.001500	3.264900	-9.799000	27.251731	5.971789E-5	20.756906
2225.600951	-2.981000	3.267300	-9.738500	27.198609	6.116999E-5	20.742354
2226.601457	-3.000600	3.263600	-9.792000	27.151597	6.133500E-5	20.762401
2227.608555	-2.990700	3.263800	-9.760300	27.188685	5.905784E-5	20.751813
2228.602828	-2.991400	3.264300	-9.763900	27.222358	6.021292E-5	20.749173
2229.601861	-2.982500	3.263700	-9.732800	27.292455	5.816677E-5	20.744765
2230.606022	-2.988900	3.263700	-9.754400	27.263263	5.740772E-5	20.749540
2231.603717	-3.006800	3.263200	-9.810400	27.214831	5.826578E-5	20.745395
2232.604695	-2.989500	3.263700	-9.756700	27.236856	5.704469E-5	20.751902
2233.607386	-2.996500	3.262200	-9.774400	27.248690	5.565859E-5	20.761434
2234.606426	-2.986100	3.262000	-9.740000	27.197413	5.513055E-5	20.760119
2235.610367	-2.987800	3.260100	-9.739900	27.276502	5.856280E-5	20.778978
2236.610457	-3.038200	3.262100	-9.909800	27.292139	5.697869E-5	20.743024
2237.607176	-2.992500	3.259200	-9.751700	27.295186	5.793576E-5	20.756521
2238.610432	-3.026900	3.259100	-9.863100	27.356283	5.661566E-5	20.778626
2239.610647	-3.038100	3.258700	-9.899300	27.316845	5.658266E-5	20.744642
2240.609034	-3.027200	3.258400	-9.862500	27.325971	5.585660E-5	20.753349
2241.612615	-3.005200	3.259300	-9.794000	27.361818	5.681367E-5	20.770917
2242.610581	-2.997000	3.258300	-9.763900	27.423862	5.569159E-5	20.763159
2243.608154	-3.007400	3.257500	-9.795500	27.430932	5.529556E-5	20.775962
2244.608944	-3.002800	3.257500	-9.780800	27.378445	5.658266E-5	20.765359
2245.609917	-3.006800	3.257000	-9.792200	27.337308	5.427249E-5	20.775659
2246.611932	-3.024100	3.254600	-9.841500	27.307174	5.486653E-5	20.765261
2247.610981	-3.018000	3.255900	-9.825500	27.285564	5.318341E-5	20.766757
2248.611032	-2.990200	3.255900	-9.735300	27.320965	5.407447E-5	20.761590
2249.616815	-3.026500	3.253800	-9.846800	27.279898	5.489953E-5	20.780499
2250.609826	-2.969700	3.255100	-9.665800	27.251226	5.588961E-5	20.777736
2251.610763	-2.986900	3.253800	-9.718100	27.250153	5.067522E-5	20.779027
2252.618387	-3.009500	3.254100	-9.792400	27.229493	5.357944E-5	20.770101
2253.611892	-3.005700	3.252300	-9.775100	27.265425	5.298539E-5	20.765466
2254.610662	-2.998600	3.251800	-9.750300	27.271845	5.354643E-5	20.770501
2255.619661	-2.977100	3.253600	-9.685200	27.322534	5.371145E-5	20.775971
2256.613161	-3.002700	3.251500	-9.762500	27.314098	5.456951E-5	20.785029
2257.613631	-3.000100	3.251300	-9.752700	27.277478	5.258936E-5	20.770477
2258.613630	-3.006500	3.252600	-9.778400	27.329085	5.199532E-5	20.782560
2259.612933	-2.988200	3.251600	-9.715000	27.394212	5.219333E-5	20.768418
2260.613332	-2.978000	3.252500	-9.684800	27.433453	5.285338E-5	20.765695
2261.615284	-3.011600	3.251700	-9.791500	27.365509	5.252336E-5	20.775105
2262.615295	-3.014200	3.250000	-9.795400	27.381145	5.133527E-5	20.774713
2263.615124	-3.016900	3.249500	-9.802900	27.434079	5.087324E-5	20.777231
2264.615580	-3.013900	3.248500	-9.790300	27.438418	5.196232E-5	20.776381
2265.614767	-2.990600	3.249800	-9.718600	27.398089	5.179731E-5	20.765206
2266.615674	-3.010300	3.248200	-9.777400	27.311881	5.192932E-5	20.788014
2267.615716	-3.004400	3.247500	-9.755900	27.284095	5.100525E-5	20.778082
2268.616464	-2.963100	3.248400	-9.624200	27.224335	5.077423E-5	20.789094
2269.615326	-3.000900	3.246200	-9.740700	27.218298	4.915711E-5	20.781599
2270.625158	-2.996800	3.246400	-9.727300	27.289250	4.971815E-5	20.795595
2271.616842	-2.993300	3.247900	-9.721000	27.316589	4.915711E-5	20.778525
2272.615888	-3.054500	3.243900	-9.907100	27.313907	4.919011E-5	20.777724
2273.616497	-3.010100	3.244800	-9.765300	27.320229	5.110425E-5	20.783609
2274.616908	-3.002500	3.244400	-9.739800	27.392305	4.879409E-5	20.799691
2275.615907	-3.007500	3.246000	-9.761300	27.429807	4.988317E-5	20.775778
2276.621662	-2.993500	3.243600	-9.708800	27.441565	5.060922E-5	20.795668
2277.616295	-3.028800	3.242100	-9.819400	27.528379	5.130227E-5	20.796240
2278.617218	-2.968800	3.243400	-9.628100	27.534010	4.961915E-5	20.771085
2279.617506	-2.982400	3.243100	-9.670900	27.495958	4.994917E-5	20.771208
2280.615754	-2.987200	3.242600	-9.685400	27.476514	4.856307E-5	20.769663
2281.616647	-2.991700	3.241500	-9.697200	27.464455	4.727597E-5	20.797360
2282.616181	-2.982200	3.242100	-9.667800	27.432552	4.823304E-5	20.782334
2283.618392	-2.986600	3.241000	-9.678900	27.440346	4.892610E-5	20.778320
2284.616742	-3.005300	3.241000	-9.739100	27.441687	4.740798E-5	20.799110
2285.617388	-2.998700	3.239200	-9.711600	27.384104	4.787002E-5	20.789070
2286.618145	-3.002100	3.239100	-9.723000	27.349769	4.727597E-5	20.805264
2287.617209	-2.975900	3.239500	-9.639700	27.377505	4.836505E-5	20.798079
2288.619788	-2.979300	3.238900	-9.648700	27.375450	4.602188E-5	20.799330
2289.617968	-2.973000	3.239300	-9.629900	27.374969	4.595588E-5	20.797898
2290.620153	-3.029200	3.236800	-9.804100	27.342690	4.747399E-5	20.809048
2291.617724	-3.010000	3.237400	-9.743500	27.380820	4.615389E-5	20.804258
2292.618233	-2.986700	3.238000	-9.670500	27.368361	4.684694E-5	20.796941
2293.619626	-2.973800	3.235900	-9.622000	27.379999	4.585687E-5	20.794897
2294.617596	-3.009200	3.236100	-9.737200	27.448136	4.569186E-5	20.816978
2295.619651	-2.986600	3.234900	-9.661000	27.421728	4.503181E-5	20.796574
2296.619522	-3.026900	3.234800	-9.789600	27.491699	4.582387E-5	20.814812
2297.617870	-3.002300	3.234700	-9.710100	27.582969	4.648392E-5	20.796638
2298.617878	-2.992300	3.234100	-9.676500	27.656878	4.364571E-5	20.810315
2299.617939	-2.992800	3.234300	-9.679000	27.610097	4.447077E-5	20.797381
2300.618686	-2.997700	3.234400	-9.694700	27.613030	4.503181E-5	20.811713
2301.620396	-3.014000	3.232500	-9.741800	27.600867	4.315067E-5	20.824130
2302.620115	-3.005700	3.233200	-9.716800	27.628547	4.265564E-5	20.805515
2303.619748	-3.009300	3.232000	-9.724100	27.599705	4.054348E-5	20.795460
2304.620608	-3.012300	3.232500	-9.737000	27.531933	4.351370E-5	20.804084
2305.621682	-2.984400	3.231500	-9.642800	27.548063	4.324968E-5	20.826002
2306.628649	-3.009300	3.229700	-9.718400	27.550516	4.159956E-5	20.802392
2307.622525	-3.001800	3.230600	-9.697000	27.529422	4.093951E-5	20.806299
2308.622267	-3.004600	3.228300	-9.698600	27.562663	4.272164E-5	20.826467
2309.626998	-3.008600	3.229100	-9.713800	27.514861	4.295266E-5	20.812512
2310.623412	-3.007300	3.228200	-9.707000	27.613547	4.252363E-5	20.808914
2311.623120	-2.975400	3.229100	-9.607400	27.648248	4.143455E-5	20.827235
2312.623423	-2.996100	3.228300	-9.671900	27.606357	4.189658E-5	20.825861
2313.623889	-3.021300	3.226800	-9.748200	27.661758	4.387672E-5	20.817596
2314.623074	-2.994800	3.229700	-9.671400	27.655136	3.935539E-5	20.809985
2315.623001	-2.986300	3.227300	-9.636700	27.681621	4.027946E-5	20.806764
2316.623549	-2.989900	3.227700	-9.649200	27.713361	4.080750E-5	20.818789
2317.623465	-3.005900	3.227100	-9.699300	27.706026	4.097251E-5	20.814726
2318.626678	-3.018500	3.224700	-9.732500	27.671027	4.189658E-5	20.803215
2319.626950	-2.993700	3.226000	-9.657100	27.705749	4.041147E-5	20.800224
2320.625191	-2.985500	3.224700	-9.626600	27.651716	3.773827E-5	20.818871
2321.625473	-2.999300	3.225000	-9.670600	27.619746	3.879435E-5	20.793341
2322.625963	-3.011100	3.225200	-9.710600	27.589806	3.674820E-5	20.818691
2323.625798	-2.986300	3.223800	-9.626300	27.544120	4.077450E-5	20.817767
2324.625491	-2.985700	3.223500	-9.623200	27.588523	3.836532E-5	20.800331
2325.625376	-3.010100	3.221500	-9.696200	27.558038	3.836532E-5	20.818021
2326.626935	-3.002700	3.220800	-9.669700	27.528820	3.912438E-5	20.810909
2327.625692	-3.007400	3.220700	-9.685200	27.499708	3.961941E-5	20.814335
2328.626318	-2.969100	3.221700	-9.565000	27.575970	3.678120E-5	20.813778
2329.629652	-2.997000	3.222600	-9.657400	27.575353	3.714423E-5	20.824062
2330.629538	-2.986000	3.220600	-9.616300	27.581300	3.813430E-5	20.817718
2331.627554	-2.961600	3.222100	-9.541600	27.669175	3.770527E-5	20.825060
2332.626411	-2.993600	3.219200	-9.635800	27.774671	3.800229E-5	20.802252
2333.627410	-3.008600	3.219200	-9.685100	27.784769	3.787028E-5	20.784913
2334.626436	-2.993700	3.217700	-9.631900	27.735938	3.823331E-5	20.800257
2335.626567	-2.987500	3.217800	-9.612100	27.738172	3.787028E-5	20.805825
2336.629148	-3.015600	3.217300	-9.701500	27.721316	3.935539E-5	20.792181
2337.627568	-3.000900	3.218600	-9.658000	27.706661	3.688021E-5	20.783597
2338.627477	-2.986400	3.216700	-9.605100	27.668218	3.734225E-5	20.794225
2339.631243	-2.987800	3.215200	-9.605900	27.688984	3.905837E-5	20.796629
2340.627304	-2.998300	3.216600	-9.643800	27.755891	3.813430E-5	20.802319
2341.625956	-2.981700	3.215500	-9.586600	27.724794	3.684721E-5	20.789517
2342.630042	-3.004200	3.214300	-9.655800	27.784283	3.754026E-5	20.790587
2343.628383	-2.979600	3.216000	-9.581500	27.837570	3.806830E-5	20.805809
2344.628306	-3.016900	3.213200	-9.692700	27.843476	3.704522E-5	20.788994
2345.630332	-3.014400	3.212600	-9.683300	27.857756	3.876135E-5	20.789140
2346.628511	-2.962100	3.212600	-9.515000	27.830707	3.457004E-5	20.813126
2347.630361	-2.999700	3.211900	-9.633600	27.836433	3.519709E-5	20.800872
2348.632623	-2.998300	3.211100	-9.627100	27.777021	3.701222E-5	20.803194
2349.628984	-3.017400	3.210600	-9.687000	27.744137	3.509808E-5	20.790015
2350.630050	-2.994200	3.210400	-9.611500	27.706287	3.552711E-5	20.791282
2351.631983	-2.985300	3.211000	-9.584900	27.667430	3.420702E-5	20.787742
2352.628168	-2.994400	3.209800	-9.610400	27.648184	3.225987E-5	20.795876
2353.632180	-2.996600	3.209200	-9.615200	27.669282	3.381099E-5	20.771113
2354.631573	-3.015700	3.208100	-9.674100	27.672580	3.447103E-5	20.794347
2355.629726	-2.995600	3.210100	-9.616200	27.655364	3.183084E-5	20.769911
2356.629962	-2.997900	3.208600	-9.617600	27.658176	3.384399E-5	20.797871
2357.630968	-3.019000	3.206600	-9.680300	27.672522	3.318394E-5	20.781487
2358.632164	-3.024400	3.205800	-9.694900	27.731096	3.381099E-5	20.778789
2359.633678	-3.012200	3.207100	-9.659200	27.775264	3.169883E-5	20.790520
2360.631142	-3.002600	3.206900	-9.628200	27.826643	3.291992E-5	20.783906
2361.637410	-2.983000	3.207000	-9.565800	27.766263	3.212786E-5	20.775772
2362.631949	-3.005900	3.206000	-9.636500	27.810226	3.377798E-5	20.782083
2363.632935	-2.983000	3.205700	-9.561900	27.804272	3.225987E-5	20.816394
2364.638196	-2.995000	3.203800	-9.594600	27.830160	3.176484E-5	20.774644
2365.635078	-2.985400	3.203700	-9.563300	27.834561	3.245789E-5	20.784763
2366.632434	-2.962800	3.204100	-9.492000	27.846966	3.348096E-5	20.771168
2367.638531	-2.997800	3.203500	-9.602800	27.808114	3.189685E-5	20.772845
2368.635997	-3.000000	3.201700	-9.604400	27.785110	3.311794E-5	20.772453
2369.635568	-3.012600	3.201500	-9.643900	27.783070	3.057675E-5	20.778461
2370.637638	-2.987800	3.200700	-9.562200	27.770869	3.120379E-5	20.774243
2371.636012	-2.987800	3.199700	-9.559600	27.756205	3.295292E-5	20.775133
2372.634701	-2.998600	3.199700	-9.593800	27.728974	3.225987E-5	20.763377
2373.638873	-3.027000	3.199400	-9.683400	27.722873	3.262290E-5	20.776204
2374.639257	-2.995700	3.200300	-9.586400	27.771428	3.258990E-5	20.772909
2375.635514	-2.981300	3.198500	-9.534900	27.776635	3.258990E-5	20.783365
2376.635980	-2.979400	3.199000	-9.530000	27.792979	3.239188E-5	20.772787
2377.638444	-3.005600	3.197300	-9.609300	27.763549	3.136881E-5	20.759764
2378.639872	-3.025300	3.196500	-9.667900	27.840525	3.027973E-5	20.777489
2379.639887	-3.007200	3.196000	-9.610100	27.849273	2.905864E-5	20.756895
2380.640371	-3.016300	3.196700	-9.640500	27.861236	2.945467E-5	20.770358
2381.640076	-3.000300	3.194100	-9.582200	27.831890	2.912464E-5	20.764056
2382.639790	-2.956200	3.195700	-9.446200	27.742127	3.057675E-5	20.780407
2383.640391	-3.016500	3.192500	-9.629000	27.742468	3.087377E-5	20.770318
2384.643393	-3.000500	3.194700	-9.584400	27.761883	2.961968E-5	20.755717
2385.644996	-3.002000	3.195000	-9.590300	27.830200	3.001571E-5	20.751923
2386.640231	-3.015300	3.191500	-9.622500	27.874257	2.846459E-5	20.765445
2387.643714	-3.009200	3.191800	-9.603600	27.902451	2.909164E-5	20.764897
2388.640478	-2.977800	3.191800	-9.503700	27.838339	2.806856E-5	20.772918
2389.642188	-2.999200	3.190500	-9.568200	27.783265	2.671546E-5	20.765855
2390.642486	-3.001500	3.191600	-9.579300	27.797025	2.734251E-5	20.752202
2391.643667	-2.988600	3.189800	-9.532300	27.784946	2.889362E-5	20.774185
2392.641241	-3.004100	3.190600	-9.584400	27.742264	2.628643E-5	20.762526
2393.643140	-3.049100	3.187900	-9.719600	27.742623	2.694648E-5	20.766207
2394.644947	-3.013500	3.188600	-9.608100	27.717796	2.608842E-5	20.766353
2395.641128	-2.987700	3.188400	-9.524400	27.735726	2.453730E-5	20.756895
2396.643518	-2.985600	3.186400	-9.511300	27.742900	2.549438E-5	20.762692
2397.644340	-3.000600	3.187600	-9.563600	27.845081	2.780454E-5	20.757892
2398.644965	-2.995500	3.185000	-9.539600	27.879375	2.668246E-5	20.758268
2399.647245	-2.986700	3.185100	-9.512300	27.845683	2.678147E-5	20.771774
2400.647880	-3.011200	3.184700	-9.588700	27.862847	2.463631E-5	20.761073
2401.649677	-3.014400	3.183000	-9.594200	27.873236	2.820057E-5	20.751614
2402.646592	-2.998100	3.183700	-9.544400	27.873318	2.602241E-5	20.765448
2403.648032	-2.978100	3.184300	-9.482200	27.835741	2.631944E-5	20.762242
2404.647001	-3.004900	3.181600	-9.559600	27.858476	2.483433E-5	20.740552
2405.648291	-2.994400	3.181200	-9.524500	27.872610	2.562638E-5	20.757148
2406.648816	-3.002700	3.180500	-9.549800	27.945305	2.348123E-5	20.754924
2407.649064	-3.014400	3.181100	-9.587800	28.013448	2.424028E-5	20.759030
2408.648967	-2.994700	3.178800	-9.518900	28.024404	2.430629E-5	20.769584
2409.649498	-3.014200	3.180000	-9.583600	28.005164	2.466931E-5	20.759225
2410.650792	-2.986300	3.179900	-9.493900	28.056200	2.318421E-5	20.752752
2411.655265	-3.009500	3.177300	-9.559500	28.105032	2.364624E-5	20.735526
2412.652163	-3.011700	3.178400	-9.572200	28.102011	2.338222E-5	20.741020
2413.653131	-3.038300	3.176700	-9.650100	28.025485	2.338222E-5	20.745067
2414.657896	-2.961400	3.177200	-9.407800	28.025510	2.259016E-5	20.746514
2415.654381	-3.002500	3.176000	-9.534300	28.009901	2.268917E-5	20.764943
2416.657274	-2.990700	3.175600	-9.495700	27.965865	2.189711E-5	20.739582
2417.657039	-2.982400	3.174700	-9.467000	27.900855	2.351423E-5	20.752385
2418.653872	-3.000800	3.173800	-9.522900	27.918732	2.216113E-5	20.740032
2419.657683	-2.988800	3.174000	-9.485900	27.918164	2.216113E-5	20.739460
2420.656995	-2.991300	3.172200	-9.488200	27.883059	2.417428E-5	20.756760
2421.656491	-2.986500	3.171800	-9.471800	27.899970	2.166609E-5	20.764771
2422.656419	-3.015800	3.171200	-9.563000	27.901155	2.308520E-5	20.731824
2423.655874	-3.018300	3.168800	-9.563800	27.865360	2.100605E-5	20.749852
2424.655712	-3.002100	3.169800	-9.515500	27.851096	2.064302E-5	20.747824
2425.655087	-3.010800	3.168000	-9.537500	27.853597	2.166609E-5	20.757454
2426.657632	-2.998200	3.167800	-9.497100	27.883278	2.140207E-5	20.732797
2427.657984	-3.006800	3.167900	-9.524400	27.870761	1.938893E-5	20.731579
2428.658764	-2.989200	3.167400	-9.466500	27.906769	2.179810E-5	20.760709
2429.658370	-3.003100	3.166500	-9.508500	28.004224	2.057701E-5	20.748797
2430.659846	-3.004900	3.164700	-9.509300	28.032113	1.955394E-5	20.727180
2431.660737	-3.006000	3.164400	-9.511500	28.054757	2.179810E-5	20.741341
2432.660810	-3.027200	3.163500	-9.575600	28.078235	1.829985E-5	20.752174
2433.662992	-3.012600	3.163400	-9.528000	28.098911	2.113806E-5	20.743116
2434.661379	-3.009600	3.163100	-9.519000	28.071689	1.826684E-5	20.737523
2435.662327	-2.990700	3.163300	-9.459700	28.024017	1.922391E-5	20.728416
2436.661942	-3.007400	3.161400	-9.506200	28.017748	1.955394E-5	20.739649
2437.661910	-2.986300	3.160200	-9.436400	28.011202	1.674873E-5	20.714567
2438.662152	-2.992200	3.159500	-9.453200	28.018316	2.054401E-5	20.733583
2439.662300	-3.015800	3.159500	-9.527000	27.964722	2.057701E-5	20.721835
2440.663210	-2.995500	3.157800	-9.458000	28.017204	1.688074E-5	20.736731
2441.664288	-3.011000	3.157800	-9.507000	28.080851	1.790382E-5	20.725409
2442.665739	-2.989000	3.157200	-9.436400	28.078098	1.912491E-5	20.755355
2443.663471	-3.000000	3.156200	-9.467700	28.052274	1.754079E-5	20.731255
2444.667664	-3.012600	3.156300	-9.507700	28.043470	1.810183E-5	20.738989
2445.663316	-2.992500	3.155200	-9.441000	28.059300	1.740878E-5	20.718412
2446.664578	-2.981100	3.154500	-9.403200	28.075533	1.763980E-5	20.722900
2447.665343	-3.001100	3.154000	-9.464500	28.082322	1.803583E-5	20.719777
2448.669997	-2.997100	3.152600	-9.447600	28.040328	1.559365E-5	20.709271
2449.668233	-3.006100	3.152100	-9.474400	28.048256	1.684774E-5	20.710614
2450.666238	-3.017000	3.150200	-9.503100	28.094018	1.569265E-5	20.708316
2451.670163	-2.999400	3.151000	-9.450100	28.134452	1.572566E-5	20.713933
2452.669925	-2.983200	3.149600	-9.394800	28.085370	1.407554E-5	20.726164
2453.667867	-3.006100	3.148000	-9.461600	28.137919	1.503261E-5	20.712208
2454.666154	-2.997000	3.147400	-9.431900	28.075348	1.562665E-5	20.709436
2455.667599	-2.975200	3.148900	-9.367600	28.030575	1.546164E-5	20.710834
2456.670619	-3.013800	3.145700	-9.480000	28.037057	1.473558E-5	20.726843
2457.669049	-3.012200	3.144900	-9.471900	28.043929	1.381152E-5	20.722380
2458.667568	-3.019800	3.144400	-9.495100	28.060691	1.374551E-5	20.735935
2459.670081	-2.999000	3.143700	-9.426900	28.084859	1.493360E-5	20.730392
2460.669006	-2.999500	3.144400	-9.431000	28.100014	1.321747E-5	20.720991
2461.669271	-3.033400	3.140300	-9.524200	28.134771	1.282144E-5	20.709512
2462.670858	-3.007000	3.142100	-9.448000	28.178369	1.196338E-5	20.722585
2463.667739	-3.007500	3.139100	-9.440300	28.121379	1.179837E-5	20.708359
2464.669625	-2.993900	3.140400	-9.401100	28.096635	1.288745E-5	20.726598
2465.673939	-3.001400	3.139000	-9.420800	28.039519	1.265643E-5	20.702767
2466.669002	-2.986500	3.138600	-9.372300	27.991311	1.160035E-5	20.715408
2467.671104	-2.995200	3.138300	-9.399100	28.053237	1.285445E-5	20.734121
2468.669196	-2.981900	3.136400	-9.351700	28.122899	1.160035E-5	20.722218
2469.672726	-2.970500	3.136400	-9.315000	28.225004	1.166636E-5	20.717852
2470.671422	-2.998500	3.135900	-9.402400	28.277133	1.189738E-5	20.707273
2471.669592	-3.003200	3.134300	-9.412200	28.286309	1.034626E-5	20.683318
2472.671604	-3.009300	3.134300	-9.431300	28.309952	1.334948E-5	20.744112
2473.672312	-2.980400	3.134000	-9.339300	28.235724	1.034626E-5	20.713471
2474.671119	-3.009300	3.130800	-9.421400	28.209496	1.057728E-5	20.698444
2475.674820	-2.994200	3.131500	-9.374800	28.209399	1.067629E-5	20.715417
2476.670893	-2.997000	3.129400	-9.377700	28.196585	1.067629E-5	20.689238
2477.670848	-2.994400	3.128700	-9.368100	28.216041	1.123733E-5	20.694601
2478.676511	-3.032500	3.127500	-9.482300	28.167336	1.024725E-5	20.723805
2479.670759	-2.997100	3.128000	-9.374300	28.222245	1.216140E-5	20.698477
2480.670850	-3.012800	3.125800	-9.416400	28.158421	7.508053E-6	20.718149
2481.669768	-3.024400	3.126100	-9.453600	28.152322	9.455196E-6	20.702999
2482.671062	-3.043600	3.123200	-9.504500	28.160630	9.983235E-6	20.712786
2483.671232	-3.020000	3.123200	-9.431500	28.189700	9.752218E-6	20.717870
2484.672548	-2.985600	3.124300	-9.326200	28.185543	1.061028E-5	20.693295
2485.672049	-3.002300	3.122600	-9.374700	28.141888	8.762145E-6	20.698184
2486.671336	-2.979500	3.121700	-9.300400	28.147783	7.871079E-6	20.713603
2487.675853	-2.991900	3.121100	-9.336900	28.199454	8.828150E-6	20.704455
2488.672802	-2.992600	3.118700	-9.332500	28.245671	8.960159E-6	20.677965
2489.673803	-3.009400	3.118400	-9.383100	28.285255	1.018125E-5	20.712605
2490.673603	-3.003400	3.116100	-9.357900	28.212957	9.587206E-6	20.704773
2491.673709	-2.970400	3.117400	-9.259000	28.168068	8.003089E-6	20.705101
2492.672586	-2.991700	3.115300	-9.318800	28.169253	8.168101E-6	20.715778
2493.672030	-2.993300	3.114100	-9.319500	28.166598	7.343041E-6	20.698878
2494.671807	-2.995600	3.114000	-9.327100	28.234238	1.074229E-5	20.707233
2495.673811	-2.966100	3.113800	-9.235200	28.266068	9.818223E-6	20.696131
2496.673303	-2.975900	3.112900	-9.262800	28.228489	7.706067E-6	20.704764
2497.674706	-2.999600	3.110800	-9.330500	28.164705	8.432121E-6	20.696972
2498.675765	-2.987000	3.108900	-9.284800	28.177698	8.762145E-6	20.718589
2499.674973	-2.995400	3.108200	-9.309100	28.175805	7.970087E-6	20.710993
2500.675784	-2.987000	3.108400	-9.284300	28.276954	7.475050E-6	20.687651
2501.679710	-2.988400	3.107100	-9.283600	28.291033	7.937084E-6	20.700879
2502.675826	-2.985200	3.105300	-9.269300	28.341810	7.871079E-6	20.706961
2503.678166	-2.969300	3.106900	-9.224200	28.375976	7.013016E-6	20.680195
2504.678904	-2.978300	3.105000	-9.246800	28.366200	8.861152E-6	20.687421
2505.675152	-2.995100	3.102700	-9.292400	28.398375	5.263888E-6	20.706071
2506.678275	-2.996700	3.102300	-9.295000	28.405056	4.042798E-6	20.694305
2507.678020	-2.999200	3.101500	-9.300500	28.426357	5.527907E-6	20.686831
2508.677956	-2.993600	3.100100	-9.278900	28.478583	4.174807E-6	20.709078
2509.679656	-3.006900	3.098100	-9.314700	28.504203	4.933863E-6	20.712119
2510.681216	-3.017500	3.096200	-9.342000	28.525438	4.240812E-6	20.699365
2511.680548	-2.986500	3.097300	-9.248600	28.543800	6.583985E-6	20.679449
2512.682013	-2.990000	3.095500	-9.254400	28.498179	5.890934E-6	20.678549
2513.681785	-2.981900	3.094000	-9.225200	28.424644	4.339819E-6	20.696012
2514.681607	-2.984700	3.094800	-9.236400	28.418100	5.923936E-6	20.679464
2515.682444	-2.989100	3.092500	-9.242900	28.444250	3.943790E-6	20.683037
2516.682913	-2.980800	3.093100	-9.218700	28.461769	5.692919E-6	20.669857
2517.686462	-2.984000	3.091500	-9.224100	28.459861	4.999868E-6	20.703501
2518.683421	-2.986200	3.089200	-9.223400	28.507416	3.316744E-6	20.704924
2519.686562	-2.993600	3.087900	-9.243400	28.437455	6.517980E-6	20.692790
2520.686487	-3.016900	3.086400	-9.309800	28.337302	4.900861E-6	20.694834
2521.683936	-3.019600	3.085100	-9.314900	28.265901	5.857931E-6	20.695963
2522.684376	-2.977800	3.086900	-9.191600	28.225472	4.504832E-6	20.665687
2523.684740	-2.965000	3.086500	-9.150000	28.224302	5.461902E-6	20.683952
2524.687299	-3.004700	3.083000	-9.262300	28.254516	3.910788E-6	20.697777
2525.685479	-3.020900	3.081400	-9.308100	28.255279	3.910788E-6	20.702339
2526.688746	-2.969100	3.082700	-9.151800	28.293628	4.108802E-6	20.679308
2527.686511	-3.022300	3.079500	-9.306000	28.339574	5.725922E-6	20.684319
2528.685409	-3.046900	3.077900	-9.377400	28.336773	3.151732E-6	20.689086
2529.686052	-2.991300	3.078000	-9.206200	28.360343	6.484977E-6	20.709500
2530.687341	-3.006700	3.076600	-9.249400	28.377732	4.570836E-6	20.691447
2531.688499	-2.998400	3.075400	-9.220100	28.400724	3.316744E-6	20.686623
2532.687387	-2.989100	3.073900	-9.187300	28.357281	4.867858E-6	20.712107
2533.691046	-3.003300	3.072700	-9.227100	28.332721	3.811781E-6	20.707292
2534.690975	-3.023600	3.071300	-9.286100	28.388627	4.438827E-6	20.683450
2535.688944	-3.010800	3.071100	-9.245400	28.426613	1.435606E-6	20.692304
2536.689389	-2.994600	3.070900	-9.194500	28.336503	3.613766E-6	20.691184
2537.691072	-3.010100	3.068500	-9.235400	28.325964	1.501611E-6	20.696694
2538.689438	-3.024000	3.066600	-9.272500	28.350825	2.359674E-6	20.693277
2539.693957	-3.016800	3.065000	-9.245600	28.391419	2.656696E-6	20.702385
2540.689875	-2.986700	3.066200	-9.156200	28.445690	2.986720E-6	20.696343
2541.690054	-3.009500	3.064600	-9.221200	28.515132	1.765630E-6	20.688036
2542.691600	-3.028600	3.062800	-9.274600	28.591103	3.976793E-6	20.689156
2543.690875	-3.018100	3.062200	-9.241100	28.646670	3.844783E-6	20.698655
2544.691814	-3.022300	3.060000	-9.247400	28.602873	1.039577E-6	20.693898
2545.691535	-2.979000	3.059900	-9.114500	28.516350	1.402603E-6	20.695902
2546.690893	-3.015100	3.058500	-9.220700	28.464361	3.646768E-6	20.712300
2547.693808	-3.009700	3.056500	-9.198200	28.456414	3.481756E-6	20.704297
2548.694774	-2.988900	3.057000	-9.136200	28.440900	2.557688E-6	20.696260
2549.695608	-3.016100	3.052500	-9.205200	28.482626	2.194662E-6	20.698451
2550.693848	-3.008900	3.054000	-9.187500	28.495315	3.382749E-6	20.708384
2551.693515	-3.005100	3.051000	-9.167600	28.491077	8.085595E-7	20.706013
2552.697120	-2.975800	3.052700	-9.083100	28.526098	1.039577E-6	20.683432
2553.693494	-3.009000	3.049500	-9.175400	28.513677	2.194662E-6	20.692736
2554.693392	-3.013900	3.047900	-9.184900	28.527015	3.844783E-6	20.690521
2555.696738	-3.003500	3.047300	-9.152100	28.471238	2.788705E-6	20.691249
2556.693958	-3.027400	3.045700	-9.219800	28.433861	2.458681E-6	20.710984
2557.694935	-3.014800	3.044500	-9.178000	28.457899	3.118730E-6	20.695835
2558.695289	-2.976700	3.043300	-9.058200	28.476539	8.415620E-7	20.689949
2559.699213	-3.006800	3.042300	-9.146700	28.461341	3.250739E-6	20.704517
2560.694974	-2.990800	3.042000	-9.096900	28.531626	2.656696E-6	20.692794
2561.694044	-2.999700	3.039600	-9.117000	28.642288	3.514759E-6	20.696138
2562.699095	-3.004500	3.037800	-9.126600	28.636629	2.227664E-6	20.720786
2563.695346	-3.014700	3.036200	-9.153000	28.591036	3.085727E-6	20.723705
2564.695424	-2.980000	3.036600	-9.047900	28.516900	1.831635E-6	20.694559
2565.697895	-3.006600	3.033800	-9.120700	28.470360	2.524686E-6	20.710755
2566.696615	-3.021700	3.034100	-9.167000	28.457687	-1.006574E-6	20.694672
2567.696676	-2.995800	3.031700	-9.080900	28.426367	2.491683E-6	20.712921
2568.702137	-2.996600	3.031600	-9.083900	28.420009	2.920715E-6	20.695612
2569.697965	-3.015900	3.028800	-9.133100	28.429305	3.052725E-6	20.680789
2570.697683	-3.039500	3.026400	-9.198100	28.433761	1.072579E-6	20.694761
2571.697121	-3.010300	3.026700	-9.109700	28.466891	7.755571E-7	20.726229
2572.698100	-2.996500	3.027000	-9.069700	28.491643	5.445401E-7	20.691408
2573.699985	-3.013000	3.024100	-9.110800	28.499541	1.039577E-6	20.703630
2574.700521	-2.997100	3.023100	-9.059700	28.555098	1.567615E-6	20.688456
2575.700751	-3.021000	3.021200	-9.125500	28.615083	-1.485109E-7	20.710939
2576.699279	-3.007200	3.018900	-9.077700	28.665505	2.062652E-6	20.684907
2577.707248	-3.000400	3.019000	-9.057300	28.682021	1.815134E-7	20.721460
2578.702999	-3.002300	3.019300	-9.063500	28.660089	2.392676E-6	20.704585
2579.701756	-2.988100	3.016100	-9.010700	28.629684	1.798632E-6	20.728490
2580.701684	-2.967200	3.015700	-8.946000	28.610998	3.316744E-6	20.709195
2581.702450	-2.994100	3.014900	-9.025700	28.596225	1.501611E-6	20.707118
2582.702701	-3.007100	3.012100	-9.056300	28.652345	1.600618E-6	20.693465
2583.702140	-2.993700	3.010000	-9.010000	28.723185	2.128657E-6	20.712188
2584.704469	-2.992300	3.008600	-9.001800	28.653627	6.765498E-7	20.712775
2585.701143	-2.999400	3.007400	-9.019300	28.670298	7.095522E-7	20.734309
2586.701546	-2.974600	3.006700	-8.942300	28.678641	5.775425E-7	20.728962
2587.703314	-2.998100	3.006500	-9.012600	28.678146	1.897640E-6	20.715660
2588.702922	-3.004300	3.003200	-9.021200	28.737678	-1.006574E-6	20.720148
2589.703032	-3.001700	3.003100	-9.013300	28.738838	7.755571E-7	20.719894
2590.702976	-3.006300	3.000000	-9.018300	28.674103	-5.115377E-7	20.716804
2591.705251	-3.012400	2.999600	-9.034800	28.651798	3.465255E-7	20.727530
2592.704919	-2.996200	2.999000	-8.984600	28.597276	-1.402603E-6	20.726671
2593.704563	-3.009400	2.995800	-9.014100	28.668461	4.125304E-7	20.721553
2594.704613	-2.971200	2.996700	-8.903000	28.726939	-1.963645E-6	20.709331
2595.704529	-3.002100	2.993100	-8.984900	28.793943	1.039577E-6	20.695741
2596.705012	-2.984900	2.992400	-8.931100	28.729357	-1.765630E-6	20.704653
2597.705458	-2.985200	2.991400	-8.928000	28.678159	-2.590691E-6	20.725631
2598.705860	-3.004400	2.990000	-8.981200	28.691397	1.435606E-6	20.717153
2599.705378	-2.975900	2.988800	-8.893800	28.676227	-8.250608E-8	20.719892
2600.708466	-2.990700	2.987100	-8.932500	28.607121	-3.135231E-7	20.732792
2601.706358	-3.025500	2.985200	-9.030300	28.616066	5.445401E-7	20.725680
2602.708543	-2.999300	2.983700	-8.947800	28.662153	1.138584E-6	20.712354
2603.708834	-3.007700	2.982200	-8.968700	28.719502	2.145158E-7	20.726497
2604.707327	-2.997300	2.981400	-8.935000	28.701241	1.336598E-6	20.708101
2605.711155	-3.008700	2.979800	-8.965100	28.685609	1.237591E-6	20.746886
2606.711630	-2.977600	2.978300	-8.867200	28.753419	1.534613E-6	20.715615
2607.706099	-3.006600	2.977500	-8.951300	28.792586	6.765498E-7	20.711445
2608.707447	-3.026300	2.973900	-8.998600	28.749483	1.485109E-7	20.726350
2609.707000	-2.988300	2.974900	-8.889200	28.742170	1.006574E-6	20.736054
2610.707124	-2.997100	2.972500	-8.908300	28.718755	5.445401E-7	20.738547
2611.705523	-2.984700	2.970600	-8.865200	28.721109	8.250607E-8	20.733805
2612.708720	-3.008400	2.969400	-8.932000	28.667662	5.445401E-7	20.738767
2613.710342	-3.022800	2.967300	-8.969200	28.629855	-1.567615E-6	20.733404
2614.707027	-2.990600	2.966400	-8.870700	28.606501	8.250607E-8	20.749239
2615.706932	-2.980400	2.966500	-8.839900	28.560819	-5.775425E-7	20.726937
2616.707015	-2.976100	2.964400	-8.821600	28.546840	-1.815134E-7	20.723291
2617.707974	-3.001800	2.962400	-8.890800	28.607996	6.435474E-7	20.721345
2618.708424	-2.980600	2.960400	-8.823000	28.693302	-5.445401E-7	20.736143
2619.707863	-3.016800	2.958500	-8.924400	28.758011	2.623693E-6	20.729724
2620.708641	-3.003600	2.957100	-8.881300	28.805383	-3.135231E-7	20.748520
2621.716495	-3.012200	2.955700	-8.902200	28.882128	1.485109E-7	20.730526
2622.709840	-2.996300	2.955600	-8.855300	28.946404	2.227664E-6	20.728898
2623.712672	-2.973100	2.953900	-8.781100	28.908039	-2.475182E-7	20.719170
2624.709764	-2.999800	2.951700	-8.853700	28.833202	-8.745644E-7	20.732447
2625.732325	-2.968900	2.951000	-8.760400	28.835823	4.950364E-8	20.726078
2626.711868	-3.017100	2.946700	-8.888300	28.771313	-1.402603E-6	20.751659
2627.710443	-3.011100	2.946900	-8.872300	28.802972	-1.369601E-6	20.759368
2628.710056	-3.013400	2.945800	-8.876200	28.859916	-1.534613E-6	20.750824
2629.712712	-2.988700	2.943900	-8.798000	28.881624	1.815134E-7	20.736183
2630.710779	-3.010100	2.941400	-8.853600	28.924372	3.465255E-7	20.746058
2631.710485	-3.004900	2.939900	-8.833400	28.951621	-1.155085E-7	20.735103
2632.713349	-2.983600	2.938600	-8.766500	28.955686	-1.534613E-6	20.757692
2633.712860	-3.035400	2.936100	-8.910300	28.915973	-1.237591E-6	20.728587
2634.711648	-3.026300	2.935600	-8.882700	28.923917	1.485109E-7	20.751289
2635.713130	-3.008000	2.933800	-8.823300	28.884934	-3.795279E-7	20.738569
2636.713972	-3.038500	2.931600	-8.906000	28.880365	-8.415620E-7	20.738233
2637.713314	-3.019700	2.930400	-8.847600	28.840187	-2.326671E-6	20.738061
2638.713803	-2.983100	2.928800	-8.735800	28.808116	-1.600618E-6	20.749377
2639.715106	-3.015800	2.925700	-8.822600	28.834961	9.075668E-7	20.735641
2640.715296	-2.987900	2.925500	-8.740000	28.815484	-1.468608E-6	20.746367
2641.718048	-2.999300	2.923100	-8.766800	28.740446	-3.613766E-6	20.752335
2642.718593	-2.995500	2.922200	-8.752600	28.737005	-2.458681E-6	20.751240
2643.715535	-3.003700	2.921100	-8.772300	28.730673	-3.712773E-6	20.739646
2644.718648	-3.004300	2.919200	-8.768000	28.701885	3.465255E-7	20.740047
2645.717561	-3.000900	2.916600	-8.751500	28.668763	-1.864637E-6	20.735608
2646.721030	-2.981300	2.915900	-8.691800	28.612707	-2.524686E-6	20.731781
2647.716208	-3.040500	2.912500	-8.854200	28.627748	-2.326671E-6	20.768268
2648.720224	-2.979100	2.912100	-8.674300	28.761116	-1.072579E-6	20.747551
2649.716040	-2.990300	2.911100	-8.703700	28.845890	-2.557688E-6	20.758506
2650.717438	-2.979800	2.909600	-8.668500	28.849777	-9.405693E-7	20.741084
2651.720290	-2.998600	2.906600	-8.714700	28.883845	-5.445401E-7	20.756438
2652.725553	-3.023700	2.904800	-8.781700	28.934967	-1.006574E-6	20.755309
2653.717871	-3.000600	2.904400	-8.713400	28.915573	-1.369601E-6	20.759479
2654.718914	-3.008500	2.901500	-8.728200	28.976309	1.204589E-6	20.749072
2655.717883	-2.987100	2.899300	-8.659100	28.960081	4.785352E-7	20.754058
2656.717264	-2.986500	2.898600	-8.656200	28.979051	-3.844783E-6	20.752783
2657.718048	-2.997400	2.896000	-8.679800	29.005139	-3.481756E-6	20.737340
2658.719058	-2.999100	2.893600	-8.677500	28.912497	4.950364E-8	20.762070
2659.717781	-2.999600	2.891400	-8.672400	28.909600	-1.996647E-6	20.765790
2660.718787	-2.980700	2.890700	-8.615600	28.958426	-1.270594E-6	20.751917
2661.717789	-2.996700	2.888800	-8.656400	28.920929	7.425547E-7	20.746857
2662.718042	-2.994400	2.887400	-8.645400	28.907742	-2.590691E-6	20.775298
2663.718946	-2.981600	2.885700	-8.603000	28.885296	-8.745644E-7	20.767858
2664.718451	-3.025700	2.882100	-8.720000	28.868377	-8.085595E-7	20.756502
2665.718297	-2.976500	2.882500	-8.578100	28.863898	-2.557688E-6	20.776173
2666.718925	-2.992800	2.881200	-8.621000	28.902216	-1.303596E-6	20.784903
2667.718571	-2.981400	2.878500	-8.580600	28.909989	-1.963645E-6	20.743422
2668.718235	-2.978000	2.876200	-8.564500	28.942488	-8.745644E-7	20.788018
2669.719902	-2.992300	2.874300	-8.599900	28.980837	-2.260666E-6	20.756478
2670.718560	-2.998800	2.872000	-8.612200	28.959935	-5.131878E-6	20.757705
2671.721205	-3.020800	2.869700	-8.667500	28.927339	-1.105581E-6	20.770385
2672.718032	-2.996800	2.868100	-8.594400	28.919566	-1.699625E-6	20.778201
2673.718786	-3.025300	2.865400	-8.667900	28.835560	-3.448754E-6	20.774652
2674.730675	-3.014700	2.863200	-8.630700	28.870122	-1.897640E-6	20.784814
2675.718336	-3.006000	2.863700	-8.606900	28.970070	-1.567615E-6	20.761278
2676.719014	-3.001500	2.860500	-8.584800	29.049539	-1.815134E-7	20.765955
2677.720588	-3.008600	2.857300	-8.595500	29.011508	-1.897640E-6	20.781217
2678.720169	-3.026100	2.855500	-8.640200	29.022730	-5.115377E-7	20.769764
2679.719250	-2.986000	2.855000	-8.524300	29.051445	-3.151732E-6	20.775463
2680.724886	-3.034100	2.851400	-8.650000	29.018082	-3.465255E-7	20.757967
2681.721818	-3.002500	2.851000	-8.559400	28.980757	-1.666623E-6	20.792434
2682.721858	-3.014600	2.847000	-8.581600	28.934887	-2.194662E-6	20.776093
2683.722395	-3.013400	2.845400	-8.573200	28.990324	-7.755571E-7	20.793539
2684.726681	-2.994700	2.844200	-8.516400	29.006480	-1.963645E-6	20.765245
2685.722847	-2.994900	2.842500	-8.512700	29.028987	-9.075668E-7	20.779387
2686.725328	-3.022200	2.839000	-8.579000	29.107680	8.250607E-8	20.770959
2687.725971	-3.005800	2.837900	-8.529100	29.178205	5.775425E-7	20.778962
2688.729683	-3.004800	2.836500	-8.522800	29.086238	-1.815134E-7	20.779225
2689.726995	-2.977600	2.833200	-8.435500	29.040542	1.485109E-7	20.768744
2690.726272	-2.993200	2.831300	-8.474000	29.034741	-2.194662E-6	20.760528
2691.728858	-2.992700	2.828900	-8.464400	29.004185	-1.171586E-6	20.785218
2692.726686	-2.995900	2.827200	-8.469000	28.959442	-3.795279E-7	20.776175
2693.727520	-2.976000	2.824200	-8.404100	28.996637	-8.250608E-8	20.778087
2694.726709	-3.014700	2.821300	-8.504900	29.084638	-1.336598E-6	20.779510
2695.730648	-3.008600	2.820300	-8.484300	29.049037	-1.468608E-6	20.779675
2696.727016	-2.976700	2.817500	-8.385700	29.071113	-6.105450E-7	20.778210
2697.726502	-2.980700	2.814300	-8.388000	29.100337	-1.369601E-6	20.790113
2698.730422	-3.005400	2.810100	-8.444000	29.146995	2.475182E-7	20.797298
2699.728100	-3.012900	2.810100	-8.465500	29.154970	1.369601E-6	20.782575
2700.729439	-3.006300	2.807900	-8.440000	29.170489	-4.950365E-8	20.809119
2701.733372	-2.988400	2.805600	-8.383100	29.181466	3.465255E-7	20.777032
2702.728707	-3.011700	2.801600	-8.436400	29.222896	7.095522E-7	20.784643
2703.731420	-2.997800	2.797800	-8.386300	29.204115	2.805207E-7	20.795589
2704.729515	-3.030300	2.796100	-8.472500	29.138735	1.336598E-6	20.783759
2705.730016	-3.028700	2.792000	-8.454700	29.110510	6.765498E-7	20.806053
2706.733754	-3.022700	2.791000	-8.435400	29.117860	-3.795279E-7	20.785484
2707.728386	-2.965700	2.789600	-8.271400	29.155674	-1.633620E-6	20.764319
2708.729801	-2.984400	2.786000	-8.313800	29.214151	-5.445401E-7	20.792900
2709.729569	-3.001500	2.783500	-8.353100	29.244822	-1.815134E-7	20.786350
2710.734458	-2.987400	2.780000	-8.303900	29.183054	-3.135231E-7	20.782426
2711.731520	-2.984400	2.777300	-8.287800	29.147350	-8.085595E-7	20.796708
2712.731526	-3.006800	2.774300	-8.340900	29.154011	-1.485109E-7	20.813851
2713.733326	-3.006000	2.771500	-8.330200	29.210280	-2.145158E-7	20.788051
2714.733009	-3.005600	2.768200	-8.319700	29.178130	-9.735717E-7	20.801646
2715.731970	-2.981100	2.765800	-8.243300	29.231818	4.455328E-7	20.801220
2716.732744	-3.002400	2.762400	-8.293700	29.326061	-1.006574E-6	20.799471
2717.734034	-3.001800	2.758900	-8.279900	29.355230	2.260666E-6	20.800419
2718.734219	-3.034300	2.755200	-8.359800	29.420378	1.270594E-6	20.804442
2719.733900	-3.010300	2.753100	-8.285900	29.433720	-2.475182E-7	20.802716
2720.734525	-2.998000	2.749200	-8.241300	29.328040	7.095522E-7	20.794353
2721.734949	-2.991900	2.747100	-8.218300	29.370090	-3.135231E-7	20.780783
2722.733247	-2.997300	2.743100	-8.220500	29.310860	-2.161659E-6	20.807859
2723.733001	-3.005600	2.740300	-8.235300	29.350899	1.072579E-6	20.811701
2724.737571	-3.013500	2.737000	-8.247400	29.381244	-2.475182E-7	20.806249
2725.736164	-3.001600	2.733200	-8.203400	29.346494	1.155085E-7	20.804891
2726.738746	-3.018100	2.729100	-8.236200	29.379474	-2.491683E-6	20.809208
2727.739015	-3.013600	2.725600	-8.213300	29.338026	-1.897640E-6	20.806788
2728.736382	-2.964500	2.723500	-8.073000	29.397919	1.435606E-6	20.815469
2729.739991	-2.999000	2.719600	-8.154500	29.414117	-1.501611E-6	20.799553
2730.738720	-3.014800	2.714500	-8.183100	29.420451	8.250607E-8	20.808308
2731.736362	-2.991600	2.712500	-8.113300	29.479723	1.171586E-6	20.807360
2732.739579	-2.995300	2.708300	-8.110500	29.527921	1.534613E-6	20.811848
2733.740974	-3.005500	2.703700	-8.125400	29.522358	-1.501611E-6	20.791067
2734.737990	-2.988600	2.700400	-8.069700	29.476430	4.455328E-7	20.804989
2735.737285	-3.006300	2.696900	-8.107100	29.435383	1.963645E-6	20.791591
2736.739115	-3.006800	2.693200	-8.097000	29.465335	2.821708E-6	20.796650
2737.740932	-2.996900	2.687400	-8.052300	29.489868	6.765498E-7	20.808578
2738.738705	-2.979300	2.685000	-7.997900	29.441911	4.785352E-7	20.809076
2739.738396	-3.002800	2.680000	-8.046500	29.405819	1.138584E-6	20.819639
2740.740929	-2.979700	2.676800	-7.975100	29.517078	-3.135231E-7	20.832685
2741.739413	-3.001100	2.670500	-8.013300	29.494466	8.250607E-8	20.819376
2742.739832	-3.002500	2.666100	-8.003100	29.512869	1.105581E-6	20.814218
2743.741248	-2.983800	2.664000	-7.947500	29.510395	3.085727E-6	20.811725
2744.740294	-3.005600	2.658300	-7.989500	29.539177	3.448754E-6	20.813711
2745.741153	-2.997700	2.653400	-7.953700	29.588889	1.963645E-6	20.823047
2746.742135	-2.995200	2.648900	-7.932500	29.514775	1.765630E-6	20.832734
2747.745123	-3.003100	2.644800	-7.941800	29.501018	-5.775425E-7	20.835937
2748.743496	-2.980600	2.640600	-7.869900	29.512162	1.815134E-7	20.815402
2749.742310	-2.984700	2.635600	-7.865700	29.591654	1.468608E-6	20.833894
2750.741856	-2.960300	2.631100	-7.787500	29.693439	2.145158E-7	20.834564
2751.741781	-3.001900	2.624200	-7.876500	29.728183	1.798632E-6	20.831187
2752.742871	-3.023400	2.618200	-7.915600	29.747343	1.930642E-6	20.827746
2753.744906	-2.977300	2.615600	-7.787100	29.717764	4.455328E-7	20.835855
2754.742564	-2.973400	2.608900	-7.755800	29.683204	1.666623E-6	20.849850
2755.742649	-3.000900	2.603200	-7.810700	29.675549	1.237591E-6	20.835968
2756.746071	-2.989500	2.599000	-7.769100	29.717861	-1.650122E-8	20.825048
2757.744253	-2.994300	2.593800	-7.766200	29.736833	1.996647E-6	20.823314
2758.745167	-2.980000	2.586900	-7.707800	29.652155	3.052725E-6	20.832772
2759.744796	-2.990600	2.582900	-7.723600	29.724005	1.897640E-6	20.836458
2760.746000	-2.999600	2.575000	-7.723200	29.794270	-4.950365E-8	20.845188
2761.746222	-2.995700	2.569600	-7.696900	29.893645	1.138584E-6	20.832543
2762.746940	-2.989100	2.564700	-7.665500	29.966420	2.590691E-6	20.821530
2763.746587	-2.984000	2.559600	-7.637300	30.020019	3.217737E-6	20.839548
2764.747346	-2.989100	2.553700	-7.632400	30.075748	2.425679E-6	20.826526
2765.747320	-2.972800	2.547200	-7.571500	30.079873	7.755571E-7	20.834005
2766.748834	-2.969400	2.542300	-7.547900	29.991849	2.805207E-7	20.834372
2767.750231	-3.014900	2.533600	-7.637700	29.936667	2.475182E-7	20.806226
2768.747252	-2.973800	2.529600	-7.521800	29.915970	-2.145158E-7	20.830873
2769.751782	-3.011500	2.521000	-7.591000	29.837224	-9.075668E-7	20.826385
2770.747859	-2.960900	2.516800	-7.449900	29.787581	9.405693E-7	20.823271
2771.752646	-3.012800	2.509400	-7.559400	29.787824	1.534613E-6	20.823516
2772.749664	-2.979800	2.504400	-7.461500	29.886079	2.986720E-6	20.823966
2773.752317	-3.012400	2.497500	-7.522500	30.002808	2.788705E-6	20.823614
