LabVIEW Measurement	
Writer_Version	2
Reader_Version	2
Separator	Tab
Decimal_Separator	.
Multi_Headings	No
X_Columns	One
Time_Pref	Absolute
Operator	admin
Description	Clolumns are: time, Current, Voltage, Power, Battery Temp, and Chamber Temp
Date	2024/08/16
Time	13:07:17.8513970375061035156
***End_of_Header***	
	
Channels	6						
Samples	1	1	1	1	1	1	
Date	2024/09/02	2024/09/02	2024/09/02	2024/09/02	2024/09/02	2024/09/02	
Time	09:09:38.0733127593994140625	09:09:38.0786318778991699219	09:09:38.08550262451171875	09:09:38.0574631690979003906	09:09:38.0574631690979003906	09:09:38.0574631690979003906	
X_Dimension	Time	Time	Time	Time	Time	Time	
X0	0.0000000000000000E+0	0.0000000000000000E+0	0.0000000000000000E+0	0.0000000000000000E+0	0.0000000000000000E+0	0.0000000000000000E+0	
Delta_X	1.000000	1.000000	1.000000	1.000000	1.000000	1.000000	
***End_of_Header***							
X_Value	Untitled	Untitled 1	Untitled 2	Untitled 3	Untitled 4	Untitled 5	Comment
0.000000	0.018941	4.086600	0.077478	20.817447	0.000459	20.828352
1.000885	-3.011500	3.923000	-11.813000	20.825757	0.000459	20.852783
2.000187	-2.994100	3.919200	-11.734000	20.816374	0.000458	20.827279
3.002247	-2.996900	3.914300	-11.729000	20.855728	0.000458	20.842926
4.001529	-3.006400	3.911500	-11.759000	20.833618	0.000457	20.843575
5.001124	-2.988000	3.907800	-11.676000	20.848166	0.000455	20.836787
6.003383	-2.988300	3.905100	-11.668000	20.849040	0.000458	20.841928
7.002965	-2.992100	3.904800	-11.683000	20.863613	0.000454	20.862665
8.005875	-2.999600	3.901500	-11.702000	20.848815	0.000454	20.860669
9.002074	-2.966100	3.900900	-11.570000	20.869278	0.000454	20.830399
10.002212	-2.999000	3.899200	-11.693000	20.876689	0.000454	20.852034
11.002313	-2.992800	3.897500	-11.663000	20.894456	0.000452	20.851785
12.002968	-2.986700	3.895900	-11.635000	20.902840	0.000453	20.847368
13.005291	-2.968100	3.894800	-11.559000	20.908155	0.000451	20.848890
14.007298	-3.002400	3.893400	-11.689000	20.913121	0.000451	20.856227
15.004622	-2.983300	3.892600	-11.612000	20.912921	0.000450	20.846544
16.003957	-2.981400	3.891400	-11.601000	20.898897	0.000451	20.867132
17.005159	-2.991400	3.890000	-11.636000	20.929565	0.000450	20.847068
18.004858	-3.000800	3.890100	-11.672000	20.939471	0.000451	20.844648
19.007493	-3.011200	3.887400	-11.705000	20.946283	0.000449	20.856202
20.005207	-2.988700	3.887600	-11.618000	20.942415	0.000449	20.857075
21.006443	-2.998600	3.886400	-11.653000	20.981091	0.000450	20.825583
22.006451	-2.985100	3.887100	-11.602000	20.997309	0.000446	20.861717
23.005839	-2.995100	3.884700	-11.634000	20.961878	0.000447	20.849514
24.010595	-2.991500	3.884200	-11.619000	20.986306	0.000447	20.854979
25.005628	-2.990800	3.883700	-11.614000	20.994964	0.000447	20.863164
26.005599	-2.998000	3.883800	-11.642000	21.012255	0.000445	20.845372
27.012550	-2.997300	3.883100	-11.638000	21.000877	0.000446	20.850587
28.008831	-2.999800	3.882100	-11.644000	21.007564	0.000444	20.862490
29.009468	-3.007400	3.881600	-11.672000	21.029047	0.000444	20.860743
30.011835	-3.004600	3.880500	-11.659000	21.049830	0.000445	20.846445
31.010447	-3.016000	3.881700	-11.706000	21.038228	0.000443	20.863763
32.011371	-2.993900	3.880400	-11.616000	21.034336	0.000445	20.849439
33.012175	-3.011800	3.879300	-11.683000	21.079545	0.000443	20.844399
34.011921	-3.024200	3.879400	-11.731000	21.069540	0.000441	20.869951
35.012503	-2.993800	3.879100	-11.613000	21.082290	0.000442	20.846195
36.012018	-3.030700	3.878400	-11.752000	21.072909	0.000444	20.885173
37.012053	-3.017500	3.878700	-11.703000	21.110831	0.000442	20.857200
38.011279	-2.993400	3.878600	-11.610000	21.092644	0.000442	20.867456
39.019118	-2.991000	3.879200	-11.602000	21.103546	0.000441	20.893533
40.012653	-3.009200	3.878000	-11.669000	21.111056	0.000442	20.861218
41.011739	-3.003600	3.876900	-11.643000	21.112977	0.000440	20.870725
42.012250	-3.011900	3.875500	-11.672000	21.130865	0.000442	20.868230
43.015675	-2.987700	3.876800	-11.582000	21.131713	0.000442	20.870500
44.011581	-2.997900	3.876200	-11.620000	21.146782	0.000441	20.878935
45.018166	-3.003500	3.874800	-11.637000	21.164570	0.000441	20.859271
46.012489	-3.013900	3.875000	-11.678000	21.157010	0.000439	20.883476
47.013720	-3.002700	3.874300	-11.633000	21.178640	0.000440	20.871923
48.012578	-3.005300	3.875300	-11.645000	21.197001	0.000441	20.878436
49.013170	-3.007200	3.875700	-11.654000	21.199171	0.000441	20.881555
50.018075	-2.998000	3.873300	-11.610000	21.201042	0.000441	20.886271
51.015980	-3.007800	3.873800	-11.651000	21.238212	0.000441	20.884100
52.013278	-3.011600	3.875200	-11.670000	21.243202	0.000441	20.863014
53.014637	-3.020500	3.873300	-11.698000	21.246569	0.000440	20.895778
54.018587	-3.004900	3.873400	-11.638000	21.231552	0.000439	20.876015
55.012031	-3.011100	3.873000	-11.661000	21.277052	0.000440	20.883601
56.016964	-3.006000	3.873100	-11.642000	21.260813	0.000442	20.875416
57.013771	-2.996100	3.873100	-11.604000	21.281218	0.000439	20.885398
58.013075	-3.020100	3.870900	-11.690000	21.283289	0.000440	20.888891
59.014381	-2.999900	3.872100	-11.615000	21.281518	0.000440	20.876689
60.014150	-3.010400	3.871400	-11.653000	21.287429	0.000441	20.887818
61.027099	-2.982300	3.871600	-11.545000	21.289400	0.000438	20.872721
62.013862	-2.994800	3.872300	-11.596000	21.314744	0.000440	20.894281
63.015471	-3.001600	3.871100	-11.619000	21.317388	0.000439	20.885073
64.015303	-3.014200	3.870200	-11.665000	21.337368	0.000439	20.886096
65.015841	-2.997200	3.871500	-11.602000	21.338615	0.000436	20.869801
66.014697	-3.002800	3.871400	-11.624000	21.357148	0.000437	20.884075
67.016708	-3.011800	3.871600	-11.659000	21.358221	0.000438	20.898897
68.016435	-3.024500	3.870800	-11.706000	21.365629	0.000439	20.904412
69.020713	-3.004800	3.869700	-11.626000	21.372438	0.000437	20.884199
70.019797	-3.000500	3.869800	-11.611000	21.378973	0.000438	20.893108
71.019307	-2.987500	3.870400	-11.562000	21.399127	0.000439	20.906632
72.030874	-3.007900	3.870400	-11.641000	21.411748	0.000440	20.892708
73.019431	-2.977300	3.871000	-11.524000	21.393490	0.000440	20.877287
74.021307	-3.005300	3.870100	-11.630000	21.421949	0.000442	20.880157
75.025687	-3.002700	3.869900	-11.619000	21.423620	0.000442	20.897000
76.021884	-2.981700	3.870000	-11.539000	21.436914	0.000441	20.901292
77.025204	-3.013300	3.870000	-11.661000	21.451380	0.000440	20.906283
78.024563	-2.985800	3.869600	-11.553000	21.473578	0.000442	20.924224
79.022192	-3.011000	3.868200	-11.647000	21.452976	0.000440	20.890338
80.022206	-3.000600	3.868300	-11.606000	21.471358	0.000441	20.887393
81.023491	-2.992500	3.867700	-11.573000	21.476396	0.000442	20.900968
82.020185	-2.980300	3.868700	-11.528000	21.471607	0.000442	20.897125
83.023914	-3.002200	3.869000	-11.614000	21.488742	0.000442	20.900519
84.023331	-2.990600	3.867800	-11.566000	21.494678	0.000440	20.903613
85.022121	-2.986200	3.867900	-11.550000	21.514256	0.000439	20.888591
86.025595	-2.990000	3.866600	-11.559000	21.515328	0.000441	20.906732
87.023303	-3.006900	3.867400	-11.628000	21.508669	0.000442	20.903389
88.025405	-2.976000	3.866800	-11.507000	21.529294	0.000443	20.908379
89.025754	-3.001500	3.866300	-11.604000	21.524207	0.000442	20.914668
90.025648	-2.992600	3.867900	-11.574000	21.572439	0.000440	20.908404
91.027801	-2.993600	3.866000	-11.572000	21.574759	0.000443	20.906932
92.032506	-2.976600	3.868100	-11.513000	21.580121	0.000444	20.924624
93.028988	-3.000400	3.866300	-11.599000	21.578001	0.000441	20.888841
94.028474	-2.975900	3.867000	-11.507000	21.582665	0.000442	20.906783
95.026532	-2.979500	3.867100	-11.521000	21.603613	0.000442	20.917787
96.027275	-2.998200	3.865300	-11.588000	21.609049	0.000443	20.890039
97.027730	-3.013000	3.864900	-11.645000	21.637229	0.000443	20.886471
98.027653	-2.993900	3.865100	-11.571000	21.615858	0.000441	20.908705
99.031890	-2.985600	3.865100	-11.538000	21.628551	0.000444	20.904338
100.029584	-2.983500	3.865600	-11.532000	21.645010	0.000442	20.900420
101.029991	-3.002700	3.864500	-11.602000	21.640122	0.000443	20.896004
102.030030	-3.000500	3.865800	-11.599000	21.640546	0.000440	20.893109
103.031750	-3.000800	3.864400	-11.595000	21.659748	0.000443	20.905212
104.033876	-2.988200	3.865300	-11.549000	21.673563	0.000442	20.885848
105.033466	-2.989300	3.864300	-11.551000	21.684809	0.000442	20.896154
106.032333	-2.983900	3.864400	-11.530000	21.683164	0.000444	20.897826
107.033473	-2.980400	3.865000	-11.519000	21.678626	0.000445	20.898974
108.033138	-2.996800	3.864200	-11.579000	21.718299	0.000445	20.915443
109.033734	-3.014300	3.862700	-11.641000	21.714110	0.000444	20.874271
110.036331	-2.992800	3.863500	-11.561000	21.707477	0.000445	20.898925
111.032376	-2.989700	3.863900	-11.551000	21.707128	0.000444	20.881508
112.034133	-3.005300	3.862100	-11.606000	21.744157	0.000445	20.879686
113.037183	-3.008000	3.862100	-11.616000	21.731590	0.000445	20.884178
114.036630	-3.006700	3.863100	-11.613000	21.744307	0.000447	20.889793
115.040207	-3.002000	3.861400	-11.591000	21.729047	0.000448	20.866935
116.045391	-2.983700	3.862800	-11.525000	21.752811	0.000447	20.868433
117.036798	-2.984100	3.862300	-11.524000	21.742687	0.000446	20.869680
118.036577	-3.014000	3.862300	-11.640000	21.745904	0.000449	20.872425
119.036926	-2.991700	3.863800	-11.558000	21.735456	0.000450	20.865289
120.037814	-3.008400	3.861900	-11.618000	21.775701	0.000447	20.855307
121.039545	-3.017700	3.862000	-11.654000	21.771014	0.000447	20.869581
122.038066	-2.981700	3.863200	-11.518000	21.798242	0.000449	20.854160
123.037816	-2.970500	3.862400	-11.472000	21.815047	0.000449	20.866712
124.042182	-2.987200	3.861500	-11.534000	21.807442	0.000449	20.856730
125.038151	-2.976400	3.862400	-11.494000	21.838733	0.000451	20.861022
126.039600	-3.012900	3.861200	-11.632000	21.837711	0.000451	20.856680
127.039235	-3.007000	3.860500	-11.607000	21.852522	0.000451	20.858702
128.038789	-2.991400	3.861200	-11.550000	21.843296	0.000452	20.845675
129.039135	-2.998100	3.859600	-11.571000	21.871171	0.000450	20.852713
130.040751	-2.999100	3.859200	-11.573000	21.860849	0.000450	20.865614
131.039812	-3.015200	3.859100	-11.635000	21.892862	0.000451	20.842656
132.038531	-3.007500	3.859700	-11.607000	21.876831	0.000453	20.860748
133.039704	-3.014600	3.859500	-11.634000	21.911860	0.000452	20.850292
134.041329	-3.012200	3.858800	-11.622000	21.911760	0.000451	20.857779
135.041713	-3.017200	3.858400	-11.641000	21.913904	0.000451	20.872252
136.041951	-2.970900	3.861000	-11.470000	21.924650	0.000453	20.848870
137.042094	-2.993600	3.858500	-11.550000	21.924625	0.000451	20.846948
138.050981	-2.971100	3.859400	-11.466000	21.950403	0.000452	20.848570
139.041547	-2.999800	3.858500	-11.574000	21.926320	0.000454	20.853386
140.042737	-2.993000	3.859000	-11.549000	21.944744	0.000452	20.847647
141.041529	-3.029000	3.857100	-11.682000	21.951450	0.000453	20.852463
142.046329	-2.987700	3.858500	-11.528000	21.961771	0.000456	20.844303
143.043168	-2.987500	3.858400	-11.527000	21.982663	0.000456	20.833922
144.044475	-2.985800	3.858900	-11.521000	21.980569	0.000457	20.833249
145.044230	-2.974500	3.858200	-11.476000	21.988596	0.000456	20.846499
146.047811	-2.991000	3.858500	-11.539000	21.969475	0.000455	20.860549
147.047301	-3.015200	3.855800	-11.625000	21.992136	0.000455	20.833922
148.046643	-2.982700	3.857100	-11.503000	21.980768	0.000456	20.843405
149.044675	-2.997100	3.857200	-11.560000	21.990765	0.000455	20.851515
150.044313	-3.007500	3.856100	-11.597000	21.985554	0.000455	20.856256
151.049847	-3.017300	3.856300	-11.634000	21.987623	0.000455	20.837465
152.045781	-2.995600	3.856500	-11.552000	22.031922	0.000457	20.835818
153.049856	-3.001200	3.856600	-11.573000	22.019159	0.000457	20.840111
154.046169	-2.982300	3.856700	-11.501000	22.043764	0.000459	20.837715
155.047628	-2.989300	3.856100	-11.527000	22.051840	0.000458	20.831576
156.047592	-2.989400	3.854900	-11.524000	22.037108	0.000458	20.850492
157.048687	-3.017600	3.856100	-11.634000	22.044910	0.000457	20.832699
158.048578	-2.988800	3.855400	-11.522000	22.085717	0.000458	20.835618
159.048746	-3.017100	3.853400	-11.625000	22.077890	0.000459	20.831102
160.048752	-3.011000	3.854500	-11.605000	22.083872	0.000459	20.829030
161.046071	-3.011700	3.856000	-11.612000	22.119817	0.000461	20.826135
162.047603	-3.010200	3.854700	-11.603000	22.109647	0.000459	20.833497
163.048330	-2.971200	3.855500	-11.454000	22.115081	0.000460	20.811911
164.049138	-3.004700	3.855100	-11.583000	22.118795	0.000460	20.839811
165.048196	-3.005900	3.852900	-11.581000	22.104811	0.000460	20.827234
166.050691	-2.994400	3.853800	-11.538000	22.137689	0.000459	20.839286
167.051366	-3.004100	3.853500	-11.576000	22.157406	0.000462	20.832948
168.048926	-2.991300	3.854300	-11.529000	22.159948	0.000460	20.831226
169.053972	-3.004200	3.854000	-11.577000	22.177845	0.000461	20.807893
170.047111	-2.977300	3.853500	-11.472000	22.184251	0.000460	20.811462
171.048818	-2.997100	3.853100	-11.547000	22.195667	0.000463	20.832374
172.047621	-2.993800	3.853500	-11.536000	22.202297	0.000463	20.818624
173.049838	-3.002800	3.852400	-11.567000	22.194770	0.000462	20.831002
174.052336	-2.996700	3.853800	-11.548000	22.216130	0.000462	20.855233
175.053965	-3.011600	3.852400	-11.601000	22.192228	0.000462	20.818974
176.052466	-2.998100	3.852800	-11.550000	22.224755	0.000463	20.831152
177.051372	-3.005900	3.851000	-11.575000	22.202721	0.000462	20.826161
178.052534	-2.976000	3.853500	-11.467000	22.209975	0.000464	20.812561
179.051584	-2.994700	3.851700	-11.534000	22.242776	0.000463	20.805574
180.056051	-3.000400	3.851400	-11.555000	22.250826	0.000466	20.815057
181.052825	-2.985300	3.852500	-11.499000	22.266678	0.000465	20.824765
182.053742	-2.996100	3.851700	-11.539000	22.264759	0.000464	20.813361
183.060309	-2.990300	3.849200	-11.509000	22.268797	0.000463	20.803653
184.054432	-3.023000	3.850100	-11.637000	22.258379	0.000466	20.823094
185.058443	-3.000200	3.849700	-11.549000	22.239861	0.000465	20.836320
186.054044	-3.006000	3.850800	-11.574000	22.260324	0.000467	20.800859
187.055535	-2.983600	3.851000	-11.489000	22.275378	0.000466	20.827312
188.055211	-3.010300	3.849500	-11.587000	22.269297	0.000467	20.816956
189.054693	-3.019800	3.849300	-11.623000	22.289236	0.000468	20.799462
190.054726	-2.995200	3.849500	-11.529000	22.275304	0.000468	20.822971
191.054934	-3.018400	3.847900	-11.614000	22.276301	0.000467	20.832977
192.057374	-3.014500	3.849100	-11.602000	22.303243	0.000469	20.811591
193.056706	-3.007300	3.847900	-11.571000	22.300377	0.000466	20.822472
194.060354	-3.014200	3.848500	-11.599000	22.332851	0.000469	20.818005
195.060866	-2.971500	3.848700	-11.436000	22.352764	0.000468	20.806651
196.059283	-2.997800	3.848000	-11.535000	22.344340	0.000468	20.803906
197.059012	-3.005900	3.847000	-11.563000	22.364377	0.000469	20.779399
198.060903	-3.005100	3.848500	-11.564000	22.380826	0.000469	20.823845
199.060997	-2.994900	3.849100	-11.527000	22.377760	0.000466	20.805129
200.061861	-3.002800	3.847500	-11.553000	22.392140	0.000469	20.809097
201.064358	-2.995000	3.846800	-11.521000	22.393909	0.000469	20.804705
202.066471	-2.980900	3.847100	-11.467000	22.404252	0.000470	20.802734
203.061566	-2.989900	3.847500	-11.502000	22.405797	0.000471	20.822773
204.063969	-3.007100	3.844800	-11.561000	22.419055	0.000470	20.808075
205.062193	-2.994600	3.846200	-11.517000	22.441134	0.000470	20.820702
206.065026	-3.007500	3.847500	-11.569000	22.424139	0.000472	20.816485
207.062999	-3.031400	3.844800	-11.653000	22.468147	0.000474	20.814090
208.062518	-3.042000	3.845900	-11.697000	22.444674	0.000472	20.796746
209.065413	-3.034100	3.844500	-11.663000	22.461544	0.000472	20.795149
210.061974	-2.999500	3.844400	-11.530000	22.449659	0.000472	20.801738
211.063226	-2.983700	3.846400	-11.475000	22.460001	0.000473	20.798345
212.061054	-2.996300	3.845500	-11.521000	22.458207	0.000473	20.819307
213.062662	-3.001400	3.844300	-11.537000	22.470019	0.000474	20.787989
214.061549	-3.019900	3.844600	-11.609000	22.511982	0.000473	20.808203
215.064004	-3.002300	3.845300	-11.544000	22.484098	0.000474	20.803038
216.064835	-3.021500	3.844500	-11.615000	22.469347	0.000475	20.802015
217.067547	-3.014500	3.844300	-11.587000	22.496783	0.000476	20.780179
218.064241	-3.013700	3.843400	-11.582000	22.484498	0.000479	20.802964
219.070482	-2.993700	3.843100	-11.504000	22.498454	0.000477	20.792284
220.068165	-2.988600	3.843600	-11.486000	22.504684	0.000477	20.783824
221.068907	-3.011600	3.842900	-11.572000	22.506877	0.000476	20.794556
222.068943	-3.013100	3.842200	-11.575000	22.510690	0.000476	20.790314
223.067428	-3.009900	3.842200	-11.564000	22.491952	0.000477	20.786720
224.069048	-3.014200	3.841900	-11.579000	22.517443	0.000477	20.784749
225.068022	-3.000300	3.842800	-11.529000	22.535883	0.000477	20.783777
226.069390	-3.022200	3.841200	-11.608000	22.566606	0.000478	20.787046
227.070306	-3.004800	3.842000	-11.544000	22.569572	0.000478	20.781482
228.071131	-2.987000	3.842500	-11.477000	22.555595	0.000480	20.782181
229.068966	-3.009700	3.840900	-11.559000	22.580885	0.000480	20.771001
230.068786	-3.001100	3.841400	-11.528000	22.551559	0.000481	20.780511
231.070465	-3.004600	3.842000	-11.543000	22.601717	0.000481	20.790443
232.069462	-3.001900	3.841000	-11.529000	22.599599	0.000480	20.757028
233.070599	-3.002700	3.842200	-11.536000	22.595314	0.000482	20.779763
234.070720	-3.014100	3.841900	-11.579000	22.616917	0.000480	20.761571
235.072289	-3.008700	3.840000	-11.553000	22.627207	0.000483	20.769033
236.075631	-3.003600	3.841300	-11.537000	22.606453	0.000480	20.780014
237.074286	-2.980200	3.841400	-11.447000	22.636701	0.000482	20.789922
238.078068	-2.999300	3.840000	-11.517000	22.643279	0.000485	20.776596
239.075884	-3.006600	3.839200	-11.542000	22.664931	0.000482	20.764617
240.076973	-2.991400	3.839700	-11.484000	22.661567	0.000484	20.784008
241.077280	-2.987300	3.839100	-11.468000	22.670387	0.000482	20.778144
242.077244	-3.005600	3.839700	-11.540000	22.663112	0.000483	20.771805
243.077862	-2.979500	3.839200	-11.438000	22.672107	0.000484	20.758055
244.082294	-2.990200	3.838400	-11.476000	22.665106	0.000486	20.779966
245.076046	-3.003700	3.838800	-11.530000	22.684166	0.000484	20.797161
246.076533	-3.001200	3.837900	-11.517000	22.682272	0.000487	20.771556
247.078532	-3.007900	3.837700	-11.542000	22.714960	0.000485	20.761150
248.077234	-3.010900	3.837400	-11.553000	22.697894	0.000486	20.773453
249.081384	-3.014100	3.837900	-11.566000	22.684291	0.000488	20.777372
250.076688	-3.000600	3.838900	-11.519000	22.713216	0.000487	20.759878
251.076880	-3.019100	3.836700	-11.583000	22.691018	0.000488	20.761350
252.078187	-2.995100	3.836700	-11.491000	22.694930	0.000490	20.770484
253.077658	-2.990100	3.838600	-11.477000	22.706614	0.000490	20.767489
254.080287	-3.016100	3.834700	-11.565000	22.695128	0.000488	20.757881
255.079177	-2.998100	3.836900	-11.502000	22.723854	0.000490	20.769111
256.078725	-3.011000	3.837100	-11.553000	22.728738	0.000489	20.772106
257.080266	-2.991800	3.836700	-11.478000	22.760974	0.000490	20.767414
258.080756	-2.996800	3.835600	-11.494000	22.774876	0.000490	20.789875
259.084257	-2.989700	3.836200	-11.468000	22.783246	0.000490	20.749895
260.082791	-3.011700	3.834200	-11.547000	22.758308	0.000490	20.762847
261.080979	-3.005900	3.835200	-11.527000	22.770142	0.000492	20.760477
262.079313	-2.999500	3.834100	-11.500000	22.802005	0.000491	20.759678
263.083815	-3.020800	3.833100	-11.578000	22.792414	0.000493	20.758131
264.082292	-2.986600	3.834500	-11.452000	22.821038	0.000492	20.774003
265.085115	-3.004400	3.834000	-11.518000	22.834539	0.000494	20.773304
266.082026	-3.007000	3.833900	-11.528000	22.832222	0.000494	20.763396
267.083077	-3.019200	3.832400	-11.570000	22.835635	0.000495	20.769186
268.081545	-3.003000	3.832800	-11.509000	22.815308	0.000491	20.763047
269.084414	-3.009500	3.833600	-11.536000	22.843682	0.000498	20.734098
270.086073	-2.987000	3.832900	-11.448000	22.827041	0.000495	20.764844
271.083744	-3.002300	3.832700	-11.506000	22.829731	0.000494	20.747149
272.086085	-3.009200	3.831900	-11.531000	22.846023	0.000493	20.758729
273.083321	-3.011400	3.832200	-11.539000	22.868716	0.000495	20.734047
274.086034	-2.978700	3.833100	-11.417000	22.874993	0.000494	20.750294
275.084440	-3.001200	3.831100	-11.496000	22.874196	0.000495	20.763720
276.085210	-2.993500	3.832200	-11.471000	22.875018	0.000494	20.762173
277.085602	-2.986800	3.831300	-11.443000	22.883512	0.000496	20.736542
278.085376	-2.986300	3.830400	-11.438000	22.919034	0.000497	20.731352
279.085224	-2.989400	3.830500	-11.450000	22.900775	0.000496	20.763795
280.087915	-2.969600	3.831600	-11.377000	22.907450	0.000497	20.760526
281.084252	-3.008300	3.831000	-11.524000	22.913454	0.000498	20.752315
282.085091	-3.006200	3.831000	-11.516000	22.900675	0.000494	20.757531
283.087859	-3.016400	3.830700	-11.553000	22.930267	0.000495	20.753039
284.085954	-2.987700	3.831300	-11.445000	22.933182	0.000497	20.766391
285.089078	-3.009800	3.829500	-11.525000	22.927801	0.000498	20.740136
286.087862	-3.004300	3.829900	-11.506000	22.939309	0.000497	20.761150
287.085172	-3.008500	3.829400	-11.520000	22.952486	0.000496	20.737841
288.087513	-2.992100	3.828700	-11.455000	22.988279	0.000497	20.742408
289.088687	-2.980400	3.829000	-11.411000	22.989648	0.000498	20.734297
290.092536	-2.992200	3.828000	-11.453000	22.962699	0.000499	20.744280
291.089907	-3.008700	3.827200	-11.514000	22.970944	0.000500	20.737842
292.089048	-3.014500	3.827800	-11.538000	22.986436	0.000499	20.746252
293.089016	-3.001700	3.828700	-11.491000	22.970520	0.000500	20.726036
294.088209	-2.982600	3.827600	-11.416000	22.975103	0.000500	20.739164
295.091001	-2.998000	3.828100	-11.476000	23.004170	0.000502	20.745054
296.092059	-3.000900	3.828000	-11.486000	23.003323	0.000500	20.736618
297.092123	-3.005500	3.826900	-11.501000	23.044245	0.000501	20.721195
298.093354	-3.015100	3.825900	-11.534000	23.041107	0.000500	20.734647
299.092967	-3.010600	3.824600	-11.513000	23.041680	0.000501	20.768413
300.093558	-3.002300	3.825700	-11.485000	23.045565	0.000501	20.749546
301.097438	-2.981100	3.826700	-11.407000	23.044096	0.000502	20.747125
302.093393	-2.995800	3.826700	-11.463000	23.056200	0.000500	20.725588
303.092303	-2.979900	3.826000	-11.400000	23.084543	0.000504	20.747350
304.093944	-2.995600	3.825000	-11.458000	23.078416	0.000503	20.717502
305.095409	-3.014300	3.825100	-11.528000	23.084020	0.000503	20.749671
306.097471	-3.026900	3.824500	-11.574000	23.054607	0.000503	20.736794
307.099447	-2.995200	3.824900	-11.456000	23.088230	0.000503	20.727810
308.097492	-3.024900	3.823100	-11.564000	23.107880	0.000507	20.730430
309.098230	-2.988100	3.823800	-11.425000	23.121504	0.000505	20.730806
310.098560	-2.994100	3.824300	-11.449000	23.096723	0.000505	20.706447
311.097847	-2.996200	3.823900	-11.456000	23.115926	0.000506	20.745131
312.101815	-2.996500	3.823200	-11.454000	23.148376	0.000504	20.728809
313.098680	-3.007500	3.823000	-11.496000	23.108753	0.000506	20.716606
314.098474	-3.003500	3.824200	-11.485000	23.119612	0.000505	20.732703
315.100675	-3.008400	3.823300	-11.502000	23.101606	0.000506	20.727463
316.099064	-3.024300	3.821700	-11.557000	23.120335	0.000507	20.726789
317.102031	-3.007800	3.820600	-11.490000	23.115603	0.000505	20.706873
318.100203	-3.001800	3.822500	-11.474000	23.126885	0.000508	20.736672
319.102001	-3.007600	3.822500	-11.495000	23.118841	0.000507	20.709170
320.102397	-3.002400	3.821500	-11.472000	23.135004	0.000509	20.719677
321.101722	-3.011900	3.819700	-11.503000	23.130023	0.000509	20.716108
322.102022	-3.007400	3.821800	-11.492000	23.127708	0.000507	20.731807
323.100766	-3.007700	3.820900	-11.491000	23.157767	0.000511	20.729211
324.100975	-2.992600	3.821500	-11.436000	23.193155	0.000508	20.720102
325.101274	-3.004200	3.820300	-11.476000	23.210761	0.000510	20.713563
326.101573	-3.013000	3.819300	-11.507000	23.216987	0.000509	20.722648
327.101591	-2.991400	3.821300	-11.430000	23.204486	0.000509	20.723397
328.106870	-3.003900	3.819400	-11.472000	23.229089	0.000511	20.721026
329.100767	-3.006400	3.818400	-11.479000	23.206802	0.000510	20.717182
330.101692	-3.009800	3.819800	-11.496000	23.182920	0.000510	20.711268
331.105985	-3.005000	3.820200	-11.478000	23.178064	0.000510	20.703556
332.102442	-2.995200	3.820400	-11.442000	23.215568	0.000510	20.718381
333.105218	-3.003400	3.818500	-11.468000	23.203041	0.000514	20.727165
334.102242	-2.991400	3.818500	-11.422000	23.233473	0.000512	20.732057
335.102683	-2.991600	3.818100	-11.421000	23.234493	0.000513	20.724545
336.101872	-2.993100	3.816800	-11.423000	23.248338	0.000513	20.716134
337.103251	-3.020700	3.815300	-11.524000	23.220896	0.000513	20.729411
338.104986	-2.999600	3.818500	-11.453000	23.230358	0.000512	20.740316
339.103670	-2.981900	3.817600	-11.382000	23.236858	0.000513	20.718379
340.104285	-2.984200	3.816600	-11.389000	23.255708	0.000512	20.715459
341.105429	-2.984000	3.817700	-11.392000	23.255534	0.000515	20.724768
342.104235	-2.984900	3.816200	-11.390000	23.259394	0.000515	20.730533
343.104352	-2.947600	3.818000	-11.253000	23.257900	0.000515	20.729510
344.108304	-3.001200	3.816300	-11.453000	23.250628	0.000514	20.730283
345.104227	-2.988200	3.815500	-11.401000	23.263402	0.000514	20.708470
346.104000	-2.979400	3.816600	-11.370000	23.251548	0.000516	20.714609
347.105433	-2.993500	3.815600	-11.421000	23.257400	0.000515	20.721422
348.103083	-2.995300	3.814300	-11.424000	23.245173	0.000516	20.727661
349.108658	-2.989600	3.815000	-11.404000	23.281679	0.000516	20.719201
350.103880	-3.030000	3.814000	-11.555000	23.294901	0.000518	20.701157
351.105687	-3.001400	3.813800	-11.446000	23.295673	0.000517	20.703827
352.103977	-3.005700	3.815100	-11.466000	23.285339	0.000519	20.723818
353.104342	-2.987700	3.813500	-11.393000	23.316937	0.000518	20.736521
354.106589	-3.007600	3.812700	-11.467000	23.327420	0.000517	20.705299
355.108035	-3.004400	3.813900	-11.457000	23.347912	0.000519	20.720622
356.103374	-2.991900	3.813300	-11.408000	23.347687	0.000519	20.721819
357.104930	-3.016300	3.811300	-11.494000	23.388945	0.000519	20.710065
358.105459	-3.005300	3.812400	-11.456000	23.393626	0.000519	20.719498
359.106113	-3.009100	3.812800	-11.473000	23.401344	0.000517	20.704000
360.107512	-2.999400	3.812300	-11.434000	23.386405	0.000519	20.717477
361.105791	-3.019300	3.810800	-11.505000	23.357546	0.000519	20.729805
362.108787	-3.003700	3.809900	-11.443000	23.404879	0.000518	20.722243
363.107049	-3.008900	3.812200	-11.469000	23.430424	0.000518	20.711811
364.104431	-3.002100	3.811600	-11.443000	23.448524	0.000519	20.725686
365.111547	-3.025100	3.810000	-11.524000	23.426365	0.000519	20.729080
366.105917	-2.971900	3.810800	-11.324000	23.405700	0.000520	20.714530
367.106771	-3.008200	3.810600	-11.462000	23.409484	0.000521	20.729704
368.106887	-2.997900	3.809800	-11.420000	23.409708	0.000521	20.726609
369.106797	-3.000500	3.810500	-11.432000	23.440232	0.000520	20.712158
370.108288	-2.981800	3.811100	-11.363000	23.447253	0.000522	20.721567
371.109454	-2.998100	3.808700	-11.418000	23.443543	0.000523	20.727332
372.106826	-3.006700	3.809300	-11.453000	23.455045	0.000523	20.734120
373.108931	-3.008600	3.807700	-11.455000	23.458058	0.000523	20.732872
374.110927	-2.988900	3.808300	-11.382000	23.452580	0.000524	20.720269
375.108406	-2.994500	3.807300	-11.400000	23.459203	0.000522	20.739710
376.112187	-3.013200	3.808500	-11.474000	23.479668	0.000522	20.731300
377.108836	-2.986200	3.807200	-11.369000	23.488680	0.000522	20.706192
378.110434	-3.009300	3.807200	-11.456000	23.467269	0.000521	20.731674
379.110523	-2.986900	3.807600	-11.372000	23.483302	0.000523	20.736365
380.112544	-2.997100	3.806800	-11.409000	23.518181	0.000523	20.738611
381.114520	-2.994600	3.807500	-11.400000	23.485966	0.000522	20.732871
382.115030	-3.014000	3.806800	-11.473000	23.505261	0.000523	20.736565
383.112358	-2.984500	3.806600	-11.358000	23.510539	0.000524	20.745649
384.111733	-3.007200	3.806100	-11.445000	23.497766	0.000523	20.752287
385.111588	-2.980600	3.807000	-11.345000	23.512281	0.000523	20.737438
386.113729	-2.986700	3.807000	-11.370000	23.527118	0.000525	20.723861
387.112311	-2.997400	3.805100	-11.403000	23.552238	0.000524	20.731024
388.111232	-2.998100	3.804600	-11.406000	23.548553	0.000526	20.717372
389.112750	-2.998700	3.804400	-11.407000	23.596326	0.000524	20.734443
390.115076	-3.007200	3.804600	-11.440000	23.583032	0.000524	20.742454
391.113895	-3.017200	3.804300	-11.477000	23.560104	0.000526	20.737013
392.118670	-2.981700	3.803800	-11.341000	23.541010	0.000525	20.730200
393.115142	-3.005400	3.801900	-11.425000	23.552237	0.000527	20.754732
394.118735	-2.996400	3.803800	-11.397000	23.545566	0.000527	20.743777
395.114697	-2.990000	3.803500	-11.371000	23.547408	0.000525	20.745623
396.115379	-2.997700	3.802200	-11.397000	23.570186	0.000525	20.734317
397.116711	-2.987600	3.802900	-11.361000	23.593089	0.000528	20.746371
398.118258	-2.980100	3.803600	-11.333000	23.597420	0.000526	20.751662
399.115864	-2.978200	3.802500	-11.323000	23.583355	0.000526	20.731397
400.117835	-2.986300	3.802400	-11.355000	23.574741	0.000527	20.734142
401.118700	-2.990500	3.801700	-11.369000	23.585221	0.000526	20.747493
402.114967	-2.985400	3.801600	-11.348000	23.580765	0.000527	20.764364
403.118834	-3.003800	3.802200	-11.419000	23.579570	0.000527	20.751312
404.115861	-3.004800	3.799800	-11.417000	23.613401	0.000528	20.737336
405.114247	-2.993600	3.801000	-11.378000	23.633514	0.000524	20.774570
406.117227	-2.996200	3.799700	-11.384000	23.643820	0.000528	20.748865
407.116421	-2.974600	3.800700	-11.305000	23.665377	0.000529	20.752459
408.119168	-2.994800	3.800000	-11.379000	23.644765	0.000527	20.741278
409.118309	-3.029500	3.797900	-11.505000	23.659178	0.000529	20.773272
410.117418	-2.999600	3.799600	-11.396000	23.628858	0.000530	20.746668
411.118197	-2.995200	3.798000	-11.375000	23.661766	0.000529	20.755952
412.119932	-3.027600	3.799100	-11.501000	23.644963	0.000531	20.765660
413.118739	-3.006400	3.798000	-11.418000	23.619349	0.000529	20.770326
414.123415	-3.002100	3.797700	-11.401000	23.643619	0.000529	20.748664
415.118902	-2.991500	3.799200	-11.364000	23.652954	0.000529	20.761342
416.121977	-3.015500	3.797900	-11.452000	23.673365	0.000530	20.773270
417.122113	-2.984700	3.797900	-11.334000	23.660670	0.000528	20.754853
418.121246	-3.010400	3.795800	-11.426000	23.674012	0.000529	20.752581
419.122434	-3.015900	3.796600	-11.449000	23.679687	0.000530	20.752107
420.120772	-2.991500	3.798000	-11.361000	23.689121	0.000532	20.757772
421.120409	-2.998400	3.796900	-11.384000	23.710403	0.000531	20.757298
422.120957	-3.011400	3.794900	-11.427000	23.712295	0.000529	20.756824
423.120926	-2.999400	3.796100	-11.385000	23.720011	0.000530	20.765034
424.120409	-3.010400	3.794100	-11.421000	23.675803	0.000532	20.763387
425.126068	-2.990700	3.795300	-11.350000	23.709581	0.000531	20.764060
426.121044	-2.999300	3.795100	-11.381000	23.674932	0.000531	20.760142
427.122694	-2.998000	3.794600	-11.375000	23.678491	0.000532	20.768453
428.128959	-3.008900	3.793200	-11.412000	23.732456	0.000532	20.764709
429.123324	-3.000900	3.794300	-11.386000	23.743383	0.000532	20.771871
430.134406	-2.997300	3.793500	-11.369000	23.782659	0.000530	20.755300
431.125035	-2.997800	3.793000	-11.370000	23.783705	0.000529	20.755400
432.124962	-3.027100	3.794300	-11.484000	23.764415	0.000532	20.763561
433.125071	-3.010400	3.792900	-11.418000	23.794432	0.000534	20.774217
434.124715	-3.009200	3.791900	-11.411000	23.802421	0.000535	20.757097
435.125155	-2.987800	3.792600	-11.331000	23.852248	0.000534	20.780979
436.126566	-2.981100	3.793800	-11.308000	23.868948	0.000533	20.770223
437.125079	-3.004900	3.791100	-11.391000	23.875145	0.000531	20.777386
438.124281	-3.006200	3.792600	-11.400000	23.868574	0.000534	20.793557
439.124674	-2.971600	3.793700	-11.273000	23.857151	0.000529	20.785895
440.127031	-2.981300	3.791400	-11.303000	23.858370	0.000532	20.761039
441.126899	-3.006600	3.791100	-11.397000	23.863248	0.000532	20.751231
442.127409	-2.999200	3.791600	-11.371000	23.875393	0.000533	20.780954
443.126899	-3.016800	3.790400	-11.434000	23.867777	0.000532	20.771895
444.128003	-2.991300	3.791100	-11.340000	23.899634	0.000535	20.764483
445.126890	-3.008100	3.790100	-11.400000	23.882884	0.000533	20.774240
446.133622	-3.011800	3.789700	-11.413000	23.900778	0.000536	20.754725
447.126741	-2.998400	3.790300	-11.364000	23.898763	0.000533	20.782576
448.126659	-2.995200	3.789600	-11.350000	23.884427	0.000536	20.789064
449.128236	-3.001000	3.789500	-11.372000	23.865040	0.000534	20.765357
450.127373	-2.998900	3.789600	-11.364000	23.900903	0.000536	20.784248
451.131501	-2.993400	3.789700	-11.344000	23.898638	0.000533	20.780555
452.131615	-3.022200	3.788800	-11.449000	23.914367	0.000535	20.802491
453.128555	-2.996800	3.788200	-11.352000	23.927183	0.000535	20.782152
454.129188	-3.010600	3.788200	-11.405000	23.945474	0.000536	20.772993
455.130959	-2.988200	3.788400	-11.319000	23.959585	0.000533	20.776711
456.132663	-3.014500	3.786800	-11.414000	23.979792	0.000534	20.784173
457.130577	-2.988300	3.787400	-11.317000	23.949531	0.000536	20.789863
458.129364	-3.011800	3.786000	-11.402000	23.951572	0.000534	20.783375
459.133450	-2.990900	3.786100	-11.323000	23.933330	0.000533	20.796851
460.130580	-3.033100	3.785000	-11.479000	23.927954	0.000536	20.794779
461.135089	-2.993400	3.787000	-11.335000	23.919045	0.000536	20.802441
462.133570	-3.006000	3.785100	-11.376000	23.922405	0.000537	20.787318
463.133117	-3.012000	3.784000	-11.397000	23.921808	0.000535	20.777236
464.133733	-3.010800	3.786300	-11.399000	23.919991	0.000535	20.792483
465.134859	-3.005300	3.784000	-11.372000	23.887588	0.000536	20.803139
466.132779	-2.991600	3.784000	-11.319000	23.912177	0.000535	20.800295
467.137440	-2.995400	3.784700	-11.335000	23.932783	0.000535	20.784448
468.134378	-2.986700	3.784700	-11.303000	23.921733	0.000537	20.798972
469.135710	-2.994000	3.783800	-11.327000	23.926835	0.000535	20.794131
470.141949	-3.012700	3.783100	-11.397000	23.943808	0.000537	20.808780
471.136261	-2.993700	3.783600	-11.327000	23.958864	0.000538	20.774091
472.135983	-2.983400	3.784900	-11.291000	24.000671	0.000537	20.781878
473.134839	-2.978500	3.783000	-11.267000	23.993156	0.000538	20.782402
474.135148	-2.993800	3.782600	-11.324000	24.044915	0.000538	20.791161
475.138837	-3.007600	3.783000	-11.377000	24.074950	0.000537	20.774341
476.137550	-3.002100	3.782900	-11.356000	24.083336	0.000538	20.806934
477.141026	-3.003300	3.780400	-11.353000	24.081867	0.000535	20.797400
478.136956	-3.007700	3.780900	-11.371000	24.034962	0.000537	20.792559
479.136921	-2.998900	3.779800	-11.335000	24.051609	0.000537	20.813047
480.137862	-3.016700	3.779300	-11.400000	24.059298	0.000538	20.816965
481.138139	-3.013700	3.780900	-11.394000	24.042924	0.000537	20.801493
482.139517	-2.995800	3.781000	-11.326000	24.038644	0.000537	20.797675
483.139370	-2.996900	3.780700	-11.329000	24.033170	0.000538	20.801193
484.138942	-3.024600	3.778100	-11.426000	24.054619	0.000536	20.809902
485.139399	-2.991000	3.779200	-11.303000	24.057282	0.000538	20.797400
486.139669	-3.001300	3.779400	-11.342000	24.058875	0.000536	20.801842
487.139164	-2.997900	3.778500	-11.326000	24.047950	0.000538	20.803214
488.141703	-2.983200	3.779100	-11.273000	24.052479	0.000537	20.813446
489.139253	-3.008800	3.778000	-11.366000	24.039888	0.000539	20.804137
490.139843	-2.994900	3.778800	-11.316000	24.042650	0.000536	20.796950
491.138648	-2.987500	3.778300	-11.287000	24.035832	0.000538	20.808604
492.140682	-2.987200	3.777400	-11.282000	24.088112	0.000538	20.807931
493.139442	-2.984600	3.778000	-11.275000	24.093038	0.000536	20.815242
494.142711	-3.002600	3.777800	-11.342000	24.103538	0.000536	20.800643
495.138643	-2.990700	3.777000	-11.294000	24.142578	0.000536	20.817987
496.138530	-2.997000	3.776500	-11.318000	24.158552	0.000538	20.823102
497.143782	-3.021300	3.774500	-11.404000	24.166190	0.000535	20.813220
498.142665	-2.997500	3.775100	-11.315000	24.122125	0.000540	20.812646
499.142569	-2.997300	3.776000	-11.316000	24.141259	0.000541	20.815716
500.140882	-2.980700	3.776100	-11.254000	24.133620	0.000537	20.840770
501.140725	-2.987500	3.775600	-11.279000	24.156163	0.000536	20.807905
502.139274	-2.976200	3.775100	-11.233000	24.081566	0.000538	20.805633
503.140121	-2.976400	3.776600	-11.240000	24.062332	0.000538	20.831861
504.143070	-2.987500	3.773900	-11.274000	24.069423	0.000538	20.829016
505.140722	-3.010900	3.773700	-11.361000	24.068751	0.000539	20.822652
506.147841	-2.977500	3.775800	-11.241000	24.071116	0.000538	20.826920
507.141332	-2.998800	3.773300	-11.314000	24.098561	0.000537	20.817462
508.141685	-3.009700	3.773100	-11.355000	24.121104	0.000538	20.834381
509.140289	-2.996800	3.773100	-11.306000	24.140263	0.000538	20.833682
510.143991	-2.976400	3.774400	-11.234000	24.143100	0.000539	20.837950
511.143804	-2.998100	3.773600	-11.313000	24.140612	0.000539	20.839721
512.143917	-2.993500	3.773200	-11.294000	24.112171	0.000539	20.832534
513.145352	-3.031800	3.771300	-11.433000	24.117696	0.000536	20.838549
514.144186	-3.012000	3.770700	-11.357000	24.121503	0.000539	20.850427
515.147233	-2.998600	3.772400	-11.311000	24.141358	0.000539	20.830988
516.144204	-2.996700	3.773500	-11.306000	24.174998	0.000538	20.835330
517.146266	-3.001600	3.770400	-11.317000	24.190025	0.000540	20.831910
518.148230	-2.986000	3.771900	-11.263000	24.176938	0.000540	20.824000
519.148850	-2.991900	3.770800	-11.281000	24.206521	0.000540	20.823326
520.148647	-2.977800	3.771800	-11.229000	24.193135	0.000540	20.833133
521.148311	-2.993000	3.770300	-11.284000	24.218364	0.000541	20.828567
522.148122	-3.012700	3.769300	-11.355000	24.273820	0.000538	20.834406
523.149221	-2.993600	3.770000	-11.285000	24.250484	0.000540	20.820482
524.148393	-2.983400	3.770500	-11.248000	24.234237	0.000539	20.845436
525.149777	-2.989900	3.770200	-11.271000	24.211472	0.000541	20.846310
526.151081	-2.991900	3.769500	-11.278000	24.214706	0.000539	20.838648
527.149430	-3.015900	3.768800	-11.366000	24.229709	0.000539	20.837101
528.153623	-3.014700	3.768400	-11.360000	24.244164	0.000541	20.849704
529.151235	-3.011800	3.767900	-11.347000	24.261182	0.000538	20.844014
530.153802	-3.006400	3.767600	-11.326000	24.282900	0.000538	20.834980
531.152682	-3.020300	3.768200	-11.381000	24.284244	0.000539	20.841543
532.151490	-3.019500	3.767500	-11.375000	24.291459	0.000539	20.859685
533.151876	-3.017400	3.766500	-11.364000	24.299917	0.000540	20.835929
534.152143	-3.011900	3.767100	-11.344000	24.302729	0.000538	20.846335
535.151721	-3.026000	3.765700	-11.394000	24.295490	0.000539	20.842393
536.152826	-3.006600	3.767000	-11.325000	24.291832	0.000539	20.829715
537.152465	-3.012900	3.767000	-11.349000	24.237075	0.000539	20.832636
538.153512	-3.004000	3.766100	-11.313000	24.212618	0.000539	20.838450
539.159533	-3.000000	3.765700	-11.296000	24.222993	0.000541	20.846485
540.154591	-2.994300	3.764900	-11.273000	24.240608	0.000538	20.851352
541.158447	-2.984500	3.764400	-11.234000	24.224660	0.000537	20.836304
542.154479	-3.002800	3.764200	-11.302000	24.254441	0.000539	20.838675
543.159638	-2.980000	3.765200	-11.220000	24.262328	0.000539	20.841371
544.156373	-2.996100	3.764300	-11.277000	24.303751	0.000541	20.842144
545.156367	-2.990800	3.763600	-11.255000	24.313080	0.000538	20.862882
546.156518	-2.997400	3.763600	-11.280000	24.361516	0.000540	20.861684
547.158796	-2.994100	3.763200	-11.267000	24.358307	0.000540	20.864154
548.155774	-3.006600	3.762600	-11.312000	24.365596	0.000538	20.868147
549.155230	-3.000100	3.762000	-11.284000	24.389079	0.000539	20.858515
550.154465	-2.995700	3.761900	-11.269000	24.380074	0.000539	20.842370
551.154972	-3.022200	3.763400	-11.373000	24.395248	0.000538	20.862807
552.156463	-2.995400	3.762700	-11.270000	24.417089	0.000539	20.859114
553.154159	-3.010500	3.761500	-11.323000	24.410448	0.000537	20.866675
554.154519	-3.002900	3.761300	-11.294000	24.413631	0.000537	20.867499
555.157443	-3.011500	3.761000	-11.325000	24.430348	0.000540	20.852976
556.155046	-3.001700	3.761700	-11.290000	24.402935	0.000539	20.854872
557.158254	-3.021600	3.761600	-11.365000	24.349948	0.000539	20.869520
558.156430	-3.008500	3.760400	-11.312000	24.361193	0.000541	20.862783
559.155579	-3.010300	3.759600	-11.316000	24.361094	0.000541	20.867424
560.160796	-2.997800	3.760300	-11.271000	24.412064	0.000536	20.878254
561.156921	-3.008100	3.760300	-11.310000	24.381168	0.000538	20.868122
562.160683	-3.026300	3.758900	-11.375000	24.384154	0.000538	20.867798
563.157251	-3.006700	3.758900	-11.301000	24.437636	0.000538	20.881622
564.156614	-3.005900	3.759300	-11.299000	24.420024	0.000540	20.871067
565.157378	-2.994200	3.758500	-11.252000	24.432711	0.000539	20.881897
566.157206	-2.982300	3.759800	-11.212000	24.437113	0.000539	20.887262
567.157997	-3.004300	3.758000	-11.289000	24.439924	0.000538	20.853100
568.158482	-2.993800	3.757900	-11.249000	24.420298	0.000537	20.874660
569.159431	-3.014300	3.757100	-11.324000	24.401392	0.000540	20.871341
570.158589	-3.007600	3.757500	-11.300000	24.371790	0.000538	20.865352
571.159431	-2.992600	3.758100	-11.246000	24.418382	0.000538	20.896444
572.160142	-2.978800	3.757800	-11.193000	24.407586	0.000538	20.886089
573.161886	-3.019900	3.756400	-11.344000	24.355919	0.000541	20.876457
574.163055	-3.005600	3.756700	-11.290000	24.398656	0.000538	20.877604
575.163229	-3.000700	3.756200	-11.271000	24.392810	0.000538	20.903506
576.164327	-2.990700	3.756000	-11.232000	24.423009	0.000539	20.891603
577.162460	-2.994100	3.756000	-11.245000	24.444228	0.000539	20.884916
578.166357	-3.016100	3.755800	-11.326000	24.461142	0.000536	20.890980
579.162065	-3.010200	3.755500	-11.303000	24.471590	0.000538	20.898616
580.163516	-3.005000	3.755700	-11.285000	24.448581	0.000535	20.914411
581.163145	-3.001500	3.754900	-11.269000	24.460919	0.000540	20.891230
582.164530	-3.004500	3.754300	-11.279000	24.436791	0.000537	20.888361
583.167968	-3.016400	3.753300	-11.320000	24.437513	0.000537	20.905679
584.166890	-2.992700	3.754600	-11.235000	24.455249	0.000538	20.907351
585.163162	-3.005700	3.754400	-11.284000	24.480870	0.000538	20.876160
586.164148	-2.992900	3.753800	-11.234000	24.452613	0.000537	20.882897
587.165946	-2.998000	3.754300	-11.255000	24.455623	0.000538	20.902037
588.161998	-3.020300	3.752900	-11.333000	24.466617	0.000535	20.881301
589.166972	-3.002200	3.752200	-11.264000	24.502088	0.000536	20.896972
590.164491	-3.010100	3.752600	-11.295000	24.475846	0.000537	20.894352
591.165982	-3.008800	3.752900	-11.290000	24.492438	0.000537	20.895825
592.169534	-3.011200	3.751800	-11.297000	24.459206	0.000538	20.895675
593.167180	-2.988400	3.750600	-11.207000	24.480772	0.000537	20.896923
594.170269	-2.981300	3.751400	-11.183000	24.458486	0.000537	20.887367
595.166916	-2.978400	3.753100	-11.177000	24.467241	0.000535	20.894254
596.168791	-3.001800	3.749900	-11.256000	24.459705	0.000537	20.909451
597.166767	-3.003200	3.750100	-11.262000	24.467714	0.000536	20.911796
598.168879	-3.012400	3.749000	-11.292000	24.518606	0.000538	20.912595
599.168457	-3.003900	3.748800	-11.261000	24.544524	0.000535	20.899245
600.171104	-2.990700	3.750800	-11.217000	24.505574	0.000537	20.893357
601.168757	-3.014000	3.749400	-11.300000	24.531019	0.000534	20.883326
602.168260	-3.004300	3.749100	-11.262000	24.492739	0.000535	20.894231
603.171489	-3.009700	3.749500	-11.283000	24.474333	0.000534	20.903265
604.168152	-2.992800	3.748200	-11.217000	24.503685	0.000534	20.909953
605.170385	-3.026400	3.747700	-11.341000	24.534652	0.000535	20.897401
606.169202	-3.016600	3.748400	-11.306000	24.529827	0.000535	20.884500
607.168756	-3.013300	3.748100	-11.293000	24.519455	0.000537	20.900172
608.168946	-3.012400	3.747600	-11.288000	24.534877	0.000534	20.909480
609.168764	-3.003500	3.748700	-11.257000	24.529156	0.000535	20.900896
610.170292	-2.997400	3.747700	-11.232000	24.553035	0.000535	20.892612
611.169974	-3.031600	3.746300	-11.356000	24.558905	0.000535	20.908458
612.169038	-3.012900	3.746300	-11.286000	24.569749	0.000535	20.891365
613.168903	-3.013400	3.745900	-11.287000	24.581788	0.000536	20.890642
614.169422	-3.018800	3.746500	-11.308000	24.529656	0.000536	20.883855
615.172304	-2.982000	3.747600	-11.175000	24.522717	0.000534	20.881160
616.177532	-2.988200	3.745700	-11.191000	24.526448	0.000533	20.869258
617.172787	-3.015800	3.744900	-11.293000	24.514484	0.000535	20.865315
618.171129	-2.989500	3.746500	-11.198000	24.535055	0.000536	20.881685
619.173134	-2.986100	3.744900	-11.182000	24.574800	0.000535	20.885054
620.173854	-2.991000	3.745000	-11.200000	24.547491	0.000536	20.878517
621.172028	-3.009600	3.744500	-11.269000	24.590346	0.000534	20.874575
622.171607	-3.013400	3.743400	-11.279000	24.592386	0.000536	20.867612
623.171953	-2.990100	3.742700	-11.190000	24.580920	0.000533	20.872703
624.172477	-2.981100	3.742900	-11.156000	24.598977	0.000534	20.858106
625.173975	-2.968600	3.744400	-11.115000	24.617083	0.000533	20.868686
626.175365	-2.982500	3.742200	-11.160000	24.600942	0.000535	20.855336
627.173572	-2.982700	3.743200	-11.164000	24.633200	0.000535	20.886753
628.173438	-2.978800	3.743500	-11.151000	24.618178	0.000534	20.870259
629.174985	-2.988000	3.743300	-11.184000	24.624620	0.000534	20.852068
630.173999	-2.984600	3.743100	-11.171000	24.650186	0.000532	20.867764
631.176279	-3.002600	3.742200	-11.236000	24.652500	0.000533	20.858232
632.174604	-2.982400	3.742100	-11.160000	24.653495	0.000534	20.862549
633.173050	-3.016400	3.740200	-11.281000	24.632206	0.000534	20.881489
634.175894	-2.994200	3.741200	-11.202000	24.646034	0.000532	20.843210
635.174180	-2.985600	3.741100	-11.169000	24.593930	0.000534	20.862525
636.176828	-3.013700	3.740400	-11.271000	24.584354	0.000532	20.835848
637.177947	-3.008000	3.739900	-11.249000	24.615493	0.000532	20.852393
638.175577	-3.019600	3.739700	-11.291000	24.618004	0.000533	20.849223
639.174546	-3.019800	3.739700	-11.293000	24.572292	0.000532	20.844607
640.177227	-3.000000	3.739800	-11.219000	24.610021	0.000534	20.840739
641.174521	-3.016900	3.739100	-11.280000	24.631933	0.000531	20.866517
642.178206	-2.993600	3.739000	-11.192000	24.678986	0.000532	20.844032
643.176472	-2.997700	3.738600	-11.207000	24.671898	0.000532	20.860628
644.175260	-3.016200	3.738600	-11.275000	24.671177	0.000531	20.849473
645.177753	-3.000500	3.738300	-11.216000	24.671326	0.000533	20.866691
646.176877	-2.997300	3.738800	-11.205000	24.674311	0.000533	20.842660
647.180511	-2.979300	3.739600	-11.140000	24.643920	0.000532	20.831606
648.176983	-2.989600	3.737900	-11.174000	24.660334	0.000531	20.835274
649.177039	-2.974000	3.739000	-11.119000	24.635340	0.000531	20.840540
650.177599	-2.999100	3.737400	-11.208000	24.601466	0.000532	20.838793
651.177637	-3.005700	3.738600	-11.237000	24.605570	0.000532	20.853816
652.177799	-2.994000	3.737000	-11.188000	24.621587	0.000531	20.852344
653.181787	-2.997900	3.736200	-11.199000	24.621015	0.000532	20.841813
654.177964	-2.988000	3.735300	-11.159000	24.622831	0.000529	20.844109
655.178441	-2.984600	3.736000	-11.150000	24.643672	0.000532	20.836098
656.182906	-2.983800	3.737100	-11.150000	24.662275	0.000531	20.834850
657.178262	-2.973400	3.736600	-11.110000	24.631585	0.000530	20.826341
658.181402	-2.996400	3.736600	-11.195000	24.653943	0.000530	20.837870
659.179750	-2.979800	3.734000	-11.125000	24.686398	0.000530	20.829186
660.178646	-2.999200	3.734900	-11.200000	24.692640	0.000530	20.846354
661.178825	-2.990100	3.735000	-11.167000	24.673217	0.000530	20.851046
662.181050	-2.986700	3.733600	-11.150000	24.638548	0.000530	20.848500
663.186193	-3.029100	3.733500	-11.308000	24.641160	0.000529	20.833103
664.183715	-3.005000	3.734500	-11.221000	24.634867	0.000531	20.828685
665.182686	-3.017000	3.731700	-11.257000	24.641110	0.000529	20.836372
666.184798	-3.008500	3.734000	-11.233000	24.668019	0.000532	20.819752
667.184027	-2.999500	3.733600	-11.198000	24.717333	0.000531	20.824193
668.183998	-3.003100	3.733600	-11.211000	24.708754	0.000530	20.831231
669.184555	-2.984100	3.733000	-11.139000	24.744863	0.000530	20.829534
670.184786	-2.988200	3.733700	-11.156000	24.769979	0.000530	20.827238
671.185794	-3.005500	3.731300	-11.213000	24.726262	0.000530	20.817506
672.184399	-3.018900	3.732000	-11.265000	24.716563	0.000531	20.823420
673.186705	-3.014100	3.732400	-11.249000	24.715493	0.000530	20.821872
674.187226	-2.994100	3.730800	-11.169000	24.687316	0.000529	20.833900
675.185843	-3.018400	3.731000	-11.261000	24.703829	0.000529	20.839090
676.186122	-2.986400	3.730600	-11.140000	24.708902	0.000529	20.829957
677.185832	-3.023300	3.730400	-11.277000	24.649141	0.000529	20.822620
678.185930	-3.024600	3.730100	-11.280000	24.675950	0.000527	20.827711
679.188892	-3.000200	3.730000	-11.190000	24.648942	0.000527	20.846127
680.189712	-2.975700	3.729600	-11.097000	24.654164	0.000529	20.808221
681.199099	-3.006400	3.727700	-11.206000	24.691045	0.000528	20.828159
682.218100	-2.991000	3.730100	-11.155000	24.722006	0.000527	20.803278
683.198615	-2.999300	3.727900	-11.180000	24.720465	0.000527	20.831129
684.199614	-3.004800	3.729000	-11.204000	24.711263	0.000528	20.842283
685.189231	-3.011000	3.728800	-11.227000	24.740557	0.000528	20.831851
686.188783	-3.002100	3.727600	-11.190000	24.761222	0.000527	20.827459
687.190287	-2.976400	3.726800	-11.091000	24.784547	0.000526	20.838064
688.191288	-2.992000	3.727400	-11.152000	24.772685	0.000528	20.823790
689.189532	-2.998400	3.726900	-11.173000	24.755601	0.000526	20.831301
690.189862	-3.008300	3.728100	-11.215000	24.766393	0.000526	20.826010
691.189753	-2.987700	3.726900	-11.133000	24.762638	0.000527	20.846423
692.190227	-3.007500	3.726900	-11.208000	24.741376	0.000529	20.840259
693.192466	-3.003500	3.726500	-11.191000	24.759803	0.000526	20.845474
694.189600	-3.004600	3.727500	-11.198000	24.742395	0.000525	20.823739
695.196463	-3.012700	3.726000	-11.225000	24.727549	0.000528	20.824487
696.191131	-3.023800	3.725200	-11.264000	24.730235	0.000527	20.814381
697.190038	-3.009400	3.724900	-11.209000	24.717055	0.000526	20.799732
698.192103	-2.981100	3.725600	-11.105000	24.737123	0.000525	20.833621
699.190199	-2.988200	3.725600	-11.131000	24.754456	0.000524	20.845799
700.190619	-3.006900	3.723900	-11.196000	24.773728	0.000523	20.818673
701.192950	-2.988600	3.724300	-11.129000	24.750178	0.000524	20.823963
702.190157	-3.024400	3.722500	-11.257000	24.747045	0.000524	20.809913
703.191716	-3.006600	3.724600	-11.197000	24.719267	0.000521	20.833246
704.194842	-3.019900	3.724200	-11.246000	24.722948	0.000523	20.836465
705.192446	-2.997100	3.723900	-11.160000	24.683158	0.000523	20.816926
706.193719	-2.997600	3.722900	-11.158000	24.718297	0.000523	20.830376
707.192926	-3.000500	3.724200	-11.172000	24.748985	0.000525	20.816601
708.191974	-2.998200	3.722400	-11.160000	24.771564	0.000524	20.832147
709.193777	-3.012300	3.722200	-11.212000	24.794442	0.000522	20.822390
710.193022	-3.024600	3.721500	-11.255000	24.804264	0.000523	20.830351
711.195003	-3.004000	3.722100	-11.180000	24.763905	0.000524	20.829677
712.193166	-2.991900	3.722300	-11.136000	24.779024	0.000522	20.820194
713.194452	-3.007500	3.722900	-11.195000	24.762412	0.000521	20.828179
714.201586	-2.999900	3.722100	-11.165000	24.747218	0.000523	20.830475
715.194730	-2.996400	3.722400	-11.153000	24.742095	0.000523	20.809688
716.196083	-2.986700	3.721900	-11.115000	24.753857	0.000522	20.813905
717.196917	-2.977600	3.722500	-11.083000	24.728442	0.000520	20.817798
718.195542	-3.005600	3.719700	-11.178000	24.782256	0.000520	20.822489
719.196290	-2.993400	3.721500	-11.139000	24.808068	0.000521	20.801926
720.198791	-3.002400	3.720300	-11.169000	24.839697	0.000521	20.832247
721.197332	-2.990600	3.720000	-11.124000	24.857774	0.000521	20.825733
722.200922	-2.988000	3.719600	-11.112000	24.846609	0.000520	20.818795
723.198069	-2.994700	3.719000	-11.136000	24.835768	0.000522	20.813131
724.197382	-2.980600	3.719300	-11.085000	24.866974	0.000521	20.819320
725.197936	-3.012200	3.717400	-11.196000	24.876994	0.000521	20.788599
726.198817	-2.995200	3.718200	-11.136000	24.890918	0.000522	20.824385
727.200405	-3.016200	3.719400	-11.217000	24.869037	0.000520	20.796260
728.203210	-2.980100	3.719400	-11.083000	24.829849	0.000521	20.817148
729.200116	-3.010800	3.717200	-11.191000	24.881992	0.000519	20.822538
730.200500	-3.028400	3.716100	-11.252000	24.855858	0.000516	20.811957
731.204465	-2.984800	3.717100	-11.093000	24.827611	0.000519	20.831496
732.202305	-3.013500	3.716800	-11.200000	24.803491	0.000518	20.805393
733.205324	-3.013000	3.716300	-11.196000	24.818186	0.000518	20.804020
734.202873	-3.010200	3.716200	-11.185000	24.823706	0.000518	20.833268
735.204163	-2.994200	3.716800	-11.128000	24.838179	0.000518	20.813179
736.205866	-2.992500	3.716800	-11.122000	24.865878	0.000519	20.830548
737.205244	-2.990200	3.715300	-11.109000	24.870453	0.000517	20.793888
738.217701	-3.001400	3.715300	-11.150000	24.872517	0.000520	20.814451
739.205791	-3.005000	3.715800	-11.165000	24.872567	0.000519	20.814027
740.205338	-2.991200	3.715100	-11.112000	24.880921	0.000517	20.809135
741.206604	-2.994900	3.715400	-11.126000	24.854738	0.000516	20.798505
742.206558	-3.004100	3.715000	-11.159000	24.893676	0.000515	20.806290
743.206415	-3.021000	3.713500	-11.217000	24.889971	0.000518	20.794511
744.211021	-2.987200	3.715500	-11.098000	24.870527	0.000515	20.809609
745.208470	-3.007100	3.714000	-11.168000	24.887509	0.000517	20.792515
746.207739	-2.999100	3.714200	-11.138000	24.860357	0.000515	20.797980
747.207154	-3.003800	3.714100	-11.155000	24.883506	0.000516	20.797506
748.211388	-3.016900	3.712900	-11.201000	24.876420	0.000517	20.821213
749.210667	-3.009800	3.713100	-11.175000	24.909241	0.000513	20.809585
750.210501	-3.016600	3.713500	-11.201000	24.878086	0.000515	20.799178
751.210863	-2.996400	3.712500	-11.123000	24.892731	0.000516	20.819567
752.215058	-2.996400	3.713000	-11.125000	24.922792	0.000514	20.799478
753.209169	-2.994100	3.713300	-11.117000	24.927268	0.000514	20.808237
754.214234	-2.995300	3.711800	-11.117000	24.952977	0.000514	20.786626
755.211086	-3.016900	3.711800	-11.197000	24.964041	0.000513	20.792516
756.212604	-3.008900	3.712200	-11.169000	24.929357	0.000511	20.803696
757.214942	-3.022900	3.710200	-11.214000	24.946016	0.000515	20.822787
758.212925	-3.021100	3.710700	-11.210000	24.968691	0.000514	20.822787
759.217417	-2.999700	3.710800	-11.130000	24.969735	0.000513	20.795386
760.213477	-2.998500	3.711000	-11.127000	24.895369	0.000512	20.802773
761.217786	-3.004100	3.709900	-11.144000	24.841760	0.000511	20.807765
762.213906	-2.989000	3.709300	-11.086000	24.835519	0.000511	20.799130
763.214235	-2.993000	3.710500	-11.105000	24.841338	0.000511	20.812557
764.215016	-2.992300	3.708900	-11.096000	24.864737	0.000510	20.787203
765.217171	-3.006300	3.710000	-11.153000	24.894003	0.000511	20.790971
766.214593	-3.006800	3.708700	-11.151000	24.917922	0.000512	20.795538
767.213774	-3.002100	3.709100	-11.134000	24.971279	0.000510	20.808316
768.218923	-3.008400	3.708100	-11.154000	24.967277	0.000510	20.801927
769.214645	-3.009400	3.708300	-11.159000	24.952260	0.000508	20.782114
770.215058	-3.015900	3.708800	-11.185000	24.937019	0.000508	20.783886
771.214790	-3.003100	3.708300	-11.136000	24.899276	0.000507	20.795790
772.218047	-3.014600	3.708000	-11.177000	24.901664	0.000509	20.777323
773.213476	-3.019400	3.706800	-11.192000	24.941074	0.000509	20.759505
774.213252	-3.001900	3.707300	-11.128000	24.927300	0.000508	20.786932
775.218094	-2.968700	3.708400	-11.008000	24.915266	0.000508	20.772009
776.217777	-2.994400	3.708400	-11.104000	24.917877	0.000509	20.770362
777.214860	-2.975800	3.706700	-11.029000	24.912183	0.000508	20.781243
778.214651	-2.997800	3.707400	-11.113000	24.955346	0.000508	20.786634
779.217787	-3.001100	3.707100	-11.124000	24.980732	0.000507	20.761853
780.215435	-3.006300	3.705700	-11.139000	24.972528	0.000506	20.791077
781.221478	-3.022400	3.705400	-11.198000	24.977973	0.000509	20.789904
782.217322	-2.994500	3.705800	-11.096000	24.961091	0.000509	20.770114
783.217843	-3.003400	3.705000	-11.127000	24.974516	0.000509	20.779796
784.219874	-2.968700	3.705600	-11.000000	24.999553	0.000509	20.787383
785.218329	-2.986500	3.704900	-11.063000	24.964920	0.000507	20.762577
786.222063	-2.979500	3.705900	-11.041000	24.949927	0.000509	20.777875
787.217609	-2.982300	3.704700	-11.048000	24.944756	0.000507	20.762253
788.217520	-2.997500	3.705000	-11.105000	24.965442	0.000506	20.771637
789.218148	-2.986300	3.704100	-11.061000	24.960569	0.000506	20.783815
790.217124	-3.014200	3.703400	-11.162000	24.965815	0.000505	20.743560
791.218491	-2.991800	3.704000	-11.081000	24.952638	0.000505	20.765423
792.220343	-2.998200	3.701900	-11.098000	24.950897	0.000507	20.760356
793.219300	-2.950600	3.705600	-10.933000	24.956243	0.000505	20.768567
794.220290	-2.989900	3.703600	-11.072000	24.988465	0.000503	20.783365
795.226923	-3.005100	3.702800	-11.126000	24.953956	0.000505	20.774332
796.223128	-3.008800	3.702800	-11.140000	24.925711	0.000504	20.754991
797.221924	-2.998500	3.701800	-11.099000	24.911638	0.000503	20.752246
798.220927	-3.000500	3.702200	-11.107000	24.897117	0.000503	20.765647
799.220338	-3.016400	3.700000	-11.160000	24.915045	0.000504	20.777003
800.222956	-3.009300	3.700700	-11.135000	24.947840	0.000503	20.762029
801.222473	-2.983600	3.700900	-11.042000	24.930710	0.000500	20.763328
802.224649	-3.015700	3.701100	-11.161000	24.920441	0.000501	20.761556
803.225211	-2.990700	3.700800	-11.066000	24.899481	0.000504	20.751424
804.225562	-3.014200	3.700100	-11.152000	24.912684	0.000502	20.764675
805.225842	-3.002000	3.701700	-11.112000	24.924793	0.000503	20.755018
806.225194	-2.995600	3.701000	-11.086000	24.938518	0.000501	20.767371
807.228627	-3.016400	3.700400	-11.161000	24.985608	0.000500	20.759161
808.226456	-2.994900	3.700100	-11.080000	25.003559	0.000501	20.751574
809.230458	-2.999700	3.699400	-11.096000	24.980114	0.000502	20.737524
810.225941	-3.006300	3.699400	-11.121000	24.958383	0.000502	20.773560
811.225790	-2.974500	3.699600	-11.003000	24.956594	0.000499	20.741418
812.229578	-2.997900	3.698900	-11.088000	24.949831	0.000501	20.766399
813.229902	-2.997600	3.698500	-11.085000	24.924769	0.000501	20.753098
814.229229	-3.017600	3.696900	-11.154000	24.955078	0.000500	20.754595
815.228342	-3.010100	3.698700	-11.133000	24.971537	0.000499	20.735079
816.234033	-2.998900	3.697400	-11.087000	25.000377	0.000500	20.758812
817.230014	-3.023700	3.697100	-11.178000	25.014748	0.000501	20.752374
818.237306	-3.015600	3.697500	-11.150000	25.023425	0.000499	20.758239
819.230396	-3.005100	3.698000	-11.112000	25.043811	0.000500	20.745037
820.230415	-3.004100	3.696500	-11.104000	25.063500	0.000499	20.759112
821.232732	-3.000700	3.696200	-11.090000	25.053632	0.000498	20.744464
822.231396	-2.932500	3.697600	-10.841000	25.037745	0.000500	20.727567
823.231944	-2.999200	3.694700	-11.081000	25.004704	0.000499	20.746560
824.231910	-2.982700	3.696100	-11.024000	24.975813	0.000497	20.739372
825.232263	-2.974900	3.696600	-10.995000	24.975142	0.000501	20.728266
826.231787	-2.995500	3.696200	-11.070000	24.973004	0.000499	20.720429
827.232456	-3.000500	3.694400	-11.085000	25.014599	0.000497	20.719506
828.232301	-3.001500	3.694600	-11.089000	25.023126	0.000497	20.735179
829.234834	-3.010500	3.695200	-11.123000	25.016961	0.000499	20.729464
830.236115	-3.010500	3.692500	-11.115000	24.987798	0.000498	20.717261
831.232866	-3.002300	3.695200	-11.094000	24.972656	0.000497	20.738099
832.236624	-3.007200	3.695000	-11.111000	24.942995	0.000500	20.734880
833.235066	-3.006400	3.693100	-11.102000	24.945830	0.000497	20.726819
834.239916	-2.976000	3.693600	-10.991000	24.944636	0.000495	20.748381
835.236257	-2.996600	3.693400	-11.066000	24.986256	0.000497	20.732783
836.235704	-2.998700	3.692900	-11.073000	24.985013	0.000496	20.743865
837.239281	-2.992600	3.693100	-11.052000	24.989737	0.000496	20.728217
838.236607	-3.013500	3.693200	-11.128000	24.996873	0.000494	20.742018
839.237804	-3.005300	3.692900	-11.097000	25.045254	0.000495	20.734157
840.239923	-3.020100	3.691300	-11.147000	25.026384	0.000497	20.724698
841.235454	-3.017100	3.691700	-11.137000	25.067504	0.000495	20.728516
842.236999	-2.983200	3.691600	-11.011000	25.048237	0.000496	20.736677
843.241570	-2.991800	3.691600	-11.044000	25.047466	0.000496	20.736852
844.237950	-3.003100	3.690200	-11.081000	25.033817	0.000495	20.739747
845.240993	-3.006200	3.689300	-11.090000	25.076205	0.000495	20.720655
846.240521	-2.995000	3.691800	-11.056000	25.066111	0.000496	20.713841
847.239016	-3.020100	3.690100	-11.144000	25.008259	0.000494	20.716936
848.241848	-3.032700	3.688400	-11.185000	25.032823	0.000492	20.731162
849.240646	-3.018200	3.689000	-11.133000	25.034339	0.000493	20.723200
850.244597	-3.013300	3.689200	-11.115000	25.044184	0.000494	20.706528
851.241690	-2.997900	3.689700	-11.060000	25.072152	0.000492	20.700938
852.242176	-2.999700	3.689400	-11.066000	25.090076	0.000493	20.722251
853.241417	-2.995000	3.689300	-11.049000	25.121349	0.000492	20.723773
854.242447	-2.991200	3.689600	-11.035000	25.074910	0.000491	20.717932
855.243683	-3.008600	3.689000	-11.098000	25.050348	0.000490	20.729788
856.246802	-3.003800	3.688400	-11.078000	25.080852	0.000488	20.717733
857.243942	-2.978600	3.689900	-10.989000	25.036426	0.000490	20.715337
858.244147	-2.973800	3.687500	-10.965000	25.013652	0.000490	20.734204
859.249586	-2.991700	3.687400	-11.031000	24.996000	0.000490	20.716010
860.243925	-2.991800	3.686900	-11.030000	25.004727	0.000489	20.718606
861.245638	-3.001500	3.686900	-11.065000	25.028171	0.000490	20.748304
862.243129	-3.004000	3.686100	-11.072000	25.042641	0.000490	20.730585
863.243836	-3.004000	3.687300	-11.076000	25.037195	0.000490	20.707574
864.244858	-3.019500	3.684500	-11.124000	25.051962	0.000490	20.724295
865.244484	-2.997400	3.685500	-11.046000	25.048506	0.000487	20.717506
866.245659	-2.997200	3.685600	-11.045000	25.104144	0.000488	20.745383
867.246394	-2.987300	3.685400	-11.008000	25.079856	0.000489	20.727165
868.244271	-3.048800	3.684200	-11.232000	25.091316	0.000489	20.723496
869.245006	-3.001300	3.685200	-11.059000	25.079781	0.000487	20.734677
870.245499	-3.013800	3.684200	-11.103000	25.089725	0.000491	20.746082
871.244359	-3.015400	3.684700	-11.110000	25.094821	0.000486	20.740292
872.245678	-2.984600	3.684400	-10.995000	25.097207	0.000488	20.720401
873.243415	-2.998700	3.684000	-11.046000	25.104864	0.000486	20.719552
874.244903	-2.997400	3.683600	-11.040000	25.086865	0.000485	20.703854
875.244706	-2.984400	3.683700	-10.993000	25.092583	0.000486	20.709594
876.243639	-2.997300	3.683500	-11.039000	25.130095	0.000486	20.731606
877.246539	-2.973600	3.684800	-10.956000	25.147124	0.000485	20.735898
878.245047	-3.007900	3.682600	-11.076000	25.148863	0.000484	20.722471
879.245129	-3.006300	3.682700	-11.071000	25.144439	0.000484	20.726090
880.245445	-3.008700	3.682900	-11.080000	25.134893	0.000484	20.734051
881.246278	-2.999300	3.681800	-11.042000	25.101507	0.000484	20.707173
882.247063	-3.005900	3.680600	-11.062000	25.121196	0.000483	20.734525
883.245322	-2.988400	3.682300	-11.004000	25.103023	0.000483	20.714859
884.245134	-2.994700	3.680800	-11.023000	25.115627	0.000485	20.721822
885.245563	-2.998700	3.681600	-11.039000	25.134992	0.000482	20.722771
886.249608	-2.988700	3.681100	-11.001000	25.144936	0.000484	20.738918
887.248596	-2.983600	3.680900	-10.981000	25.118660	0.000481	20.727712
888.249336	-2.985100	3.680700	-10.987000	25.129797	0.000481	20.718978
889.246405	-2.995500	3.680700	-11.025000	25.132259	0.000481	20.729984
890.246181	-2.986200	3.681600	-10.992000	25.117741	0.000482	20.728212
891.247242	-3.004100	3.679600	-11.052000	25.050768	0.000482	20.723096
892.248657	-2.992400	3.678500	-11.006000	25.045920	0.000480	20.743836
893.250655	-3.000500	3.678700	-11.037000	25.073789	0.000481	20.718704
894.247473	-2.989100	3.679300	-10.997000	25.085325	0.000482	20.716534
895.245226	-3.017100	3.677800	-11.095000	25.099122	0.000478	20.726591
896.249136	-3.000300	3.678400	-11.035000	25.087562	0.000481	20.725418
897.245450	-3.014100	3.678200	-11.084000	25.115207	0.000480	20.728039
898.249250	-2.994700	3.678600	-11.015000	25.068048	0.000480	20.724321
899.252283	-3.004200	3.677900	-11.048000	25.039110	0.000478	20.739370
900.245258	-2.993900	3.676700	-11.006000	25.044555	0.000480	20.750526
901.245733	-3.002700	3.676400	-11.038000	25.039359	0.000478	20.727292
902.247149	-3.000600	3.676200	-11.029000	25.059919	0.000477	20.722799
903.247398	-3.003300	3.676600	-11.041000	25.092163	0.000478	20.723398
904.251696	-3.005600	3.675600	-11.047000	25.106408	0.000478	20.734854
905.248181	-3.003100	3.677400	-11.043000	25.078739	0.000476	20.728889
906.249274	-3.005500	3.677100	-11.050000	25.082270	0.000477	20.730537
907.254277	-3.013100	3.674600	-11.071000	25.082817	0.000479	20.747208
908.250809	-2.993100	3.675500	-11.000000	25.079410	0.000476	20.736201
909.252831	-2.987700	3.674400	-10.976000	25.121523	0.000477	20.728216
910.252865	-3.018100	3.674500	-11.089000	25.170022	0.000477	20.752249
911.253836	-2.987200	3.676000	-10.980000	25.207210	0.000476	20.736003
912.250428	-3.003700	3.675200	-11.038000	25.165946	0.000477	20.723499
913.252317	-3.013000	3.673600	-11.068000	25.121524	0.000477	20.732484
914.254093	-3.002800	3.675600	-11.035000	25.136762	0.000475	20.735928
915.254545	-2.993700	3.674200	-10.999000	25.132237	0.000476	20.740869
916.255019	-3.000600	3.673700	-11.022000	25.115831	0.000474	20.720130
917.253772	-3.003000	3.673700	-11.031000	25.109094	0.000472	20.756043
918.256048	-2.993500	3.673600	-10.996000	25.122767	0.000473	20.728516
919.256763	-2.995000	3.673400	-11.001000	25.135520	0.000473	20.724723
920.257333	-2.993700	3.671200	-10.990000	25.165499	0.000472	20.758614
921.255428	-2.990000	3.672000	-10.979000	25.171540	0.000473	20.739547
922.256388	-3.017700	3.671100	-11.077000	25.172360	0.000474	20.749854
923.257447	-2.995200	3.672100	-10.996000	25.156849	0.000473	20.737601
924.257325	-2.993300	3.672300	-10.992000	25.189016	0.000475	20.754721
925.260304	-3.011600	3.671500	-11.055000	25.146061	0.000472	20.748108
926.257183	-3.027800	3.670500	-11.113000	25.182006	0.000474	20.748158
927.258451	-2.988900	3.670700	-10.971000	25.221703	0.000473	20.734906
928.260628	-2.985500	3.671000	-10.959000	25.192173	0.000470	20.747459
929.259724	-2.975400	3.670300	-10.919000	25.152748	0.000470	20.750554
930.262153	-3.004000	3.669300	-11.021000	25.144172	0.000471	20.746686
931.262794	-3.001500	3.669700	-11.013000	25.119735	0.000471	20.743017
932.260217	-2.991300	3.669800	-10.977000	25.168136	0.000471	20.749881
933.261413	-3.002900	3.669400	-11.017000	25.147627	0.000472	20.740671
934.261111	-3.001300	3.670400	-11.015000	25.192720	0.000471	20.743267
935.261324	-3.029600	3.668200	-11.112000	25.191850	0.000469	20.737652
936.264244	-3.023900	3.668600	-11.092000	25.208827	0.000471	20.744265
937.263446	-3.014500	3.667600	-11.055000	25.168011	0.000471	20.768722
938.263776	-2.991600	3.668800	-10.975000	25.160727	0.000469	20.732011
939.265168	-3.014500	3.666600	-11.052000	25.171242	0.000469	20.743516
940.264641	-3.033800	3.666000	-11.120000	25.192396	0.000469	20.742468
941.266527	-3.016800	3.666600	-11.061000	25.173628	0.000468	20.756343
942.262405	-2.990400	3.667300	-10.965000	25.164878	0.000471	20.734281
943.268742	-2.979800	3.666900	-10.925000	25.204402	0.000467	20.759737
944.266369	-2.988600	3.665900	-10.955000	25.240145	0.000468	20.733507
945.265806	-2.995900	3.666000	-10.981000	25.239052	0.000468	20.766075
946.265372	-3.011600	3.664900	-11.035000	25.242208	0.000470	20.758338
947.266236	-2.983400	3.665900	-10.935000	25.253667	0.000467	20.759886
948.265922	-2.990400	3.665600	-10.959000	25.229084	0.000468	20.737575
949.267731	-2.992400	3.665300	-10.967000	25.207433	0.000465	20.777480
950.268729	-2.987600	3.665400	-10.950000	25.213001	0.000466	20.771689
951.266978	-3.002900	3.665200	-11.006000	25.148420	0.000466	20.748106
952.268587	-3.027200	3.664400	-11.092000	25.137233	0.000467	20.766748
953.268392	-2.999200	3.664600	-10.990000	25.162788	0.000466	20.769168
954.266988	-2.998500	3.665300	-10.990000	25.152720	0.000465	20.757639
955.268568	-3.001300	3.662700	-10.993000	25.143398	0.000464	20.772463
956.269160	-2.995600	3.663600	-10.973000	25.157244	0.000464	20.733256
957.269610	-3.030000	3.662700	-11.097000	25.160277	0.000463	20.761432
958.272009	-3.010500	3.662300	-11.025000	25.176856	0.000464	20.762429
959.270415	-2.965600	3.664200	-10.865000	25.184190	0.000461	20.781171
960.269214	-3.002400	3.662700	-10.995000	25.211085	0.000464	20.761231
961.274321	-3.008000	3.661200	-11.012000	25.239223	0.000462	20.766247
962.271732	-3.000100	3.660700	-10.982000	25.246058	0.000465	20.767894
963.274530	-2.996400	3.662400	-10.973000	25.235866	0.000465	20.773309
964.273618	-2.999100	3.662000	-10.981000	25.241682	0.000463	20.765397
965.273566	-2.997600	3.660700	-10.972000	25.265495	0.000462	20.769390
966.272450	-2.996300	3.660400	-10.967000	25.227812	0.000460	20.775654
967.274943	-2.996500	3.660900	-10.969000	25.211655	0.000461	20.776502
968.277044	-3.013500	3.659300	-11.027000	25.224904	0.000459	20.760406
969.273657	-3.001300	3.660000	-10.984000	25.212226	0.000461	20.758583
970.273871	-2.994600	3.659700	-10.959000	25.186225	0.000458	20.782266
971.273342	-2.995000	3.660100	-10.961000	25.181825	0.000460	20.777375
972.274692	-3.002700	3.658900	-10.985000	25.163455	0.000460	20.781218
973.274605	-2.998200	3.658900	-10.969000	25.165791	0.000461	20.780244
974.276615	-2.995800	3.658400	-10.958000	25.182471	0.000459	20.778972
975.277776	-3.000800	3.657500	-10.974000	25.254830	0.000460	20.783339
976.276842	-2.982900	3.658400	-10.912000	25.310108	0.000457	20.780044
977.280354	-3.003400	3.657100	-10.983000	25.304093	0.000459	20.776850
978.277575	-3.017200	3.657500	-11.034000	25.262261	0.000456	20.785110
979.281349	-3.015100	3.657900	-11.028000	25.262012	0.000455	20.764945
980.277975	-3.022300	3.656500	-11.050000	25.203300	0.000457	20.782339
981.277707	-3.002600	3.656800	-10.979000	25.190772	0.000454	20.763597
982.278400	-3.009200	3.656400	-11.002000	25.172575	0.000456	20.800331
983.277296	-3.006800	3.656300	-10.993000	25.149208	0.000455	20.784934
984.279663	-3.015200	3.656600	-11.023000	25.193281	0.000454	20.789351
985.279004	-3.005900	3.655900	-10.988000	25.235837	0.000454	20.775176
986.278209	-3.018000	3.655200	-11.030000	25.270088	0.000456	20.773054
987.278428	-3.014300	3.655400	-11.017000	25.318059	0.000453	20.801778
988.278908	-3.000100	3.655600	-10.966000	25.336973	0.000453	20.789475
989.282330	-2.975000	3.653900	-10.870000	25.328175	0.000454	20.789650
990.278687	-2.994400	3.654800	-10.943000	25.332997	0.000452	20.794017
991.282620	-3.012600	3.651800	-11.000000	25.323949	0.000451	20.787777
992.282301	-2.986100	3.653800	-10.909000	25.337718	0.000450	20.789275
993.281247	-3.007100	3.653900	-10.987000	25.356806	0.000453	20.781413
994.279942	-3.015600	3.652600	-11.013000	25.352108	0.000450	20.801827
995.281934	-2.998100	3.652900	-10.951000	25.336251	0.000450	20.805820
996.280510	-2.992700	3.653600	-10.934000	25.312962	0.000451	20.821316
997.280865	-3.003600	3.652800	-10.970000	25.314652	0.000449	20.808789
998.281594	-3.006500	3.651900	-10.978000	25.284552	0.000451	20.793266
999.280877	-2.987000	3.652900	-10.910000	25.244410	0.000448	20.804172
1000.278956	-3.003400	3.650500	-10.962000	25.235560	0.000449	20.807615
1001.283681	-3.006700	3.651900	-10.979000	25.227233	0.000448	20.795462
1002.283356	-3.010100	3.650400	-10.988000	25.239289	0.000449	20.803772
1003.280189	-2.978000	3.650900	-10.872000	25.241774	0.000448	20.803422
1004.282722	-3.009300	3.649700	-10.981000	25.298222	0.000447	20.816000
1005.280552	-3.020800	3.650600	-11.026000	25.316789	0.000449	20.782011
1006.284879	-3.007500	3.649800	-10.975000	25.323101	0.000448	20.810634
1007.281921	-3.017000	3.650300	-11.013000	25.330433	0.000448	20.791917
1008.282271	-3.013200	3.649500	-10.996000	25.351311	0.000446	20.801974
1009.282157	-3.008900	3.649500	-10.980000	25.322728	0.000447	20.807414
1010.282825	-2.989400	3.649300	-10.908000	25.278933	0.000446	20.793788
1011.282716	-3.039200	3.647900	-11.085000	25.279380	0.000446	20.820316
1012.282772	-2.971100	3.649000	-10.841000	25.256612	0.000449	20.810733
1013.282732	-3.001300	3.647900	-10.947000	25.303017	0.000445	20.806116
1014.280949	-2.990900	3.647800	-10.908000	25.314600	0.000446	20.818219
1015.283293	-2.988400	3.647900	-10.900000	25.300606	0.000445	20.818868
1016.282149	-2.976100	3.647800	-10.856000	25.297200	0.000445	20.810233
1017.286086	-3.007800	3.646800	-10.968000	25.278559	0.000445	20.819965
1018.283151	-2.983900	3.646600	-10.879000	25.294789	0.000444	20.814924
1019.283721	-3.013800	3.645900	-10.987000	25.325485	0.000444	20.815872
1020.284740	-3.013400	3.646800	-10.988000	25.297325	0.000444	20.820789
1021.285235	-3.012300	3.645900	-10.981000	25.294864	0.000445	20.827800
1022.291958	-3.003200	3.645600	-10.948000	25.303637	0.000444	20.819066
1023.286857	-3.006100	3.645500	-10.958000	25.270032	0.000443	20.810456
1024.291349	-2.981000	3.646100	-10.869000	25.287133	0.000443	20.826677
1025.288103	-3.004000	3.643600	-10.944000	25.304705	0.000441	20.822509
1026.287287	-3.019600	3.643800	-11.002000	25.303140	0.000441	20.823782
1027.297674	-2.992900	3.643900	-10.905000	25.266725	0.000443	20.822309
1028.289347	-3.015100	3.642100	-10.981000	25.300579	0.000443	20.811254
1029.288752	-2.994700	3.643900	-10.911000	25.295707	0.000442	20.835759
1030.287357	-3.011800	3.642000	-10.968000	25.247810	0.000443	20.826077
1031.287730	-3.024100	3.642400	-11.014000	25.277040	0.000441	20.835983
1032.289963	-2.994700	3.643200	-10.909000	25.323519	0.000441	20.814847
1033.294009	-3.015100	3.642900	-10.982000	25.326626	0.000440	20.832664
1034.287302	-3.027800	3.640800	-11.023000	25.350610	0.000442	20.842521
1035.287172	-3.014600	3.641300	-10.976000	25.359209	0.000442	20.840724
1036.289824	-3.006200	3.641100	-10.945000	25.360551	0.000438	20.832589
1037.287634	-3.005700	3.641900	-10.946000	25.354436	0.000439	20.844941
1038.293675	-3.016200	3.640500	-10.979000	25.333434	0.000440	20.838078
1039.289061	-2.991100	3.641300	-10.891000	25.346607	0.000438	20.823803
1040.288971	-2.995700	3.640400	-10.904000	25.359531	0.000438	20.836306
1041.288002	-2.994300	3.639700	-10.897000	25.361345	0.000436	20.841920
1042.290392	-3.001000	3.639900	-10.923000	25.371460	0.000438	20.840697
1043.288295	-3.004200	3.638500	-10.929000	25.345090	0.000436	20.844565
1044.287771	-2.991300	3.639900	-10.887000	25.333532	0.000434	20.855245
1045.289073	-3.006100	3.639400	-10.939000	25.342256	0.000435	20.836978
1046.289595	-2.982100	3.639700	-10.853000	25.352893	0.000436	20.839598
1047.289217	-2.982700	3.639500	-10.854000	25.392684	0.000437	20.861059
1048.291361	-2.976100	3.638800	-10.829000	25.414728	0.000436	20.846685
1049.290843	-2.987600	3.638700	-10.870000	25.411920	0.000433	20.844813
1050.291719	-2.997300	3.637500	-10.902000	25.396983	0.000434	20.852574
1051.292286	-3.028800	3.636200	-11.012000	25.402550	0.000434	20.851052
1052.291392	-2.991700	3.637400	-10.881000	25.426582	0.000435	20.847209
1053.295597	-3.015900	3.636200	-10.966000	25.389999	0.000431	20.856941
1054.292945	-2.992200	3.636700	-10.880000	25.372801	0.000432	20.852000
1055.292074	-2.995400	3.635800	-10.890000	25.388458	0.000433	20.844489
1056.294034	-3.016300	3.634700	-10.962000	25.381872	0.000431	20.843566
1057.293365	-3.014600	3.634600	-10.956000	25.390944	0.000431	20.846036
1058.296917	-3.008300	3.636200	-10.938000	25.405880	0.000432	20.856292
1059.295619	-2.996400	3.635400	-10.892000	25.388235	0.000429	20.865126
1060.295657	-2.997200	3.635200	-10.894000	25.383389	0.000430	20.855519
1061.296429	-3.000700	3.634500	-10.905000	25.395567	0.000430	20.853997
1062.297511	-2.998900	3.633800	-10.897000	25.422184	0.000432	20.873137
1063.302367	-2.986700	3.635000	-10.855000	25.456182	0.000430	20.863654
1064.299473	-2.996000	3.633000	-10.883000	25.442041	0.000430	20.846137
1065.298076	-2.998300	3.634000	-10.895000	25.449248	0.000429	20.874235
1066.305444	-2.991000	3.632000	-10.863000	25.417686	0.000429	20.861509
1067.299975	-3.019200	3.631800	-10.964000	25.360797	0.000430	20.853698
1068.300940	-3.008400	3.632500	-10.927000	25.397059	0.000428	20.864503
1069.305779	-3.009200	3.632100	-10.928000	25.405509	0.000427	20.874410
1070.299813	-3.019600	3.631700	-10.966000	25.442265	0.000426	20.873387
1071.299199	-2.981600	3.631500	-10.827000	25.455411	0.000426	20.862881
1072.300957	-2.976100	3.632600	-10.810000	25.455735	0.000428	20.870792
1073.299986	-2.989800	3.631000	-10.855000	25.454268	0.000428	20.866001
1074.300954	-3.012000	3.630200	-10.934000	25.418581	0.000428	20.881372
1075.302346	-3.001400	3.631200	-10.898000	25.424048	0.000428	20.863155
1076.301239	-2.985700	3.631600	-10.842000	25.382122	0.000427	20.878902
1077.300776	-3.010500	3.629100	-10.924000	25.390000	0.000427	20.853623
1078.302598	-3.006600	3.629900	-10.913000	25.389528	0.000425	20.859787
1079.301986	-3.002800	3.628700	-10.895000	25.385054	0.000424	20.874260
1080.304120	-3.010000	3.628200	-10.920000	25.406925	0.000422	20.873461
1081.302971	-3.012200	3.628900	-10.930000	25.405036	0.000424	20.864453
1082.303813	-3.012600	3.627500	-10.927000	25.390994	0.000424	20.876430
1083.306902	-3.014300	3.627000	-10.932000	25.401730	0.000423	20.858289
1084.303919	-3.023700	3.625800	-10.963000	25.417511	0.000423	20.878876
1085.304688	-3.017400	3.626200	-10.940000	25.447383	0.000423	20.874259
1086.303449	-2.998300	3.626400	-10.872000	25.396014	0.000423	20.896643
1087.302008	-3.005800	3.625700	-10.896000	25.438337	0.000422	20.880822
1088.304902	-3.027500	3.627300	-10.981000	25.465127	0.000421	20.890654
1089.305062	-3.000400	3.626400	-10.880000	25.461971	0.000419	20.888432
1090.306190	-3.009200	3.624800	-10.907000	25.412217	0.000423	20.879250
1091.305915	-3.029200	3.624000	-10.977000	25.413435	0.000420	20.882369
1092.304841	-3.011600	3.625000	-10.916000	25.435106	0.000420	20.888008
1093.305024	-2.994900	3.624200	-10.853000	25.420592	0.000418	20.867272
1094.304965	-2.977900	3.624900	-10.794000	25.378169	0.000418	20.877303
1095.304483	-3.019600	3.624100	-10.942000	25.391042	0.000418	20.896867
1096.309919	-3.015300	3.623000	-10.923000	25.451434	0.000418	20.884490
1097.304401	-2.988300	3.624900	-10.831000	25.505535	0.000418	20.871963
1098.306436	-3.029400	3.623500	-10.976000	25.537019	0.000418	20.892200
1099.315031	-3.002100	3.623500	-10.877000	25.533018	0.000419	20.910466
1100.306555	-2.997300	3.623500	-10.860000	25.539654	0.000419	20.884415
1101.310303	-2.990700	3.623700	-10.837000	25.531180	0.000418	20.889655
1102.310266	-3.029200	3.620200	-10.965000	25.514630	0.000416	20.885363
1103.310022	-3.012300	3.622200	-10.910000	25.486921	0.000417	20.898314
1104.308100	-3.004200	3.621800	-10.879000	25.437045	0.000417	20.898015
1105.312231	-3.029200	3.620100	-10.964000	25.424296	0.000416	20.889955
1106.308413	-3.010600	3.621200	-10.902000	25.437293	0.000415	20.901109
1107.312198	-3.019100	3.620500	-10.930000	25.454267	0.000416	20.901558
1108.310682	-3.017700	3.619200	-10.921000	25.503671	0.000417	20.899013
1109.309287	-3.009800	3.618700	-10.891000	25.515624	0.000416	20.901533
1110.311510	-2.995900	3.620500	-10.846000	25.497260	0.000417	20.925763
1111.309999	-2.995700	3.618800	-10.840000	25.529242	0.000414	20.912363
1112.316735	-2.980300	3.619700	-10.787000	25.566218	0.000415	20.930054
1113.315634	-3.005800	3.619200	-10.878000	25.550762	0.000413	20.884191
1114.312719	-3.026300	3.617700	-10.948000	25.507076	0.000413	20.913811
1115.310943	-3.032600	3.618300	-10.970000	25.496564	0.000410	20.914160
1116.312831	-3.007400	3.617400	-10.878000	25.460431	0.000413	20.909644
1117.310535	-2.989900	3.618200	-10.817000	25.435207	0.000412	20.916082
1118.314336	-2.986400	3.618600	-10.805000	25.414804	0.000412	20.898440
1119.313010	-2.982100	3.618200	-10.789000	25.443259	0.000411	20.900462
1120.312100	-2.985800	3.617800	-10.801000	25.433816	0.000410	20.920849
1121.316433	-3.005400	3.616800	-10.869000	25.441395	0.000409	20.927511
1122.315725	-2.983900	3.617000	-10.792000	25.418283	0.000410	20.915209
1123.314900	-2.980200	3.616400	-10.776000	25.441123	0.000409	20.929607
1124.317118	-2.990400	3.616200	-10.813000	25.455959	0.000409	20.915584
1125.314744	-2.989200	3.615600	-10.807000	25.478475	0.000409	20.912116
1126.313489	-2.979100	3.615400	-10.770000	25.495821	0.000408	20.910095
1127.314143	-2.991500	3.615500	-10.815000	25.500170	0.000409	20.906876
1128.318623	-3.004000	3.615600	-10.860000	25.527828	0.000409	20.910469
1129.317937	-3.004400	3.613700	-10.857000	25.466423	0.000406	20.917556
1130.315779	-2.982100	3.613200	-10.773000	25.451263	0.000409	20.908024
1131.316576	-2.988600	3.614500	-10.801000	25.465429	0.000407	20.917981
1132.318751	-2.997500	3.612900	-10.829000	25.506458	0.000408	20.917457
1133.315827	-2.983600	3.613200	-10.780000	25.571862	0.000408	20.898742
1134.319005	-2.994600	3.613900	-10.821000	25.590077	0.000408	20.910870
1135.315216	-2.997800	3.611500	-10.826000	25.583716	0.000405	20.898793
1136.314598	-2.988700	3.612400	-10.794000	25.502060	0.000405	20.897395
1137.319428	-2.966400	3.612000	-10.713000	25.477706	0.000405	20.924619
1138.324336	-3.002500	3.610800	-10.840000	25.488839	0.000404	20.890283
1139.322037	-2.996800	3.611400	-10.821000	25.531905	0.000404	20.899391
1140.317257	-2.979400	3.610900	-10.757000	25.531482	0.000405	20.893752
1141.319785	-2.993200	3.610900	-10.807000	25.577925	0.000405	20.878755
1142.319833	-3.010500	3.611200	-10.871000	25.531407	0.000401	20.888935
1143.320521	-3.005200	3.609800	-10.847000	25.516100	0.000402	20.870719
1144.321783	-2.994300	3.608300	-10.803000	25.526661	0.000402	20.885117
1145.321518	-3.015000	3.608700	-10.878000	25.569029	0.000403	20.880725
1146.320953	-3.001800	3.609200	-10.833000	25.525517	0.000399	20.902934
1147.321721	-2.997300	3.609000	-10.816000	25.553747	0.000400	20.887662
1148.321510	-2.993500	3.608600	-10.801000	25.579142	0.000401	20.893252
1149.320648	-2.977100	3.608600	-10.742000	25.591019	0.000400	20.892852
1150.324020	-2.997400	3.607300	-10.811000	25.566792	0.000399	20.870419
1151.319978	-2.991300	3.607000	-10.789000	25.534239	0.000401	20.872814
1152.320463	-2.979400	3.608000	-10.749000	25.553149	0.000398	20.891804
1153.322163	-3.004900	3.606500	-10.836000	25.523529	0.000400	20.864429
1154.322892	-2.992600	3.606800	-10.793000	25.517167	0.000399	20.884592
1155.324231	-3.011100	3.605600	-10.856000	25.491620	0.000397	20.882645
1156.324842	-3.005900	3.605400	-10.836000	25.477107	0.000397	20.884192
1157.323742	-3.015800	3.605800	-10.874000	25.453076	0.000398	20.863855
1158.323355	-2.993800	3.605200	-10.793000	25.468459	0.000398	20.890206
1159.326231	-3.005800	3.604300	-10.832000	25.505959	0.000399	20.866699
1160.325026	-3.026500	3.606100	-10.913000	25.510680	0.000396	20.851527
1161.328262	-3.013700	3.605300	-10.864000	25.488861	0.000396	20.860910
1162.326175	-3.004600	3.604200	-10.829000	25.466471	0.000395	20.869719
1163.324122	-3.026300	3.603500	-10.904000	25.506530	0.000394	20.880548
1164.326620	-3.010400	3.604000	-10.849000	25.500516	0.000394	20.865976
1165.323489	-3.008500	3.603600	-10.840000	25.537841	0.000393	20.855095
1166.327037	-2.999500	3.603900	-10.808000	25.510232	0.000395	20.897067
1167.326003	-3.009900	3.602400	-10.841000	25.534412	0.000394	20.866824
1168.326147	-3.006200	3.602600	-10.830000	25.566169	0.000393	20.871215
1169.325541	-3.008900	3.603500	-10.842000	25.588384	0.000393	20.855594
1170.327446	-2.990800	3.602500	-10.774000	25.613009	0.000393	20.853299
1171.326731	-3.016600	3.601800	-10.864000	25.557695	0.000394	20.857491
1172.330386	-3.020400	3.600200	-10.873000	25.542836	0.000390	20.863430
1173.331358	-3.008400	3.600100	-10.829000	25.502777	0.000391	20.858289
1174.328287	-3.017200	3.601000	-10.864000	25.521515	0.000391	20.859562
1175.336038	-3.007600	3.600000	-10.827000	25.549297	0.000393	20.851427
1176.333881	-3.016400	3.599500	-10.857000	25.568928	0.000390	20.866400
1177.330941	-3.009000	3.599000	-10.829000	25.553720	0.000389	20.848283
1178.327878	-3.012600	3.599300	-10.842000	25.483494	0.000388	20.850779
1179.328367	-2.993500	3.599200	-10.773000	25.492564	0.000390	20.862257
1180.328010	-3.022200	3.598400	-10.874000	25.502629	0.000389	20.849606
1181.327331	-3.013200	3.598300	-10.841000	25.511575	0.000388	20.846736
1182.328582	-3.007500	3.598500	-10.822000	25.499870	0.000389	20.849207
1183.329546	-2.989700	3.598300	-10.757000	25.531977	0.000388	20.840672
1184.328882	-3.009000	3.597300	-10.823000	25.540649	0.000387	20.859338
1185.328697	-2.992400	3.598800	-10.768000	25.501038	0.000387	20.849905
1186.328659	-3.015800	3.596600	-10.846000	25.486377	0.000389	20.856993
1187.329854	-3.026600	3.596900	-10.886000	25.522758	0.000387	20.843268
1188.331782	-3.021400	3.595300	-10.862000	25.500715	0.000389	20.837728
1189.329236	-3.007700	3.596200	-10.815000	25.510481	0.000386	20.849431
1190.330448	-2.993900	3.594900	-10.762000	25.533343	0.000386	20.830191
1191.332099	-2.974900	3.594600	-10.693000	25.578246	0.000384	20.840198
1192.333340	-3.011600	3.594600	-10.824000	25.576332	0.000386	20.846810
1193.334702	-2.990800	3.593900	-10.749000	25.577599	0.000384	20.836229
1194.330960	-3.005600	3.594500	-10.803000	25.609977	0.000386	20.844090
1195.331724	-2.997900	3.593900	-10.773000	25.623618	0.000386	20.829342
1196.336198	-3.002600	3.593200	-10.788000	25.637185	0.000383	20.867622
1197.332857	-2.996400	3.593200	-10.766000	25.648963	0.000384	20.841520
1198.349991	-2.973500	3.595000	-10.689000	25.616188	0.000383	20.817613
1199.333651	-2.986100	3.593400	-10.729000	25.604336	0.000383	20.824201
1200.334077	-2.992200	3.592700	-10.749000	25.599763	0.000383	20.824824
1201.334975	-2.990800	3.591900	-10.742000	25.630326	0.000381	20.833234
1202.333240	-3.014000	3.592000	-10.826000	25.604509	0.000384	20.830065
1203.334332	-3.005600	3.590700	-10.791000	25.622176	0.000382	20.837850
1204.333197	-2.988600	3.590800	-10.729000	25.655571	0.000381	20.837726
1205.333993	-2.989100	3.590900	-10.733000	25.588035	0.000381	20.835804
1206.336076	-2.999200	3.590900	-10.769000	25.556501	0.000383	20.851550
1207.336470	-3.019000	3.589900	-10.837000	25.551258	0.000381	20.831112
1208.336582	-2.996000	3.589600	-10.754000	25.545021	0.000380	20.840496
1209.337334	-2.999000	3.589500	-10.764000	25.574740	0.000382	20.830513
1210.337172	-2.991400	3.588700	-10.734000	25.580157	0.000380	20.829315
1211.336514	-3.006800	3.588700	-10.789000	25.595165	0.000381	20.829215
1212.339368	-3.012900	3.589700	-10.814000	25.601054	0.000377	20.843190
1213.339455	-3.019500	3.587100	-10.830000	25.639419	0.000380	20.845211
1214.341210	-3.009200	3.588400	-10.797000	25.627070	0.000379	20.824748
1215.338847	-3.050900	3.586300	-10.941000	25.645184	0.000378	20.846259
1216.340350	-2.991000	3.586400	-10.726000	25.627020	0.000374	20.824698
1217.342895	-3.013800	3.586600	-10.808000	25.589574	0.000377	20.807953
1218.341010	-3.015600	3.586300	-10.813000	25.575063	0.000375	20.831311
1219.344695	-2.981800	3.587200	-10.695000	25.551555	0.000377	20.849428
1220.344508	-2.998100	3.586700	-10.752000	25.564004	0.000375	20.839171
1221.343806	-2.990700	3.585100	-10.720000	25.540596	0.000377	20.816612
1222.342766	-3.027500	3.584800	-10.851000	25.565744	0.000374	20.839970
1223.346216	-2.994200	3.585100	-10.734000	25.580280	0.000374	20.805258
1224.344213	-3.001500	3.583600	-10.754000	25.574938	0.000373	20.839720
1225.347633	-2.998700	3.583700	-10.746000	25.606296	0.000373	20.834704
1226.344461	-3.005300	3.585400	-10.775000	25.651419	0.000374	20.852996
1227.345606	-2.997500	3.583300	-10.739000	25.613676	0.000372	20.825995
1228.349233	-3.017900	3.582200	-10.810000	25.607588	0.000371	20.830312
1229.347826	-2.998000	3.583600	-10.743000	25.583212	0.000372	20.843288
1230.355976	-2.996500	3.582700	-10.735000	25.604134	0.000369	20.828266
1231.348816	-3.006400	3.583100	-10.771000	25.576652	0.000369	20.838597
1232.348265	-2.991400	3.583400	-10.719000	25.580329	0.000371	20.845135
1233.348155	-2.994200	3.582800	-10.727000	25.615987	0.000369	20.827367
1234.349629	-2.972000	3.581500	-10.644000	25.635616	0.000369	20.809624
1235.348860	-3.007800	3.582500	-10.774000	25.618546	0.000369	20.827567
1236.351926	-3.003800	3.582600	-10.760000	25.618620	0.000369	20.829064
1237.349932	-3.011600	3.580500	-10.781000	25.626721	0.000367	20.829613
1238.350171	-3.007500	3.580600	-10.767000	25.669756	0.000366	20.832533
1239.360151	-3.030700	3.579700	-10.847000	25.666849	0.000367	20.826768
1240.352879	-2.993300	3.578900	-10.712000	25.675123	0.000368	20.810897
1241.352718	-2.987400	3.580100	-10.694000	25.669607	0.000366	20.825271
1242.349910	-3.014100	3.579100	-10.787000	25.649134	0.000368	20.819408
1243.350904	-2.989400	3.580100	-10.700000	25.663173	0.000364	20.831136
1244.350903	-2.993900	3.578000	-10.712000	25.643394	0.000366	20.823600
1245.353060	-2.991000	3.579100	-10.704000	25.628113	0.000368	20.835279
1246.354046	-3.013300	3.578400	-10.782000	25.557942	0.000364	20.828816
1247.353189	-2.991000	3.578500	-10.702000	25.557619	0.000363	20.815690
1248.354604	-2.992100	3.576000	-10.699000	25.573001	0.000365	20.820232
1249.352536	-2.992000	3.577200	-10.702000	25.587687	0.000363	20.805584
1250.353825	-2.981100	3.577200	-10.663000	25.606969	0.000364	20.820682
1251.354307	-3.026500	3.575700	-10.821000	25.644316	0.000364	20.815517
1252.356843	-3.006000	3.576700	-10.751000	25.631992	0.000360	20.817838
1253.360279	-3.022900	3.575800	-10.808000	25.632787	0.000364	20.812473
1254.353838	-3.021400	3.575700	-10.803000	25.658678	0.000360	20.824726
1255.355367	-3.019300	3.575200	-10.794000	25.647597	0.000361	20.815967
1256.353937	-2.983800	3.575900	-10.668000	25.669165	0.000359	20.811077
1257.356879	-3.030900	3.574200	-10.832000	25.673265	0.000359	20.811402
1258.354391	-2.992600	3.575600	-10.699000	25.688297	0.000361	20.814172
1259.362840	-3.018000	3.574200	-10.786000	25.661712	0.000359	20.799798
1260.356164	-2.979300	3.574300	-10.648000	25.612962	0.000360	20.816744
1261.357574	-2.967200	3.575000	-10.607000	25.571291	0.000358	20.813774
1262.356021	-3.011400	3.573000	-10.759000	25.569229	0.000359	20.814074
1263.359153	-3.010000	3.572000	-10.751000	25.592513	0.000357	20.806638
1264.359145	-3.013500	3.572300	-10.764000	25.557179	0.000357	20.808136
1265.355815	-2.991200	3.573000	-10.687000	25.532877	0.000357	20.810283
1266.364575	-2.998500	3.572800	-10.712000	25.522093	0.000358	20.811781
1267.358742	-2.984900	3.572000	-10.662000	25.546123	0.000355	20.807465
1268.360939	-3.006500	3.573000	-10.741000	25.531413	0.000356	20.822089
1269.357022	-2.987900	3.570700	-10.668000	25.559568	0.000357	20.807216
1270.358033	-2.981000	3.570800	-10.644000	25.524033	0.000355	20.813256
1271.358259	-2.975700	3.571900	-10.628000	25.535216	0.000355	20.807890
1272.358706	-3.001200	3.571200	-10.717000	25.551916	0.000354	20.809488
1273.359689	-2.997700	3.570800	-10.704000	25.560514	0.000353	20.789200
1274.357826	-2.993100	3.569200	-10.682000	25.573387	0.000354	20.792171
1275.358149	-3.000000	3.569800	-10.709000	25.568169	0.000353	20.787879
1276.360535	-3.020100	3.569000	-10.777000	25.590806	0.000355	20.792121
1277.359636	-3.035700	3.566400	-10.825000	25.597789	0.000354	20.794867
1278.360049	-3.004900	3.567800	-10.720000	25.593466	0.000353	20.809017
1279.359880	-3.020300	3.568700	-10.778000	25.619259	0.000354	20.809791
1280.360578	-2.996100	3.567900	-10.689000	25.626018	0.000352	20.799036
1281.361119	-2.986600	3.567200	-10.652000	25.601195	0.000351	20.786434
1282.361852	-3.004600	3.565600	-10.712000	25.613794	0.000351	20.808096
1283.361631	-2.988500	3.568100	-10.663000	25.633673	0.000351	20.762627
1284.365205	-3.004600	3.567700	-10.718000	25.623982	0.000351	20.787508
1285.361795	-2.992100	3.566200	-10.669000	25.612999	0.000351	20.802082
1286.364079	-2.980600	3.567100	-10.631000	25.616355	0.000351	20.801185
1287.364508	-2.973500	3.566100	-10.603000	25.641799	0.000350	20.794972
1288.365200	-2.985500	3.565800	-10.645000	25.625376	0.000349	20.786537
1289.367911	-3.000100	3.564200	-10.692000	25.667268	0.000350	20.784042
1290.368233	-3.009900	3.564800	-10.729000	25.647888	0.000348	20.793501
1291.365070	-3.020100	3.563900	-10.763000	25.651715	0.000349	20.775059
1292.366179	-3.011900	3.564500	-10.735000	25.672637	0.000348	20.790382
1293.368823	-3.001800	3.563000	-10.694000	25.612109	0.000348	20.767049
1294.367582	-3.014700	3.562500	-10.739000	25.637231	0.000348	20.769046
1295.369520	-3.009900	3.563100	-10.724000	25.672042	0.000346	20.759913
1296.366271	-2.989700	3.563800	-10.654000	25.642251	0.000347	20.775036
1297.366331	-2.999600	3.563400	-10.688000	25.626250	0.000346	20.792157
1298.367299	-3.025800	3.561500	-10.775000	25.638599	0.000345	20.770421
1299.365383	-2.999600	3.560100	-10.679000	25.624909	0.000344	20.782275
1300.366694	-2.984500	3.561700	-10.629000	25.593402	0.000343	20.780030
1301.368183	-3.008400	3.560100	-10.709000	25.576307	0.000345	20.785621
1302.367726	-2.985200	3.560200	-10.626000	25.589030	0.000348	20.764259
1303.367965	-2.986700	3.560900	-10.634000	25.621681	0.000346	20.783301
1304.368647	-2.993000	3.559300	-10.653000	25.623595	0.000344	20.766730
1305.372249	-3.004300	3.559100	-10.692000	25.608289	0.000344	20.776015
1306.368027	-3.000600	3.560300	-10.682000	25.648717	0.000344	20.755452
1307.369160	-3.004800	3.558800	-10.693000	25.602675	0.000344	20.762315
1308.369882	-2.998000	3.558900	-10.668000	25.624467	0.000343	20.776615
1309.370414	-3.024300	3.558000	-10.760000	25.623349	0.000340	20.767432
1310.369950	-3.000500	3.558300	-10.676000	25.690313	0.000344	20.773997
1311.374133	-2.979000	3.558300	-10.600000	25.730216	0.000341	20.747219
1312.370723	-3.008300	3.557800	-10.702000	25.695680	0.000341	20.770379
1313.370966	-2.988900	3.557400	-10.632000	25.652349	0.000343	20.767160
1314.376154	-3.017100	3.557000	-10.731000	25.656921	0.000343	20.767485
1315.370602	-3.028000	3.556500	-10.768000	25.622359	0.000340	20.774972
1316.375028	-2.978500	3.555900	-10.589000	25.583224	0.000339	20.757479
1317.371350	-2.992100	3.556800	-10.641000	25.579820	0.000339	20.762595
1318.371973	-2.996700	3.556200	-10.656000	25.563917	0.000339	20.756107
1319.373339	-2.970400	3.556700	-10.564000	25.603004	0.000338	20.774026
1320.373185	-2.993300	3.555600	-10.642000	25.588841	0.000339	20.773552
1321.375727	-3.000600	3.554600	-10.665000	25.607403	0.000341	20.750943
1322.374222	-3.004600	3.554000	-10.678000	25.609491	0.000338	20.736443
1323.375453	-3.016900	3.553700	-10.720000	25.623704	0.000339	20.759728
1324.374025	-3.007800	3.554800	-10.692000	25.613071	0.000339	20.759006
1325.375868	-3.000400	3.553800	-10.662000	25.624103	0.000337	20.755861
1326.375786	-3.026900	3.552600	-10.753000	25.662990	0.000338	20.764571
1327.375906	-2.996200	3.553300	-10.646000	25.653872	0.000336	20.767267
1328.375162	-2.998300	3.554200	-10.656000	25.652108	0.000338	20.746529
1329.374364	-3.007700	3.552500	-10.684000	25.661525	0.000337	20.759781
1330.375665	-3.019200	3.550100	-10.718000	25.627212	0.000337	20.730059
1331.374174	-2.974400	3.553700	-10.569000	25.555649	0.000336	20.728836
1332.377133	-3.012400	3.550100	-10.694000	25.560644	0.000335	20.742862
1333.375365	-2.991900	3.550500	-10.622000	25.580324	0.000336	20.755515
1334.376080	-3.000200	3.551200	-10.654000	25.589692	0.000336	20.741215
1335.376215	-3.003600	3.548900	-10.659000	25.638071	0.000334	20.740017
1336.375593	-3.014800	3.550100	-10.702000	25.613224	0.000334	20.742089
1337.378194	-3.012700	3.548700	-10.690000	25.614838	0.000335	20.758410
1338.379549	-3.008700	3.548300	-10.675000	25.654471	0.000336	20.735151
1339.378621	-3.002500	3.549900	-10.658000	25.684933	0.000337	20.746307
1340.377440	-2.985600	3.549400	-10.595000	25.694945	0.000335	20.755415
1341.380543	-3.024100	3.547000	-10.726000	25.705456	0.000331	20.744635
1342.380098	-3.025100	3.547400	-10.730000	25.709928	0.000332	20.756240
1343.380403	-3.025700	3.546300	-10.729000	25.716661	0.000334	20.728862
1344.378682	-3.011200	3.546000	-10.677000	25.661999	0.000331	20.741765
1345.377083	-3.005000	3.547000	-10.658000	25.633549	0.000332	20.753020
1346.380070	-2.998600	3.546800	-10.635000	25.640284	0.000330	20.743188
1347.378373	-3.006200	3.546100	-10.660000	25.652135	0.000330	20.751772
1348.378519	-3.003500	3.545800	-10.649000	25.665726	0.000334	20.763052
1349.379526	-2.997400	3.546100	-10.628000	25.654147	0.000334	20.730558
1350.377930	-2.988000	3.545900	-10.595000	25.646495	0.000331	20.762229
1351.379483	-2.999400	3.545300	-10.632000	25.703691	0.000330	20.761829
1352.382177	-2.993200	3.546100	-10.613000	25.694870	0.000331	20.755814
1353.381571	-2.993500	3.545000	-10.610000	25.695989	0.000328	20.754093
1354.382808	-3.013800	3.543800	-10.679000	25.716014	0.000328	20.759508
1355.385057	-2.985500	3.543800	-10.579000	25.726399	0.000328	20.738169
1356.380923	-2.996200	3.543000	-10.615000	25.660457	0.000330	20.746380
1357.381491	-3.003900	3.541500	-10.638000	25.620254	0.000330	20.755788
1358.384906	-2.995100	3.543700	-10.613000	25.600897	0.000331	20.766220
1359.383873	-2.991600	3.543600	-10.600000	25.608550	0.000326	20.759681
1360.383378	-3.002200	3.542300	-10.634000	25.613346	0.000327	20.736522
1361.391911	-3.008400	3.542300	-10.656000	25.602263	0.000328	20.766169
1362.386358	-3.025200	3.540400	-10.710000	25.640007	0.000327	20.735323
1363.391526	-3.023100	3.540800	-10.703000	25.668705	0.000326	20.761777
1364.387702	-3.003300	3.541500	-10.635000	25.615407	0.000327	20.747127
1365.387754	-3.003100	3.542000	-10.636000	25.620204	0.000327	20.765695
1366.388994	-2.995100	3.540600	-10.603000	25.619384	0.000325	20.758707
1367.387765	-3.010700	3.539300	-10.655000	25.626764	0.000324	20.757110
1368.388213	-3.007700	3.539600	-10.645000	25.616749	0.000324	20.777399
1369.391566	-2.992700	3.540600	-10.595000	25.660555	0.000325	20.768290
1370.396286	-3.011900	3.540200	-10.662000	25.677351	0.000322	20.747700
1371.388709	-2.987300	3.539600	-10.573000	25.691513	0.000324	20.760977
1372.391082	-3.008400	3.538200	-10.643000	25.662766	0.000325	20.752018
1373.389163	-2.993600	3.538300	-10.591000	25.641571	0.000325	20.773405
1374.392538	-3.012600	3.537600	-10.656000	25.650466	0.000324	20.770011
1375.394068	-2.998000	3.537600	-10.605000	25.630066	0.000320	20.749047
1376.389166	-3.006000	3.536300	-10.629000	25.614786	0.000321	20.757883
1377.388610	-2.982200	3.536600	-10.546000	25.656951	0.000321	20.780317
1378.390091	-2.993500	3.536300	-10.584000	25.639533	0.000320	20.767565
1379.393435	-2.986300	3.536400	-10.560000	25.638166	0.000322	20.769985
1380.388356	-3.008600	3.534800	-10.634000	25.636128	0.000321	20.757033
1381.390081	-3.013500	3.534800	-10.651000	25.655385	0.000320	20.778271
1382.389642	-3.015300	3.535000	-10.658000	25.669349	0.000320	20.765268
1383.391047	-3.001700	3.534400	-10.608000	25.707338	0.000320	20.774501
1384.390032	-3.015100	3.534100	-10.654000	25.732556	0.000320	20.769485
1385.392041	-2.992800	3.533200	-10.574000	25.730072	0.000319	20.757032
1386.395123	-3.004600	3.534100	-10.618000	25.729400	0.000318	20.774376
1387.393790	-2.982600	3.532700	-10.535000	25.710518	0.000317	20.782437
1388.394337	-3.013200	3.532300	-10.643000	25.686640	0.000319	20.763670
1389.393574	-2.986800	3.533000	-10.551000	25.708306	0.000319	20.771680
1390.394976	-2.999700	3.532000	-10.594000	25.718094	0.000317	20.761123
1391.392861	-3.022700	3.530900	-10.672000	25.712182	0.000319	20.765142
1392.393490	-3.008700	3.531700	-10.625000	25.697646	0.000317	20.794165
1393.392763	-3.005800	3.531000	-10.613000	25.677446	0.000315	20.776721
1394.397245	-3.001100	3.529800	-10.592000	25.660724	0.000317	20.775098
1395.395393	-3.023000	3.530400	-10.671000	25.636150	0.000317	20.780288
1396.397823	-2.992700	3.531500	-10.567000	25.610158	0.000314	20.790220
1397.394345	-3.023000	3.530400	-10.671000	25.603946	0.000312	20.797732
1398.394581	-3.020300	3.528500	-10.656000	25.603524	0.000315	20.773125
1399.398218	-3.006500	3.528200	-10.606000	25.693247	0.000315	20.769357
1400.399348	-3.011600	3.528900	-10.626000	25.691059	0.000316	20.777117
1401.398208	-3.016800	3.527700	-10.642000	25.729396	0.000314	20.776269
1402.394788	-2.999400	3.528500	-10.583000	25.766663	0.000314	20.764389
1403.395431	-3.010000	3.527200	-10.615000	25.779507	0.000313	20.780136
1404.400065	-3.026500	3.528400	-10.677000	25.774164	0.000313	20.781408
1405.396851	-3.011200	3.526000	-10.615000	25.781320	0.000313	20.785750
1406.400685	-3.012600	3.525600	-10.621000	25.791978	0.000313	20.797878
1407.397917	-3.001300	3.526800	-10.584000	25.749170	0.000313	20.782854
1408.397726	-3.002100	3.526400	-10.586000	25.732921	0.000312	20.801146
1409.396233	-2.995900	3.527000	-10.566000	25.739654	0.000312	20.789891
1410.401195	-2.992300	3.526300	-10.551000	25.770113	0.000312	20.798675
1411.398293	-3.001300	3.525100	-10.580000	25.715602	0.000310	20.788967
1412.401574	-3.015900	3.524700	-10.629000	25.712075	0.000310	20.790639
1413.398888	-3.014700	3.524800	-10.625000	25.682880	0.000310	20.793559
1414.399153	-2.999900	3.525700	-10.576000	25.697489	0.000310	20.805860
1415.401947	-3.015200	3.523900	-10.624000	25.763974	0.000308	20.798198
1416.403491	-2.984900	3.523500	-10.516000	25.778285	0.000308	20.796926
1417.402550	-2.993300	3.524900	-10.550000	25.739527	0.000309	20.792608
1418.401423	-3.028400	3.522000	-10.665000	25.727725	0.000309	20.807781
1419.399963	-3.000400	3.521800	-10.566000	25.708593	0.000309	20.817962
1420.401807	-3.002800	3.522300	-10.576000	25.752023	0.000309	20.790461
1421.401575	-3.014400	3.521600	-10.614000	25.770233	0.000307	20.803537
1422.402605	-3.023700	3.522100	-10.648000	25.790903	0.000307	20.796799
1423.403922	-2.998500	3.521600	-10.558000	25.780444	0.000306	20.819483
1424.403090	-3.012200	3.520600	-10.603000	25.766506	0.000306	20.820182
1425.400484	-3.003900	3.520700	-10.575000	25.762059	0.000306	20.793904
1426.407150	-2.996300	3.520500	-10.548000	25.728568	0.000307	20.818584
1427.402493	-3.015300	3.518900	-10.609000	25.733660	0.000307	20.808053
1428.403050	-3.026800	3.517700	-10.647000	25.746952	0.000303	20.809550
1429.401495	-3.000000	3.519400	-10.557000	25.721486	0.000305	20.802463
1430.401538	-3.000300	3.519600	-10.558000	25.668663	0.000303	20.808202
1431.402015	-2.991200	3.518800	-10.524000	25.605526	0.000306	20.799792
1432.401812	-3.015200	3.517700	-10.605000	25.671297	0.000304	20.806580
1433.403893	-3.003600	3.518000	-10.565000	25.703820	0.000306	20.808427
1434.402910	-3.008100	3.517200	-10.579000	25.712318	0.000305	20.813168
1435.402655	-2.985200	3.517400	-10.499000	25.686105	0.000304	20.834255
1436.402628	-3.003200	3.516300	-10.559000	25.682875	0.000305	20.821528
1437.403302	-3.009100	3.515500	-10.577000	25.737983	0.000301	20.805756
1438.405761	-2.998900	3.514400	-10.538000	25.781237	0.000301	20.820280
1439.402218	-3.017600	3.515700	-10.608000	25.778628	0.000303	20.801065
1440.404150	-2.998700	3.514800	-10.539000	25.776889	0.000305	20.837248
1441.404836	-3.008100	3.514500	-10.572000	25.757112	0.000301	20.827816
1442.405316	-3.004200	3.514600	-10.557000	25.745858	0.000300	20.808450
1443.406762	-2.989100	3.515500	-10.508000	25.698800	0.000301	20.820928
1444.408616	-3.003400	3.515200	-10.557000	25.671469	0.000302	20.827141
1445.405529	-2.997200	3.512900	-10.528000	25.698899	0.000302	20.824821
1446.404476	-2.993800	3.513600	-10.518000	25.748367	0.000301	20.829936
1447.408466	-3.020100	3.511800	-10.605000	25.765287	0.000300	20.819431
1448.408809	-2.997600	3.512800	-10.530000	25.722851	0.000300	20.820903
1449.407942	-3.002100	3.512800	-10.545000	25.698527	0.000299	20.814963
1450.407112	-3.013000	3.512000	-10.580000	25.687371	0.000298	20.812768
1451.406845	-3.008000	3.512200	-10.564000	25.691321	0.000299	20.833804
1452.409907	-2.994700	3.510900	-10.513000	25.726031	0.000297	20.837847
1453.407066	-3.007800	3.511500	-10.561000	25.751198	0.000300	20.834203
1454.407290	-2.994600	3.510400	-10.512000	25.800986	0.000300	20.840118
1455.408992	-3.019100	3.509100	-10.593000	25.845803	0.000298	20.817808
1456.409246	-2.994200	3.511100	-10.512000	25.828537	0.000299	20.830809
1457.408458	-2.995300	3.509900	-10.512000	25.810625	0.000296	20.847429
1458.410618	-3.031400	3.509000	-10.636000	25.772813	0.000299	20.835052
1459.411009	-3.002100	3.509000	-10.533000	25.734701	0.000297	20.813366
1460.409065	-2.992400	3.508500	-10.498000	25.741161	0.000298	20.834552
1461.410060	-2.996400	3.507300	-10.509000	25.749732	0.000296	20.846954
1462.417272	-3.022300	3.506800	-10.598000	25.747173	0.000294	20.836797
1463.411019	-2.987800	3.508600	-10.482000	25.742029	0.000293	20.825941
1464.415846	-2.990600	3.508300	-10.491000	25.744862	0.000295	20.851071
1465.412502	-2.971000	3.508300	-10.422000	25.732837	0.000294	20.837571
1466.411693	-2.996700	3.506600	-10.508000	25.708338	0.000293	20.845206
1467.412066	-2.979600	3.506000	-10.446000	25.732042	0.000294	20.835824
1468.413599	-2.996200	3.507000	-10.507000	25.737382	0.000295	20.826490
1469.414851	-3.002100	3.505400	-10.523000	25.745657	0.000295	20.836223
1470.414011	-2.982500	3.505300	-10.454000	25.750550	0.000293	20.840190
1471.414590	-3.000100	3.506000	-10.517000	25.740214	0.000292	20.844506
1472.415185	-3.015500	3.504900	-10.568000	25.717308	0.000291	20.858956
1473.415215	-3.024400	3.503200	-10.594000	25.731220	0.000292	20.841637
1474.415380	-2.994000	3.504000	-10.491000	25.760065	0.000294	20.841687
1475.416387	-2.991700	3.503700	-10.481000	25.783940	0.000291	20.856659
1476.415218	-3.000700	3.503100	-10.510000	25.808362	0.000289	20.839940
1477.416816	-3.014300	3.502300	-10.556000	25.819640	0.000291	20.857432
1478.419022	-2.982400	3.504200	-10.450000	25.860953	0.000292	20.833026
1479.418997	-2.992700	3.503300	-10.483000	25.860208	0.000290	20.853614
1480.422103	-2.993400	3.502300	-10.483000	25.852084	0.000290	20.836445
1481.419445	-3.021700	3.500900	-10.577000	25.884180	0.000290	20.846876
1482.422833	-2.989500	3.501200	-10.466000	25.901470	0.000289	20.860451
1483.420696	-2.998600	3.500700	-10.496000	25.850817	0.000290	20.867413
1484.419027	-2.990500	3.501300	-10.470000	25.823713	0.000289	20.842084
1485.423137	-3.007300	3.500400	-10.525000	25.811613	0.000288	20.864542
1486.423225	-2.990400	3.501300	-10.468000	25.816906	0.000288	20.867487
1487.422541	-3.020100	3.500300	-10.570000	25.808732	0.000287	20.852165
1488.422565	-3.002300	3.499800	-10.506000	25.751441	0.000288	20.857679
1489.426798	-3.004000	3.499600	-10.512000	25.785651	0.000287	20.864067
1490.424182	-3.005900	3.498800	-10.516000	25.798197	0.000286	20.864815
1491.424703	-2.992300	3.500300	-10.472000	25.732930	0.000287	20.868957
1492.426655	-2.989600	3.498100	-10.457000	25.723737	0.000287	20.861146
1493.429649	-3.034100	3.496300	-10.608000	25.721401	0.000286	20.840309
1494.429749	-2.988700	3.497700	-10.452000	25.731016	0.000285	20.873673
1495.425538	-3.016100	3.496900	-10.546000	25.792680	0.000285	20.883454
1496.430610	-3.030900	3.496200	-10.596000	25.830864	0.000285	20.868232
1497.424907	-2.995400	3.497100	-10.474000	25.745699	0.000287	20.888893
1498.426096	-2.995700	3.495800	-10.471000	25.783288	0.000285	20.869280
1499.426855	-3.012400	3.496300	-10.531000	25.825050	0.000287	20.866659
1500.429152	-2.994500	3.496000	-10.468000	25.848079	0.000284	20.869403
1501.426373	-2.992000	3.495300	-10.456000	25.800256	0.000284	20.889641
1502.428877	-2.999300	3.493800	-10.478000	25.768704	0.000282	20.878811
1503.426394	-3.008900	3.494600	-10.514000	25.744107	0.000284	20.867856
1504.425370	-3.003200	3.494500	-10.494000	25.750616	0.000285	20.876764
1505.429618	-3.018400	3.493500	-10.543000	25.754393	0.000285	20.876764
1506.426162	-2.980300	3.494000	-10.413000	25.787733	0.000283	20.869003
1507.428388	-3.012700	3.493000	-10.522000	25.764454	0.000282	20.878810
1508.425894	-2.977900	3.495000	-10.407000	25.800776	0.000284	20.880207
1509.426150	-3.007700	3.493000	-10.505000	25.869714	0.000284	20.893033
1510.425661	-2.979300	3.492700	-10.405000	25.892966	0.000281	20.880356
1511.427627	-2.988800	3.492200	-10.436000	25.927892	0.000281	20.879881
1512.427785	-2.978800	3.491300	-10.400000	25.925631	0.000280	20.879033
1513.427547	-2.990800	3.490600	-10.439000	25.914727	0.000282	20.875191
1514.427665	-2.998100	3.490400	-10.463000	25.922576	0.000281	20.876437
1515.429211	-3.005200	3.490800	-10.489000	25.903076	0.000279	20.878184
1516.430061	-2.988300	3.492100	-10.434000	25.857665	0.000280	20.872395
1517.431105	-3.018000	3.488100	-10.526000	25.850411	0.000279	20.868901
1518.430522	-3.012100	3.490000	-10.511000	25.795185	0.000280	20.896400
1519.431283	-3.003400	3.489100	-10.478000	25.805942	0.000279	20.887766
1520.432286	-3.038400	3.487900	-10.597000	25.805843	0.000279	20.879133
1521.432439	-3.002300	3.488500	-10.473000	25.809022	0.000278	20.887068
1522.434178	-3.005900	3.488200	-10.484000	25.831480	0.000278	20.902987
1523.433564	-3.008100	3.487800	-10.490000	25.820997	0.000280	20.903362
1524.431566	-3.002700	3.486300	-10.467000	25.812252	0.000276	20.879406
1525.432455	-2.986400	3.487900	-10.415000	25.805967	0.000275	20.913393
1526.434796	-2.981000	3.488100	-10.396000	25.789768	0.000278	20.903287
1527.434245	-2.986600	3.486500	-10.412000	25.833667	0.000278	20.899494
1528.433349	-2.976400	3.487600	-10.380000	25.852870	0.000274	20.885121
1529.432100	-2.988800	3.486900	-10.421000	25.886456	0.000276	20.897049
1530.433198	-3.002600	3.484800	-10.461000	25.849739	0.000275	20.910897
1531.435890	-2.984200	3.485400	-10.400000	25.867676	0.000276	20.915639
1532.436864	-2.994300	3.485500	-10.436000	25.890481	0.000277	20.888290
1533.437321	-2.973100	3.484500	-10.359000	25.886978	0.000276	20.918434
1534.433745	-2.981200	3.483700	-10.384000	25.907919	0.000277	20.902963
1535.434869	-3.013600	3.484100	-10.498000	25.934126	0.000275	20.929288
1536.436521	-2.973000	3.483500	-10.356000	25.897064	0.000275	20.899644
1537.434093	-2.996100	3.483200	-10.435000	25.874110	0.000272	20.906456
1538.434943	-3.006400	3.483200	-10.471000	25.846684	0.000274	20.944334
1539.434533	-2.999200	3.482100	-10.442000	25.821717	0.000272	20.914042
1540.433768	-2.989500	3.483000	-10.411000	25.782986	0.000271	20.894104
1541.433825	-2.990400	3.483300	-10.416000	25.738588	0.000272	20.925370
1542.434279	-3.007100	3.482500	-10.471000	25.756029	0.000272	20.912544
1543.432768	-3.006700	3.480700	-10.465000	25.737967	0.000271	20.917160
1544.437662	-2.991500	3.481500	-10.414000	25.741967	0.000274	20.913592
1545.435883	-2.996700	3.480900	-10.430000	25.793967	0.000270	20.928839
1546.437725	-2.988300	3.480600	-10.401000	25.819630	0.000272	20.926169
1547.437908	-2.985000	3.480600	-10.389000	25.864496	0.000270	20.911970
1548.438703	-2.981700	3.480100	-10.376000	25.841244	0.000269	20.916113
1549.438552	-2.992700	3.479000	-10.411000	25.844101	0.000267	20.930361
1550.438691	-2.961100	3.480500	-10.305000	25.931667	0.000267	20.905483
1551.439070	-2.991900	3.479800	-10.410000	25.911621	0.000270	20.917111
1552.438845	-3.018200	3.476500	-10.492000	25.921136	0.000266	20.916713
1553.443206	-2.985600	3.478000	-10.383000	25.914826	0.000266	20.915115
1554.442245	-2.984800	3.477300	-10.378000	25.875427	0.000270	20.920580
1555.441495	-2.989900	3.479000	-10.401000	25.816029	0.000265	20.914018
1556.439406	-2.983700	3.478200	-10.376000	25.820004	0.000265	20.898098
1557.440561	-2.987500	3.476400	-10.385000	25.814067	0.000266	20.927693
1558.439549	-2.992100	3.475900	-10.399000	25.872571	0.000266	20.920556
1559.439558	-2.999300	3.476900	-10.427000	25.871975	0.000264	20.920906
1560.450142	-2.995800	3.476700	-10.414000	25.872025	0.000265	20.921430
1561.440979	-2.991100	3.476100	-10.396000	25.823657	0.000265	20.917887
1562.441010	-2.986100	3.475600	-10.378000	25.768851	0.000264	20.920207
1563.453335	-2.993100	3.476000	-10.402000	25.780380	0.000263	20.920407
1564.440895	-2.988200	3.475300	-10.384000	25.821794	0.000263	20.906059
1565.446405	-3.010100	3.473000	-10.453000	25.776678	0.000265	20.922853
1566.442223	-2.963700	3.474500	-10.296000	25.776355	0.000264	20.894082
1567.441665	-2.963200	3.474600	-10.294000	25.773051	0.000264	20.914469
1568.443614	-2.996700	3.473300	-10.407000	25.816354	0.000263	20.912448
1569.443622	-2.992800	3.472100	-10.390000	25.835831	0.000263	20.910202
1570.442799	-2.985800	3.473200	-10.369000	25.895850	0.000263	20.918811
1571.449629	-2.989800	3.473400	-10.384000	25.880125	0.000262	20.903490
1572.445136	-3.002900	3.472100	-10.425000	25.844602	0.000263	20.888669
1573.447843	-3.021900	3.472500	-10.493000	25.843508	0.000261	20.903216
1574.449609	-2.997700	3.472800	-10.409000	25.877841	0.000262	20.906885
1575.446499	-3.020300	3.471600	-10.485000	25.914159	0.000260	20.897852
1576.447783	-3.027800	3.470500	-10.507000	25.870538	0.000261	20.896705
1577.445996	-3.018300	3.469600	-10.472000	25.875431	0.000262	20.896405
1578.453636	-3.011800	3.469900	-10.449000	25.852478	0.000261	20.885201
1579.446371	-3.018600	3.468200	-10.469000	25.890883	0.000259	20.873997
1580.448334	-3.019300	3.468400	-10.471000	25.909564	0.000260	20.902718
1581.448832	-3.006100	3.469300	-10.428000	25.927723	0.000259	20.892513
1582.448182	-3.000600	3.467600	-10.404000	25.919203	0.000258	20.894384
1583.448269	-3.037900	3.468400	-10.535000	25.948093	0.000259	20.868408
1584.447055	-3.010700	3.468500	-10.441000	25.988904	0.000259	20.883330
1585.450289	-2.976100	3.468400	-10.322000	25.954526	0.000258	20.887672
1586.451334	-2.993500	3.467300	-10.378000	25.946180	0.000258	20.871228
1587.451287	-2.982600	3.468600	-10.343000	25.952316	0.000257	20.884978
1588.450625	-3.004600	3.466300	-10.414000	25.934778	0.000259	20.888695
1589.450144	-2.989800	3.466400	-10.363000	25.917241	0.000257	20.900948
1590.458547	-2.985400	3.465800	-10.346000	25.892946	0.000258	20.882707
1591.451746	-2.981700	3.466400	-10.335000	25.918732	0.000256	20.892015
1592.454714	-3.017200	3.465600	-10.456000	25.914235	0.000255	20.886550
1593.452434	-2.999500	3.464700	-10.392000	25.884624	0.000256	20.886200
1594.450479	-2.984100	3.464800	-10.338000	25.900796	0.000257	20.865463
1595.451141	-2.987000	3.464600	-10.347000	25.911627	0.000256	20.889619
1596.451039	-2.970100	3.464300	-10.287000	25.903951	0.000258	20.879063
1597.451447	-3.009100	3.463800	-10.422000	25.881147	0.000257	20.873224
1598.454750	-3.014600	3.462400	-10.436000	25.911676	0.000254	20.860747
1599.453038	-2.990200	3.463400	-10.356000	25.910732	0.000255	20.870704
1600.453158	-3.004000	3.463500	-10.404000	25.885916	0.000254	20.887971
1601.453810	-2.990400	3.462100	-10.352000	25.899504	0.000255	20.858477
1602.453785	-3.002600	3.461600	-10.393000	25.864477	0.000253	20.853161
1603.454542	-2.996600	3.461800	-10.373000	25.890884	0.000255	20.879213
1604.452714	-2.978700	3.461700	-10.311000	25.905441	0.000253	20.868708
1605.453741	-3.005500	3.461400	-10.403000	25.886587	0.000252	20.879163
1606.453638	-2.995800	3.461300	-10.368000	25.893790	0.000252	20.863642
1607.454982	-2.988900	3.461000	-10.343000	25.849722	0.000250	20.865364
1608.453266	-3.005600	3.458900	-10.395000	25.847883	0.000252	20.864940
1609.453729	-2.989900	3.460500	-10.346000	25.841871	0.000250	20.887822
1610.454647	-2.989000	3.459400	-10.339000	25.867657	0.000252	20.875794
1611.454391	-2.992300	3.459300	-10.350000	25.863485	0.000250	20.861172
1612.453230	-3.007900	3.458800	-10.403000	25.870838	0.000248	20.868559
1613.458514	-3.000800	3.459300	-10.380000	25.875210	0.000251	20.865838
1614.454453	-3.019100	3.458000	-10.439000	25.843313	0.000248	20.857030
1615.455418	-3.003500	3.457800	-10.385000	25.912746	0.000247	20.866563
1616.455131	-3.016600	3.456300	-10.425000	25.886215	0.000249	20.856507
1617.458561	-2.990700	3.457300	-10.339000	25.911777	0.000249	20.864641
1618.459444	-2.984300	3.456200	-10.314000	25.904077	0.000247	20.876345
1619.460046	-2.997800	3.456700	-10.362000	25.879807	0.000246	20.869508
1620.485608	-3.005300	3.456100	-10.386000	25.877174	0.000248	20.870182
1621.456625	-3.004900	3.455900	-10.383000	25.880528	0.000247	20.860276
1622.461617	-3.006500	3.455400	-10.387000	25.865921	0.000249	20.857931
1623.458325	-3.010400	3.455400	-10.401000	25.815789	0.000244	20.869685
1624.462055	-3.005500	3.455800	-10.385000	25.777381	0.000247	20.834424
1625.457833	-3.020500	3.455000	-10.434000	25.738226	0.000242	20.866216
1626.459617	-3.006400	3.454500	-10.385000	25.766500	0.000243	20.842935
1627.458313	-3.000400	3.454100	-10.363000	25.783742	0.000247	20.867365
1628.459390	-2.997000	3.453500	-10.349000	25.811890	0.000245	20.846803
1629.461080	-3.005400	3.453300	-10.378000	25.812909	0.000246	20.861576
1630.459455	-3.006500	3.453200	-10.381000	25.866048	0.000246	20.847627
1631.458088	-3.006200	3.452800	-10.379000	25.871364	0.000245	20.850597
1632.458115	-3.029800	3.452300	-10.458000	25.902093	0.000243	20.831681
1633.457691	-3.002600	3.451500	-10.362000	25.928450	0.000245	20.842512
1634.458443	-3.020900	3.452300	-10.427000	25.944746	0.000241	20.827589
1635.461687	-3.011900	3.451100	-10.394000	25.961563	0.000243	20.847803
1636.458337	-3.013900	3.450600	-10.398000	25.949242	0.000244	20.855813
1637.459488	-3.007200	3.451300	-10.378000	25.974952	0.000244	20.856513
1638.459905	-2.990300	3.451200	-10.319000	25.959751	0.000239	20.832706
1639.459179	-3.019600	3.450100	-10.417000	25.960595	0.000240	20.859158
1640.460778	-2.985200	3.450000	-10.298000	25.941195	0.000240	20.857212
1641.458598	-3.009200	3.449600	-10.379000	25.943531	0.000239	20.844386
1642.458813	-3.005200	3.449800	-10.367000	25.928801	0.000239	20.856614
1643.458292	-3.022400	3.449200	-10.423000	25.901054	0.000239	20.865248
1644.461054	-2.997000	3.448700	-10.335000	25.934912	0.000240	20.855167
1645.462375	-3.001600	3.449700	-10.354000	25.956921	0.000240	20.849303
1646.462616	-3.005900	3.448400	-10.365000	25.963429	0.000239	20.845885
1647.468379	-2.994800	3.448300	-10.325000	25.952376	0.000239	20.821505
1648.460669	-2.993400	3.447400	-10.318000	25.962089	0.000238	20.835530
1649.461738	-2.991700	3.447800	-10.314000	25.961767	0.000238	20.835680
1650.462133	-3.018200	3.445100	-10.397000	25.985862	0.000237	20.850878
1651.463564	-3.003000	3.445800	-10.347000	25.964698	0.000234	20.830091
1652.467450	-3.027400	3.446100	-10.432000	25.915962	0.000236	20.847984
1653.465450	-3.006900	3.446200	-10.362000	25.934643	0.000237	20.843043
1654.466879	-3.026100	3.445000	-10.424000	25.877782	0.000236	20.818638
1655.465699	-2.995900	3.445800	-10.323000	25.906698	0.000236	20.840574
1656.465459	-3.006000	3.444000	-10.352000	25.895594	0.000237	20.839850
1657.462817	-3.016600	3.444600	-10.390000	25.935737	0.000236	20.837979
1658.463014	-2.995300	3.445200	-10.318000	25.903892	0.000236	20.844867
1659.463762	-3.011700	3.444500	-10.372000	25.936930	0.000237	20.813574
1660.464591	-3.011500	3.443000	-10.367000	25.911146	0.000234	20.825603
1661.467894	-2.989200	3.444200	-10.295000	25.895770	0.000235	20.832915
1662.465399	-3.012600	3.443400	-10.372000	25.866357	0.000234	20.827076
1663.465841	-2.995900	3.443700	-10.316000	25.939242	0.000234	20.832965
1664.471346	-2.974200	3.443000	-10.239000	25.957772	0.000234	20.843994
1665.472448	-2.991900	3.442000	-10.296000	25.984699	0.000233	20.818890
1666.466446	-2.983800	3.441400	-10.268000	25.962666	0.000232	20.819989
1667.468489	-3.020900	3.440700	-10.393000	25.938422	0.000231	20.819814
1668.465269	-3.013800	3.441500	-10.372000	25.911991	0.000232	20.833090
1669.465266	-3.014600	3.440600	-10.371000	25.950818	0.000230	20.825155
1670.467492	-3.001400	3.440900	-10.327000	25.937330	0.000232	20.818243
1671.466946	-2.997600	3.441300	-10.315000	25.890479	0.000231	20.838980
1672.465944	-2.978500	3.440700	-10.246000	25.878928	0.000231	20.834014
1673.467194	-2.990200	3.440200	-10.286000	25.853415	0.000231	20.826876
1674.466818	-2.977000	3.440200	-10.241000	25.875052	0.000231	20.829646
1675.468990	-3.004400	3.439300	-10.332000	25.912588	0.000230	20.843172
1676.468382	-3.002300	3.437700	-10.321000	25.927741	0.000230	20.836584
1677.472090	-2.991700	3.438400	-10.286000	25.960107	0.000228	20.819788
1678.468240	-3.015000	3.438800	-10.367000	25.951488	0.000228	20.825354
1679.467914	-3.008000	3.437000	-10.337000	25.916438	0.000229	20.822385
1680.469170	-3.011000	3.437700	-10.350000	25.865289	0.000230	20.817468
1681.468633	-3.017700	3.435800	-10.368000	25.845962	0.000228	20.849734
1682.471766	-3.011300	3.436300	-10.346000	25.854558	0.000229	20.814748
1683.468341	-3.016900	3.435600	-10.364000	25.856569	0.000228	20.813924
1684.470638	-3.023000	3.435300	-10.384000	25.906004	0.000228	20.811902
1685.470957	-3.001600	3.435700	-10.312000	25.936409	0.000227	20.817792
1686.470339	-2.989800	3.434500	-10.268000	25.930298	0.000228	20.832041
1687.473626	-3.007600	3.434500	-10.329000	25.927616	0.000227	20.826501
1688.476133	-3.015900	3.434500	-10.357000	25.971507	0.000226	20.818440
1689.473998	-3.001700	3.434000	-10.308000	25.978115	0.000226	20.825552
1690.474759	-2.972500	3.435000	-10.209000	25.982014	0.000225	20.816668
1691.479215	-2.989900	3.434500	-10.268000	26.024091	0.000226	20.802518
1692.476474	-3.015900	3.433700	-10.355000	26.024464	0.000226	20.827074
1693.477046	-2.975700	3.433500	-10.216000	26.019968	0.000225	20.817341
1694.475385	-3.012500	3.434200	-10.344000	26.016541	0.000225	20.814372
1695.477241	-2.974300	3.433300	-10.210000	26.009312	0.000224	20.830343
1696.475135	-3.041000	3.431800	-10.435000	26.012193	0.000224	20.824702
1697.474969	-3.027100	3.431400	-10.386000	26.009411	0.000223	20.806261
1698.475838	-2.999200	3.432500	-10.292000	26.020315	0.000224	20.823380
1699.476104	-2.993400	3.431900	-10.271000	25.965942	0.000223	20.829444
1700.474869	-2.995800	3.431700	-10.279000	25.900959	0.000223	20.833387
1701.475335	-2.989000	3.430200	-10.252000	25.868143	0.000222	20.821757
1702.479275	-3.010200	3.430700	-10.326000	25.890054	0.000222	20.821483
1703.477067	-3.000400	3.430600	-10.293000	25.881483	0.000221	20.814770
1704.479875	-2.995000	3.431100	-10.275000	25.840766	0.000219	20.831714
1705.478153	-3.010000	3.429000	-10.320000	25.861237	0.000221	20.798225
1706.476593	-2.983600	3.430100	-10.234000	25.926371	0.000220	20.797276
1707.481211	-3.011700	3.429200	-10.327000	25.878378	0.000219	20.803116
1708.478373	-3.004700	3.428700	-10.302000	25.933898	0.000222	20.824752
1709.481978	-3.024200	3.427700	-10.365000	25.981342	0.000218	20.797975
1710.478601	-3.016100	3.427600	-10.338000	26.005511	0.000219	20.833636
1711.479496	-3.019200	3.427600	-10.348000	26.008889	0.000222	20.799572
1712.480214	-2.989900	3.429200	-10.252000	26.038025	0.000219	20.808457
1713.481024	-3.010000	3.427700	-10.317000	26.059360	0.000219	20.814720
1714.485221	-3.014100	3.426000	-10.325000	26.088644	0.000218	20.833237
1715.482454	-3.018600	3.425600	-10.339000	26.101609	0.000220	20.814496
1716.483743	-3.001700	3.426300	-10.284000	26.064377	0.000218	20.790838
1717.483531	-2.975700	3.425400	-10.192000	25.995425	0.000217	20.795529
1718.485598	-2.990900	3.427000	-10.250000	25.904511	0.000215	20.822731
1719.487661	-2.996400	3.425300	-10.263000	25.906399	0.000212	20.798075
1720.484763	-2.991700	3.425300	-10.247000	25.904487	0.000214	20.795679
1721.484183	-2.991400	3.424600	-10.244000	25.930445	0.000215	20.802792
1722.487215	-3.007700	3.424200	-10.298000	25.951187	0.000216	20.808456
1723.487180	-2.995300	3.424600	-10.257000	25.984869	0.000215	20.792983
1724.492193	-3.006600	3.422700	-10.289000	25.970735	0.000216	20.797276
1725.488052	-3.015400	3.423900	-10.324000	25.957720	0.000215	20.804588
1726.487634	-2.992500	3.423200	-10.243000	25.950417	0.000214	20.782078
1727.488245	-3.002700	3.422800	-10.277000	25.916186	0.000216	20.815493
1728.495588	-3.017600	3.421400	-10.323000	25.863994	0.000211	20.806210
1729.488623	-2.983400	3.423100	-10.211000	25.928283	0.000213	20.788766
1730.490929	-3.024300	3.420600	-10.344000	25.945424	0.000214	20.791287
1731.487284	-3.001900	3.421800	-10.271000	25.954391	0.000212	20.797451
1732.487686	-3.002700	3.421900	-10.274000	25.944281	0.000213	20.810527
1733.494111	-3.007200	3.421200	-10.287000	25.970363	0.000212	20.795005
1734.487713	-2.975600	3.420900	-10.177000	26.011646	0.000211	20.810402
1735.491287	-2.997300	3.421600	-10.255000	25.993811	0.000212	20.809080
1736.488094	-3.008200	3.420500	-10.288000	25.991228	0.000209	20.797475
1737.489592	-2.989500	3.419200	-10.220000	25.961196	0.000209	20.785796
1738.492558	-3.013200	3.419100	-10.301000	25.922594	0.000211	20.799646
1739.490431	-2.996200	3.418900	-10.243000	25.905207	0.000210	20.773643
1740.492633	-2.981000	3.419400	-10.192000	25.938096	0.000208	20.781080
1741.491396	-3.007700	3.416800	-10.275000	25.944082	0.000208	20.794207
1742.491631	-2.977100	3.418100	-10.175000	25.909380	0.000207	20.781629
1743.497162	-2.992600	3.417900	-10.228000	25.913504	0.000209	20.792410
1744.494043	-3.004300	3.416700	-10.263000	25.946666	0.000208	20.799647
1745.491567	-3.013900	3.416100	-10.295000	25.934023	0.000207	20.795954
1746.494294	-2.991400	3.417100	-10.221000	25.905555	0.000208	20.792960
1747.491703	-3.017400	3.415100	-10.304000	25.899495	0.000207	20.801570
1748.492289	-3.004300	3.415500	-10.259000	25.908611	0.000207	20.810728
1749.495494	-3.009800	3.415000	-10.278000	25.874157	0.000205	20.785125
1750.492698	-2.994400	3.416300	-10.229000	25.886678	0.000207	20.778737
1751.497891	-2.991100	3.415200	-10.214000	25.913407	0.000208	20.786623
1752.494119	-3.012900	3.414400	-10.287000	25.940385	0.000206	20.770577
1753.494274	-3.015100	3.413700	-10.292000	25.950396	0.000203	20.771152
1754.495164	-2.999700	3.414700	-10.242000	25.980105	0.000206	20.772076
1755.493865	-2.992400	3.414500	-10.217000	25.985844	0.000204	20.780213
1756.496782	-2.996200	3.413500	-10.226000	26.018011	0.000204	20.779339
1757.497139	-3.015100	3.413300	-10.291000	25.962546	0.000203	20.787151
1758.498655	-2.964100	3.414200	-10.119000	25.887055	0.000203	20.769159
1759.495693	-2.990600	3.413500	-10.207000	25.911971	0.000204	20.769533
1760.506096	-3.003900	3.412400	-10.249000	25.895528	0.000201	20.766765
1761.505261	-2.994900	3.411600	-10.216000	25.885568	0.000202	20.790424
1762.501302	-2.997600	3.411600	-10.225000	25.886015	0.000201	20.766691
1763.496682	-2.984800	3.412900	-10.185000	25.864255	0.000202	20.780868
1764.497656	-3.015700	3.410100	-10.282000	25.843264	0.000203	20.761204
1765.499157	-2.985600	3.411600	-10.185000	25.865598	0.000202	20.761828
1766.496423	-3.011400	3.409200	-10.265000	25.912897	0.000201	20.765248
1767.499632	-2.978700	3.412000	-10.161000	25.916723	0.000201	20.770988
1768.495809	-3.004700	3.411200	-10.248000	25.904503	0.000201	20.757289
1769.498286	-3.015700	3.407900	-10.276000	25.944273	0.000200	20.762156
1770.497779	-3.006000	3.409500	-10.248000	25.980889	0.000201	20.761957
1771.498248	-2.997200	3.409400	-10.217000	25.977362	0.000202	20.750827
1772.499212	-2.986100	3.407800	-10.175000	26.008188	0.000199	20.762358
1773.502165	-2.986900	3.408700	-10.181000	25.993906	0.000197	20.754647
1774.498738	-2.981600	3.408000	-10.160000	25.976794	0.000202	20.749308
1775.498881	-2.992000	3.407400	-10.194000	25.950142	0.000199	20.759990
1776.501923	-3.011400	3.407700	-10.261000	25.915589	0.000199	20.751831
1777.500582	-2.989600	3.407100	-10.184000	25.895767	0.000196	20.765582
1778.504109	-3.032500	3.406700	-10.329000	25.925478	0.000198	20.748962
1779.501329	-2.993300	3.407300	-10.197000	25.951190	0.000196	20.733067
1780.501573	-3.013300	3.405700	-10.262000	26.001714	0.000196	20.743051
1781.501926	-3.024400	3.405300	-10.298000	26.001914	0.000197	20.753683
1782.502167	-3.003800	3.404900	-10.227000	26.051964	0.000198	20.752287
1783.504138	-3.015900	3.403800	-10.265000	26.060237	0.000198	20.750641
1784.503744	-2.993400	3.404300	-10.189000	26.087360	0.000197	20.730477
1785.503078	-2.992000	3.404200	-10.185000	26.099034	0.000196	20.755958
1786.503715	-2.986400	3.403800	-10.165000	26.059643	0.000195	20.744355
1787.505863	-2.976100	3.403100	-10.126000	26.025442	0.000197	20.754088
1788.502945	-2.995900	3.402800	-10.194000	26.058676	0.000195	20.740064
1789.505949	-3.005400	3.402200	-10.224000	26.065458	0.000196	20.746404
1790.504823	-3.012900	3.402800	-10.251000	26.098293	0.000194	20.738618
1791.505443	-3.003900	3.402600	-10.220000	26.108875	0.000196	20.742138
1792.505545	-2.984000	3.401800	-10.150000	26.137834	0.000197	20.728562
1793.504429	-2.986400	3.402000	-10.159000	26.138282	0.000195	20.739444
1794.510770	-3.013800	3.400800	-10.248000	26.116973	0.000195	20.754543
1795.516235	-2.988600	3.401100	-10.164000	26.119457	0.000193	20.721950
1796.505444	-2.998300	3.400100	-10.193000	26.103239	0.000192	20.725569
1797.506130	-2.990300	3.399300	-10.164000	26.068990	0.000192	20.732883
1798.506344	-3.012400	3.400100	-10.242000	26.058286	0.000196	20.714066
1799.505634	-3.016200	3.399200	-10.252000	26.062310	0.000193	20.708625
1800.508375	-2.979000	3.401100	-10.131000	26.075052	0.000193	20.743241
1801.512988	-3.006100	3.400500	-10.221000	26.103093	0.000192	20.739173
1802.505861	-3.000000	3.398600	-10.195000	26.100461	0.000192	20.744115
1803.506337	-3.020700	3.398800	-10.266000	26.100784	0.000195	20.744914
1804.505882	-3.008700	3.398100	-10.222000	26.123684	0.000192	20.733310
1805.510200	-3.009100	3.397200	-10.221000	26.065045	0.000194	20.736980
1806.510521	-3.013800	3.396600	-10.235000	26.093409	0.000193	20.737029
1807.506274	-3.019900	3.396100	-10.254000	26.022920	0.000191	20.719785
1808.505754	-3.005300	3.397300	-10.208000	26.058662	0.000188	20.702589
1809.505624	-2.986100	3.397200	-10.143000	26.062363	0.000190	20.724327
1810.508097	-3.004900	3.396200	-10.205000	26.035092	0.000192	20.723954
1811.507377	-2.985900	3.397300	-10.143000	26.056205	0.000192	20.729045
1812.506837	-3.001300	3.396900	-10.195000	26.052578	0.000192	20.736781
1813.506203	-2.990900	3.395700	-10.156000	26.074833	0.000190	20.739702
1814.510465	-3.008700	3.394800	-10.213000	26.097161	0.000188	20.732739
1815.506846	-3.008300	3.394400	-10.210000	26.058740	0.000191	20.732541
1816.507453	-3.014900	3.394300	-10.232000	26.063409	0.000190	20.721585
1817.507205	-2.988900	3.395600	-10.148000	26.070885	0.000189	20.735261
1818.507179	-2.983800	3.394500	-10.128000	26.073692	0.000189	20.735710
1819.506018	-2.994000	3.394400	-10.162000	26.072675	0.000186	20.710505
1820.507727	-2.984700	3.394000	-10.130000	26.045353	0.000187	20.735212
1821.512254	-2.995300	3.392500	-10.161000	26.031196	0.000189	20.747067
1822.507267	-2.980100	3.392700	-10.110000	26.029184	0.000185	20.734139
1823.509090	-3.002700	3.392600	-10.185000	26.008544	0.000186	20.738058
1824.509456	-2.984300	3.393200	-10.125000	26.011128	0.000186	20.729274
1825.510862	-3.005800	3.391800	-10.194000	25.976054	0.000186	20.734340
1826.509461	-2.984300	3.391600	-10.120000	26.011772	0.000187	20.709057
1827.513867	-2.999300	3.391200	-10.170000	26.030203	0.000186	20.728525
1828.510768	-3.004300	3.389700	-10.183000	26.043292	0.000186	20.736935
1829.509829	-2.993300	3.389500	-10.145000	26.064777	0.000187	20.718692
1830.513960	-3.005100	3.389700	-10.185000	26.061723	0.000186	20.741702
1831.513617	-3.003800	3.389600	-10.181000	26.067807	0.000185	20.737858
1832.516879	-2.996100	3.389600	-10.153000	26.072973	0.000184	20.743049
1833.515234	-3.010700	3.388800	-10.201000	26.044757	0.000183	20.746942
1834.515187	-2.976900	3.388600	-10.086000	26.064280	0.000184	20.739530
1835.514707	-2.996500	3.389500	-10.156000	26.132954	0.000185	20.735512
1836.515004	-3.001400	3.388400	-10.169000	26.119937	0.000184	20.732864
1837.517646	-3.013900	3.386800	-10.207000	26.075554	0.000182	20.739004
1838.514258	-2.999900	3.386500	-10.158000	26.017930	0.000183	20.735635
1839.515270	-3.025600	3.386700	-10.245000	26.043289	0.000182	20.735509
1840.514838	-2.992500	3.386900	-10.134000	26.102923	0.000182	20.740899
1841.514934	-2.987600	3.386800	-10.117000	26.128231	0.000182	20.730766
1842.514918	-3.033300	3.385800	-10.268000	26.173034	0.000182	20.726474
1843.517209	-3.009900	3.386300	-10.192000	26.193373	0.000182	20.734110
1844.515505	-3.001800	3.385500	-10.162000	26.190367	0.000179	20.737254
1845.515453	-3.001800	3.385400	-10.161000	26.178396	0.000180	20.739923
1846.518881	-3.024600	3.384900	-10.237000	26.133867	0.000182	20.747810
1847.516145	-3.014000	3.383800	-10.198000	26.119462	0.000179	20.725748
1848.518646	-2.982900	3.384400	-10.095000	26.117101	0.000179	20.732860
1849.515911	-3.025700	3.383400	-10.235000	26.144198	0.000179	20.745863
1850.521284	-2.996900	3.383700	-10.140000	26.079648	0.000180	20.764455
1851.516943	-2.953200	3.385500	-9.997200	26.096263	0.000178	20.724249
1852.516031	-2.986300	3.384700	-10.107000	26.098249	0.000178	20.731461
1853.518324	-2.995800	3.383000	-10.134000	26.149264	0.000179	20.741470
1854.519438	-3.006300	3.382000	-10.166000	26.141937	0.000177	20.742168
1855.517665	-3.005500	3.382200	-10.164000	26.113847	0.000178	20.756617
1856.517848	-3.018000	3.381500	-10.204000	26.116852	0.000178	20.758689
1857.519382	-2.985500	3.382500	-10.097000	26.113350	0.000176	20.753747
1858.519288	-3.004400	3.381400	-10.157000	26.096958	0.000178	20.739172
1859.521138	-3.021300	3.379900	-10.210000	26.075424	0.000176	20.732234
1860.518998	-2.995600	3.381400	-10.128000	26.085632	0.000175	20.748182
1861.519105	-3.025000	3.380100	-10.224000	26.092139	0.000178	20.743815
1862.519165	-3.001000	3.379000	-10.140000	26.133914	0.000176	20.746909
1863.519071	-2.988700	3.379700	-10.100000	26.218874	0.000177	20.737924
1864.522006	-3.002900	3.380700	-10.150000	26.232260	0.000174	20.756118
1865.518111	-3.003100	3.380000	-10.150000	26.214355	0.000178	20.743340
1866.518875	-3.006300	3.380000	-10.161000	26.238046	0.000176	20.752449
1867.525204	-2.989200	3.380200	-10.103000	26.167914	0.000173	20.740296
1868.523268	-3.035600	3.377000	-10.250000	26.174669	0.000173	20.744239
1869.519089	-3.002200	3.378000	-10.141000	26.188005	0.000175	20.740570
1870.521084	-2.981600	3.378600	-10.073000	26.204943	0.000174	20.759487
1871.519633	-2.989400	3.377500	-10.096000	26.158178	0.000172	20.746634
1872.519401	-2.991100	3.377900	-10.102000	26.158923	0.000171	20.752125
1873.522625	-2.994400	3.377000	-10.111000	26.173451	0.000173	20.748705
1874.521126	-3.008700	3.376800	-10.159000	26.197937	0.000172	20.749128
1875.526627	-2.988500	3.375000	-10.085000	26.205935	0.000171	20.748156
1876.523910	-2.986600	3.375600	-10.081000	26.165827	0.000171	20.767597
1877.523255	-3.014300	3.375500	-10.173000	26.137539	0.000168	20.763354
1878.521703	-2.988200	3.375700	-10.087000	26.164933	0.000167	20.759112
1879.524231	-2.995100	3.376000	-10.110000	26.160463	0.000170	20.750827
1880.524880	-2.997200	3.374500	-10.113000	26.133292	0.000170	20.760509
1881.527603	-3.006400	3.374300	-10.144000	26.088165	0.000168	20.764952
1882.524551	-3.003400	3.373800	-10.130000	26.110493	0.000169	20.766998
1883.525043	-3.015100	3.374000	-10.172000	26.125171	0.000169	20.750926
1884.525819	-3.017800	3.373100	-10.178000	26.191110	0.000169	20.757915
1885.523747	-2.999100	3.373200	-10.116000	26.261761	0.000169	20.760635
1886.528315	-2.996100	3.371800	-10.100000	26.259700	0.000166	20.749554
1887.525795	-2.986200	3.374000	-10.074000	26.273831	0.000168	20.771341
1888.526382	-2.987500	3.372200	-10.073000	26.281405	0.000167	20.758090
1889.528162	-2.997300	3.370900	-10.102000	26.264965	0.000166	20.773812
1890.527145	-2.982500	3.372500	-10.057000	26.245223	0.000168	20.760136
1891.529141	-3.018100	3.371100	-10.174000	26.213288	0.000166	20.770719
1892.528137	-2.995000	3.372000	-10.098000	26.249123	0.000166	20.760736
1893.528521	-2.998800	3.371300	-10.109000	26.238097	0.000167	20.767200
1894.527748	-2.999100	3.369800	-10.105000	26.256325	0.000165	20.774138
1895.535114	-3.002200	3.370400	-10.118000	26.218504	0.000166	20.765529
1896.529290	-3.020500	3.368300	-10.172000	26.203976	0.000164	20.775112
1897.529300	-2.984700	3.370300	-10.057000	26.148370	0.000165	20.761435
1898.527383	-2.980900	3.370300	-10.046000	26.229059	0.000164	20.763807
1899.528111	-3.000900	3.368700	-10.107000	26.220566	0.000164	20.775187
1900.528404	-3.011800	3.368700	-10.145000	26.188629	0.000165	20.758267
1901.527735	-3.033300	3.368200	-10.215000	26.214408	0.000164	20.776112
1902.532934	-2.979400	3.369900	-10.039000	26.199185	0.000163	20.780254
1903.528654	-3.000400	3.368000	-10.105000	26.211827	0.000164	20.785372
1904.529922	-2.962700	3.367500	-9.975100	26.210138	0.000162	20.788891
1905.529038	-3.002900	3.367800	-10.112000	26.193251	0.000161	20.751057
1906.528392	-2.998000	3.367400	-10.095000	26.195934	0.000161	20.786471
1907.530293	-2.987400	3.366300	-10.056000	26.175396	0.000162	20.784800
1908.533578	-2.998100	3.365000	-10.087000	26.186846	0.000162	20.774494
1909.531364	-2.991400	3.366100	-10.069000	26.141522	0.000161	20.794858
1910.532701	-2.995800	3.366300	-10.084000	26.175970	0.000159	20.788221
1911.533905	-2.981900	3.366800	-10.039000	26.189083	0.000162	20.786225
1912.533246	-3.020200	3.363700	-10.158000	26.236343	0.000161	20.763541
1913.536830	-3.037700	3.364000	-10.218000	26.227579	0.000158	20.755681
1914.532555	-2.988300	3.365700	-10.057000	26.254151	0.000160	20.763418
1915.532682	-2.998400	3.363600	-10.084000	26.234460	0.000157	20.759277
1916.532593	-2.975200	3.364200	-10.008000	26.221175	0.000157	20.788602
1917.533313	-3.017600	3.362000	-10.145000	26.239280	0.000158	20.785932
1918.536983	-3.022200	3.360900	-10.157000	26.276405	0.000156	20.784360
1919.536542	-3.010600	3.361900	-10.121000	26.326543	0.000158	20.780219
1920.535801	-2.991600	3.363600	-10.061000	26.338364	0.000159	20.765072
1921.536875	-2.999000	3.361000	-10.079000	26.340127	0.000157	20.779647
1922.537579	-2.982800	3.362700	-10.029000	26.308915	0.000157	20.779099
1923.536195	-2.993100	3.359900	-10.056000	26.325330	0.000155	20.792277
1924.537482	-2.987700	3.360300	-10.038000	26.329949	0.000155	20.801186
1925.537351	-3.006300	3.358300	-10.094000	26.345618	0.000154	20.769992
1926.539461	-3.005900	3.361200	-10.103000	26.360418	0.000157	20.780125
1927.540348	-2.991800	3.360200	-10.052000	26.360493	0.000156	20.785891
1928.536928	-3.003500	3.359800	-10.089000	26.353168	0.000155	20.778528
1929.542686	-3.003400	3.358300	-10.084000	26.303431	0.000155	20.791605
1930.539511	-3.006400	3.358300	-10.096000	26.266680	0.000156	20.780276
1931.540978	-2.990500	3.358700	-10.043000	26.317934	0.000154	20.773938
1932.540832	-3.012700	3.357900	-10.115000	26.339563	0.000154	20.783348
1933.541178	-2.995400	3.357900	-10.057000	26.407796	0.000153	20.772266
1934.542832	-2.974400	3.357800	-9.985900	26.363202	0.000155	20.796674
1935.547430	-2.994800	3.357900	-10.054000	26.308250	0.000152	20.781750
1936.541732	-2.989300	3.356800	-10.034000	26.327247	0.000156	20.796574
1937.542497	-2.993600	3.356700	-10.048000	26.310511	0.000154	20.790660
1938.544027	-2.991900	3.355900	-10.039000	26.294519	0.000154	20.778856
1939.541450	-3.005000	3.355400	-10.082000	26.345797	0.000150	20.791983
1940.543852	-2.997400	3.355000	-10.055000	26.358707	0.000152	20.794527
1941.541541	-3.005600	3.356400	-10.087000	26.395754	0.000153	20.797622
1942.543298	-2.980100	3.356400	-10.001000	26.403154	0.000152	20.798895
1943.542684	-2.995800	3.355000	-10.050000	26.351780	0.000152	20.810324
1944.542627	-2.976500	3.354100	-9.982200	26.387015	0.000151	20.793580
1945.545761	-3.012500	3.353900	-10.103000	26.354362	0.000151	20.809600
1946.544971	-3.002500	3.353400	-10.068000	26.375789	0.000153	20.787039
1947.543332	-3.002400	3.353200	-10.067000	26.390168	0.000150	20.822352
1948.542459	-2.993300	3.352300	-10.034000	26.356795	0.000152	20.794028
1949.548585	-3.019500	3.352600	-10.122000	26.327543	0.000151	20.815364
1950.543646	-2.981900	3.353400	-9.998300	26.315176	0.000150	20.790607
1951.547088	-2.994500	3.352700	-10.039000	26.316145	0.000151	20.789210
1952.546590	-3.005400	3.350900	-10.070000	26.330397	0.000148	20.801162
1953.546997	-3.003800	3.350600	-10.065000	26.374719	0.000150	20.794972
1954.546813	-2.988200	3.352200	-10.017000	26.396594	0.000148	20.805104
1955.547556	-2.998600	3.351000	-10.047000	26.397140	0.000149	20.821773
1956.551817	-3.013300	3.350000	-10.094000	26.424353	0.000148	20.796020
1957.547546	-3.005600	3.350600	-10.070000	26.430013	0.000146	20.786062
1958.550719	-2.986600	3.350600	-10.006000	26.386610	0.000149	20.816881
1959.552864	-2.998600	3.350200	-10.045000	26.382290	0.000147	20.797366
1960.549689	-2.996700	3.350600	-10.039000	26.337967	0.000147	20.791227
1961.551345	-2.982700	3.349400	-9.988100	26.326420	0.000148	20.818502
1962.552903	-3.000600	3.348500	-10.047000	26.357755	0.000146	20.822494
1963.550183	-3.006800	3.348800	-10.068000	26.407391	0.000148	20.834447
1964.551105	-3.006100	3.348000	-10.064000	26.392666	0.000145	20.807320
1965.551050	-3.022300	3.348600	-10.120000	26.404286	0.000145	20.819472
1966.550823	-3.005700	3.347700	-10.061000	26.388519	0.000145	20.808368
1967.554421	-3.010900	3.346300	-10.075000	26.351670	0.000145	20.834869
1968.550259	-2.988200	3.347800	-10.002000	26.344295	0.000145	20.830302
1969.551617	-3.009900	3.346700	-10.071000	26.366791	0.000143	20.825884
1970.554929	-3.019700	3.345900	-10.103000	26.370738	0.000145	20.816576
1971.552324	-2.996000	3.345900	-10.024000	26.357057	0.000144	20.817998
1972.553506	-2.979400	3.345800	-9.967900	26.401030	0.000143	20.824261
1973.552950	-3.004100	3.345900	-10.051000	26.388516	0.000142	20.821641
1974.552796	-2.980400	3.345200	-9.969700	26.446441	0.000143	20.824858
1975.554812	-3.002700	3.345400	-10.043000	26.488972	0.000141	20.816398
1976.555522	-2.999400	3.345300	-10.033000	26.449992	0.000144	20.830798
1977.553972	-3.004700	3.344100	-10.048000	26.450115	0.000141	20.838982
1978.554930	-3.022300	3.342900	-10.102000	26.378730	0.000140	20.837883
1979.556945	-2.974700	3.343100	-9.944000	26.414684	0.000140	20.836087
1980.557082	-2.995900	3.342800	-10.014000	26.452921	0.000142	20.829000
1981.555103	-3.005500	3.342300	-10.044000	26.477748	0.000139	20.830721
1982.554186	-2.991400	3.343600	-10.001000	26.461734	0.000137	20.835013
1983.558375	-3.010400	3.341700	-10.058000	26.470747	0.000140	20.824158
1984.556996	-3.002100	3.342200	-10.033000	26.412275	0.000140	20.856898
1985.556030	-2.989900	3.341100	-9.988100	26.450561	0.000136	20.848439
1986.557446	-2.999300	3.342400	-10.024000	26.427917	0.000135	20.859818
1987.557751	-2.987300	3.340600	-9.978800	26.410265	0.000137	20.837809
1988.559847	-3.008900	3.339300	-10.047000	26.441773	0.000137	20.829175
1989.558844	-2.976200	3.342000	-9.945700	26.457020	0.000135	20.824585
1990.556429	-3.020400	3.339400	-10.085000	26.439391	0.000137	20.831522
1991.557263	-2.997700	3.340200	-10.012000	26.430875	0.000135	20.858524
1992.561664	-2.990600	3.340200	-9.988100	26.471445	0.000135	20.827231
1993.558267	-3.015700	3.338700	-10.067000	26.411832	0.000136	20.859772
1994.556174	-3.014800	3.338000	-10.062000	26.380150	0.000135	20.841207
1995.556982	-3.002500	3.339800	-10.027000	26.356411	0.000134	20.822565
1996.558182	-2.994400	3.338100	-9.994000	26.344568	0.000133	20.843379
1997.558466	-3.012900	3.337200	-10.053000	26.370392	0.000136	20.867435
1998.558147	-3.002600	3.337100	-10.019000	26.375261	0.000132	20.849095
1999.559734	-2.984900	3.336900	-9.959700	26.390681	0.000136	20.850368
2000.559069	-3.000400	3.335500	-10.007000	26.437261	0.000132	20.859252
2001.558767	-2.999700	3.335600	-10.005000	26.438081	0.000133	20.833524
2002.562863	-2.999800	3.336100	-10.007000	26.506655	0.000134	20.832750
2003.562711	-2.989100	3.336900	-9.973900	26.482251	0.000132	20.844255
2004.561503	-3.022400	3.334500	-10.077000	26.478277	0.000133	20.853538
2005.563382	-3.017000	3.334200	-10.058000	26.535679	0.000132	20.854812
2006.561514	-2.987800	3.335900	-9.966000	26.565868	0.000132	20.852915
2007.561492	-3.016700	3.333300	-10.055000	26.539229	0.000131	20.858854
2008.561690	-3.003000	3.334400	-10.011000	26.473041	0.000130	20.844955
2009.563326	-3.016700	3.333900	-10.056000	26.498613	0.000131	20.864020
2010.567194	-3.002100	3.332500	-10.004000	26.502387	0.000132	20.852167
2011.565793	-3.008400	3.332100	-10.023000	26.492779	0.000130	20.851993
2012.564934	-3.031300	3.331200	-10.097000	26.535283	0.000131	20.861051
2013.564967	-2.988900	3.332900	-9.961200	26.532402	0.000131	20.875224
2014.564441	-3.008400	3.332300	-10.024000	26.552586	0.000129	20.867538
2015.567897	-2.996300	3.332100	-9.982900	26.601121	0.000130	20.871281
2016.568657	-3.006300	3.332800	-10.019000	26.558941	0.000130	20.863021
2017.565202	-3.032900	3.331200	-10.102000	26.538783	0.000126	20.848449
2018.565951	-2.993400	3.330600	-9.968900	26.514106	0.000126	20.870109
2019.567556	-3.002600	3.331100	-10.001000	26.496776	0.000126	20.854113
2020.566616	-2.991400	3.331100	-9.963700	26.491613	0.000127	20.881164
2021.569776	-3.017500	3.330100	-10.048000	26.540149	0.000126	20.877795
2022.568002	-3.015300	3.329300	-10.038000	26.576321	0.000126	20.853465
2023.567235	-3.040100	3.327900	-10.116000	26.578257	0.000125	20.852092
2024.567676	-2.995900	3.328300	-9.970200	26.596852	0.000125	20.858456
2025.567436	-3.030200	3.327600	-10.082000	26.567185	0.000124	20.879842
2026.572274	-2.988800	3.328500	-9.946700	26.529077	0.000126	20.866192
2027.568375	-3.009300	3.326800	-10.010000	26.540001	0.000124	20.885706
2028.568050	-2.987000	3.328200	-9.940200	26.512591	0.000123	20.878544
2029.569474	-3.007200	3.326900	-10.004000	26.548468	0.000122	20.882364
2030.569795	-3.014900	3.325300	-10.024000	26.583199	0.000122	20.870335
2031.569388	-3.001800	3.327200	-9.987000	26.604748	0.000123	20.873505
2032.571805	-3.005200	3.327300	-9.999000	26.558845	0.000124	20.889950
2033.568444	-2.971500	3.325800	-9.881900	26.575702	0.000123	20.873705
2034.568865	-2.981700	3.326400	-9.917800	26.614158	0.000122	20.876327
2035.568966	-2.988100	3.326300	-9.938800	26.693596	0.000120	20.878424
2036.568690	-3.000500	3.323800	-9.971800	26.700049	0.000121	20.881119
2037.572593	-3.005800	3.325600	-9.995500	26.709335	0.000121	20.871014
2038.568774	-3.009100	3.324300	-10.002000	26.662196	0.000122	20.889056
2039.568717	-3.010400	3.323500	-10.004000	26.687665	0.000118	20.881470
2040.568995	-3.004000	3.324500	-9.985900	26.651921	0.000118	20.877305
2041.568513	-2.992700	3.324000	-9.947400	26.653288	0.000121	20.889583
2042.569901	-3.015200	3.323600	-10.020000	26.643409	0.000118	20.886765
2043.571804	-2.990500	3.323500	-9.937700	26.624046	0.000119	20.871568
2044.568017	-3.002100	3.322200	-9.972800	26.664835	0.000118	20.880329
2045.568805	-3.000800	3.322300	-9.969300	26.639614	0.000116	20.872045
2046.574538	-3.008500	3.320600	-9.989200	26.640336	0.000118	20.870874
2047.569863	-2.965300	3.322400	-9.850700	26.675363	0.000116	20.881905
2048.570230	-3.012300	3.321000	-10.004000	26.654214	0.000116	20.878661
2049.570306	-3.011300	3.321100	-10.000000	26.617500	0.000115	20.877315
2050.568895	-2.996600	3.319900	-9.947500	26.617055	0.000115	20.869282
2051.570232	-3.007700	3.320200	-9.985100	26.663850	0.000113	20.862745
2052.570103	-3.009000	3.320400	-9.989200	26.687283	0.000114	20.866389
2053.576112	-3.004700	3.319000	-9.971600	26.738345	0.000116	20.862722
2054.570316	-3.002300	3.319000	-9.963800	26.722510	0.000116	20.863872
2055.570639	-2.999600	3.318900	-9.954700	26.709207	0.000114	20.859980
2056.570558	-3.020300	3.318300	-10.022000	26.702481	0.000116	20.873133
2057.570533	-2.992900	3.318600	-9.931600	26.685851	0.000113	20.858786
2058.572287	-3.030300	3.316700	-10.050000	26.725122	0.000113	20.840894
2059.575465	-2.986500	3.317300	-9.906300	26.705511	0.000114	20.829714
2060.573421	-3.014300	3.317500	-9.999100	26.712637	0.000115	20.853472
2061.572318	-3.003400	3.317100	-9.962100	26.713606	0.000113	20.858713
2062.576107	-2.974400	3.317800	-9.867700	26.765882	0.000114	20.843942
2063.573700	-2.992700	3.317900	-9.928300	26.801103	0.000113	20.857068
2064.576262	-2.975400	3.316600	-9.866800	26.826768	0.000113	20.859165
2065.572970	-3.001600	3.317200	-9.956400	26.803337	0.000113	20.848409
2066.575929	-2.993600	3.316500	-9.927400	26.732102	0.000113	20.846015
2067.577351	-2.998300	3.315600	-9.939700	26.732176	0.000113	20.853201
2068.576371	-2.987200	3.315300	-9.902700	26.696928	0.000111	20.852852
2069.578396	-2.986800	3.314600	-9.899100	26.665130	0.000111	20.839377
2070.579789	-3.003600	3.313800	-9.951800	26.717704	0.000112	20.847187
2071.578313	-2.993400	3.314900	-9.921600	26.768391	0.000111	20.840300
2072.578349	-2.995400	3.313600	-9.924000	26.839278	0.000113	20.825277
2073.582606	-2.994400	3.312000	-9.916900	26.879560	0.000111	20.828322
2074.577540	-2.995100	3.312900	-9.921800	26.879782	0.000112	20.836607
2075.580954	-3.009900	3.312200	-9.968700	26.757122	0.000111	20.832290
2076.578732	-2.979700	3.312400	-9.868900	26.716042	0.000112	20.820386
2077.579352	-3.006800	3.311100	-9.955000	26.666098	0.000109	20.825178
2078.579374	-3.003700	3.311700	-9.945800	26.682480	0.000112	20.830268
2079.579396	-2.991500	3.311100	-9.904800	26.682157	0.000110	20.814296
2080.583874	-3.006500	3.311000	-9.953400	26.736096	0.000110	20.836755
2081.581939	-3.005000	3.311600	-9.950100	26.776605	0.000110	20.818214
2082.580783	-3.006700	3.311000	-9.954200	26.757815	0.000110	20.831564
2083.581173	-2.999000	3.309200	-9.923000	26.744658	0.000109	20.847259
2084.581017	-2.997500	3.309100	-9.918100	26.783529	0.000108	20.841770
2085.581955	-2.994000	3.309200	-9.906600	26.817731	0.000108	20.815467
2086.584722	-2.990100	3.308400	-9.891700	26.847788	0.000109	20.836205
2087.587911	-3.027000	3.308000	-10.012000	26.844934	0.000107	20.832861
2088.583575	-2.989100	3.308500	-9.887500	26.884793	0.000107	20.820308
2089.585367	-3.003000	3.307600	-9.931100	26.905043	0.000108	20.835929
2090.584896	-3.009200	3.307100	-9.950200	26.875485	0.000107	20.821381
2091.587059	-3.007500	3.307400	-9.946000	26.881392	0.000106	20.807406
2092.582950	-3.013700	3.306600	-9.964000	26.848681	0.000108	20.822404
2093.584432	-3.001400	3.305800	-9.921100	26.848183	0.000107	20.815266
2094.585837	-3.015000	3.304900	-9.962100	26.909386	0.000106	20.807106
2095.584569	-3.009400	3.306900	-9.950800	26.915790	0.000105	20.813545
2096.586744	-2.989900	3.306600	-9.885600	26.901320	0.000104	20.819858
2097.585450	-3.022000	3.303500	-9.981600	26.916832	0.000103	20.818860
2098.584464	-2.992200	3.305100	-9.888300	26.897870	0.000102	20.805009
2099.583273	-2.988100	3.304500	-9.873800	26.880845	0.000103	20.831037
2100.589370	-2.988100	3.305100	-9.874900	26.943410	0.000103	20.811447
2101.584563	-3.002900	3.303200	-9.918800	26.927625	0.000102	20.819282
2102.585894	-2.995700	3.303900	-9.896800	26.858408	0.000101	20.816063
2103.584185	-2.996700	3.303100	-9.896700	26.838825	0.000103	20.837624
2104.584215	-2.993900	3.302200	-9.885500	26.807676	0.000102	20.807728
2105.586386	-2.968800	3.302600	-9.803300	26.750959	9.965081E-5	20.824672
2106.583889	-2.995700	3.302900	-9.893500	26.725169	9.991483E-5	20.807752
2107.584713	-2.998700	3.301000	-9.898100	26.715538	0.000100	20.821777
2108.584454	-2.989000	3.300800	-9.865400	26.713402	0.000101	20.825793
2109.583934	-2.994300	3.301200	-9.883800	26.670235	9.935378E-5	20.820803
2110.585513	-2.995500	3.301100	-9.887300	26.733880	9.932078E-5	20.816983
2111.591560	-2.998200	3.300000	-9.893500	26.765428	0.000101	20.830210
2112.585576	-3.004000	3.299000	-9.908700	26.805688	9.899076E-5	20.785341
2113.586421	-3.003800	3.298100	-9.905500	26.871137	9.760466E-5	20.825543
2114.584145	-3.025600	3.297700	-9.975700	26.850139	9.786868E-5	20.806801
2115.587142	-2.993600	3.299700	-9.876800	26.936806	9.846272E-5	20.800065
2116.590611	-2.990100	3.297900	-9.860700	26.943803	9.941979E-5	20.818481
2117.585987	-2.979900	3.298000	-9.826700	27.005373	9.859473E-5	20.824919
2118.590040	-2.995800	3.297600	-9.877800	26.934622	9.849572E-5	20.812093
2119.587850	-3.005800	3.296300	-9.907100	26.948395	0.000100	20.802709
2120.589171	-3.016200	3.296600	-9.941500	26.971971	9.575652E-5	20.824520
2121.587971	-3.001000	3.294200	-9.884800	26.978349	9.621856E-5	20.812916
2122.589102	-3.005900	3.295200	-9.904300	27.035054	9.559151E-5	20.799292
2123.590572	-3.011800	3.295400	-9.924300	27.018502	9.866073E-5	20.808725
2124.592409	-2.989600	3.296000	-9.852300	26.972220	9.635057E-5	20.810546
2125.588773	-2.991800	3.294000	-9.854400	26.969788	9.578952E-5	20.805730
2126.588416	-2.958500	3.294900	-9.746700	26.947750	9.625156E-5	20.826716
2127.590535	-2.963400	3.295700	-9.765100	26.957181	9.539350E-5	20.801587
2128.591300	-3.015900	3.294400	-9.935000	26.949140	9.737364E-5	20.796346
2129.592297	-3.002000	3.294600	-9.889300	26.990435	9.427141E-5	20.792354
2130.591158	-3.012300	3.292700	-9.916800	27.032423	9.397439E-5	20.819879
2131.592257	-2.992900	3.293400	-9.855800	27.030040	9.529449E-5	20.790930
2132.592823	-3.015300	3.291400	-9.923900	27.037659	9.268730E-5	20.801437
2133.593255	-2.969700	3.293400	-9.779200	26.964974	9.239028E-5	20.819380
2134.595541	-2.996200	3.292100	-9.862400	26.938593	9.219226E-5	20.799965
2135.593379	-2.980300	3.291800	-9.809900	26.935268	9.107018E-5	20.811794
2136.593624	-3.015400	3.288900	-9.916100	26.976066	9.262129E-5	20.804931
2137.593665	-3.014400	3.289400	-9.913700	27.001775	9.328134E-5	20.797593
2138.594956	-2.990300	3.290500	-9.838900	27.037112	9.103718E-5	20.801836
2139.595565	-3.002600	3.289300	-9.875700	27.041553	9.140020E-5	20.826216
2140.597184	-3.003800	3.290000	-9.882200	27.018151	9.116919E-5	20.797940
2141.596445	-3.006100	3.288700	-9.885700	26.982739	9.166422E-5	20.798839
2142.596970	-3.006400	3.288300	-9.884200	26.950700	8.991510E-5	20.792699
2143.597774	-3.003800	3.290100	-9.882000	26.953380	9.074016E-5	20.787334
2144.596884	-3.003000	3.289100	-9.876800	26.961892	9.060815E-5	20.802532
2145.601389	-3.009500	3.287400	-9.892100	26.949134	9.192824E-5	20.796815
2146.597733	-2.981900	3.287800	-9.803100	26.988519	8.750592E-5	20.818401
2147.598047	-3.000500	3.286100	-9.858600	27.013060	8.757192E-5	20.790924
2148.597990	-2.968800	3.288500	-9.761900	26.963352	9.041013E-5	20.803051
2149.597317	-3.003500	3.287400	-9.873000	26.969334	8.697788E-5	20.790101
2150.601015	-3.008200	3.287100	-9.887300	27.006830	8.859500E-5	20.816427
2151.599668	-3.017400	3.284600	-9.910900	27.100604	8.559178E-5	20.798833
2152.598778	-3.017000	3.285100	-9.910600	27.102366	8.635083E-5	20.770259
2153.599988	-3.027600	3.283300	-9.938900	27.113208	8.727490E-5	20.794915
2154.602331	-3.010100	3.284700	-9.886100	27.114647	8.374364E-5	20.805371
2155.600002	-3.005400	3.284100	-9.869700	27.154324	8.453570E-5	20.795489
2156.599872	-3.000900	3.283800	-9.852700	27.120379	8.483272E-5	20.785531
2157.601473	-2.986500	3.282500	-9.801700	27.124325	8.529476E-5	20.811785
2158.601270	-2.991400	3.283400	-9.821000	27.151023	8.453570E-5	20.781264
2159.600887	-2.989200	3.283000	-9.812400	27.154000	8.258856E-5	20.801328
2160.600385	-2.993000	3.282200	-9.822600	27.154248	8.483272E-5	20.781189
2161.605159	-2.980400	3.282700	-9.782800	27.068370	8.387565E-5	20.799606
2162.601998	-3.011300	3.282400	-9.883400	27.065640	8.628483E-5	20.817724
2163.602963	-3.019500	3.281000	-9.906300	26.999111	8.499774E-5	20.797759
2164.603174	-2.989900	3.280300	-9.806800	27.048519	8.202752E-5	20.793393
2165.603022	-2.986100	3.279800	-9.792200	27.099338	8.516275E-5	20.805147
2166.602629	-2.967400	3.281500	-9.736800	27.158988	8.361163E-5	20.778369
2167.606638	-3.003700	3.279100	-9.848000	27.153157	8.189551E-5	20.798583
2168.603227	-3.016600	3.279200	-9.890800	27.142787	8.189551E-5	20.801429
2169.606244	-3.022100	3.277800	-9.904800	27.137775	8.374364E-5	20.794018
2170.603750	-3.010900	3.278900	-9.870900	27.155888	8.301759E-5	20.778096
2171.604137	-3.010900	3.278100	-9.869100	27.206430	8.357863E-5	20.786257
2172.605567	-3.003100	3.277100	-9.839700	27.219084	8.093844E-5	20.773855
2173.604738	-2.992200	3.278300	-9.807700	27.276123	7.942033E-5	20.768166
2174.605241	-2.978100	3.276600	-9.756900	27.275230	7.915631E-5	20.777225
2175.605527	-2.998300	3.275600	-9.819900	27.253720	8.054241E-5	20.787832
2176.607841	-2.995200	3.276300	-9.811400	27.243698	7.932132E-5	20.799087
2177.608561	-3.022800	3.276000	-9.901000	27.219855	8.156549E-5	20.796916
2178.605609	-2.986000	3.276100	-9.781200	27.232560	8.001437E-5	20.785039
2179.606070	-3.040700	3.274100	-9.953500	27.253128	8.173050E-5	20.794822
2180.608409	-3.017400	3.273200	-9.875900	27.278038	8.064142E-5	20.770566
2181.609326	-3.008500	3.273800	-9.848300	27.267966	7.833125E-5	20.777504
2182.609082	-3.011400	3.273700	-9.857500	27.294883	7.925532E-5	20.770916
2183.613287	-2.987900	3.272800	-9.778100	27.241892	7.720917E-5	20.769295
2184.609210	-3.001400	3.272500	-9.820500	27.210979	7.717616E-5	20.787514
2185.610008	-3.004900	3.271400	-9.829600	27.222665	7.711016E-5	20.787888
2186.611678	-3.003900	3.273300	-9.831700	27.253480	7.763820E-5	20.760562
2187.610478	-2.998500	3.272400	-9.811000	27.253331	7.661512E-5	20.777483
2188.613079	-3.010200	3.271300	-9.846500	27.260600	7.697815E-5	20.764880
2189.613205	-2.984500	3.271600	-9.763000	27.219044	7.826524E-5	20.766229
2190.613139	-3.009400	3.270000	-9.840100	27.251994	7.559205E-5	20.757171
2191.612947	-3.021800	3.269100	-9.877500	27.268046	7.687914E-5	20.786594
2192.612892	-3.010400	3.270300	-9.844200	27.297768	7.935432E-5	20.764808
2193.613310	-2.967800	3.271400	-9.708200	27.269113	7.331488E-5	20.772495
2194.614429	-3.002100	3.270200	-9.817000	27.210412	7.598808E-5	20.775564
2195.614425	-2.992100	3.268900	-9.780400	27.246785	7.579006E-5	20.754302
2196.613750	-2.995900	3.268600	-9.791100	27.296923	7.275384E-5	20.755898
2197.615497	-2.987800	3.267400	-9.761700	27.259686	7.486600E-5	20.774865
2198.614641	-2.987900	3.267800	-9.763100	27.218872	7.555905E-5	20.779332
2199.613797	-2.991000	3.267600	-9.771600	27.210710	7.579006E-5	20.755000
2200.613854	-3.003300	3.267200	-9.811700	27.218251	7.400793E-5	20.754051
2201.613646	-2.990800	3.266600	-9.768400	27.161134	7.308386E-5	20.775312
2202.613505	-2.999800	3.266000	-9.796300	27.160539	7.410694E-5	20.746738
2203.614161	-2.981500	3.265800	-9.735000	27.198922	7.153275E-5	20.759740
2204.616959	-3.009900	3.265400	-9.827500	27.254299	7.344689E-5	20.769921
2205.617400	-2.982600	3.265800	-9.739500	27.246061	7.374391E-5	20.763058
2206.615160	-3.006000	3.263700	-9.810100	27.292603	7.215980E-5	20.776683
2207.613956	-2.999800	3.263200	-9.787400	27.287840	7.272084E-5	20.758140
2208.619652	-2.999500	3.263500	-9.787700	27.332842	7.153275E-5	20.760735
2209.615175	-2.999600	3.263500	-9.788000	27.385187	7.291885E-5	20.784944
2210.616662	-2.997400	3.262000	-9.777300	27.312846	6.938759E-5	20.774286
2211.614494	-3.000200	3.261900	-9.785600	27.378340	7.060868E-5	20.769520
2212.614530	-3.002100	3.261600	-9.791000	27.368416	7.103771E-5	20.755269
2213.615368	-3.003800	3.261500	-9.796200	27.312350	7.146675E-5	20.776632
2214.614603	-2.987500	3.261600	-9.743300	27.299028	7.031166E-5	20.757066
2215.622041	-3.002400	3.260800	-9.788100	27.287615	7.074069E-5	20.771665
2216.617207	-3.009600	3.259600	-9.808900	27.341126	7.057568E-5	20.770017
2217.617510	-3.001100	3.260100	-9.783200	27.359436	7.077370E-5	20.758564
2218.628377	-3.020900	3.259600	-9.846500	27.357723	6.938759E-5	20.758264
2219.619203	-3.005200	3.259600	-9.795000	27.335569	6.935459E-5	20.764901
2220.620909	-2.988200	3.258900	-9.737500	27.343112	7.064169E-5	20.763005
2221.624281	-3.001600	3.258400	-9.779500	27.337579	6.780348E-5	20.767397
2222.620487	-2.988500	3.258400	-9.737100	27.361097	6.928859E-5	20.764503
2223.620975	-3.016300	3.256800	-9.821900	27.401258	6.935459E-5	20.768394
2224.624386	-2.980000	3.256900	-9.703900	27.327284	6.938759E-5	20.766524
2225.621179	-3.010400	3.256700	-9.803200	27.350479	6.942060E-5	20.759511
2226.624628	-2.979400	3.256800	-9.701900	27.339538	6.833152E-5	20.758462
2227.624046	-3.001000	3.257100	-9.774500	27.346857	6.879355E-5	20.771989
2228.623660	-3.002300	3.257200	-9.777800	27.345566	6.843052E-5	20.746508
2229.624146	-2.999100	3.255500	-9.762300	27.351544	6.691241E-5	20.746357
2230.624293	-2.989500	3.254400	-9.728000	27.292302	6.852953E-5	20.764051
2231.626831	-3.005100	3.254900	-9.780200	27.249579	6.612035E-5	20.746207
2232.624621	-3.003900	3.254000	-9.774200	27.274142	6.592234E-5	20.766173
2233.624348	-2.978600	3.253600	-9.689600	27.279723	6.569132E-5	20.774632
2234.629273	-2.996700	3.254600	-9.752500	27.327430	6.598835E-5	20.765723
2235.626608	-2.977200	3.253100	-9.684200	27.273099	6.654939E-5	20.753744
2236.626452	-2.996700	3.250700	-9.740700	27.259999	6.813350E-5	20.740092
2237.628127	-3.017200	3.251100	-9.807500	27.225687	6.285312E-5	20.740666
2238.633748	-3.026800	3.250100	-9.836700	27.283915	6.503128E-5	20.756563
2239.626671	-2.975800	3.251200	-9.673800	27.342041	6.565832E-5	20.740590
2240.628231	-3.000200	3.250800	-9.752800	27.329662	6.450324E-5	20.737147
2241.627415	-2.991500	3.251200	-9.724900	27.393392	6.357917E-5	20.744833
2242.634387	-3.002900	3.249100	-9.755800	27.435736	6.400820E-5	20.776053
2243.628081	-3.023800	3.249800	-9.825100	27.393119	6.143401E-5	20.754041
2244.628222	-3.012100	3.249400	-9.787600	27.416759	6.519629E-5	20.755065
2245.627389	-3.000700	3.249300	-9.748900	27.423430	6.357917E-5	20.757509
2246.627295	-3.001500	3.248200	-9.748700	27.445458	6.414021E-5	20.742685
2247.627270	-3.000600	3.247300	-9.742800	27.467484	6.367818E-5	20.783812
2248.631202	-3.013200	3.246900	-9.783000	27.493753	6.328215E-5	20.750022
2249.628668	-2.996300	3.247100	-9.728400	27.493603	6.255609E-5	20.751294
2250.628330	-2.995400	3.246900	-9.725400	27.527858	6.377718E-5	20.727436
2251.630690	-3.012300	3.245400	-9.775200	27.545840	6.037793E-5	20.758332
2252.628782	-2.996300	3.245300	-9.723800	27.591351	6.206106E-5	20.742957
2253.630511	-2.995700	3.244700	-9.719100	27.552164	6.252309E-5	20.776075
2254.630076	-3.026800	3.243900	-9.817900	27.479191	6.196205E-5	20.742009
2255.631171	-2.996400	3.244600	-9.721500	27.428016	6.120299E-5	20.746001
2256.631422	-2.993900	3.242600	-9.707300	27.423699	6.087297E-5	20.738813
2257.631709	-2.997700	3.243300	-9.721100	27.361212	6.074096E-5	20.739487
2258.633623	-2.997400	3.243400	-9.721200	27.333327	6.258910E-5	20.731350
2259.633425	-2.993700	3.244100	-9.711300	27.381750	5.951987E-5	20.740234
2260.632073	-3.002500	3.242800	-9.735300	27.410699	6.176404E-5	20.746123
2261.632724	-3.004200	3.241000	-9.735900	27.459442	6.103798E-5	20.749167
2262.633831	-3.005500	3.241200	-9.740200	27.449718	6.080697E-5	20.752187
2263.634429	-2.994800	3.239200	-9.700200	27.421985	5.971789E-5	20.735191
2264.635809	-2.990400	3.240500	-9.689600	27.476209	5.945387E-5	20.740906
2265.633736	-2.999500	3.240300	-9.718200	27.502081	5.783675E-5	20.739434
2266.633238	-2.986800	3.239500	-9.675000	27.528124	5.922285E-5	20.746671
2267.636940	-3.015500	3.239600	-9.768300	27.475737	5.951987E-5	20.748966
2268.636999	-2.994800	3.240300	-9.703400	27.460878	5.909084E-5	20.740181
2269.639030	-2.982600	3.239000	-9.659600	27.514505	5.905784E-5	20.747193
2270.634813	-2.990400	3.238100	-9.682100	27.566864	5.882682E-5	20.733491
2271.634694	-3.014400	3.238100	-9.760100	27.599454	5.899183E-5	20.746843
2272.634655	-3.002200	3.236200	-9.715400	27.594940	5.691268E-5	20.742301
2273.635024	-2.989300	3.235300	-9.670500	27.555156	5.720970E-5	20.734988
2274.637829	-3.019600	3.235600	-9.769200	27.565622	5.664866E-5	20.729870
2275.637714	-2.995900	3.235600	-9.692800	27.585117	5.717670E-5	20.740952
2276.636502	-2.999800	3.235500	-9.704800	27.593450	5.833178E-5	20.748862
2277.636578	-2.997700	3.234900	-9.696200	27.578865	5.618663E-5	20.738454
2278.637867	-3.003500	3.233000	-9.709400	27.604014	5.648365E-5	20.756173
2279.636163	-3.009300	3.233800	-9.730400	27.584966	5.615362E-5	20.730842
2280.640241	-3.001800	3.233600	-9.705900	27.596847	5.760573E-5	20.747539
2281.638198	-3.034400	3.234000	-9.811700	27.644466	5.480053E-5	20.755625
2282.638322	-3.017000	3.232100	-9.750200	27.676061	5.582360E-5	20.761813
2283.640960	-2.996300	3.233400	-9.687200	27.689253	5.532856E-5	20.763709
2284.637894	-2.963000	3.233100	-9.578800	27.686079	5.338142E-5	20.760989
2285.639272	-2.989400	3.232000	-9.659700	27.666636	5.598861E-5	20.740001
2286.639327	-3.011500	3.230400	-9.727800	27.614357	5.308440E-5	20.769426
2287.639605	-3.009900	3.229700	-9.719900	27.596798	5.153329E-5	20.744644
2288.639239	-3.005200	3.229000	-9.701900	27.582982	5.278738E-5	20.759193
2289.639922	-2.990200	3.231100	-9.660900	27.587274	5.354643E-5	20.742174
2290.638935	-3.010100	3.230100	-9.721700	27.576981	5.255636E-5	20.761215
2291.640054	-3.011100	3.228700	-9.720900	27.579560	5.057622E-5	20.746740
2292.638999	-2.981300	3.228200	-9.623400	27.638514	5.014718E-5	20.752955
2293.639904	-2.997200	3.228100	-9.674300	27.689231	5.057622E-5	20.760842
2294.639949	-2.992400	3.227500	-9.657000	27.752518	5.173130E-5	20.751034
2295.640592	-2.971100	3.228000	-9.589300	27.717975	5.351343E-5	20.745195
2296.644943	-2.979400	3.226800	-9.613500	27.651784	5.272137E-5	20.767256
2297.639233	-2.994800	3.226700	-9.662200	27.611904	5.133527E-5	20.747991
2298.640279	-2.998000	3.226500	-9.672100	27.585788	5.153329E-5	20.724083
2299.641046	-3.008300	3.225100	-9.700200	27.553992	5.037820E-5	20.754680
2300.644022	-3.019000	3.222700	-9.728500	27.543153	5.103825E-5	20.731445
2301.644972	-2.994500	3.224600	-9.656000	27.540151	5.377745E-5	20.769678
2302.645539	-3.014100	3.224200	-9.717400	27.584796	5.150028E-5	20.734465
2303.642147	-3.036700	3.221200	-9.780100	27.605085	5.027919E-5	20.741129
2304.641987	-2.979000	3.224600	-9.605000	27.624877	4.948714E-5	20.751561
2305.645007	-3.018000	3.222200	-9.724300	27.617139	4.981716E-5	20.747568
2306.643918	-3.029600	3.221500	-9.758800	27.605309	5.074123E-5	20.761744
2307.646047	-2.975200	3.222300	-9.586200	27.624134	4.955314E-5	20.746545
2308.647362	-3.002000	3.221500	-9.670300	27.671577	5.021319E-5	20.752085
2309.646958	-3.022800	3.221200	-9.735900	27.710015	4.829905E-5	20.764213
2310.645391	-3.011800	3.219600	-9.696300	27.747983	4.955314E-5	20.728925
2311.645347	-3.003300	3.219800	-9.669500	27.747932	5.186331E-5	20.759696
2312.652596	-3.015700	3.220400	-9.711100	27.771466	5.159929E-5	20.751610
2313.646904	-3.020600	3.218000	-9.719000	27.706047	4.968515E-5	20.759745
2314.647853	-2.987700	3.217700	-9.611900	27.676709	4.899210E-5	20.750612
2315.647156	-2.966000	3.219300	-9.548200	27.687570	4.928912E-5	20.751110
2316.648668	-2.999200	3.216400	-9.645100	27.652255	4.948714E-5	20.744496
2317.649214	-2.993700	3.219000	-9.635500	27.648510	5.021319E-5	20.774394
2318.652434	-3.002100	3.216000	-9.653600	27.607092	4.938813E-5	20.754054
2319.648073	-3.000800	3.217100	-9.652500	27.598162	4.958614E-5	20.761665
2320.649477	-3.002400	3.215600	-9.653100	27.656221	4.866208E-5	20.739952
2321.650601	-2.991400	3.215800	-9.618800	27.721445	4.945413E-5	20.745843
2322.649517	-3.016600	3.214400	-9.695900	27.752370	4.843106E-5	20.753729
2323.652975	-3.003600	3.214500	-9.654500	27.745649	4.905810E-5	20.750285
2324.648379	-3.012700	3.212500	-9.677700	27.765215	4.707796E-5	20.761441
2325.648947	-2.988100	3.212200	-9.597100	27.741010	4.783702E-5	20.757471
2326.650209	-2.997700	3.213100	-9.631000	27.678566	4.869508E-5	20.764809
2327.650917	-3.011000	3.211800	-9.670100	27.633801	4.955314E-5	20.765283
2328.652378	-3.018900	3.210500	-9.692000	27.622987	4.668193E-5	20.760565
2329.655680	-3.008500	3.212900	-9.665100	27.680848	4.909111E-5	20.762837
2330.652595	-2.989000	3.210500	-9.595300	27.689949	4.975116E-5	20.765832
2331.652978	-2.994500	3.210600	-9.613600	27.723948	4.816704E-5	20.765905
2332.654518	-2.991800	3.210700	-9.605100	27.753434	4.773801E-5	20.768551
2333.652497	-2.997600	3.209600	-9.619600	27.730544	4.678094E-5	20.764009
2334.657391	-2.999900	3.209200	-9.626400	27.747208	4.470179E-5	20.782201
2335.652815	-3.002800	3.209600	-9.636700	27.769080	4.595588E-5	20.747312
2336.652743	-3.009000	3.207600	-9.650000	27.755193	4.753999E-5	20.792607
2337.654480	-2.998800	3.207900	-9.617800	27.701900	4.572486E-5	20.787341
2338.654394	-2.992300	3.206300	-9.593900	27.623184	4.532883E-5	20.763608
2339.657542	-3.013700	3.205600	-9.659700	27.682307	4.674794E-5	20.771418
2340.654794	-2.975400	3.206800	-9.539700	27.705395	4.506481E-5	20.771418
2341.655811	-2.967100	3.207000	-9.515200	27.730343	4.720997E-5	20.778031
2342.657433	-2.990700	3.204300	-9.582500	27.748321	4.513082E-5	20.775260
2343.657038	-2.979800	3.204300	-9.547600	27.732772	4.437176E-5	20.776682
2344.656666	-3.002300	3.203200	-9.615600	27.763249	4.417375E-5	20.781273
2345.658253	-3.006600	3.204800	-9.634600	27.753702	4.595588E-5	20.781623
2346.658617	-2.991100	3.203100	-9.579700	27.753724	4.433876E-5	20.783068
2347.660212	-3.005500	3.202400	-9.624100	27.811404	4.493280E-5	20.786588
2348.665399	-3.012800	3.202100	-9.646700	27.839523	4.328268E-5	20.788808
2349.661414	-3.001500	3.204000	-9.616500	27.862929	4.334869E-5	20.757837
2350.664241	-3.016000	3.202900	-9.658700	27.788365	4.529583E-5	20.802283
2351.662361	-3.014000	3.200800	-9.646000	27.734305	4.513082E-5	20.773483
2352.661350	-2.999500	3.200800	-9.600400	27.716079	4.278764E-5	20.786436
2353.662390	-2.996200	3.199900	-9.587000	27.700255	4.417375E-5	20.765771
2354.661623	-2.986200	3.199100	-9.552200	27.722625	4.321668E-5	20.797291
2355.664588	-2.970400	3.199300	-9.502700	27.716697	4.272164E-5	20.793223
2356.664875	-2.988100	3.199200	-9.558000	27.717640	4.295266E-5	20.773782
2357.662305	-2.982400	3.197800	-9.536500	27.791043	4.374472E-5	20.774157
2358.663515	-3.009600	3.198500	-9.625500	27.752828	4.219360E-5	20.792124
2359.666491	-3.007600	3.197100	-9.614700	27.773783	4.120353E-5	20.781918
2360.663812	-3.001700	3.196300	-9.593500	27.792976	4.077450E-5	20.781318
2361.665836	-2.994000	3.196400	-9.568800	27.855735	4.097251E-5	20.787581
2362.665230	-3.023800	3.193800	-9.656300	27.827518	4.239162E-5	20.792373
2363.665009	-2.989700	3.194300	-9.549000	27.906292	4.060948E-5	20.813808
2364.665001	-2.997500	3.193100	-9.570800	27.917525	4.051048E-5	20.779596
2365.664657	-3.000600	3.192000	-9.576900	27.900168	4.064249E-5	20.792946
2366.670288	-3.001300	3.192500	-9.581100	27.869546	4.090651E-5	20.796265
2367.674216	-2.977200	3.192900	-9.504700	27.828955	3.882735E-5	20.795242
2368.667049	-3.010500	3.192800	-9.611700	27.744247	3.796929E-5	20.800558
2369.666853	-3.009000	3.190200	-9.598200	27.738370	4.133554E-5	20.797488
2370.668047	-3.017900	3.189300	-9.624300	27.742238	3.856333E-5	20.795217
2371.669393	-2.997200	3.190100	-9.560000	27.813854	4.011445E-5	20.795217
2372.671729	-3.005200	3.188600	-9.581900	27.824442	3.938840E-5	20.799235
2373.668663	-2.997300	3.188900	-9.556800	27.876538	3.862934E-5	20.801880
2374.669099	-3.012300	3.186800	-9.598700	27.846312	3.915738E-5	20.795167
2375.670388	-2.953000	3.188000	-9.412600	27.840163	3.849733E-5	20.808419
2376.667944	-3.025900	3.186900	-9.641800	27.884150	3.724324E-5	20.802429
2377.673050	-3.006600	3.186500	-9.579100	27.889854	3.750726E-5	20.822394
2378.670112	-3.028900	3.186100	-9.649500	27.889704	3.810130E-5	20.810390
2379.670592	-3.001100	3.185200	-9.558500	27.846312	3.895936E-5	20.798486
2380.670258	-3.013200	3.184100	-9.593300	27.817375	3.714423E-5	20.818675
2381.670289	-2.985900	3.184100	-9.506800	27.831931	3.935539E-5	20.805350
2382.670824	-2.983500	3.183500	-9.497500	27.850950	3.754026E-5	20.796990
2383.671475	-2.978800	3.183200	-9.481700	27.924342	3.668220E-5	20.824389
2384.671858	-2.986000	3.182900	-9.503100	27.978839	3.694622E-5	20.809541
2385.672822	-3.002600	3.181800	-9.552400	28.026664	3.707823E-5	20.796989
2386.673665	-2.983700	3.182100	-9.492200	28.044390	3.658319E-5	20.825738
2387.673613	-2.998300	3.181300	-9.537600	28.053389	3.701222E-5	20.823417
2388.672961	-3.018800	3.179900	-9.598000	27.982014	3.754026E-5	20.807995
2389.672150	-3.032100	3.179000	-9.637700	27.900739	3.595614E-5	20.812013
2390.672741	-3.034800	3.179300	-9.647400	27.906616	3.678120E-5	20.806074
2391.673496	-3.007500	3.177900	-9.556100	27.903020	3.707823E-5	20.809093
2392.671436	-3.009400	3.177800	-9.562000	27.955782	3.503208E-5	20.811464
2393.676011	-3.007000	3.177100	-9.552800	28.025053	3.516409E-5	20.822868
2394.672593	-2.996300	3.176100	-9.515500	28.067099	3.407501E-5	20.825363
2395.671153	-3.004500	3.176100	-9.541300	28.075503	3.744125E-5	20.820073
2396.674563	-2.990600	3.174600	-9.493500	27.972368	3.414101E-5	20.835744
2397.673599	-2.988000	3.174000	-9.483200	27.951715	3.192985E-5	20.826811
2398.673643	-2.975300	3.173900	-9.442700	27.957319	3.480106E-5	20.820597
2399.674500	-2.997800	3.173400	-9.512200	28.022102	3.381099E-5	20.817053
2400.673250	-3.017700	3.171400	-9.569500	27.993888	3.311794E-5	20.810939
2401.674351	-3.028000	3.171300	-9.602100	27.977823	3.424002E-5	20.812312
2402.675788	-2.993500	3.172400	-9.495900	27.989450	3.427302E-5	20.809790
2403.673664	-2.984700	3.170300	-9.460300	27.976855	3.585714E-5	20.821294
2404.676774	-2.999900	3.171200	-9.512000	28.003011	3.321694E-5	20.837665
2405.674181	-2.996100	3.170400	-9.498300	28.018928	3.305193E-5	20.824764
2406.673750	-3.013500	3.168600	-9.547800	28.030431	3.242488E-5	20.830178
2407.675166	-3.013300	3.167400	-9.543600	28.013869	3.229287E-5	20.824413
2408.675475	-3.034300	3.166600	-9.606700	27.993738	3.268890E-5	20.825960
2409.676315	-2.995100	3.166200	-9.482300	27.996439	3.110479E-5	20.827731
2410.678065	-3.001000	3.165400	-9.498800	27.961108	3.390999E-5	20.830575
2411.675622	-2.991700	3.165200	-9.467400	27.928207	3.070876E-5	20.823063
2412.674973	-3.001400	3.165500	-9.500000	27.953248	3.245789E-5	20.818397
2413.674266	-2.992300	3.163900	-9.465700	27.907950	3.037873E-5	20.817848
2414.674972	-3.012100	3.162800	-9.526000	27.958182	2.961968E-5	20.849914
2415.677537	-3.024300	3.161900	-9.561100	28.032980	3.229287E-5	20.842701
2416.674012	-3.002600	3.161100	-9.490400	28.005635	3.351396E-5	20.834616
2417.675504	-3.014200	3.161200	-9.527600	27.960809	3.024672E-5	20.845921
2418.675986	-2.990800	3.160000	-9.450100	27.968023	2.935566E-5	20.838957
2419.677351	-3.011400	3.159100	-9.512600	27.963015	3.176484E-5	20.859994
2420.679646	-3.026900	3.158700	-9.559700	27.997253	3.245789E-5	20.824757
2421.678242	-2.996400	3.158400	-9.462800	28.003897	3.034573E-5	20.842350
2422.676634	-2.990600	3.157400	-9.442100	28.034639	3.011471E-5	20.847215
2423.676093	-2.995000	3.157000	-9.454700	28.028044	3.169883E-5	20.835362
2424.681783	-3.000900	3.155400	-9.467700	28.042943	3.173183E-5	20.840876
2425.681831	-2.989400	3.153600	-9.426000	28.076584	3.156682E-5	20.853876
2426.679604	-2.954600	3.156400	-9.324800	28.092723	2.968568E-5	20.825079
2427.678187	-2.994400	3.155500	-9.447100	28.075666	3.206186E-5	20.828772
2428.677202	-2.988500	3.153200	-9.422000	28.064362	3.031273E-5	20.840151
2429.680269	-2.986100	3.153000	-9.414900	27.995613	2.971869E-5	20.834011
2430.678077	-2.989700	3.151800	-9.422400	27.948258	2.925665E-5	20.854149
2431.681028	-3.004600	3.150100	-9.464100	27.950612	3.080777E-5	20.847036
2432.680444	-3.003300	3.149400	-9.457900	28.035874	3.018072E-5	20.827597
2433.680171	-3.011300	3.149700	-9.482300	28.039368	2.932266E-5	20.830640
2434.684154	-2.957600	3.149100	-9.313000	28.041227	3.008171E-5	20.853372
2435.682032	-3.016200	3.148400	-9.495400	28.085108	2.965268E-5	20.856767
2436.683858	-3.010500	3.147400	-9.474300	28.163838	2.869561E-5	20.867746
2437.685675	-2.984900	3.145600	-9.388000	28.237581	2.975169E-5	20.863278
2438.684517	-2.985200	3.146300	-9.391600	28.264325	2.866261E-5	20.878824
2439.691021	-2.993000	3.144700	-9.410000	28.252056	2.727651E-5	20.863627
2440.684955	-3.009900	3.142700	-9.458100	28.278726	3.034573E-5	20.857288
2441.685348	-2.996800	3.141900	-9.413900	28.222585	2.618743E-5	20.876629
2442.687677	-2.984300	3.143000	-9.378800	28.220106	2.724350E-5	20.883615
2443.684987	-2.982100	3.141800	-9.368400	28.224889	2.777154E-5	20.858087
2444.685507	-3.006200	3.139500	-9.436300	28.227988	2.793655E-5	20.854569
2445.685975	-3.011500	3.139700	-9.453100	28.194004	2.552738E-5	20.843114
2446.687113	-2.999300	3.138500	-9.411900	28.226848	2.529636E-5	20.848205
2447.687427	-3.002600	3.137400	-9.419800	28.208579	2.648445E-5	20.855417
2448.686587	-2.988800	3.137900	-9.377600	28.196905	2.582440E-5	20.872586
2449.687966	-3.007400	3.136800	-9.433100	28.175487	2.466931E-5	20.872835
2450.689336	-2.992700	3.135900	-9.384400	28.182578	2.308520E-5	20.855792
2451.692800	-2.990100	3.134300	-9.371300	28.152484	2.546137E-5	20.870066
2452.691011	-3.024100	3.133400	-9.475100	28.121052	2.440530E-5	20.872562
2453.693834	-2.987400	3.133200	-9.359100	28.126506	2.565939E-5	20.862406
2454.692081	-3.010300	3.131700	-9.426100	28.213860	2.308520E-5	20.875905
2455.692015	-3.012400	3.130800	-9.429900	28.258204	2.519735E-5	20.870765
2456.696259	-3.011700	3.129500	-9.424400	28.224074	2.414128E-5	20.870542
2457.691491	-3.005200	3.129600	-9.404000	28.292087	2.678147E-5	20.875481
2458.694381	-3.000600	3.127500	-9.383100	28.326737	2.407527E-5	20.876704
2459.693191	-2.997900	3.127000	-9.373800	28.240086	2.443830E-5	20.866274
2460.692188	-2.993600	3.127300	-9.359900	28.174647	2.292019E-5	20.875782
2461.692596	-2.993400	3.125300	-9.354500	28.165276	2.334922E-5	20.881046
2462.694242	-3.005000	3.126200	-9.392800	28.226503	2.394326E-5	20.869194
2463.695731	-3.010700	3.123500	-9.403000	28.206772	2.084103E-5	20.875881
2464.694945	-2.970200	3.124000	-9.277800	28.177373	2.054401E-5	20.876155
2465.693265	-2.985800	3.122500	-9.322400	28.141628	2.344822E-5	20.889006
2466.693737	-3.007400	3.120700	-9.383600	28.183619	2.410827E-5	20.890029
2467.699729	-2.991800	3.121400	-9.336700	28.235748	2.381125E-5	20.869967
2468.694246	-2.972700	3.120300	-9.274700	28.199359	2.229314E-5	20.886436
2469.695494	-2.974500	3.118500	-9.274400	28.229873	2.288718E-5	20.875905
2470.694956	-2.988800	3.117900	-9.318100	28.273523	2.226014E-5	20.876230
2471.695130	-2.966100	3.116700	-9.243300	28.237359	2.334922E-5	20.867321
2472.693558	-2.993100	3.115600	-9.324500	28.291268	2.282118E-5	20.897888
2473.694519	-2.979300	3.114900	-9.278900	28.256418	2.268917E-5	20.895518
2474.701230	-3.013900	3.112300	-9.379700	28.294837	2.011498E-5	20.913335
2475.695793	-3.007600	3.113000	-9.362000	28.396528	2.301919E-5	20.885337
2476.696892	-3.005200	3.112700	-9.353300	28.301901	2.232614E-5	20.871138
2477.695854	-2.983500	3.111300	-9.281500	28.303264	2.239215E-5	20.898587
2478.695215	-2.997100	3.110600	-9.321400	28.289359	2.268917E-5	20.895019
2479.696402	-3.020600	3.109500	-9.391600	28.242637	2.136907E-5	20.892074
2480.699466	-2.981600	3.108600	-9.267900	28.234482	2.127006E-5	20.913259
2481.697418	-2.969200	3.109000	-9.229900	28.243851	1.942193E-5	20.903253
2482.696055	-2.958100	3.107900	-9.192300	28.238597	2.206212E-5	20.892274
2483.697702	-3.002000	3.104900	-9.320100	28.227467	1.876188E-5	20.892922
2484.697235	-2.990000	3.104000	-9.280100	28.297141	1.981796E-5	20.898112
2485.699036	-2.981900	3.103900	-9.253900	28.240554	2.117106E-5	20.902778
2486.697458	-3.007700	3.102800	-9.330700	28.327007	2.051101E-5	20.903527
2487.696510	-3.005600	3.101700	-9.321800	28.288021	1.948793E-5	20.907894
2488.697557	-2.972800	3.101100	-9.217600	28.202134	1.678173E-5	20.907245
2489.699226	-3.001000	3.101200	-9.306300	28.248783	1.965295E-5	20.905373
2490.702509	-2.992000	3.099900	-9.273600	28.352238	1.879488E-5	20.901431
2491.702320	-2.995500	3.097100	-9.276600	28.337021	2.031299E-5	20.913134
2492.698531	-2.969000	3.097600	-9.195700	28.407506	1.919091E-5	20.906347
2493.701687	-3.008400	3.095000	-9.309500	28.457195	1.994997E-5	20.908968
2494.704154	-3.033500	3.092700	-9.380100	28.456898	2.037900E-5	20.914833
2495.700675	-2.995800	3.093700	-9.267300	28.419451	1.737578E-5	20.901781
2496.703587	-2.989500	3.092500	-9.243600	28.425474	1.717776E-5	20.921595
2497.701496	-3.044100	3.091100	-9.408400	28.442102	2.054401E-5	20.926958
2498.702302	-3.017400	3.089500	-9.321600	28.402649	1.938893E-5	20.904302
2499.702266	-3.031000	3.088200	-9.359200	28.420294	1.694675E-5	20.891725
2500.703485	-2.990800	3.089400	-9.238600	28.415041	2.080803E-5	20.896392
2501.708237	-2.996500	3.087000	-9.249900	28.368225	1.849786E-5	20.905200
2502.703780	-2.988700	3.087000	-9.225600	28.323911	1.800282E-5	20.897565
2503.704231	-2.994900	3.085900	-9.241300	28.328621	2.021399E-5	20.876230
2504.703929	-3.004900	3.084300	-9.266900	28.330504	1.694675E-5	20.907048
2505.703824	-2.988300	3.083000	-9.212200	28.347012	1.539563E-5	20.890954
2506.703218	-2.994300	3.081700	-9.226500	28.379330	1.572566E-5	20.878926
2507.707246	-3.003000	3.080100	-9.248600	28.471199	1.734278E-5	20.887036
2508.704026	-2.998000	3.079800	-9.232500	28.469664	1.833285E-5	20.875060
2509.704164	-2.984900	3.079000	-9.189800	28.392937	1.622069E-5	20.881722
2510.707501	-2.989900	3.076600	-9.197800	28.434102	1.598968E-5	20.884767
2511.703589	-3.015800	3.074500	-9.271700	28.406470	1.532963E-5	20.869272
2512.708013	-2.989600	3.075300	-9.193300	28.441587	1.631970E-5	20.876184
2513.703706	-2.996700	3.074300	-9.211200	28.482925	1.572566E-5	20.870397
2514.703861	-3.007400	3.072100	-9.238400	28.426547	1.483459E-5	20.865781
2515.708038	-2.996000	3.071900	-9.201500	28.429373	1.813483E-5	20.870522
2516.706062	-3.020800	3.070200	-9.273400	28.456807	1.407554E-5	20.874441
2517.708007	-3.019200	3.068500	-9.264000	28.500498	1.457057E-5	20.889988
2518.706367	-2.998200	3.068700	-9.199700	28.443947	1.457057E-5	20.870974
2519.706491	-3.004600	3.067400	-9.215200	28.350962	1.391052E-5	20.874543
2520.707182	-2.989900	3.067900	-9.171300	28.411953	1.721077E-5	20.869103
2521.707211	-2.970700	3.066900	-9.110300	28.485632	1.407554E-5	20.871226
2522.709052	-2.987500	3.064300	-9.153700	28.544784	1.490060E-5	20.855406
2523.709604	-2.988600	3.063800	-9.155400	28.586513	1.516462E-5	20.857602
2524.708537	-3.002700	3.061400	-9.191900	28.582500	1.562665E-5	20.871104
2525.708402	-3.002000	3.059700	-9.183900	28.591322	1.394353E-5	20.884256
2526.713105	-3.010700	3.059600	-9.210600	28.514729	1.364650E-5	20.853113
2527.708339	-3.005900	3.057900	-9.190100	28.409879	1.334948E-5	20.871756
2528.710226	-3.006200	3.056400	-9.187400	28.385096	1.397653E-5	20.854862
2529.709477	-2.981600	3.056400	-9.112500	28.468292	1.377851E-5	20.849498
2530.708483	-3.012000	3.053100	-9.195100	28.546971	1.424055E-5	20.842910
2531.709004	-2.987800	3.054000	-9.124000	28.557083	1.391052E-5	20.863524
2532.709547	-3.000700	3.052300	-9.158600	28.536739	1.384452E-5	20.871959
2533.712531	-2.980400	3.051300	-9.093600	28.533617	1.358050E-5	20.847480
2534.708077	-3.011300	3.049100	-9.181300	28.462869	1.298646E-5	20.855891
2535.710700	-3.003500	3.047300	-9.152200	28.505517	1.371251E-5	20.859957
2536.711955	-2.991700	3.046300	-9.112800	28.503883	1.443856E-5	20.844562
2537.710971	-2.996600	3.045600	-9.126200	28.519397	1.259043E-5	20.864452
2538.709985	-2.994700	3.044600	-9.116800	28.563778	1.473558E-5	20.849879
2539.713825	-3.000000	3.043500	-9.129700	28.611006	1.298646E-5	20.846236
2540.712039	-3.011200	3.040900	-9.155200	28.659770	1.476859E-5	20.835132
2541.711088	-3.013300	3.041500	-9.163400	28.637917	1.367951E-5	20.848683
2542.712351	-2.984900	3.040500	-9.075300	28.654914	1.391052E-5	20.853000
2543.710825	-3.001100	3.039100	-9.119200	28.618442	1.453757E-5	20.834759
2544.714978	-3.008400	3.037400	-9.136500	28.648721	1.351449E-5	20.837754
2545.711066	-2.988000	3.035800	-9.070400	28.639902	1.453757E-5	20.850683
2546.712212	-3.005200	3.034200	-9.117300	28.590717	1.166636E-5	20.858518
2547.713091	-2.980500	3.034800	-9.044400	28.589155	1.176537E-5	20.846514
2548.712479	-2.990900	3.032400	-9.069100	28.512513	1.334948E-5	20.852778
2549.714572	-2.986900	3.031600	-9.054400	28.478737	1.430655E-5	20.850533
2550.717836	-3.008700	3.029400	-9.113400	28.554639	1.496660E-5	20.838779
2551.712848	-2.976900	3.029100	-9.016800	28.558554	1.433956E-5	20.834187
2552.713799	-3.007400	3.026000	-9.099100	28.573026	1.216140E-5	20.844969
2553.718832	-2.993800	3.026000	-9.058900	28.564973	1.453757E-5	20.841126
2554.713658	-3.011300	3.024100	-9.105500	28.666463	1.503261E-5	20.836184
2555.713662	-2.993300	3.023500	-9.049500	28.737546	1.410854E-5	20.843771
2556.714214	-3.004600	3.020700	-9.074700	28.719584	1.295345E-5	20.834213
2557.715420	-3.018900	3.020200	-9.115400	28.607319	1.344849E-5	20.831143
2558.715935	-3.005700	3.019700	-9.075500	28.569805	1.361350E-5	20.817544
2559.721448	-3.035700	3.016600	-9.155500	28.580088	1.354750E-5	20.834538
2560.722290	-2.982900	3.017700	-8.999900	28.679645	1.094031E-5	20.833340
2561.716805	-3.011600	3.015300	-9.079700	28.622111	1.278844E-5	20.848886
2562.717553	-2.990700	3.013900	-9.013200	28.644734	1.338248E-5	20.835162
2563.716104	-3.009000	3.012300	-9.062400	28.668000	1.476859E-5	20.823507
2564.717702	-3.004500	3.009300	-9.040000	28.678480	1.381152E-5	20.842123
2565.717638	-3.011800	3.010300	-9.065600	28.706354	1.381152E-5	20.820414
2566.719956	-3.011200	3.008100	-9.055300	28.725877	1.061028E-5	20.831069
2567.717575	-3.005100	3.008500	-9.040200	28.719337	1.301946E-5	20.830645
2568.718603	-3.007800	3.005300	-9.038600	28.779020	1.282144E-5	20.833865
2569.719324	-3.016400	3.004000	-9.060400	28.807682	1.404253E-5	20.802520
2570.717972	-2.998500	3.002000	-8.999300	28.807311	1.311847E-5	20.827276
2571.729642	-2.998400	3.002200	-9.000900	28.714952	1.292045E-5	20.804418
2572.717207	-3.009700	2.999200	-9.026600	28.731155	9.950232E-6	20.827376
2573.718508	-2.996700	2.998600	-8.984400	28.784744	1.130333E-5	20.832518
2574.719022	-3.016500	2.996300	-9.037900	28.755683	1.232641E-5	20.834539
2575.719338	-2.979700	2.997500	-8.929700	28.691218	1.179837E-5	20.818919
2576.718840	-2.971700	2.995000	-8.899700	28.672785	1.265643E-5	20.829275
2577.718251	-2.989100	2.992400	-8.942800	28.729201	1.252442E-5	20.811184
2578.719091	-3.001700	2.991300	-8.977400	28.711685	1.064328E-5	20.832421
2579.718686	-2.982800	2.989700	-8.916600	28.676800	1.196338E-5	20.811983
2580.719007	-2.979000	2.989300	-8.904000	28.682648	1.143534E-5	20.828304
2581.719036	-2.992200	2.987700	-8.938400	28.716542	8.729143E-6	20.825459
2582.721169	-2.978200	2.986600	-8.893600	28.713595	1.123733E-5	20.807318
2583.720571	-3.013500	2.983200	-8.989100	28.718302	1.143534E-5	20.819172
2584.720735	-2.967800	2.983600	-8.853600	28.755960	1.189738E-5	20.821069
2585.719054	-3.014000	2.981700	-8.986100	28.781033	1.265643E-5	20.830203
2586.720033	-2.996700	2.981600	-8.934100	28.825825	1.113832E-5	20.844977
2587.723033	-2.980300	2.979700	-8.880100	28.808262	1.156735E-5	20.816380
2588.722280	-3.030000	2.975100	-9.013600	28.846436	1.186437E-5	20.805049
2589.720538	-2.989800	2.975700	-8.896200	28.871011	1.136934E-5	20.825538
2590.719388	-2.983300	2.975000	-8.874300	28.825058	1.288745E-5	20.800109
2591.722779	-2.978700	2.973800	-8.857800	28.868088	1.166636E-5	20.810266
2592.720942	-2.961800	2.972200	-8.801900	28.787823	1.242541E-5	20.815232
2593.724882	-3.014300	2.969200	-8.948900	28.751976	1.100631E-5	20.815632
2594.721640	-3.003000	2.967400	-8.910400	28.734434	1.107231E-5	20.806024
2595.722088	-3.014800	2.966800	-8.942600	28.819707	1.067629E-5	20.821271
2596.721435	-2.985400	2.964300	-8.849000	28.823448	1.259043E-5	20.814134
2597.720440	-3.013300	2.964200	-8.930800	28.824985	1.275544E-5	20.804777
2598.723496	-2.976100	2.964500	-8.821600	28.828279	1.222740E-5	20.816156
2599.723498	-2.982900	2.961500	-8.832900	28.876932	1.047827E-5	20.815382
2600.721496	-3.004200	2.959000	-8.888500	28.895982	1.348149E-5	20.825090
2601.721719	-2.967100	2.958400	-8.777200	28.888848	1.084130E-5	20.821697
2602.722665	-3.005100	2.956300	-8.883000	28.841434	1.222740E-5	20.800484
2603.724669	-3.021600	2.953500	-8.923900	28.840070	9.818223E-6	20.805275
2604.724625	-2.998600	2.952600	-8.853300	28.882234	1.028026E-5	20.798438
2605.724308	-3.009100	2.951400	-8.880300	28.882159	1.216140E-5	20.795992
2606.724351	-3.010400	2.951100	-8.882900	28.927441	1.140234E-5	20.803678
2607.725078	-3.009000	2.948300	-8.870400	28.932395	1.107231E-5	20.820997
2608.724789	-3.012300	2.945500	-8.872100	28.938515	1.094031E-5	20.797765
2609.725411	-3.012000	2.946000	-8.872500	28.938811	1.094031E-5	20.804228
2610.725465	-3.008800	2.944400	-8.858400	28.895090	1.123733E-5	20.823718
2611.725914	-2.983300	2.942800	-8.777900	28.952980	9.653210E-6	20.796691
2612.734473	-3.008700	2.941900	-8.850900	29.008414	1.024725E-5	20.810816
2613.725418	-2.995700	2.939000	-8.803400	28.970987	1.127033E-5	20.811514
2614.728003	-3.007800	2.936900	-8.833200	28.859864	1.070929E-5	20.818577
2615.725573	-2.967500	2.936400	-8.712900	28.879584	1.292045E-5	20.794821
2616.725935	-3.012600	2.934800	-8.839700	28.980078	1.097331E-5	20.817355
2617.726706	-2.992000	2.933100	-8.775100	29.031549	9.356189E-6	20.797142
2618.727874	-3.005800	2.931600	-8.809700	29.046609	1.328348E-5	20.788134
2619.730905	-3.009900	2.929600	-8.817200	28.991126	1.229340E-5	20.803829
2620.731516	-2.967500	2.929800	-8.692700	28.932546	1.090730E-5	20.803131
2621.729068	-3.013100	2.925300	-8.813300	28.834772	1.097331E-5	20.809421
2622.729211	-3.004000	2.924500	-8.783900	28.846811	1.077529E-5	20.793099
2623.732166	-3.005600	2.923600	-8.785100	28.892144	9.257181E-6	20.818379
2624.728576	-3.016100	2.921200	-8.809500	28.953031	1.212839E-5	20.788208
2625.730916	-3.008400	2.920600	-8.785600	28.943941	1.163336E-5	20.808922
2626.729017	-3.012100	2.917500	-8.786700	28.966877	1.298646E-5	20.783666
2627.729738	-2.995900	2.916300	-8.736000	28.934182	1.272244E-5	20.791504
2628.728506	-3.013900	2.914700	-8.783300	28.862740	1.222740E-5	20.794447
2629.728352	-3.023700	2.911600	-8.803300	28.823872	1.057728E-5	20.796070
2630.728826	-3.010600	2.910300	-8.760200	28.828777	1.130333E-5	20.810494
2631.730343	-2.982500	2.909500	-8.676900	28.934925	1.001624E-5	20.807425
2632.729443	-3.001800	2.907200	-8.725200	28.952710	1.229340E-5	20.776031
2633.729568	-3.032500	2.904200	-8.806100	28.983772	1.127033E-5	20.802109
2634.728941	-3.016500	2.903300	-8.756200	29.045842	1.090730E-5	20.806327
2635.731054	-2.985700	2.901700	-8.662700	29.069100	1.265643E-5	20.778552
2636.736595	-2.971200	2.901200	-8.618500	29.003042	1.130333E-5	20.780748
2637.732942	-2.996100	2.899800	-8.687200	28.949466	1.080830E-5	20.787936
2638.733617	-3.011200	2.897300	-8.723800	28.945701	1.331648E-5	20.775608
2639.734712	-3.011300	2.894500	-8.715400	29.027316	1.097331E-5	20.815162
2640.734038	-3.000100	2.894700	-8.683500	29.094164	1.341549E-5	20.778202
2641.738510	-3.033200	2.891600	-8.770400	29.039627	9.818223E-6	20.806229
2642.732862	-3.005900	2.890400	-8.687300	29.021695	1.140234E-5	20.783419
2643.734252	-3.005100	2.889800	-8.683100	29.007253	1.259043E-5	20.775507
2644.734199	-3.044600	2.885600	-8.784000	29.002820	1.199638E-5	20.802335
2645.734745	-3.029900	2.884500	-8.738600	29.048641	1.229340E-5	20.783069
2646.738111	-3.005100	2.883400	-8.664000	29.018747	1.113832E-5	20.781872
2647.738271	-3.016800	2.880000	-8.687900	29.061868	1.028026E-5	20.771265
2648.734989	-3.019800	2.880300	-8.697300	29.029099	1.037926E-5	20.781397
2649.735974	-2.978200	2.877700	-8.569500	29.011390	1.202939E-5	20.792951
2650.739703	-2.979100	2.875400	-8.565500	29.012627	1.226040E-5	20.797991
2651.735256	-3.004100	2.873400	-8.630500	29.073458	1.193038E-5	20.787211
2652.737678	-3.017100	2.871800	-8.663400	29.096467	1.176537E-5	20.804231
2653.740646	-3.019800	2.869200	-8.663500	29.083786	1.186437E-5	20.800463
2654.734673	-3.002500	2.866500	-8.606300	29.104342	1.031326E-5	20.770915
2655.735432	-3.021500	2.864000	-8.652500	29.132106	1.097331E-5	20.783718
2656.736566	-3.019600	2.861900	-8.641000	29.106523	9.917230E-6	20.784018
2657.738364	-3.003600	2.861300	-8.593700	29.075317	1.143534E-5	20.777705
2658.738812	-2.999100	2.860100	-8.577200	29.088567	1.014825E-5	20.774460
2659.736882	-3.052700	2.856800	-8.720100	29.172673	8.861152E-6	20.789035
2660.736218	-2.996800	2.856800	-8.560100	29.146622	1.103931E-5	20.775585
2661.740325	-2.985900	2.854200	-8.521100	29.121186	9.719215E-6	20.795474
2662.737939	-2.994200	2.852400	-8.539800	29.154744	1.186437E-5	20.767649
2663.740918	-2.995800	2.849600	-8.535600	29.176810	1.183137E-5	20.776608
2664.739252	-3.004300	2.847300	-8.553200	29.217820	1.014825E-5	20.775734
2665.739409	-2.984200	2.846900	-8.495500	29.185677	1.150135E-5	20.772267
2666.738723	-3.002800	2.843900	-8.539300	29.170472	9.158174E-6	20.770695
2667.740001	-3.002500	2.840900	-8.528300	29.226563	1.037926E-5	20.767950
2668.739774	-3.015300	2.840500	-8.563700	29.192636	1.123733E-5	20.773116
2669.741040	-3.005000	2.837700	-8.526700	29.155615	9.719215E-6	20.770422
2670.739223	-3.021600	2.833600	-8.561200	29.174361	1.044527E-5	20.762760
2671.738383	-3.025500	2.832400	-8.568900	29.150687	1.061028E-5	20.761189
2672.742143	-2.991700	2.830900	-8.468400	29.112399	1.051127E-5	20.786620
2673.740903	-2.998000	2.828700	-8.479400	29.165547	1.262343E-5	20.773318
2674.743733	-2.994100	2.826000	-8.460100	29.134342	1.001624E-5	20.758944
2675.739662	-2.977700	2.824000	-8.408400	29.106431	1.160035E-5	20.775391
2676.740514	-3.001100	2.820800	-8.465300	29.026877	9.884227E-6	20.782951
2677.740615	-3.014700	2.817500	-8.492800	29.057293	9.653210E-6	20.760491
2678.741007	-3.022300	2.815600	-8.508800	29.145810	9.950232E-6	20.764810
2679.743726	-3.010900	2.813900	-8.471900	29.217676	1.179837E-5	20.765158
2680.742793	-2.997300	2.811800	-8.426600	29.233873	1.103931E-5	20.759668
2681.741460	-2.987700	2.809300	-8.391600	29.206236	1.004924E-5	20.746516
2682.742040	-2.996200	2.806600	-8.408300	29.210866	1.103931E-5	20.779632
2683.742340	-3.002600	2.804100	-8.418700	29.211683	1.199638E-5	20.770024
2684.742822	-2.999300	2.801300	-8.401000	29.281813	1.090730E-5	20.763411
2685.741940	-3.033200	2.797000	-8.482900	29.293723	1.179837E-5	20.755499
2686.740896	-3.007700	2.794800	-8.405100	29.273295	1.087430E-5	20.742972
2687.741259	-2.994100	2.793900	-8.364300	29.208834	1.028026E-5	20.751980
2688.742704	-3.007900	2.789300	-8.389200	29.201876	1.044527E-5	20.784324
2689.744210	-2.996000	2.787600	-8.349400	29.218987	1.150135E-5	20.743244
2690.746665	-2.979400	2.785100	-8.297000	29.269676	1.298646E-5	20.758766
2691.744099	-3.003900	2.781200	-8.353800	29.394078	1.282144E-5	20.746638
2692.744078	-3.005000	2.778900	-8.349200	29.453004	1.189738E-5	20.755772
2693.748403	-2.992400	2.777600	-8.310700	29.493187	1.206239E-5	20.756921
2694.745697	-2.995000	2.775000	-8.310400	29.478207	1.354750E-5	20.760313
2695.747553	-2.993700	2.771000	-8.293600	29.390436	1.107231E-5	20.758615
2696.747154	-3.015800	2.767700	-8.346200	29.360080	1.229340E-5	20.747460
2697.746287	-2.996500	2.764900	-8.284000	29.389396	1.166636E-5	20.754248
2698.747329	-3.005100	2.761200	-8.296400	29.426162	1.239241E-5	20.775659
2699.747406	-3.014300	2.758600	-8.314200	29.322393	1.282144E-5	20.764953
2700.749077	-3.002900	2.755400	-8.273300	29.330043	1.407554E-5	20.764602
2701.749238	-3.018600	2.752300	-8.306500	29.396327	1.371251E-5	20.740844
2702.746382	-2.997900	2.750100	-8.243600	29.451439	1.044527E-5	20.766048
2703.747613	-2.998000	2.745300	-8.229400	29.430543	1.011524E-5	20.748779
2704.751689	-3.009000	2.741900	-8.249500	29.416479	1.100631E-5	20.748828
2705.750124	-3.002500	2.738500	-8.220700	29.374709	1.242541E-5	20.768843
2706.750249	-2.994700	2.737000	-8.194800	29.360892	1.440556E-5	20.767245
2707.748423	-2.997300	2.733900	-8.192100	29.328307	1.255742E-5	20.769965
2708.749015	-3.017000	2.729000	-8.232600	29.406697	1.051127E-5	20.758884
2709.748254	-3.007700	2.724400	-8.193500	29.416651	1.140234E-5	20.758484
2710.749197	-3.000100	2.722800	-8.168200	29.367179	1.219440E-5	20.752244
2711.751821	-3.039100	2.718500	-8.261300	29.437299	1.364650E-5	20.752269
2712.748618	-3.018900	2.715500	-8.196600	29.494143	1.127033E-5	20.751246
2713.749296	-2.979700	2.712000	-8.080000	29.505903	1.288745E-5	20.764049
2714.747807	-3.023400	2.706700	-8.182400	29.495381	1.179837E-5	20.764348
2715.748837	-2.983700	2.704400	-8.069000	29.496098	1.090730E-5	20.760803
2716.750751	-2.999500	2.700300	-8.098500	29.559326	1.014825E-5	20.747726
2717.754716	-2.992600	2.697500	-8.071300	29.650648	1.292045E-5	20.739740
2718.752454	-2.971000	2.693000	-7.999400	29.690525	1.305246E-5	20.751494
2719.748972	-3.009800	2.686800	-8.085800	29.700524	1.272244E-5	20.742609
2720.752256	-2.983900	2.685300	-8.011800	29.531499	1.199638E-5	20.746227
2721.749805	-2.979600	2.680800	-7.986000	29.481837	1.041227E-5	20.755437
2722.752522	-2.989300	2.675200	-7.996000	29.424396	1.193038E-5	20.750644
2723.751086	-3.003900	2.670500	-8.020000	29.443090	1.341549E-5	20.728233
2724.751301	-2.999600	2.665800	-7.995900	29.532810	1.110532E-5	20.751817
2725.750678	-3.002400	2.662200	-7.992500	29.557022	1.077529E-5	20.743506
2726.749928	-2.994400	2.657300	-7.956200	29.512410	1.301946E-5	20.763495
2727.750525	-2.984000	2.653200	-7.916500	29.543554	1.216140E-5	20.770708
2728.751655	-3.035900	2.648400	-8.039400	29.573360	1.127033E-5	20.757605
2729.751282	-2.948300	2.643900	-7.794000	29.570983	1.206239E-5	20.727707
2730.752501	-2.999200	2.638900	-7.913600	29.587271	1.028026E-5	20.754560
2731.757710	-2.957200	2.636300	-7.795300	29.578954	1.202939E-5	20.754236
2732.751257	-2.986500	2.629500	-7.852500	29.635246	1.173236E-5	20.768311
2733.760068	-3.004500	2.625000	-7.886200	29.673614	1.123733E-5	20.761472
2734.754245	-2.973200	2.619900	-7.788400	29.725718	1.051127E-5	20.776072
2735.753558	-3.019900	2.612500	-7.888500	29.758763	1.110532E-5	20.740160
2736.753855	-2.973800	2.609700	-7.760100	29.852615	1.232641E-5	20.746124
2737.753826	-3.000300	2.602900	-7.808200	29.912506	1.331648E-5	20.766689
2738.755942	-3.021300	2.597200	-7.846300	29.911120	1.206239E-5	20.750592
2739.753817	-2.994200	2.591800	-7.759700	29.855066	1.140234E-5	20.753812
2740.757740	-3.015700	2.587600	-7.801300	29.800517	1.057728E-5	20.745277
2741.754130	-2.981200	2.583100	-7.699900	29.824748	1.193038E-5	20.772554
2742.757550	-2.993700	2.577200	-7.715100	29.826160	1.219440E-5	20.762124
2743.756226	-2.997700	2.570600	-7.704800	29.808761	1.100631E-5	20.720396
2744.755979	-3.016100	2.563800	-7.731500	29.815764	1.199638E-5	20.731726
2745.756902	-2.983800	2.559900	-7.637200	29.685227	1.123733E-5	20.729082
2746.756379	-3.010800	2.553300	-7.686600	29.652652	1.348149E-5	20.748873
2747.758580	-3.012500	2.545900	-7.668400	29.619284	1.057728E-5	20.746528
2748.757169	-3.016200	2.539600	-7.659300	29.691640	1.222740E-5	20.762577
2749.760292	-3.012100	2.533400	-7.630700	29.662234	1.199638E-5	20.754741
2750.757678	-3.022400	2.527700	-7.639400	29.700625	1.235941E-5	20.751720
2751.757352	-3.026800	2.522100	-7.633100	29.702136	1.381152E-5	20.756089
2752.757282	-3.008500	2.517000	-7.570800	29.771937	1.371251E-5	20.737796
2753.758553	-2.998000	2.510400	-7.525500	29.831586	1.374551E-5	20.727765
2754.758173	-3.035200	2.503900	-7.599100	29.912069	1.381152E-5	20.754868
2755.760741	-2.995600	2.498800	-7.484900	29.909990	1.061028E-5	20.759410
