LabVIEW Measurement	
Writer_Version	2
Reader_Version	2
Separator	Tab
Decimal_Separator	.
Multi_Headings	No
X_Columns	One
Time_Pref	Absolute
Operator	admin
Description	Clolumns are: time, Current, Voltage, Power, Battery Temp, and Chamber Temp
Date	2024/08/16
Time	13:07:17.8513970375061035156
***End_of_Header***	
	
Channels	6						
Samples	1	1	1	1	1	1	
Date	2024/09/17	2024/09/17	2024/09/17	2024/09/17	2024/09/17	2024/09/17	
Time	14:09:07.2924165725708007813	14:09:07.2982320785522460938	14:09:07.3041582107543945312	14:09:07.2767806053161621094	14:09:07.2767806053161621094	14:09:07.2767806053161621094	
X_Dimension	Time	Time	Time	Time	Time	Time	
X0	0.0000000000000000E+0	0.0000000000000000E+0	0.0000000000000000E+0	0.0000000000000000E+0	0.0000000000000000E+0	0.0000000000000000E+0	
Delta_X	1.000000	1.000000	1.000000	1.000000	1.000000	1.000000	
***End_of_Header***							
X_Value	Untitled	Untitled 1	Untitled 2	Untitled 3	Untitled 4	Untitled 5	Comment
0.000000	0.032109	4.090800	0.131350	20.873820	0.000484	20.843002
1.001383	-2.991500	3.918100	-11.720000	20.889761	0.000483	20.843771
2.007270	-3.000700	3.911000	-11.735000	20.881051	0.000483	20.845017
3.001120	-3.011000	3.906400	-11.761000	20.879700	0.000479	20.852200
4.013297	-3.010400	3.903100	-11.748000	20.889808	0.000481	20.847137
5.016248	-3.016200	3.899500	-11.761000	20.895343	0.000479	20.833706
6.018032	-2.973500	3.898600	-11.591000	20.918971	0.000480	20.837896
7.002093	-3.014500	3.893900	-11.736000	20.901377	0.000478	20.835473
8.005076	-2.993100	3.892700	-11.651000	20.933836	0.000478	20.822892
9.011776	-2.977800	3.891400	-11.587000	20.913673	0.000479	20.844926
10.005804	-2.974400	3.890500	-11.571000	20.920779	0.000477	20.846343
11.010614	-3.008300	3.888200	-11.696000	20.937844	0.000476	20.856771
12.020830	-3.008900	3.885700	-11.691000	20.942034	0.000478	20.851004
13.007535	-3.028800	3.884500	-11.763000	20.949914	0.000475	20.845609
14.015437	-2.986100	3.883700	-11.596000	20.972094	0.000475	20.845981
15.028031	-2.990400	3.883600	-11.613000	20.960611	0.000474	20.837816
16.007932	-3.014700	3.881500	-11.701000	21.008190	0.000473	20.837513
17.006364	-3.014000	3.879700	-11.692000	20.968541	0.000474	20.830101
18.009059	-2.962100	3.881800	-11.497000	20.983337	0.000473	20.837786
19.013331	-3.014600	3.878800	-11.692000	21.018088	0.000474	20.836981
20.017784	-2.995700	3.878200	-11.617000	21.019557	0.000473	20.839873
21.012082	-2.979700	3.877300	-11.552000	21.001738	0.000473	20.850974
22.006024	-2.987700	3.877400	-11.583000	21.016456	0.000472	20.836772
23.007984	-2.993700	3.876000	-11.603000	21.039580	0.000471	20.846150
24.009697	-3.000600	3.877000	-11.631000	21.038756	0.000471	20.835369
25.007627	-2.987400	3.875600	-11.576000	21.055941	0.000469	20.835488
26.006672	-3.014600	3.874800	-11.680000	21.047055	0.000471	20.855523
27.011157	-3.007100	3.874700	-11.651000	21.078488	0.000469	20.840971
28.006186	-3.012400	3.873100	-11.666000	21.077262	0.000471	20.846382
29.006819	-3.003000	3.872500	-11.629000	21.095446	0.000469	20.835174
30.012830	-2.999400	3.872300	-11.613000	21.103103	0.000469	20.846151
31.007115	-3.002900	3.871100	-11.624000	21.095664	0.000469	20.846771
32.021732	-2.995800	3.871100	-11.596000	21.113923	0.000468	20.851284
33.020775	-2.998600	3.871500	-11.608000	21.125570	0.000470	20.838278
34.012799	-3.000600	3.870500	-11.613000	21.139512	0.000468	20.825198
35.016532	-3.003000	3.870100	-11.621000	21.161612	0.000468	20.857261
36.009174	-2.996100	3.869600	-11.592000	21.160361	0.000468	20.849372
37.011151	-3.011700	3.869000	-11.651000	21.182063	0.000467	20.826985
38.015749	-3.011000	3.868300	-11.646000	21.197176	0.000468	20.828827
39.009136	-2.999700	3.868000	-11.601000	21.189986	0.000468	20.829696
40.018961	-2.989200	3.867300	-11.559000	21.205275	0.000468	20.836929
41.016046	-3.005100	3.867200	-11.620000	21.213576	0.000468	20.849026
42.012728	-3.013300	3.867500	-11.653000	21.186683	0.000470	20.837771
43.013067	-2.990300	3.867900	-11.565000	21.223200	0.000466	20.832575
44.018209	-3.013100	3.867100	-11.651000	21.242925	0.000468	20.848040
45.023739	-2.996000	3.866600	-11.583000	21.234016	0.000467	20.840076
46.017569	-3.010000	3.865500	-11.634000	21.267542	0.000465	20.850381
47.011242	-2.971400	3.866200	-11.487000	21.269110	0.000467	20.831087
48.020797	-2.974300	3.867200	-11.502000	21.273296	0.000465	20.839542
49.021029	-3.007200	3.865300	-11.623000	21.286038	0.000464	20.824789
50.013219	-3.006000	3.863500	-11.612000	21.284162	0.000464	20.836663
51.032363	-3.007900	3.865400	-11.625000	21.292790	0.000466	20.849561
52.025918	-3.025300	3.864800	-11.691000	21.315763	0.000464	20.818491
53.012523	-3.015000	3.864800	-11.651000	21.308274	0.000465	20.841344
54.015779	-3.007600	3.862900	-11.617000	21.313234	0.000463	20.842514
55.013395	-3.012800	3.862800	-11.637000	21.346608	0.000465	20.837023
56.015390	-2.983400	3.863200	-11.524000	21.357032	0.000462	20.863097
57.014928	-3.000100	3.862400	-11.587000	21.364935	0.000465	20.838763
58.022340	-3.003700	3.863300	-11.603000	21.365632	0.000465	20.819072
59.018275	-3.020000	3.861600	-11.660000	21.375131	0.000464	20.845170
60.028325	-3.007800	3.862500	-11.617000	21.392566	0.000463	20.836536
61.017017	-3.014700	3.861600	-11.640000	21.384929	0.000464	20.831266
62.020349	-2.988000	3.862100	-11.540000	21.388244	0.000465	20.814195
63.016452	-2.994600	3.861900	-11.564000	21.415979	0.000463	20.855693
64.017162	-3.003900	3.860900	-11.597000	21.429044	0.000466	20.832257
65.016228	-3.016500	3.860800	-11.646000	21.417792	0.000464	20.822896
66.016511	-3.020200	3.861000	-11.660000	21.439937	0.000464	20.832724
67.033001	-2.980500	3.860900	-11.506000	21.449288	0.000465	20.845399
68.018801	-2.987900	3.860600	-11.534000	21.450583	0.000464	20.832945
69.019198	-2.977000	3.861200	-11.492000	21.467139	0.000464	20.845243
70.021692	-3.005400	3.859200	-11.598000	21.475543	0.000463	20.852702
71.021294	-3.017400	3.860000	-11.647000	21.480354	0.000464	20.838550
72.021612	-3.015000	3.859700	-11.636000	21.491151	0.000466	20.829914
73.023103	-2.985700	3.859800	-11.523000	21.498378	0.000465	20.836671
74.032047	-2.997400	3.859300	-11.567000	21.532119	0.000464	20.828708
75.024943	-2.988400	3.859900	-11.534000	21.520697	0.000462	20.839089
76.024267	-3.016200	3.857400	-11.634000	21.537327	0.000464	20.824910
77.024747	-3.016800	3.857700	-11.638000	21.551468	0.000464	20.830525
78.026347	-3.002400	3.858600	-11.585000	21.536575	0.000463	20.817994
79.023935	-3.009200	3.857200	-11.606000	21.546998	0.000463	20.836483
80.027587	-2.990500	3.859200	-11.541000	21.544279	0.000463	20.828547
81.026676	-2.989100	3.858400	-11.532000	21.580261	0.000462	20.835630
82.026684	-3.002400	3.858000	-11.582000	21.576671	0.000465	20.825874
83.026768	-3.011700	3.858200	-11.619000	21.605374	0.000463	20.825673
84.030267	-3.003400	3.857800	-11.585000	21.590579	0.000462	20.842636
85.025232	-3.021000	3.857400	-11.652000	21.618210	0.000462	20.861276
86.028071	-2.984800	3.857200	-11.512000	21.626016	0.000462	20.843959
87.028699	-3.005200	3.857100	-11.591000	21.633096	0.000461	20.839664
88.029574	-3.004900	3.856300	-11.587000	21.634317	0.000464	20.830929
89.029140	-2.984100	3.858700	-11.514000	21.644416	0.000465	20.831078
90.030660	-3.012000	3.855600	-11.613000	21.651545	0.000461	20.839635
91.031692	-2.996800	3.858000	-11.561000	21.652567	0.000465	20.816951
92.028651	-2.988700	3.856600	-11.525000	21.666754	0.000463	20.843475
93.029215	-3.008400	3.856500	-11.601000	21.654408	0.000463	20.846293
94.033746	-3.008400	3.854700	-11.596000	21.688097	0.000463	20.834963
95.028769	-3.002000	3.856200	-11.576000	21.697496	0.000462	20.805490
96.037724	-2.996200	3.855300	-11.550000	21.697296	0.000461	20.820935
97.031903	-3.004200	3.855600	-11.582000	21.707247	0.000465	20.801972
98.029459	-2.998800	3.855500	-11.561000	21.737467	0.000463	20.826052
99.029185	-2.975700	3.854600	-11.470000	21.755542	0.000463	20.819960
100.031229	-3.019000	3.854900	-11.637000	21.750455	0.000464	20.824352
101.031066	-3.000700	3.854800	-11.566000	21.756961	0.000465	20.807156
102.033005	-2.995000	3.854700	-11.543000	21.750629	0.000464	20.807930
103.029510	-3.007500	3.854400	-11.591000	21.772174	0.000463	20.815742
104.029954	-2.992200	3.854500	-11.532000	21.749555	0.000467	20.826295
105.029378	-3.001400	3.855600	-11.570000	21.785533	0.000464	20.817734
106.030540	-3.004400	3.854300	-11.579000	21.788101	0.000467	20.830734
107.035979	-2.969300	3.854100	-11.443000	21.799346	0.000464	20.826817
108.030166	-3.000200	3.852900	-11.558000	21.801440	0.000465	20.824645
109.030670	-2.999000	3.853000	-11.555000	21.814104	0.000465	20.816932
110.030222	-2.992900	3.853400	-11.531000	21.827391	0.000465	20.814110
111.043136	-3.015500	3.853000	-11.618000	21.820906	0.000468	20.800506
112.030494	-2.977800	3.854600	-11.477000	21.843022	0.000468	20.802254
113.034671	-2.991600	3.852900	-11.526000	21.867628	0.000467	20.812184
114.030515	-3.000000	3.852900	-11.557000	21.866629	0.000467	20.809287
115.038678	-2.984900	3.852600	-11.499000	21.851942	0.000468	20.787948
116.040911	-3.014000	3.851900	-11.609000	21.843839	0.000465	20.828201
117.038492	-3.012300	3.852600	-11.605000	21.874901	0.000467	20.816144
118.032527	-3.033500	3.850300	-11.679000	21.893797	0.000471	20.813247
119.029734	-2.994700	3.852300	-11.535000	21.887339	0.000468	20.802990
120.032092	-3.027400	3.849900	-11.653000	21.912642	0.000468	20.813618
121.032223	-2.991500	3.850800	-11.519000	21.895016	0.000469	20.827743
122.030863	-3.010700	3.850800	-11.593000	21.915105	0.000469	20.812764
123.031168	-2.962600	3.852900	-11.413000	21.921937	0.000470	20.824345
124.040491	-2.986500	3.851000	-11.499000	21.924777	0.000471	20.826239
125.031282	-3.008200	3.850600	-11.582000	21.955215	0.000470	20.806447
126.042334	-3.012000	3.851400	-11.599000	21.973636	0.000471	20.800231
127.032695	-2.997700	3.851500	-11.544000	21.982956	0.000471	20.811932
128.034680	-3.028300	3.848500	-11.653000	21.995269	0.000470	20.788696
129.035509	-3.020200	3.849100	-11.623000	21.985244	0.000471	20.811850
130.036166	-2.995900	3.849300	-11.531000	22.007479	0.000471	20.800444
131.034462	-2.987300	3.851000	-11.504000	22.004686	0.000471	20.818511
132.040876	-3.009500	3.848800	-11.583000	22.021136	0.000474	20.798468
133.039365	-3.002900	3.849100	-11.558000	22.028439	0.000471	20.806728
134.035246	-2.986900	3.849900	-11.499000	22.043542	0.000473	20.801458
135.034696	-2.995300	3.849500	-11.529000	22.011508	0.000470	20.827236
136.036382	-3.010000	3.849400	-11.586000	22.038054	0.000474	20.822043
137.052081	-2.974100	3.848500	-11.445000	22.040096	0.000474	20.833095
138.040011	-2.998400	3.848700	-11.539000	22.058288	0.000473	20.812427
139.037935	-2.978500	3.848900	-11.463000	22.049240	0.000474	20.812852
140.041751	-3.023000	3.846100	-11.625000	22.081417	0.000473	20.814245
141.054323	-3.008700	3.848000	-11.577000	22.088346	0.000476	20.809802
142.039147	-3.021600	3.845900	-11.620000	22.099411	0.000474	20.829888
143.044027	-3.017100	3.846900	-11.605000	22.117354	0.000476	20.790954
144.040192	-3.024600	3.846600	-11.634000	22.118922	0.000475	20.802006
145.042310	-3.017100	3.846600	-11.605000	22.096809	0.000474	20.815903
146.040842	-3.013100	3.846500	-11.589000	22.107727	0.000477	20.812135
147.040708	-2.982200	3.846000	-11.469000	22.137636	0.000476	20.789448
148.044683	-2.990500	3.846500	-11.501000	22.141843	0.000475	20.799349
149.056474	-2.986400	3.846000	-11.485000	22.139225	0.000477	20.803366
150.044367	-3.005500	3.846400	-11.560000	22.158415	0.000475	20.804087
151.044454	-3.004600	3.846500	-11.556000	22.166637	0.000476	20.818483
152.042697	-2.991800	3.846300	-11.507000	22.181192	0.000477	20.799865
153.041852	-3.013600	3.846100	-11.589000	22.178523	0.000478	20.790080
154.043903	-3.010400	3.845200	-11.573000	22.185399	0.000476	20.815456
155.041930	-2.995700	3.846300	-11.521000	22.178516	0.000477	20.792444
156.045696	-2.988500	3.846600	-11.494000	22.218394	0.000477	20.802025
157.042971	-3.005300	3.844800	-11.554000	22.229907	0.000477	20.787473
158.042056	-3.010000	3.844400	-11.571000	22.215499	0.000477	20.809557
159.043570	-3.008600	3.844700	-11.566000	22.225167	0.000479	20.809754
160.043863	-2.981200	3.845000	-11.462000	22.227558	0.000477	20.782750
161.045792	-3.012400	3.844700	-11.580000	22.243607	0.000478	20.813044
162.044412	-3.019600	3.843600	-11.605000	22.259507	0.000477	20.799567
163.044784	-3.016800	3.844000	-11.595000	22.280267	0.000475	20.822250
164.057897	-3.005800	3.844200	-11.554000	22.288114	0.000478	20.807349
165.045312	-3.019900	3.842300	-11.602000	22.281884	0.000480	20.800162
166.045501	-2.983500	3.844000	-11.467000	22.265707	0.000480	20.794395
167.056354	-3.006100	3.844200	-11.555000	22.287639	0.000480	20.799286
168.045354	-2.973000	3.843800	-11.426000	22.292622	0.000480	20.817078
169.051099	-3.011100	3.842100	-11.567000	22.292871	0.000481	20.808792
170.055995	-2.990200	3.843100	-11.491000	22.301494	0.000480	20.816478
171.052859	-3.010700	3.842900	-11.570000	22.328282	0.000480	20.799206
172.051091	-2.995400	3.843300	-11.511000	22.327511	0.000481	20.814554
173.048529	-3.004700	3.842800	-11.545000	22.328756	0.000479	20.813904
174.048369	-2.997900	3.842600	-11.520000	22.335160	0.000480	20.822213
175.047706	-2.997100	3.841800	-11.512000	22.350438	0.000481	20.790571
176.051817	-3.001600	3.842800	-11.534000	22.353926	0.000481	20.817772
177.049304	-2.986000	3.842500	-11.472000	22.373539	0.000483	20.799953
178.052923	-3.011700	3.842300	-11.571000	22.369773	0.000482	20.802347
179.051029	-2.984900	3.842400	-11.468000	22.374808	0.000482	20.819242
180.049634	-3.008400	3.840800	-11.553000	22.411466	0.000484	20.798578
181.054313	-3.007800	3.840600	-11.551000	22.421086	0.000482	20.800152
182.055959	-3.001400	3.840500	-11.526000	22.427891	0.000482	20.791319
183.053459	-2.986100	3.840300	-11.466000	22.425995	0.000482	20.784679
184.050891	-2.987900	3.841300	-11.477000	22.461479	0.000482	20.806463
185.051812	-2.996600	3.840600	-11.508000	22.485675	0.000484	20.821211
186.051093	-2.992600	3.839400	-11.488000	22.465816	0.000484	20.807488
187.052583	-2.972100	3.840700	-11.414000	22.454652	0.000485	20.786824
188.052446	-3.004400	3.838400	-11.531000	22.454451	0.000483	20.799900
189.053527	-2.991800	3.839300	-11.486000	22.464919	0.000486	20.794261
190.058526	-2.999100	3.839500	-11.514000	22.491534	0.000483	20.792466
191.053541	-3.007300	3.838800	-11.542000	22.488319	0.000485	20.797781
192.054335	-3.022400	3.838300	-11.600000	22.513534	0.000483	20.786998
193.054019	-3.041900	3.837900	-11.672000	22.514906	0.000485	20.790743
194.056090	-2.993600	3.839000	-11.492000	22.535638	0.000486	20.801075
195.054905	-3.006200	3.836400	-11.531000	22.526145	0.000486	20.789197
196.059040	-2.987500	3.838300	-11.466000	22.527317	0.000484	20.796061
197.055358	-2.983000	3.838600	-11.449000	22.538332	0.000487	20.781014
198.057689	-2.999500	3.837400	-11.509000	22.535516	0.000485	20.779616
199.057340	-2.993200	3.838200	-11.488000	22.550193	0.000485	20.800005
200.060723	-2.996000	3.836700	-11.494000	22.539056	0.000489	20.811136
201.057367	-3.006500	3.837300	-11.535000	22.562330	0.000486	20.816428
202.063436	-3.023600	3.835900	-11.597000	22.539756	0.000486	20.807096
203.058465	-3.004400	3.837200	-11.527000	22.542523	0.000487	20.791375
204.057210	-2.982700	3.836700	-11.443000	22.553736	0.000486	20.784587
205.066286	-2.992000	3.837300	-11.480000	22.561286	0.000488	20.786459
206.059204	-2.991200	3.836700	-11.476000	22.569661	0.000488	20.783467
207.059007	-2.992400	3.835600	-11.476000	22.590193	0.000488	20.822049
208.064126	-2.995100	3.835600	-11.488000	22.628117	0.000488	20.814515
209.060824	-3.036600	3.835100	-11.645000	22.613640	0.000487	20.815188
210.063824	-3.006200	3.835400	-11.529000	22.628293	0.000488	20.800466
211.062020	-3.012800	3.835300	-11.554000	22.588653	0.000489	20.800118
212.061192	-3.003700	3.835700	-11.520000	22.604401	0.000489	20.796451
213.064154	-3.006600	3.833700	-11.526000	22.624135	0.000491	20.811475
214.069962	-2.984300	3.835900	-11.447000	22.650897	0.000490	20.807934
215.064068	-3.001300	3.832700	-11.503000	22.649574	0.000491	20.800445
216.063718	-2.997500	3.834300	-11.491000	22.669758	0.000494	20.781307
217.065713	-3.009800	3.833700	-11.538000	22.662908	0.000491	20.794360
218.063928	-3.007700	3.833800	-11.530000	22.682940	0.000491	20.797830
219.066067	-3.036400	3.832800	-11.637000	22.686903	0.000491	20.815549
220.065695	-2.987000	3.832500	-11.447000	22.690516	0.000492	20.811108
221.067100	-2.985500	3.834300	-11.446000	22.692809	0.000491	20.802973
222.064393	-2.970800	3.833200	-11.387000	22.695798	0.000490	20.801700
223.065285	-2.988600	3.832500	-11.453000	22.700459	0.000493	20.803050
224.067342	-3.007900	3.832500	-11.527000	22.693460	0.000492	20.794142
225.065587	-2.993100	3.832000	-11.468000	22.694907	0.000496	20.803652
226.070282	-2.988500	3.832900	-11.453000	22.727941	0.000494	20.828206
227.067372	-2.984000	3.833600	-11.439000	22.715412	0.000497	20.801907
228.068881	-3.000900	3.831900	-11.498000	22.738782	0.000495	20.810143
229.067688	-2.992000	3.830500	-11.459000	22.749047	0.000493	20.814261
230.068675	-3.008800	3.832100	-11.530000	22.754553	0.000495	20.813613
231.070690	-3.002300	3.832200	-11.505000	22.761405	0.000493	20.811942
232.073221	-2.987300	3.831500	-11.445000	22.777650	0.000494	20.804507
233.071974	-2.989300	3.832500	-11.456000	22.785746	0.000496	20.802660
234.072731	-2.980000	3.830500	-11.414000	22.798528	0.000496	20.807878
235.076998	-2.999500	3.830500	-11.489000	22.803885	0.000497	20.791434
236.071992	-3.021300	3.830900	-11.574000	22.797833	0.000494	20.807656
237.073927	-2.981300	3.830800	-11.420000	22.807151	0.000497	20.814620
238.073455	-3.009200	3.830200	-11.524000	22.803141	0.000497	20.809180
239.072876	-3.003800	3.830500	-11.505000	22.796839	0.000499	20.814247
240.073769	-2.995600	3.828800	-11.468000	22.803019	0.000496	20.810481
241.073484	-3.001000	3.828800	-11.489000	22.804514	0.000497	20.803443
242.080974	-3.018800	3.827900	-11.554000	22.809199	0.000499	20.794861
243.077051	-2.989100	3.828800	-11.443000	22.821057	0.000498	20.819541
244.079519	-3.024900	3.827200	-11.575000	22.841982	0.000501	20.817744
245.076394	-3.006900	3.828700	-11.512000	22.809303	0.000501	20.808240
246.075556	-3.007400	3.828200	-11.512000	22.850654	0.000501	20.799880
247.075922	-3.005700	3.827600	-11.504000	22.837327	0.000499	20.821142
248.078747	-2.996000	3.829000	-11.471000	22.828659	0.000501	20.813880
249.078755	-2.996500	3.827000	-11.466000	22.812469	0.000499	20.822318
250.079253	-2.979600	3.828700	-11.407000	22.827216	0.000501	20.819547
251.081466	-2.980900	3.827600	-11.409000	22.848416	0.000502	20.809017
252.079767	-2.973900	3.828300	-11.384000	22.860149	0.000502	20.830728
253.091089	-3.029900	3.827500	-11.596000	22.883219	0.000502	20.811166
254.080286	-3.006000	3.826400	-11.501000	22.896121	0.000502	20.818877
255.079935	-2.997000	3.827000	-11.468000	22.875797	0.000503	20.819852
256.079214	-3.014000	3.825200	-11.528000	22.910671	0.000503	20.813539
257.080896	-3.007800	3.826000	-11.505000	22.899862	0.000502	20.838271
258.083695	-2.999100	3.825700	-11.473000	22.913414	0.000502	20.818183
259.081658	-3.006000	3.825400	-11.498000	22.920438	0.000503	20.829488
260.081244	-2.996900	3.826500	-11.467000	22.932721	0.000507	20.810499
261.079948	-2.993000	3.826400	-11.451000	22.958727	0.000503	20.810477
262.083496	-3.010300	3.824400	-11.511000	22.926372	0.000504	20.825475
263.083151	-3.010100	3.825000	-11.513000	22.952354	0.000504	20.820212
264.084716	-3.014900	3.823500	-11.527000	22.946051	0.000506	20.808207
265.081795	-3.007800	3.825700	-11.505000	22.947844	0.000507	20.822807
266.081209	-3.021500	3.823700	-11.552000	22.963417	0.000506	20.833192
267.084970	-3.003400	3.824300	-11.485000	22.998635	0.000506	20.813003
268.082355	-2.994800	3.823600	-11.450000	23.040480	0.000507	20.816997
269.082692	-3.025900	3.822200	-11.564000	23.044416	0.000507	20.823786
270.082386	-2.999400	3.822900	-11.466000	23.049176	0.000509	20.835193
271.081836	-2.994400	3.823000	-11.447000	23.024992	0.000508	20.824712
272.082936	-3.006900	3.822900	-11.494000	23.036872	0.000507	20.840882
273.083915	-3.003200	3.821300	-11.475000	23.055751	0.000508	20.826134
274.083291	-3.001100	3.822800	-11.471000	23.068158	0.000510	20.821022
275.083878	-2.981300	3.823100	-11.397000	23.056105	0.000507	20.832652
276.082830	-2.990100	3.822800	-11.429000	23.076079	0.000511	20.799087
277.083268	-2.983200	3.821600	-11.399000	23.082007	0.000511	20.794596
278.086814	-2.980800	3.821700	-11.391000	23.089605	0.000508	20.817857
279.083579	-3.002700	3.821800	-11.474000	23.061936	0.000512	20.838969
280.087622	-3.007300	3.821300	-11.491000	23.072671	0.000510	20.833605
281.083496	-2.992000	3.821200	-11.432000	23.098598	0.000511	20.842040
282.083548	-2.999800	3.819500	-11.457000	23.122132	0.000512	20.832431
283.083263	-2.994300	3.820200	-11.438000	23.118400	0.000510	20.827743
284.084536	-2.999700	3.819100	-11.455000	23.093693	0.000512	20.816262
285.087028	-2.985300	3.820200	-11.404000	23.107792	0.000511	20.818536
286.088315	-3.014300	3.818300	-11.508000	23.145996	0.000513	20.800868
287.086730	-3.008800	3.819300	-11.490000	23.127515	0.000512	20.834980
288.087690	-2.983800	3.820200	-11.397000	23.099351	0.000513	20.835682
289.087550	-3.002500	3.819200	-11.465000	23.128490	0.000511	20.837854
290.090762	-3.008800	3.818400	-11.488000	23.146221	0.000512	20.849931
291.091219	-2.998200	3.818700	-11.449000	23.159075	0.000512	20.834837
292.088096	-2.995700	3.819400	-11.440000	23.152052	0.000513	20.835386
293.088080	-3.033900	3.817200	-11.581000	23.202209	0.000512	20.817845
294.097139	-3.008500	3.816700	-11.481000	23.192771	0.000513	20.809809
295.088046	-3.007300	3.816900	-11.478000	23.217301	0.000515	20.829175
296.092798	-3.004500	3.817000	-11.467000	23.168320	0.000515	20.815178
297.089046	-3.001200	3.816900	-11.454000	23.186201	0.000514	20.828829
298.089030	-3.006200	3.817700	-11.476000	23.206398	0.000513	20.831051
299.088857	-3.004700	3.817000	-11.468000	23.194073	0.000515	20.819175
300.089026	-3.006600	3.816700	-11.474000	23.218229	0.000514	20.826786
301.093452	-3.000000	3.816500	-11.448000	23.173157	0.000516	20.835672
302.088913	-3.000000	3.816600	-11.449000	23.229960	0.000517	20.838542
303.089020	-2.988600	3.816100	-11.404000	23.231630	0.000516	20.829784
304.088828	-3.000600	3.815900	-11.449000	23.244256	0.000517	20.836747
305.089819	-2.992700	3.816600	-11.421000	23.255090	0.000519	20.831010
306.089647	-2.987700	3.815200	-11.398000	23.278749	0.000518	20.829116
307.094195	-3.009900	3.815300	-11.483000	23.318589	0.000518	20.820206
308.090836	-3.003000	3.815700	-11.458000	23.329347	0.000518	20.843315
309.092878	-3.017700	3.814500	-11.510000	23.333109	0.000518	20.826697
310.092980	-3.001900	3.813900	-11.448000	23.348897	0.000519	20.813123
311.094969	-2.990700	3.814100	-11.406000	23.328457	0.000520	20.834363
312.094616	-3.004200	3.814400	-11.457000	23.379526	0.000518	20.850932
313.093611	-3.014600	3.814000	-11.497000	23.376863	0.000518	20.836885
314.092463	-3.009500	3.813600	-11.476000	23.373826	0.000520	20.836686
315.093945	-3.013400	3.813200	-11.489000	23.366133	0.000520	20.839407
316.093229	-2.981900	3.813500	-11.371000	23.315066	0.000519	20.845597
317.095625	-3.001700	3.812500	-11.443000	23.326571	0.000520	20.857128
318.093863	-2.997900	3.812700	-11.430000	23.330707	0.000520	20.841359
319.096303	-2.996800	3.812800	-11.425000	23.377843	0.000522	20.846401
320.096257	-3.000600	3.811400	-11.436000	23.353218	0.000522	20.852540
321.098265	-2.985000	3.811300	-11.375000	23.348764	0.000521	20.840964
322.097492	-2.998200	3.811300	-11.427000	23.356858	0.000522	20.826318
323.098848	-3.009400	3.811200	-11.468000	23.388086	0.000523	20.853822
324.097939	-2.998600	3.810200	-11.424000	23.390999	0.000523	20.837776
325.096848	-2.995400	3.811400	-11.416000	23.373896	0.000523	20.844816
326.099035	-3.004200	3.812900	-11.454000	23.375640	0.000523	20.858417
327.097968	-3.008200	3.811100	-11.464000	23.374153	0.000521	20.850763
328.103408	-3.009100	3.810900	-11.466000	23.384608	0.000525	20.864560
329.100487	-2.992100	3.810000	-11.399000	23.399573	0.000524	20.840680
330.100275	-3.011100	3.809100	-11.468000	23.409584	0.000524	20.849291
331.100951	-3.008800	3.810500	-11.464000	23.422260	0.000524	20.860573
332.100917	-3.010300	3.808600	-11.464000	23.399778	0.000524	20.852739
333.103433	-2.996900	3.809700	-11.417000	23.406504	0.000524	20.841464
334.102937	-3.010900	3.808900	-11.467000	23.412429	0.000525	20.852143
335.102497	-2.989800	3.809800	-11.389000	23.425850	0.000525	20.849949
336.103389	-2.989400	3.809100	-11.386000	23.409273	0.000525	20.850402
337.105700	-2.992100	3.808000	-11.393000	23.398420	0.000525	20.842844
338.103356	-2.981600	3.808000	-11.353000	23.400263	0.000525	20.838527
339.105702	-3.006600	3.807400	-11.446000	23.417843	0.000527	20.851405
340.103477	-3.008600	3.807200	-11.453000	23.421354	0.000527	20.845442
341.102448	-2.995600	3.806700	-11.403000	23.474712	0.000526	20.861466
342.102734	-3.000000	3.806400	-11.418000	23.459453	0.000528	20.852810
343.102715	-3.004400	3.805600	-11.432000	23.490723	0.000528	20.862342
344.103181	-3.003100	3.805500	-11.427000	23.483556	0.000530	20.854684
345.103194	-3.007600	3.806000	-11.446000	23.521846	0.000528	20.860348
346.101937	-2.995100	3.805800	-11.397000	23.511940	0.000528	20.873177
347.104940	-2.991000	3.808100	-11.389000	23.526459	0.000526	20.860706
348.105240	-3.006300	3.805200	-11.439000	23.576697	0.000530	20.859382
349.104515	-3.007900	3.805200	-11.444000	23.550236	0.000528	20.862254
350.106340	-2.991300	3.805800	-11.383000	23.570129	0.000529	20.853273
351.104560	-3.005700	3.805300	-11.437000	23.584123	0.000530	20.851180
352.105553	-3.022700	3.804800	-11.501000	23.584175	0.000529	20.866405
353.107444	-3.009200	3.805500	-11.451000	23.583905	0.000532	20.877987
354.107316	-2.995700	3.804000	-11.395000	23.591599	0.000529	20.855356
355.109831	-2.996700	3.804600	-11.400000	23.574524	0.000529	20.852463
356.106097	-2.983600	3.806100	-11.355000	23.539401	0.000532	20.857083
357.108428	-3.019100	3.803700	-11.482000	23.547244	0.000529	20.866367
358.110311	-2.996800	3.804000	-11.399000	23.554990	0.000531	20.861804
359.108319	-2.987500	3.802100	-11.358000	23.559651	0.000530	20.857468
360.120669	-2.987800	3.802500	-11.360000	23.583127	0.000532	20.863457
361.115445	-3.011900	3.802700	-11.452000	23.571354	0.000530	20.850708
362.109886	-2.994200	3.803400	-11.387000	23.591299	0.000531	20.865485
363.109603	-3.003300	3.802400	-11.419000	23.596405	0.000533	20.873923
364.116424	-3.015000	3.801700	-11.461000	23.640642	0.000532	20.866588
365.110630	-3.009200	3.802500	-11.442000	23.640072	0.000533	20.873128
366.115170	-3.000500	3.801300	-11.405000	23.670669	0.000533	20.868715
367.113235	-3.001700	3.799600	-11.403000	23.693150	0.000533	20.863279
368.114911	-2.994500	3.801400	-11.382000	23.692107	0.000534	20.868397
369.113860	-2.993300	3.801300	-11.377000	23.688202	0.000535	20.877284
370.113982	-2.996800	3.800500	-11.389000	23.677528	0.000534	20.856152
371.119037	-2.990500	3.800500	-11.364000	23.674219	0.000534	20.873223
372.113744	-2.984200	3.801200	-11.342000	23.678553	0.000532	20.867136
373.113645	-2.999500	3.799600	-11.396000	23.673851	0.000534	20.883284
374.113624	-3.010700	3.798500	-11.436000	23.697027	0.000535	20.879019
375.114247	-2.972800	3.800100	-11.296000	23.703926	0.000533	20.876452
376.114014	-2.984700	3.800100	-11.341000	23.683617	0.000536	20.871264
377.115069	-2.970200	3.800500	-11.287000	23.722323	0.000536	20.864552
378.115006	-2.998200	3.798300	-11.388000	23.714962	0.000533	20.855276
379.118521	-3.004800	3.799200	-11.415000	23.730022	0.000536	20.868003
380.119650	-3.009500	3.798500	-11.430000	23.710136	0.000534	20.857550
381.117534	-3.010200	3.798500	-11.433000	23.710936	0.000536	20.862619
382.120751	-2.984900	3.798200	-11.336000	23.718951	0.000535	20.866861
383.118248	-3.004000	3.796800	-11.404000	23.743571	0.000538	20.879690
384.119488	-2.993700	3.796700	-11.364000	23.755372	0.000536	20.866866
385.119409	-3.012300	3.796000	-11.434000	23.721546	0.000536	20.864722
386.118369	-3.005800	3.795500	-11.408000	23.723914	0.000536	20.873732
387.120708	-2.993900	3.797800	-11.369000	23.719061	0.000536	20.883091
388.122440	-2.978100	3.797600	-11.309000	23.744854	0.000538	20.864382
389.121839	-2.991300	3.797800	-11.359000	23.760933	0.000537	20.895200
390.120664	-2.995400	3.795700	-11.369000	23.808273	0.000537	20.881026
391.122871	-3.021600	3.794000	-11.463000	23.781744	0.000539	20.876238
392.120248	-2.996000	3.794700	-11.368000	23.763526	0.000538	20.880731
393.123958	-2.970900	3.795300	-11.274000	23.772340	0.000539	20.880085
394.124458	-2.995600	3.794600	-11.366000	23.761963	0.000538	20.878216
395.123347	-2.989200	3.794400	-11.341000	23.799449	0.000539	20.888299
396.123544	-3.017800	3.793800	-11.448000	23.812668	0.000539	20.889700
397.124199	-3.017500	3.793400	-11.445000	23.780338	0.000539	20.904223
398.127812	-3.027500	3.792300	-11.480000	23.790046	0.000538	20.894992
399.124100	-2.978200	3.794700	-11.300000	23.779917	0.000539	20.864450
400.123772	-2.998900	3.792700	-11.373000	23.823127	0.000538	20.893547
401.126089	-2.990700	3.792600	-11.342000	23.845627	0.000539	20.887659
402.124448	-2.992700	3.792800	-11.350000	23.819297	0.000540	20.861260
403.124942	-2.976100	3.793500	-11.288000	23.832067	0.000540	20.875012
404.127156	-2.984300	3.792100	-11.315000	23.829428	0.000539	20.872366
405.125451	-2.995200	3.791300	-11.356000	23.846630	0.000539	20.866856
406.125587	-2.978600	3.792800	-11.297000	23.830252	0.000539	20.874615
407.126616	-2.989200	3.791800	-11.334000	23.876448	0.000541	20.879684
408.125761	-2.996200	3.790700	-11.357000	23.844543	0.000539	20.893210
409.128783	-3.009100	3.791800	-11.409000	23.825180	0.000539	20.889916
410.124767	-2.998700	3.789000	-11.361000	23.837227	0.000541	20.864066
411.125161	-3.012400	3.790400	-11.417000	23.886483	0.000540	20.879789
412.124812	-3.001000	3.788900	-11.370000	23.909880	0.000542	20.887603
413.126052	-3.019600	3.788400	-11.438000	23.900272	0.000542	20.893141
414.126013	-2.995900	3.791100	-11.356000	23.882282	0.000543	20.876051
415.124707	-3.005000	3.789000	-11.385000	23.878600	0.000543	20.885161
416.124648	-3.001900	3.790400	-11.376000	23.842115	0.000540	20.888405
417.124871	-2.991500	3.789700	-11.336000	23.845200	0.000541	20.882016
418.126832	-3.006000	3.786900	-11.383000	23.862174	0.000542	20.877699
419.125076	-3.000100	3.788100	-11.364000	23.905009	0.000540	20.870866
420.127184	-3.020200	3.787900	-11.439000	23.902598	0.000543	20.883146
421.127676	-3.004400	3.788000	-11.379000	23.937885	0.000544	20.868272
422.126443	-3.018600	3.788100	-11.433000	23.942270	0.000543	20.863660
423.127594	-2.965100	3.787900	-11.231000	23.976289	0.000541	20.873118
424.126481	-3.025200	3.787000	-11.455000	23.988582	0.000543	20.870747
425.132491	-3.001700	3.787300	-11.367000	24.007269	0.000541	20.870995
426.126816	-2.996200	3.786700	-11.344000	23.963226	0.000544	20.866182
427.127007	-3.027600	3.786600	-11.463000	23.968479	0.000543	20.874769
428.127177	-3.013600	3.785000	-11.406000	23.947625	0.000543	20.860969
429.128719	-3.001800	3.785600	-11.363000	23.918707	0.000543	20.884127
430.127830	-3.003900	3.785000	-11.368000	23.962585	0.000545	20.861747
431.131085	-2.980400	3.786500	-11.284000	23.980701	0.000546	20.861896
432.126539	-3.028700	3.784800	-11.462000	23.970898	0.000545	20.866289
433.127731	-3.000600	3.784400	-11.354000	23.963385	0.000544	20.852118
434.129356	-3.032200	3.784400	-11.474000	23.968613	0.000544	20.871585
435.127438	-3.008500	3.784600	-11.385000	23.986382	0.000545	20.865697
436.130916	-3.005400	3.784700	-11.374000	23.977201	0.000545	20.860757
437.128183	-2.989000	3.784300	-11.311000	23.970680	0.000544	20.844262
438.126900	-2.982000	3.784800	-11.286000	23.962222	0.000544	20.862331
439.128103	-3.007800	3.782700	-11.377000	23.976852	0.000543	20.843812
440.127355	-3.006100	3.783500	-11.373000	24.043770	0.000546	20.831264
441.130005	-3.013100	3.781800	-11.395000	24.046610	0.000547	20.839327
442.132711	-3.000600	3.782600	-11.349000	24.053454	0.000548	20.861363
443.128687	-3.011400	3.782400	-11.390000	24.096529	0.000547	20.854304
444.128370	-3.012600	3.780800	-11.388000	24.054128	0.000546	20.854927
445.134145	-2.996300	3.781100	-11.329000	24.041538	0.000546	20.866008
446.130144	-3.010000	3.780900	-11.379000	24.029595	0.000546	20.856876
447.131452	-3.015600	3.780400	-11.399000	24.034152	0.000545	20.861920
448.130500	-3.011200	3.779900	-11.380000	24.030296	0.000546	20.855682
449.131725	-3.011300	3.780600	-11.384000	24.038108	0.000545	20.838387
450.134319	-3.014800	3.780500	-11.397000	24.062621	0.000546	20.836893
451.131351	-2.998400	3.781000	-11.336000	24.060134	0.000546	20.846252
452.135983	-3.010500	3.779200	-11.377000	24.023281	0.000548	20.836320
453.138457	-3.010000	3.779000	-11.374000	24.036472	0.000548	20.830583
454.133451	-3.000400	3.779200	-11.339000	24.058446	0.000546	20.856412
455.132804	-2.984900	3.779300	-11.279000	24.068724	0.000547	20.859133
456.134085	-2.989200	3.778900	-11.295000	24.045683	0.000548	20.824648
457.136681	-3.027100	3.777300	-11.434000	24.023289	0.000547	20.854345
458.137570	-3.004500	3.779800	-11.355000	24.020705	0.000549	20.834685
459.134345	-3.000700	3.778700	-11.337000	24.026675	0.000549	20.837353
460.134321	-2.998400	3.777500	-11.325000	24.014580	0.000549	20.838500
461.136851	-2.984900	3.777700	-11.275000	24.065645	0.000549	20.825227
462.134326	-3.012700	3.776900	-11.378000	24.093539	0.000549	20.831865
463.140723	-3.000000	3.776700	-11.330000	24.107249	0.000547	20.819537
464.135468	-3.006000	3.777600	-11.354000	24.152213	0.000548	20.836184
465.135876	-3.013600	3.775800	-11.377000	24.141343	0.000549	20.830972
466.139116	-2.989700	3.776500	-11.289000	24.147612	0.000549	20.835837
467.136553	-3.010400	3.776300	-11.367000	24.112307	0.000551	20.847842
468.138939	-3.000500	3.775700	-11.328000	24.122658	0.000549	20.825508
469.137720	-3.002300	3.775600	-11.334000	24.124499	0.000549	20.821191
470.137691	-3.002900	3.774600	-11.334000	24.086406	0.000549	20.817599
471.137643	-3.005500	3.774700	-11.344000	24.100289	0.000549	20.827256
472.139447	-2.992800	3.775400	-11.298000	24.099547	0.000549	20.837891
473.141134	-2.999900	3.774800	-11.323000	24.103401	0.000550	20.832747
474.144103	-2.993100	3.774900	-11.297000	24.113681	0.000549	20.831203
475.140391	-2.988800	3.774800	-11.282000	24.124733	0.000548	20.822848
476.141507	-3.009100	3.773600	-11.354000	24.169891	0.000548	20.815036
477.143569	-2.991500	3.774200	-11.289000	24.138316	0.000548	20.825566
478.144479	-2.995100	3.773600	-11.300000	24.132646	0.000550	20.797594
479.141686	-3.011800	3.771900	-11.359000	24.154745	0.000548	20.834930
480.142637	-2.971400	3.773400	-11.212000	24.201496	0.000550	20.821131
481.141882	-2.995500	3.772500	-11.299000	24.220358	0.000549	20.827248
482.141633	-3.011800	3.772100	-11.360000	24.251730	0.000550	20.829792
483.142534	-2.978700	3.772600	-11.236000	24.217846	0.000549	20.821883
484.144186	-2.988400	3.771300	-11.270000	24.235685	0.000550	20.801371
485.143446	-3.018800	3.770500	-11.382000	24.201949	0.000549	20.813051
486.141790	-3.014500	3.771600	-11.369000	24.218398	0.000549	20.812955
487.142630	-3.003400	3.770500	-11.323000	24.263855	0.000549	20.822041
488.142975	-2.984300	3.770900	-11.252000	24.263630	0.000549	20.791943
489.145221	-2.981700	3.770300	-11.241000	24.283810	0.000549	20.824039
490.144225	-2.994600	3.771900	-11.294000	24.325681	0.000549	20.803452
491.144402	-3.007400	3.769000	-11.333000	24.248083	0.000549	20.809539
492.146379	-2.986200	3.769200	-11.255000	24.257392	0.000549	20.827885
493.145504	-3.010500	3.769400	-11.346000	24.251472	0.000550	20.811516
494.148794	-2.986100	3.769700	-11.256000	24.244656	0.000551	20.819852
495.145582	-3.005100	3.768000	-11.321000	24.249411	0.000550	20.802810
496.148013	-2.995700	3.768700	-11.289000	24.261179	0.000550	20.799916
497.146376	-3.007200	3.768600	-11.331000	24.308373	0.000551	20.808850
498.147349	-3.004600	3.768000	-11.321000	24.299939	0.000551	20.794700
499.149083	-3.019500	3.769600	-11.382000	24.305164	0.000550	20.821277
500.149316	-3.010300	3.767400	-11.340000	24.277253	0.000550	20.828367
501.147233	-3.009500	3.767900	-11.338000	24.237920	0.000551	20.804087
502.147873	-3.009900	3.767200	-11.337000	24.235532	0.000551	20.814967
503.151752	-2.981500	3.766300	-11.228000	24.276858	0.000551	20.800470
504.150044	-3.004800	3.767000	-11.318000	24.305966	0.000550	20.810703
505.154573	-3.004600	3.767000	-11.317000	24.303182	0.000551	20.808859
506.149747	-2.998400	3.766400	-11.292000	24.306145	0.000551	20.805192
507.149711	-2.997700	3.765800	-11.288000	24.328113	0.000552	20.787875
508.149317	-2.983700	3.765900	-11.235000	24.328064	0.000553	20.798257
509.158215	-2.997200	3.766800	-11.289000	24.372942	0.000552	20.806767
510.151196	-3.011100	3.764700	-11.334000	24.343090	0.000551	20.806692
511.150218	-3.000800	3.764200	-11.294000	24.346229	0.000553	20.795616
512.150096	-3.002000	3.765100	-11.302000	24.345982	0.000553	20.813860
513.150795	-3.000300	3.763800	-11.291000	24.312098	0.000552	20.792672
514.151128	-2.996300	3.762400	-11.272000	24.314041	0.000550	20.790828
515.149071	-3.006500	3.763500	-11.314000	24.312002	0.000552	20.790205
516.150265	-3.018900	3.762200	-11.356000	24.271499	0.000552	20.796043
517.149711	-2.996300	3.762600	-11.273000	24.304914	0.000551	20.817234
518.149949	-3.000600	3.763300	-11.291000	24.337903	0.000552	20.789634
519.150950	-3.016400	3.762900	-11.349000	24.370170	0.000551	20.797822
520.151052	-2.997200	3.761900	-11.274000	24.404027	0.000555	20.801441
521.153753	-2.993500	3.761000	-11.257000	24.439227	0.000552	20.796926
522.151943	-2.991400	3.762200	-11.253000	24.410845	0.000551	20.794530
523.152044	-2.956700	3.763400	-11.127000	24.378387	0.000551	20.796107
524.151650	-2.988700	3.760600	-11.238000	24.337068	0.000552	20.787374
525.151146	-3.011100	3.761000	-11.324000	24.358686	0.000552	20.790095
526.154747	-3.004600	3.760600	-11.299000	24.372841	0.000554	20.794338
527.160229	-3.001500	3.761100	-11.288000	24.348115	0.000554	20.775222
528.152530	-2.995200	3.759100	-11.258000	24.366403	0.000551	20.802103
529.151278	-3.028700	3.758100	-11.381000	24.331352	0.000552	20.786856
530.153849	-3.015900	3.758800	-11.335000	24.339588	0.000553	20.805075
531.153605	-3.026800	3.759600	-11.379000	24.362103	0.000552	20.791625
532.155910	-3.004700	3.759300	-11.295000	24.363249	0.000553	20.792775
533.153742	-3.017400	3.759200	-11.342000	24.393875	0.000553	20.781299
534.155132	-3.031500	3.757800	-11.391000	24.379198	0.000552	20.786964
535.155138	-2.989300	3.759800	-11.238000	24.376739	0.000552	20.785919
536.153435	-2.969000	3.758500	-11.158000	24.358729	0.000553	20.799620
537.155384	-2.981900	3.759100	-11.208000	24.346915	0.000551	20.776864
538.153880	-2.991600	3.757600	-11.240000	24.372290	0.000553	20.776715
539.153767	-2.991700	3.757100	-11.239000	24.373535	0.000552	20.804991
540.153228	-2.999500	3.757100	-11.267000	24.345728	0.000552	20.790372
541.155175	-2.980500	3.757900	-11.200000	24.346074	0.000552	20.787875
542.154860	-2.992800	3.756700	-11.242000	24.399685	0.000552	20.786653
543.156643	-2.995600	3.757200	-11.254000	24.410184	0.000551	20.766841
544.156391	-3.007800	3.757500	-11.301000	24.420536	0.000552	20.780071
545.155316	-3.022900	3.755400	-11.351000	24.422281	0.000552	20.780873
546.156435	-2.996400	3.755700	-11.252000	24.391612	0.000551	20.782348
547.156610	-3.002000	3.755800	-11.273000	24.429620	0.000552	20.784443
548.159591	-2.989800	3.754600	-11.225000	24.428082	0.000552	20.780529
549.156049	-2.992900	3.755000	-11.237000	24.408583	0.000550	20.778985
550.156081	-2.998000	3.754300	-11.255000	24.417041	0.000552	20.773720
551.154712	-2.998500	3.753500	-11.255000	24.446400	0.000555	20.784681
552.156150	-3.005100	3.753900	-11.280000	24.456327	0.000553	20.779468
553.160280	-2.987000	3.754700	-11.214000	24.486253	0.000554	20.778198
554.160224	-3.028000	3.752200	-11.360000	24.500561	0.000550	20.777379
555.157328	-2.981400	3.752100	-11.185000	24.506831	0.000550	20.790783
556.157238	-2.980300	3.754000	-11.187000	24.484548	0.000554	20.750882
557.159753	-3.021200	3.752200	-11.335000	24.489623	0.000552	20.757870
558.158041	-3.010500	3.753800	-11.299000	24.503807	0.000552	20.757402
559.160256	-2.997900	3.752300	-11.247000	24.538704	0.000552	20.757802
560.159420	-3.009700	3.752300	-11.292000	24.540897	0.000552	20.781340
561.159206	-2.988900	3.752600	-11.215000	24.591884	0.000551	20.777023
562.163771	-3.000200	3.752300	-11.256000	24.592885	0.000554	20.754318
563.160497	-2.985300	3.751300	-11.198000	24.608031	0.000553	20.774732
564.165167	-2.992300	3.751200	-11.224000	24.581695	0.000551	20.770118
565.160100	-2.981100	3.751100	-11.182000	24.593561	0.000553	20.746936
566.159690	-3.000300	3.749900	-11.250000	24.573044	0.000551	20.753850
567.160516	-2.994200	3.750500	-11.229000	24.591853	0.000550	20.759447
568.161147	-2.999900	3.749500	-11.247000	24.531689	0.000552	20.744599
569.160414	-3.027300	3.749600	-11.350000	24.531046	0.000551	20.749644
570.164004	-3.006000	3.750200	-11.272000	24.564673	0.000550	20.753986
571.161523	-3.006200	3.749400	-11.270000	24.579400	0.000550	20.773979
572.161066	-2.988600	3.751000	-11.209000	24.557591	0.000551	20.763002
573.166655	-2.982700	3.747800	-11.178000	24.530107	0.000551	20.766721
574.160801	-2.989900	3.749500	-11.209000	24.538641	0.000550	20.758688
575.163581	-2.957600	3.749700	-11.090000	24.561600	0.000552	20.756118
576.164881	-2.984600	3.749000	-11.189000	24.530663	0.000549	20.769175
577.162293	-2.986400	3.748700	-11.195000	24.544022	0.000551	20.758396
578.163210	-3.025000	3.747900	-11.336000	24.552182	0.000551	20.744298
579.163698	-3.008700	3.746300	-11.270000	24.576262	0.000549	20.757553
580.163975	-2.988300	3.747300	-11.198000	24.524482	0.000552	20.753964
581.162612	-3.003500	3.745700	-11.249000	24.540924	0.000549	20.746278
582.163726	-2.989700	3.746500	-11.200000	24.580400	0.000553	20.743213
583.167441	-2.985400	3.746200	-11.183000	24.614427	0.000550	20.747010
584.164395	-2.987500	3.747400	-11.195000	24.647184	0.000549	20.747162
585.170604	-2.986200	3.745800	-11.185000	24.650047	0.000551	20.755725
586.163508	-2.990000	3.746300	-11.201000	24.623786	0.000550	20.751185
587.173738	-2.992800	3.744400	-11.206000	24.635772	0.000550	20.743297
588.167562	-2.994700	3.744300	-11.213000	24.641174	0.000550	20.734018
589.166374	-3.015000	3.743500	-11.286000	24.638589	0.000549	20.758926
590.169212	-3.002800	3.743200	-11.240000	24.631853	0.000551	20.748848
591.165736	-3.013300	3.743600	-11.280000	24.620787	0.000550	20.737269
592.166790	-3.013500	3.744200	-11.281000	24.610196	0.000550	20.732332
593.168294	-2.995600	3.743900	-11.214000	24.585525	0.000550	20.753097
594.169789	-3.013800	3.743700	-11.282000	24.598213	0.000551	20.742594
595.172206	-2.986200	3.743400	-11.178000	24.613933	0.000551	20.738453
596.169399	-3.000100	3.743500	-11.230000	24.590683	0.000551	20.733141
597.168805	-2.983700	3.743500	-11.169000	24.613563	0.000550	20.739030
598.171884	-3.008000	3.742100	-11.255000	24.620206	0.000553	20.746171
599.171321	-3.021400	3.741400	-11.304000	24.566187	0.000551	20.724684
600.175268	-3.003300	3.742400	-11.238000	24.557261	0.000549	20.733746
601.173120	-2.990000	3.742200	-11.188000	24.548236	0.000551	20.740338
602.169004	-3.001500	3.740600	-11.226000	24.554181	0.000553	20.725914
603.170193	-2.995100	3.740900	-11.203000	24.558561	0.000551	20.751173
604.170401	-3.006800	3.741100	-11.247000	24.565477	0.000550	20.741990
605.171328	-3.010700	3.739800	-11.258000	24.580821	0.000549	20.744110
606.173322	-2.988100	3.741500	-11.179000	24.582369	0.000549	20.734757
607.174626	-3.008600	3.738900	-11.248000	24.585355	0.000551	20.726373
608.171339	-2.997700	3.739900	-11.211000	24.611046	0.000549	20.734608
609.174312	-3.007900	3.740100	-11.249000	24.635396	0.000549	20.722056
610.171055	-2.994200	3.739800	-11.197000	24.630053	0.000549	20.714798
611.175260	-2.992200	3.739800	-11.189000	24.620525	0.000551	20.735110
612.170219	-3.018100	3.739100	-11.284000	24.652738	0.000549	20.736139
613.171695	-3.017700	3.738300	-11.280000	24.643241	0.000548	20.730877
614.172231	-2.995800	3.739800	-11.203000	24.681738	0.000549	20.743903
615.173754	-2.979400	3.738000	-11.136000	24.686015	0.000547	20.748195
616.174944	-2.981100	3.738200	-11.143000	24.692705	0.000549	20.731199
617.173455	-2.993700	3.737600	-11.189000	24.673060	0.000548	20.743255
618.173970	-3.015900	3.737100	-11.270000	24.683684	0.000548	20.713611
619.173893	-3.016600	3.737900	-11.275000	24.705768	0.000548	20.730084
620.173991	-2.993500	3.738100	-11.189000	24.724919	0.000548	20.726067
621.173142	-2.990900	3.737300	-11.177000	24.721611	0.000549	20.719903
622.174378	-2.966300	3.737200	-11.085000	24.713807	0.000546	20.729142
623.173753	-3.004600	3.735900	-11.224000	24.747580	0.000549	20.707081
624.175447	-3.010700	3.735800	-11.246000	24.713317	0.000549	20.722485
625.175816	-3.015500	3.735400	-11.263000	24.684373	0.000548	20.719519
626.176068	-3.004600	3.735900	-11.224000	24.703947	0.000548	20.730627
627.178535	-2.986600	3.735300	-11.155000	24.705914	0.000546	20.726437
628.174727	-2.988100	3.735000	-11.160000	24.665856	0.000547	20.709946
629.176161	-3.007100	3.733600	-11.227000	24.725541	0.000547	20.745184
630.175464	-3.015400	3.734200	-11.258000	24.728626	0.000546	20.716984
631.174681	-2.997500	3.733900	-11.191000	24.740596	0.000547	20.734688
632.179327	-3.011600	3.731900	-11.238000	24.722391	0.000548	20.710253
633.180620	-3.018500	3.734400	-11.272000	24.729658	0.000548	20.713753
634.177616	-3.022900	3.732800	-11.283000	24.740377	0.000548	20.733045
635.177372	-3.003200	3.732600	-11.208000	24.747221	0.000546	20.717153
636.179257	-3.002000	3.733200	-11.206000	24.760503	0.000548	20.731431
637.176383	-2.988600	3.732600	-11.155000	24.748864	0.000547	20.724966
638.179382	-2.982000	3.734200	-11.135000	24.760633	0.000548	20.741994
639.177785	-3.024800	3.730900	-11.285000	24.732089	0.000549	20.718090
640.177288	-3.002700	3.732000	-11.205000	24.754769	0.000549	20.726625
641.178819	-3.009200	3.731400	-11.228000	24.729159	0.000548	20.722261
642.178192	-3.010700	3.730200	-11.230000	24.727763	0.000548	20.718489
643.179351	-2.998800	3.730200	-11.185000	24.756341	0.000548	20.715400
644.178902	-2.976700	3.731800	-11.108000	24.773001	0.000547	20.725007
645.178865	-3.001100	3.729900	-11.193000	24.745699	0.000546	20.704246
646.179798	-2.984200	3.731400	-11.133000	24.789168	0.000547	20.726532
647.179500	-2.979400	3.730500	-11.114000	24.794139	0.000547	20.706864
648.179577	-2.994200	3.731000	-11.170000	24.788272	0.000548	20.707614
649.183903	-2.999900	3.729800	-11.188000	24.760597	0.000548	20.716351
650.180105	-2.983900	3.730900	-11.132000	24.745622	0.000548	20.730722
651.181116	-3.008600	3.728400	-11.216000	24.746394	0.000548	20.731023
652.182402	-2.998700	3.728000	-11.177000	24.749874	0.000548	20.740680
653.180665	-3.015700	3.727800	-11.241000	24.680565	0.000545	20.724707
654.187409	-3.007500	3.728100	-11.211000	24.694416	0.000547	20.720588
655.180754	-2.999700	3.728700	-11.184000	24.708119	0.000546	20.723433
656.180736	-3.005800	3.728700	-11.207000	24.709783	0.000547	20.722732
657.185944	-2.989800	3.728400	-11.146000	24.779468	0.000547	20.717746
658.182983	-3.000100	3.726600	-11.180000	24.803733	0.000545	20.739254
659.186676	-2.993900	3.727700	-11.159000	24.860156	0.000546	20.727127
660.183102	-3.004800	3.726300	-11.195000	24.874752	0.000547	20.736087
661.183665	-2.991000	3.728100	-11.150000	24.865677	0.000544	20.736936
662.183297	-3.018000	3.726700	-11.246000	24.836160	0.000544	20.719165
663.183827	-2.995400	3.727200	-11.164000	24.845732	0.000546	20.740153
664.184403	-3.002900	3.726000	-11.188000	24.835416	0.000545	20.718893
665.184882	-2.996900	3.725300	-11.162000	24.834841	0.000546	20.725903
666.184899	-3.004100	3.724900	-11.190000	24.803758	0.000546	20.736908
667.185201	-3.012400	3.724700	-11.219000	24.824321	0.000543	20.741898
668.186810	-2.998400	3.724300	-11.166000	24.860032	0.000543	20.731745
669.185210	-3.005800	3.724100	-11.193000	24.887282	0.000544	20.727800
670.186045	-2.983800	3.726000	-11.117000	24.841181	0.000545	20.737007
671.184972	-3.004400	3.723700	-11.187000	24.875722	0.000545	20.733741
672.186348	-3.008000	3.725100	-11.203000	24.874428	0.000544	20.739081
673.195119	-3.001600	3.723500	-11.174000	24.835867	0.000543	20.714129
674.186157	-3.043700	3.723100	-11.331000	24.854762	0.000543	20.734516
675.189291	-2.986300	3.724600	-11.123000	24.786654	0.000546	20.722113
676.186068	-3.000400	3.723000	-11.169000	24.843275	0.000543	20.731522
677.186027	-3.017700	3.722300	-11.231000	24.796057	0.000544	20.740559
678.189782	-3.000300	3.722400	-11.168000	24.752910	0.000543	20.748468
679.185866	-3.017300	3.722600	-11.231000	24.760100	0.000544	20.753313
680.189294	-3.008100	3.722900	-11.198000	24.800087	0.000544	20.750768
681.190000	-3.016200	3.720100	-11.219000	24.799318	0.000543	20.748574
682.186089	-2.995700	3.721900	-11.149000	24.848552	0.000542	20.734922
683.188348	-3.023500	3.719800	-11.245000	24.860021	0.000544	20.758287
684.192937	-2.998600	3.721300	-11.157000	24.847981	0.000541	20.756635
685.187181	-3.009400	3.720500	-11.196000	24.864273	0.000543	20.750226
686.190250	-2.982600	3.720600	-11.096000	24.851394	0.000541	20.734455
687.187616	-2.999800	3.720500	-11.159000	24.829985	0.000541	20.741419
688.187664	-3.003700	3.718600	-11.169000	24.835831	0.000541	20.747286
689.187010	-2.992200	3.719600	-11.129000	24.843242	0.000541	20.739076
690.187364	-2.991200	3.720500	-11.128000	24.850283	0.000542	20.743297
691.187426	-3.005300	3.718700	-11.175000	24.831036	0.000541	20.748163
692.187679	-2.982800	3.720100	-11.096000	24.879055	0.000539	20.748467
693.186916	-2.996100	3.718100	-11.139000	24.881269	0.000542	20.746422
694.192430	-2.987500	3.718200	-11.107000	24.879901	0.000541	20.755480
695.185551	-2.984300	3.719200	-11.098000	24.848350	0.000542	20.751790
696.188595	-3.002600	3.718200	-11.163000	24.864067	0.000540	20.747175
697.191716	-2.980800	3.718400	-11.083000	24.874461	0.000541	20.741011
698.189311	-3.019800	3.717700	-11.226000	24.885806	0.000540	20.757139
699.192060	-3.007400	3.718500	-11.183000	24.878543	0.000539	20.746531
700.188225	-2.994000	3.718500	-11.132000	24.858634	0.000541	20.737928
701.189517	-3.031000	3.715500	-11.260000	24.864127	0.000540	20.746286
702.190881	-3.022400	3.716700	-11.232000	24.898445	0.000539	20.750858
703.190449	-3.000800	3.716500	-11.151000	24.932187	0.000540	20.735886
704.189870	-2.971300	3.715600	-11.040000	24.960087	0.000541	20.737337
705.190651	-2.997600	3.716500	-11.140000	24.972020	0.000541	20.749315
706.190422	-2.985600	3.716200	-11.095000	24.949275	0.000539	20.740709
707.193054	-2.979600	3.717600	-11.076000	24.933364	0.000540	20.758405
708.191370	-3.003600	3.715900	-11.160000	24.897538	0.000539	20.755164
709.191584	-3.017100	3.715100	-11.208000	24.907833	0.000537	20.735624
710.193347	-2.995100	3.715700	-11.128000	24.907438	0.000537	20.766997
711.193351	-3.016000	3.713800	-11.200000	24.938271	0.000539	20.768072
712.197736	-3.016000	3.713600	-11.200000	24.908583	0.000537	20.746809
713.193711	-2.992300	3.713800	-11.112000	24.888319	0.000539	20.775309
714.192994	-3.000300	3.713500	-11.140000	24.922632	0.000536	20.749056
715.194504	-3.013500	3.712700	-11.187000	24.888995	0.000537	20.766979
716.192389	-3.020600	3.712800	-11.214000	24.909711	0.000538	20.747941
717.192646	-3.007400	3.712700	-11.164000	24.949196	0.000538	20.751062
718.196953	-2.970400	3.713400	-11.029000	24.942706	0.000538	20.768730
719.192863	-3.005800	3.713400	-11.161000	24.978086	0.000538	20.761094
720.193651	-2.983800	3.713300	-11.078000	24.961581	0.000537	20.744052
721.195384	-3.001800	3.711700	-11.140000	24.948156	0.000537	20.765666
722.192116	-3.002200	3.712700	-11.146000	24.952957	0.000538	20.746302
723.194257	-2.995900	3.712200	-11.119000	24.974116	0.000535	20.764696
724.192984	-3.003200	3.711400	-11.145000	24.987347	0.000535	20.759958
725.193149	-3.027700	3.711300	-11.236000	24.953038	0.000534	20.774834
726.195797	-2.979600	3.711900	-11.059000	24.912263	0.000535	20.768521
727.194490	-3.009200	3.710900	-11.166000	24.921165	0.000534	20.763705
728.194659	-2.995900	3.710000	-11.114000	24.966917	0.000533	20.771695
729.195620	-3.001400	3.711400	-11.137000	24.959560	0.000533	20.748188
730.202384	-3.012500	3.710600	-11.176000	25.000238	0.000534	20.771001
731.199385	-3.012900	3.709400	-11.175000	24.977119	0.000533	20.741157
732.200631	-2.982900	3.708600	-11.061000	24.959147	0.000534	20.785707
733.209880	-3.004000	3.709800	-11.143000	24.976601	0.000531	20.768138
734.193784	-2.991200	3.708600	-11.092000	24.969321	0.000534	20.790703
735.202287	-3.008900	3.709500	-11.161000	24.957441	0.000535	20.770244
736.205564	-3.008800	3.708600	-11.158000	24.940389	0.000535	20.766878
737.194651	-2.991600	3.709600	-11.096000	24.892304	0.000534	20.767455
738.193980	-2.992800	3.709000	-11.098000	24.936193	0.000531	20.770254
739.197794	-2.999400	3.707900	-11.121000	24.908444	0.000534	20.775120
740.193439	-3.008400	3.706100	-11.149000	24.898333	0.000530	20.789627
741.195158	-2.998400	3.707700	-11.116000	24.911684	0.000532	20.781690
742.193831	-2.985600	3.707700	-11.069000	24.909177	0.000533	20.762579
743.195755	-3.039900	3.705200	-11.263000	24.887055	0.000533	20.766453
744.197480	-2.997600	3.706600	-11.110000	24.887132	0.000533	20.788343
745.197798	-3.027500	3.705600	-11.218000	24.915456	0.000530	20.785477
746.198280	-2.981800	3.706700	-11.051000	24.914416	0.000531	20.772104
747.199919	-3.001900	3.706000	-11.124000	24.922846	0.000531	20.780091
748.195286	-3.003700	3.705400	-11.129000	24.937720	0.000530	20.778898
749.199873	-3.013100	3.705000	-11.163000	24.959651	0.000532	20.780523
750.195466	-3.002900	3.706600	-11.130000	25.003607	0.000531	20.780547
751.198454	-2.987800	3.704400	-11.067000	25.005130	0.000532	20.780654
752.202478	-2.992000	3.705200	-11.086000	25.003840	0.000531	20.766556
753.197251	-2.970500	3.705600	-11.007000	25.040417	0.000531	20.768658
754.199203	-3.014800	3.704100	-11.166000	25.042631	0.000530	20.776096
755.197979	-2.999700	3.703900	-11.110000	25.053950	0.000531	20.767543
756.198788	-3.009800	3.703900	-11.147000	25.049924	0.000530	20.785788
757.197771	-2.979800	3.704900	-11.039000	25.047238	0.000530	20.784988
758.197941	-3.014100	3.703000	-11.161000	25.056544	0.000531	20.770622
759.200599	-3.008500	3.703800	-11.142000	25.053661	0.000528	20.794280
760.202885	-3.009900	3.701800	-11.141000	25.050182	0.000530	20.778460
761.200958	-2.980900	3.702800	-11.036000	25.067490	0.000530	20.785877
762.201268	-2.989400	3.703200	-11.069000	25.068533	0.000528	20.785027
763.203338	-2.962700	3.703000	-10.970000	25.029257	0.000528	20.807242
764.200159	-2.997500	3.702400	-11.097000	25.011134	0.000529	20.784783
765.202812	-2.995200	3.702500	-11.088000	25.050192	0.000526	20.784635
766.200895	-3.001200	3.702400	-11.111000	25.050644	0.000527	20.792200
767.201644	-2.985200	3.702100	-11.051000	25.089877	0.000527	20.794599
768.214889	-3.008200	3.701400	-11.133000	25.038193	0.000527	20.793927
769.203196	-2.986900	3.701200	-11.054000	25.030861	0.000528	20.782299
770.205855	-2.989400	3.701500	-11.063000	25.001800	0.000530	20.794380
771.205281	-2.983700	3.700900	-11.041000	25.029723	0.000527	20.778786
772.206921	-2.984700	3.700900	-11.046000	25.053989	0.000526	20.773273
773.202117	-2.993600	3.700100	-11.076000	25.053496	0.000528	20.787002
774.205251	-2.995700	3.700100	-11.083000	25.112218	0.000526	20.790948
775.202548	-2.984200	3.699600	-11.039000	25.115003	0.000524	20.791847
776.206018	-3.031000	3.697600	-11.207000	25.044951	0.000526	20.793124
777.202099	-2.983300	3.698600	-11.034000	25.058452	0.000526	20.793400
778.202450	-2.980500	3.698900	-11.023000	25.056887	0.000525	20.790881
779.208610	-3.005300	3.699400	-11.116000	25.086874	0.000528	20.803439
780.204364	-3.030400	3.697200	-11.204000	25.102835	0.000525	20.797176
781.211790	-3.010500	3.698100	-11.132000	25.099853	0.000525	20.801295
782.206647	-2.986400	3.697200	-11.040000	25.119444	0.000524	20.791564
783.209347	-2.993100	3.698700	-11.070000	25.101376	0.000524	20.793340
784.211630	-3.012800	3.697800	-11.140000	25.034627	0.000525	20.805994
785.206103	-3.002500	3.697000	-11.098000	25.051459	0.000523	20.783061
786.205442	-3.004100	3.696200	-11.102000	25.079553	0.000523	20.797987
787.208358	-3.003600	3.697100	-11.104000	25.088701	0.000523	20.791996
788.205752	-3.017900	3.696100	-11.154000	25.119184	0.000524	20.793199
789.207791	-3.002000	3.697600	-11.100000	25.112353	0.000522	20.792980
790.210089	-2.987300	3.698600	-11.047000	25.099678	0.000522	20.808231
791.213422	-3.011900	3.695000	-11.128000	25.127221	0.000521	20.781827
792.209546	-2.998600	3.695100	-11.080000	25.159814	0.000523	20.808857
793.207826	-3.017400	3.694400	-11.147000	25.149349	0.000520	20.791714
794.219881	-3.002600	3.694800	-11.093000	25.166476	0.000522	20.806062
795.207350	-3.015800	3.694200	-11.140000	25.148162	0.000522	20.809013
796.220378	-3.003700	3.695600	-11.100000	25.122554	0.000521	20.793738
797.216702	-2.991300	3.694500	-11.051000	25.154749	0.000523	20.800928
798.210076	-3.002700	3.693600	-11.090000	25.149381	0.000522	20.793168
799.212807	-2.994100	3.693900	-11.059000	25.111599	0.000520	20.804077
800.212327	-2.988800	3.693200	-11.037000	25.125046	0.000521	20.810464
801.219783	-2.987200	3.693300	-11.032000	25.131190	0.000519	20.790553
802.215938	-2.996700	3.692600	-11.065000	25.162560	0.000518	20.819675
803.223864	-2.982600	3.695200	-11.020000	25.166790	0.000519	20.810645
804.227541	-3.001700	3.692900	-11.084000	25.161595	0.000520	20.820602
805.212143	-3.015200	3.691600	-11.130000	25.179542	0.000522	20.806378
806.213167	-2.994700	3.692600	-11.057000	25.184442	0.000520	20.801813
807.224210	-2.989000	3.692900	-11.037000	25.145811	0.000518	20.837473
808.213267	-2.985500	3.692400	-11.022000	25.120634	0.000519	20.821207
809.223329	-2.995300	3.693000	-11.061000	25.163537	0.000520	20.809276
810.213315	-2.975900	3.691300	-10.983000	25.137285	0.000516	20.811370
811.213648	-2.971300	3.692100	-10.969000	25.113577	0.000518	20.805115
812.216151	-2.981800	3.691500	-11.006000	25.105491	0.000517	20.834929
813.222642	-3.002400	3.691800	-11.083000	25.107310	0.000520	20.810203
814.215007	-2.986900	3.689100	-11.018000	25.104924	0.000518	20.824877
815.222137	-3.015800	3.690400	-11.129000	25.143235	0.000518	20.819714
816.216804	-3.007800	3.688900	-11.094000	25.132273	0.000517	20.823408
817.218397	-2.998400	3.688900	-11.060000	25.102192	0.000519	20.822609
818.216881	-3.007100	3.688700	-11.092000	25.103317	0.000517	20.831798
819.217670	-3.010500	3.688200	-11.103000	25.123574	0.000519	20.837435
820.218644	-2.993100	3.687200	-11.036000	25.160492	0.000516	20.822340
821.219924	-2.984300	3.690000	-11.011000	25.159992	0.000516	20.835587
822.222795	-3.028100	3.688200	-11.167000	25.192239	0.000517	20.830503
823.217864	-2.980700	3.689200	-10.995000	25.193582	0.000515	20.810041
824.218357	-3.005400	3.687200	-11.080000	25.139242	0.000515	20.824240
825.220708	-2.993600	3.688200	-11.040000	25.143866	0.000516	20.842159
826.229151	-3.021700	3.688000	-11.143000	25.169597	0.000514	20.830058
827.222809	-2.972200	3.688500	-10.961000	25.179963	0.000514	20.846628
828.224171	-2.996000	3.688000	-11.048000	25.179043	0.000515	20.828161
829.225773	-3.006700	3.686700	-11.084000	25.173901	0.000516	20.834852
830.223273	-3.016800	3.686100	-11.119000	25.221947	0.000516	20.831406
831.226325	-3.005400	3.685300	-11.075000	25.192000	0.000516	20.835953
832.231505	-2.992200	3.685800	-11.027000	25.199750	0.000514	20.839940
833.224251	-3.013900	3.685600	-11.108000	25.164948	0.000513	20.844356
834.227436	-3.003600	3.685400	-11.069000	25.166221	0.000513	20.828090
835.228902	-2.997600	3.685500	-11.047000	25.204604	0.000513	20.821580
836.225267	-3.005900	3.685000	-11.075000	25.181260	0.000514	20.835602
837.230019	-2.978400	3.685300	-10.975000	25.130603	0.000513	20.827422
838.230679	-2.983900	3.685200	-10.996000	25.118097	0.000512	20.844739
839.228047	-3.013800	3.683800	-11.101000	25.115633	0.000512	20.854118
840.235466	-2.991500	3.683700	-11.019000	25.096818	0.000513	20.857041
841.226790	-3.018900	3.682900	-11.116000	25.131470	0.000513	20.833508
842.238377	-2.999800	3.685300	-11.054000	25.170027	0.000513	20.849929
843.227416	-3.011900	3.683200	-11.092000	25.173309	0.000510	20.858913
844.227197	-3.008800	3.683400	-11.081000	25.225236	0.000512	20.847983
845.228752	-3.028300	3.683000	-11.151000	25.255240	0.000513	20.843019
846.230431	-3.004100	3.682100	-11.059000	25.261379	0.000509	20.834485
847.226248	-2.994500	3.682600	-11.027000	25.236300	0.000511	20.835383
848.230361	-2.995200	3.682100	-11.027000	25.234883	0.000510	20.863831
849.232003	-2.995600	3.681700	-11.028000	25.217211	0.000508	20.840875
850.237828	-2.991500	3.682100	-11.014000	25.205030	0.000511	20.837655
851.238212	-2.993700	3.682400	-11.024000	25.182931	0.000510	20.859090
852.229340	-3.006900	3.680300	-11.065000	25.200579	0.000509	20.838876
853.237308	-3.003200	3.681300	-11.055000	25.210550	0.000510	20.844144
854.228599	-3.014700	3.679700	-11.092000	25.240398	0.000510	20.864153
855.238067	-3.012200	3.680100	-11.085000	25.237967	0.000509	20.859815
856.231882	-2.999500	3.679900	-11.037000	25.214226	0.000509	20.848309
857.231192	-3.003100	3.679800	-11.050000	25.213757	0.000509	20.876760
858.241300	-2.978400	3.679400	-10.957000	25.202697	0.000508	20.874666
859.234185	-2.994900	3.680300	-11.021000	25.191412	0.000510	20.875189
860.236792	-3.008100	3.679600	-11.068000	25.181863	0.000506	20.873190
861.246720	-2.976700	3.679500	-10.952000	25.221638	0.000507	20.851957
862.232679	-2.958000	3.681300	-10.887000	25.268093	0.000506	20.842648
863.237527	-3.006100	3.677500	-11.054000	25.265313	0.000505	20.872097
864.250593	-2.992300	3.678600	-11.007000	25.244759	0.000507	20.870427
865.236146	-2.982800	3.679200	-10.973000	25.278088	0.000507	20.865010
866.243163	-2.984000	3.677800	-10.973000	25.269116	0.000505	20.865010
867.238115	-3.003900	3.677600	-11.045000	25.242598	0.000505	20.866362
868.234146	-3.002800	3.677400	-11.041000	25.171283	0.000505	20.861146
869.240942	-2.981000	3.678600	-10.964000	25.170088	0.000504	20.870852
870.233393	-2.986400	3.678000	-10.983000	25.197436	0.000503	20.853263
871.233649	-3.005000	3.676800	-11.048000	25.194232	0.000503	20.863323
872.236167	-3.026500	3.676200	-11.124000	25.202331	0.000503	20.872876
873.233072	-2.989200	3.677300	-10.991000	25.220754	0.000504	20.853914
874.235467	-2.979100	3.675800	-10.949000	25.186104	0.000503	20.856586
875.235419	-3.016700	3.676700	-11.091000	25.184018	0.000501	20.858284
876.238036	-2.993400	3.676000	-11.003000	25.177504	0.000504	20.875926
877.234200	-2.995500	3.675000	-11.008000	25.174149	0.000502	20.868290
878.237185	-2.997500	3.675900	-11.017000	25.211066	0.000503	20.856515
879.246187	-3.021500	3.675400	-11.105000	25.280637	0.000503	20.848129
880.247321	-3.006000	3.675300	-11.048000	25.252006	0.000502	20.842143
881.243730	-3.004600	3.674600	-11.040000	25.237394	0.000501	20.865878
882.239868	-2.979400	3.675100	-10.949000	25.253003	0.000501	20.848834
883.236871	-3.002300	3.673300	-11.027000	25.241546	0.000502	20.849184
884.237091	-3.003000	3.674000	-11.032000	25.284173	0.000503	20.854049
885.237810	-3.005900	3.672600	-11.038000	25.331975	0.000504	20.843725
886.236017	-2.975800	3.673600	-10.931000	25.320687	0.000501	20.851357
887.240591	-2.999800	3.672900	-11.017000	25.282714	0.000499	20.848318
888.241332	-2.975000	3.672900	-10.926000	25.258058	0.000501	20.846796
889.240007	-2.992100	3.673700	-10.992000	25.250206	0.000499	20.841758
890.241494	-2.984100	3.672100	-10.958000	25.267626	0.000500	20.832222
891.246506	-3.011000	3.671100	-11.053000	25.317861	0.000501	20.840934
892.239743	-3.007900	3.672100	-11.045000	25.335926	0.000500	20.841528
893.237417	-3.009600	3.671700	-11.050000	25.305238	0.000500	20.824940
894.243574	-3.002200	3.671500	-11.022000	25.314309	0.000499	20.837367
895.257561	-2.998100	3.671400	-11.006000	25.328698	0.000498	20.844702
896.240708	-3.003700	3.669400	-11.020000	25.319927	0.000497	20.840162
897.245623	-2.999700	3.670100	-11.008000	25.299247	0.000499	20.833149
898.247462	-2.983400	3.670000	-10.948000	25.326563	0.000497	20.826437
899.244506	-3.003500	3.668500	-11.017000	25.328677	0.000497	20.842784
900.258264	-2.992100	3.669400	-10.978000	25.326242	0.000498	20.835598
901.240478	-2.987000	3.669700	-10.960000	25.297037	0.000501	20.825241
902.236785	-3.005500	3.669700	-11.028000	25.328406	0.000496	20.829710
903.247960	-3.008500	3.668600	-11.036000	25.348314	0.000497	20.815560
904.242050	-2.998400	3.669500	-11.002000	25.356218	0.000494	20.817333
905.235075	-3.001000	3.667400	-11.005000	25.397999	0.000495	20.846008
906.238077	-3.018500	3.668200	-11.072000	25.359475	0.000496	20.839094
907.240645	-2.973600	3.668200	-10.907000	25.321745	0.000496	20.810221
908.239975	-3.003200	3.667000	-11.011000	25.334997	0.000496	20.824474
909.255450	-3.014600	3.666500	-11.053000	25.341431	0.000495	20.829038
910.242543	-2.992500	3.666800	-10.972000	25.336089	0.000495	20.835053
911.252614	-3.007900	3.666700	-11.029000	25.316329	0.000494	20.826119
912.246882	-2.990000	3.667200	-10.964000	25.277904	0.000495	20.818834
913.238698	-3.001100	3.666300	-11.003000	25.281481	0.000492	20.817684
914.240381	-2.980300	3.666900	-10.928000	25.302433	0.000494	20.814064
915.253881	-3.004200	3.666500	-11.013000	25.271613	0.000493	20.816785
916.257057	-2.990400	3.665500	-10.960000	25.274669	0.000493	20.830284
917.241765	-2.983300	3.665900	-10.935000	25.321351	0.000492	20.837799
918.256297	-2.983900	3.665100	-10.935000	25.370188	0.000491	20.820928
919.245638	-3.007800	3.664600	-11.021000	25.396110	0.000495	20.812818
920.242476	-3.000600	3.665300	-10.997000	25.388156	0.000491	20.809099
921.241548	-2.989800	3.664900	-10.956000	25.358509	0.000493	20.821530
922.245711	-3.022000	3.663200	-11.069000	25.352120	0.000493	20.830761
923.242143	-3.011800	3.664600	-11.036000	25.288741	0.000492	20.818335
924.253777	-2.991700	3.662900	-10.957000	25.286080	0.000491	20.818508
925.245559	-2.989300	3.664100	-10.952000	25.302091	0.000492	20.799971
926.242066	-2.993600	3.663200	-10.966000	25.292051	0.000489	20.806959
927.256564	-3.005100	3.662800	-11.006000	25.308280	0.000490	20.796227
928.246194	-3.013500	3.662200	-11.035000	25.350186	0.000491	20.800370
929.257359	-2.985700	3.662200	-10.933000	25.423156	0.000491	20.808682
930.248064	-3.012900	3.661600	-11.031000	25.457104	0.000491	20.793460
931.253046	-3.012400	3.662000	-11.030000	25.439535	0.000489	20.833189
932.244329	-3.007000	3.660900	-11.008000	25.364056	0.000488	20.814298
933.263011	-3.012900	3.660700	-11.028000	25.366967	0.000488	20.818643
934.246469	-3.009400	3.660300	-11.014000	25.362369	0.000489	20.808810
935.256805	-3.022900	3.661100	-11.066000	25.344678	0.000488	20.800530
936.246588	-3.002100	3.660000	-10.987000	25.373579	0.000485	20.799677
937.246252	-2.990800	3.660200	-10.946000	25.383651	0.000487	20.810265
938.262475	-3.016800	3.658400	-11.036000	25.423393	0.000487	20.809869
939.245649	-2.994000	3.659700	-10.956000	25.413974	0.000487	20.817006
940.251044	-3.001500	3.659400	-10.983000	25.317920	0.000485	20.798794
941.245540	-3.000000	3.658000	-10.974000	25.368350	0.000485	20.785893
942.265776	-2.994600	3.658300	-10.953000	25.349909	0.000484	20.795351
943.244884	-2.984000	3.658300	-10.915000	25.292300	0.000485	20.809105
944.245964	-2.975500	3.658900	-10.886000	25.269036	0.000484	20.793809
945.246520	-2.984000	3.658900	-10.917000	25.295461	0.000483	20.798055
946.249119	-2.989800	3.657900	-10.935000	25.315722	0.000483	20.784259
947.254960	-2.993000	3.658300	-10.948000	25.336874	0.000483	20.796962
948.247081	-3.008400	3.656700	-11.000000	25.323458	0.000484	20.785862
949.249188	-3.003000	3.657300	-10.982000	25.331264	0.000482	20.811244
950.250737	-2.989400	3.657000	-10.931000	25.304129	0.000482	20.769773
951.252114	-3.001300	3.655200	-10.970000	25.333728	0.000482	20.782897
952.252016	-3.006900	3.655900	-10.992000	25.374421	0.000480	20.788669
953.248028	-2.993800	3.656600	-10.945000	25.427784	0.000481	20.791992
954.250025	-2.990800	3.656200	-10.934000	25.469114	0.000481	20.778967
955.254404	-2.979100	3.657300	-10.894000	25.445333	0.000480	20.774052
956.252397	-3.011600	3.654300	-11.005000	25.447447	0.000480	20.764796
957.265643	-3.003400	3.653200	-10.971000	25.414944	0.000480	20.773409
958.249062	-2.987000	3.653900	-10.912000	25.417210	0.000479	20.773788
959.250398	-3.022100	3.653500	-11.040000	25.415399	0.000480	20.774340
960.250469	-2.993300	3.653800	-10.935000	25.413141	0.000478	20.772072
961.261655	-2.972700	3.654900	-10.864000	25.414212	0.000479	20.784528
962.251729	-2.986400	3.654000	-10.912000	25.401738	0.000479	20.768683
963.251644	-3.004700	3.653200	-10.975000	25.429647	0.000480	20.774422
964.254217	-3.002500	3.653700	-10.970000	25.425154	0.000480	20.795990
965.262415	-3.022000	3.651700	-11.034000	25.419837	0.000477	20.771210
966.251088	-3.006400	3.651200	-10.975000	25.417303	0.000477	20.796641
967.254134	-3.018600	3.652000	-11.024000	25.403913	0.000479	20.774187
968.267962	-2.999700	3.653400	-10.958000	25.420687	0.000477	20.779650
969.267948	-2.990900	3.652400	-10.923000	25.456675	0.000476	20.754148
970.264109	-2.989200	3.651200	-10.913000	25.447979	0.000478	20.768175
971.268689	-3.004800	3.651600	-10.971000	25.458547	0.000479	20.751286
972.272643	-3.015300	3.650700	-11.007000	25.417217	0.000474	20.780907
973.261188	-3.001200	3.651800	-10.959000	25.421195	0.000477	20.775419
974.265463	-2.992500	3.650200	-10.922000	25.431862	0.000476	20.759103
975.256191	-2.992100	3.650500	-10.922000	25.418838	0.000475	20.762620
976.261927	-3.002200	3.649000	-10.954000	25.345748	0.000473	20.764146
977.257946	-2.997700	3.649800	-10.940000	25.349127	0.000473	20.776548
978.260946	-3.015400	3.649300	-11.003000	25.341625	0.000475	20.775653
979.259284	-3.000600	3.649200	-10.949000	25.360218	0.000476	20.765399
980.260646	-2.999500	3.648300	-10.943000	25.351644	0.000473	20.781920
981.262268	-3.002800	3.648000	-10.953000	25.335564	0.000471	20.781422
982.260525	-2.989200	3.649200	-10.907000	25.353660	0.000472	20.763556
983.271931	-3.011000	3.647700	-10.982000	25.359528	0.000473	20.766129
984.261766	-3.009200	3.648700	-10.979000	25.418061	0.000473	20.761366
985.262225	-2.980200	3.648700	-10.872000	25.463014	0.000471	20.760039
986.263537	-2.991600	3.648100	-10.912000	25.474748	0.000471	20.784625
987.272140	-2.969100	3.647900	-10.830000	25.514212	0.000471	20.767357
988.262464	-2.993900	3.647000	-10.917000	25.555166	0.000471	20.762017
989.265123	-3.005700	3.647500	-10.962000	25.526016	0.000473	20.768305
990.265302	-3.001100	3.646500	-10.943000	25.536062	0.000470	20.787404
991.265342	-3.012700	3.645100	-10.981000	25.509470	0.000470	20.748370
992.272947	-3.005300	3.644700	-10.952000	25.487533	0.000469	20.746254
993.278149	-2.981600	3.647000	-10.872000	25.453110	0.000467	20.751041
994.267179	-2.994100	3.645400	-10.914000	25.402293	0.000468	20.746955
995.265846	-3.009800	3.644700	-10.968000	25.370627	0.000469	20.772531
996.265428	-3.005700	3.645100	-10.955000	25.357786	0.000466	20.750154
997.269429	-3.007600	3.643200	-10.956000	25.317988	0.000466	20.749549
998.265509	-2.995800	3.643600	-10.915000	25.345829	0.000468	20.754744
999.264712	-3.000800	3.643700	-10.933000	25.405061	0.000464	20.748785
1000.265772	-3.019300	3.642300	-10.997000	25.401012	0.000465	20.774592
1001.272066	-3.008900	3.642400	-10.958000	25.389059	0.000466	20.760693
1002.265502	-3.012200	3.641500	-10.967000	25.399250	0.000467	20.764763
1003.264638	-2.995700	3.643300	-10.912000	25.404297	0.000466	20.752286
1004.265738	-3.004100	3.641800	-10.939000	25.416549	0.000467	20.756529
1005.278408	-3.000200	3.641700	-10.925000	25.457313	0.000463	20.753840
1006.265617	-2.993500	3.641300	-10.899000	25.432636	0.000464	20.755139
1007.266851	-3.011900	3.640800	-10.965000	25.463727	0.000463	20.750323
1008.271355	-3.018700	3.640400	-10.988000	25.470337	0.000462	20.737994
1009.267740	-2.999700	3.641700	-10.923000	25.498351	0.000464	20.750954
1010.273607	-2.993000	3.641500	-10.899000	25.461649	0.000461	20.734011
1011.269406	-3.017400	3.640500	-10.983000	25.442244	0.000462	20.736336
1012.271566	-2.991200	3.639800	-10.886000	25.465159	0.000463	20.738959
1013.271946	-2.985200	3.640200	-10.865000	25.496671	0.000463	20.745948
1014.271311	-3.007300	3.638800	-10.942000	25.513993	0.000462	20.737738
1015.271735	-2.993900	3.639200	-10.895000	25.512031	0.000461	20.748096
1016.276780	-2.992100	3.640100	-10.890000	25.548464	0.000460	20.744855
1017.276059	-3.002200	3.638700	-10.923000	25.563182	0.000461	20.727393
1018.274386	-2.980300	3.638900	-10.844000	25.510056	0.000461	20.751802
1019.284912	-2.977900	3.639300	-10.836000	25.465672	0.000460	20.732835
1020.273885	-2.972900	3.639400	-10.818000	25.463040	0.000458	20.745366
1021.275908	-3.012000	3.637800	-10.956000	25.493760	0.000460	20.749188
1022.273575	-2.998300	3.638400	-10.908000	25.453900	0.000457	20.735713
1023.286355	-3.002200	3.637000	-10.918000	25.450398	0.000459	20.729351
1024.281743	-3.025700	3.634800	-10.997000	25.420477	0.000458	20.724436
1025.289412	-2.986000	3.636400	-10.857000	25.429375	0.000457	20.735742
1026.292143	-2.996000	3.637000	-10.895000	25.455575	0.000458	20.750672
1027.274935	-2.997200	3.634500	-10.892000	25.460001	0.000457	20.748004
1028.275725	-2.996900	3.635000	-10.893000	25.478740	0.000456	20.741218
1029.275017	-3.010300	3.633700	-10.937000	25.515626	0.000454	20.744120
1030.282590	-3.005900	3.634200	-10.922000	25.502825	0.000457	20.740747
1031.285646	-2.985800	3.634500	-10.851000	25.490376	0.000455	20.733936
1032.278227	-2.992200	3.633300	-10.870000	25.491748	0.000456	20.713500
1033.277790	-2.989100	3.634300	-10.862000	25.437123	0.000456	20.731668
1034.290707	-2.990900	3.633300	-10.865000	25.433522	0.000454	20.744174
1035.289371	-3.010600	3.632700	-10.935000	25.428082	0.000454	20.736340
1036.282206	-3.003100	3.634000	-10.911000	25.479032	0.000455	20.735820
1037.280910	-3.005800	3.631800	-10.916000	25.482189	0.000453	20.712437
1038.276591	-3.016500	3.633100	-10.959000	25.507936	0.000454	20.717904
1039.279888	-2.987600	3.633800	-10.855000	25.513951	0.000454	20.721100
1040.279952	-2.991000	3.632200	-10.863000	25.518352	0.000454	20.745910
1041.280345	-3.002000	3.632800	-10.905000	25.514378	0.000451	20.722003
1042.286031	-3.016900	3.631300	-10.955000	25.505108	0.000451	20.721228
1043.281059	-3.026400	3.630000	-10.983000	25.437369	0.000454	20.710577
1044.281953	-3.014600	3.629700	-10.941000	25.450771	0.000451	20.718819
1045.281400	-2.991100	3.630600	-10.858000	25.447416	0.000449	20.707864
1046.281136	-3.021700	3.629200	-10.966000	25.482284	0.000452	20.735766
1047.282835	-3.005500	3.629900	-10.909000	25.531339	0.000452	20.720069
1048.284713	-3.025100	3.627900	-10.974000	25.584448	0.000449	20.709393
1049.281948	-2.984800	3.628800	-10.831000	25.570235	0.000449	20.726889
1050.295300	-3.011500	3.629100	-10.928000	25.583458	0.000449	20.726419
1051.286740	-2.986900	3.628600	-10.837000	25.574935	0.000449	20.716436
1052.283311	-2.977200	3.629500	-10.805000	25.553841	0.000449	20.734608
1053.286075	-2.994200	3.628800	-10.865000	25.526584	0.000447	20.719562
1054.283994	-2.977200	3.628200	-10.801000	25.506060	0.000451	20.715546
1055.291912	-2.994400	3.628400	-10.864000	25.558275	0.000446	20.730051
1056.287583	-3.002300	3.626900	-10.888000	25.559991	0.000446	20.720395
1057.285077	-2.999700	3.626800	-10.878000	25.564914	0.000448	20.691671
1058.293439	-3.016200	3.625400	-10.934000	25.602832	0.000446	20.725013
1059.285546	-3.006200	3.626500	-10.901000	25.538179	0.000446	20.708919
1060.286726	-2.992800	3.625700	-10.850000	25.529861	0.000446	20.718110
1061.287370	-2.977400	3.626600	-10.797000	25.510700	0.000443	20.713092
1062.287306	-3.015200	3.624600	-10.927000	25.517860	0.000445	20.720283
1063.288436	-3.009900	3.624100	-10.907000	25.545199	0.000443	20.733041
1064.291316	-2.992300	3.624500	-10.845000	25.522335	0.000443	20.716717
1065.292820	-3.016300	3.624700	-10.932000	25.551288	0.000445	20.714973
1066.289408	-3.001500	3.622800	-10.873000	25.508922	0.000444	20.716049
1067.298131	-2.971000	3.625500	-10.771000	25.517523	0.000444	20.712833
1068.291053	-2.990800	3.625000	-10.841000	25.519839	0.000442	20.703303
1069.293262	-3.014800	3.623800	-10.924000	25.544662	0.000443	20.699782
1070.290113	-3.002100	3.623000	-10.876000	25.532981	0.000442	20.704173
1071.289427	-3.013300	3.623000	-10.916000	25.565941	0.000442	20.716412
1072.290318	-3.018100	3.622600	-10.932000	25.565542	0.000442	20.682818
1073.291056	-2.997400	3.622200	-10.856000	25.613896	0.000440	20.697242
1074.292155	-2.984900	3.623300	-10.814000	25.595167	0.000441	20.695502
1075.292484	-2.994300	3.621700	-10.843000	25.593402	0.000440	20.694203
1076.291495	-2.985200	3.621800	-10.810000	25.582646	0.000441	20.725129
1077.293147	-2.990800	3.621700	-10.831000	25.571939	0.000440	20.676439
1078.297747	-3.010700	3.621100	-10.901000	25.551415	0.000441	20.694236
1079.292388	-3.010200	3.620500	-10.898000	25.538894	0.000439	20.708215
1080.294541	-2.988400	3.619800	-10.817000	25.568289	0.000439	20.703597
1081.293349	-2.994900	3.620700	-10.843000	25.575921	0.000438	20.718375
1082.293028	-3.017300	3.619100	-10.919000	25.571968	0.000438	20.690694
1083.293135	-3.032000	3.619400	-10.973000	25.515286	0.000438	20.690195
1084.305818	-2.983400	3.619400	-10.797000	25.522648	0.000437	20.703753
1085.296201	-3.007600	3.618600	-10.882000	25.529976	0.000437	20.705423
1086.292383	-2.984900	3.617900	-10.798000	25.543324	0.000436	20.697964
1087.309380	-3.015200	3.617500	-10.906000	25.570535	0.000439	20.720552
1088.296692	-3.010000	3.617400	-10.888000	25.551752	0.000437	20.712120
1089.293848	-2.970900	3.618800	-10.750000	25.515496	0.000436	20.718857
1090.296479	-2.989100	3.617300	-10.812000	25.534382	0.000436	20.705106
1091.297121	-2.995400	3.617100	-10.833000	25.564726	0.000437	20.705234
1092.294908	-3.012800	3.616300	-10.895000	25.619562	0.000434	20.711468
1093.294854	-2.998900	3.615500	-10.841000	25.596264	0.000434	20.676687
1094.296731	-3.009300	3.614600	-10.877000	25.585902	0.000434	20.698051
1095.299316	-3.004400	3.614300	-10.857000	25.570449	0.000435	20.685376
1096.300367	-3.000900	3.614400	-10.846000	25.561799	0.000433	20.707510
1097.297592	-3.006000	3.614000	-10.863000	25.568786	0.000431	20.705993
1098.297271	-3.005000	3.615700	-10.864000	25.560908	0.000434	20.693812
1099.300292	-3.024200	3.613200	-10.926000	25.598855	0.000432	20.686877
1100.298531	-3.000000	3.614300	-10.842000	25.628253	0.000429	20.701230
1101.298606	-2.999400	3.614400	-10.840000	25.621569	0.000431	20.705424
1102.301305	-2.993500	3.614200	-10.818000	25.582655	0.000432	20.709964
1103.298421	-2.991200	3.615000	-10.812000	25.489076	0.000432	20.700859
1104.299668	-2.971000	3.613300	-10.734000	25.477596	0.000430	20.705453
1105.297828	-2.988100	3.612700	-10.794000	25.477247	0.000431	20.677599
1106.299528	-2.995000	3.612900	-10.820000	25.480158	0.000430	20.708974
1107.298622	-3.014600	3.612500	-10.889000	25.541021	0.000427	20.693755
1108.298434	-3.029400	3.611800	-10.941000	25.580208	0.000427	20.699445
1109.298161	-3.003500	3.611500	-10.846000	25.550365	0.000427	20.708830
1110.300083	-3.014300	3.612700	-10.889000	25.538989	0.000428	20.695033
1111.300044	-3.000300	3.611500	-10.835000	25.517369	0.000426	20.691813
1112.300427	-2.992200	3.611300	-10.804000	25.492644	0.000427	20.709185
1113.297644	-3.004700	3.610900	-10.848000	25.483377	0.000424	20.679962
1114.300131	-3.008800	3.609500	-10.859000	25.519315	0.000424	20.713684
1115.301360	-3.002200	3.609400	-10.836000	25.578332	0.000425	20.732177
1116.299345	-3.000900	3.609100	-10.830000	25.587356	0.000424	20.710892
1117.303689	-3.007000	3.608900	-10.851000	25.612428	0.000425	20.718055
1118.300831	-3.003700	3.609100	-10.840000	25.661477	0.000424	20.725118
1119.300167	-2.997800	3.608800	-10.817000	25.684191	0.000426	20.709523
1120.305649	-2.998000	3.609200	-10.820000	25.627145	0.000424	20.688263
1121.300683	-3.001400	3.608200	-10.829000	25.628582	0.000423	20.712468
1122.305083	-3.018300	3.607200	-10.887000	25.624514	0.000424	20.709804
1123.300126	-3.007600	3.607500	-10.849000	25.631148	0.000421	20.720735
1124.300319	-3.017800	3.606900	-10.884000	25.666732	0.000422	20.712377
1125.299636	-3.006100	3.605900	-10.839000	25.650361	0.000421	20.694985
1126.309784	-3.001100	3.606700	-10.821000	25.634609	0.000419	20.693863
1127.309316	-3.004300	3.606300	-10.833000	25.639954	0.000421	20.703026
1128.303999	-2.974100	3.607100	-10.727000	25.639880	0.000422	20.693942
1129.301716	-3.007200	3.605600	-10.842000	25.637421	0.000422	20.698111
1130.313350	-2.995900	3.605500	-10.801000	25.584348	0.000419	20.704077
1131.311245	-3.009500	3.605000	-10.849000	25.577098	0.000419	20.711021
1132.301167	-2.993800	3.604900	-10.792000	25.594468	0.000419	20.720406
1133.303308	-2.983200	3.604300	-10.752000	25.609551	0.000418	20.693352
1134.302564	-2.998600	3.604800	-10.808000	25.568555	0.000417	20.697224
1135.300584	-3.008800	3.605000	-10.846000	25.587641	0.000418	20.710704
1136.308392	-3.026300	3.601500	-10.899000	25.576733	0.000417	20.706861
1137.308210	-3.016300	3.602700	-10.866000	25.600561	0.000419	20.718938
1138.304533	-3.005400	3.603100	-10.828000	25.664800	0.000417	20.729878
1139.305727	-2.978300	3.603100	-10.730000	25.663236	0.000417	20.724039
1140.306764	-2.997200	3.602800	-10.798000	25.620825	0.000417	20.694244
1141.301781	-2.981200	3.602100	-10.737000	25.612750	0.000416	20.705101
1142.303866	-2.988200	3.603000	-10.766000	25.618863	0.000415	20.715034
1143.301928	-2.982600	3.602900	-10.744000	25.586369	0.000415	20.706582
1144.306027	-3.002000	3.601300	-10.810000	25.577399	0.000416	20.704211
1145.307436	-2.995200	3.600100	-10.782000	25.589625	0.000415	20.713171
1146.317507	-2.980400	3.602000	-10.735000	25.592359	0.000415	20.721686
1147.305499	-2.976200	3.600800	-10.716000	25.587219	0.000413	20.715022
1148.303250	-2.999800	3.600000	-10.798000	25.556708	0.000413	20.699552
1149.311845	-3.041200	3.598600	-10.944000	25.599474	0.000413	20.708837
1150.304371	-3.019000	3.599500	-10.866000	25.610534	0.000413	20.721369
1151.314991	-3.012700	3.599500	-10.844000	25.608202	0.000414	20.694369
1152.303093	-3.011800	3.599500	-10.840000	25.565445	0.000412	20.720656
1153.307574	-2.986700	3.598500	-10.747000	25.556150	0.000412	20.699466
1154.310204	-3.003000	3.596600	-10.799000	25.517340	0.000412	20.725926
1155.304451	-2.992400	3.597900	-10.766000	25.570171	0.000412	20.712125
1156.306139	-2.980500	3.597700	-10.722000	25.558125	0.000409	20.713779
1157.314651	-3.005100	3.596300	-10.806000	25.560038	0.000413	20.721864
1158.303303	-3.001200	3.596700	-10.793000	25.597735	0.000414	20.705668
1159.322341	-3.000100	3.596700	-10.790000	25.584343	0.000411	20.742007
1160.306485	-3.005700	3.596100	-10.808000	25.626390	0.000412	20.708369
1161.306507	-3.016400	3.596600	-10.848000	25.633698	0.000408	20.701957
1162.316388	-2.988500	3.596800	-10.748000	25.626399	0.000410	20.726871
1163.309209	-3.005900	3.595000	-10.805000	25.617577	0.000409	20.727494
1164.308589	-2.988600	3.594000	-10.740000	25.594722	0.000407	20.706910
1165.309833	-2.991100	3.594900	-10.752000	25.571933	0.000408	20.707256
1166.307015	-3.008200	3.593900	-10.811000	25.615245	0.000407	20.719462
1167.308498	-2.995700	3.594400	-10.767000	25.604145	0.000408	20.729177
1168.315139	-2.979300	3.595100	-10.710000	25.568735	0.000407	20.706890
1169.308012	-3.002600	3.594000	-10.791000	25.582879	0.000408	20.710663
1170.308727	-3.001700	3.592300	-10.782000	25.586430	0.000406	20.736042
1171.315811	-3.000800	3.593200	-10.782000	25.558107	0.000409	20.708544
1172.311007	-3.024900	3.592900	-10.868000	25.565066	0.000406	20.721223
1173.309464	-2.995100	3.592500	-10.759000	25.554235	0.000407	20.722201
1174.311830	-3.003000	3.592000	-10.785000	25.560718	0.000404	20.721124
1175.316415	-2.988700	3.591500	-10.733000	25.574488	0.000407	20.714564
1176.311840	-2.991300	3.590600	-10.739000	25.582937	0.000404	20.728266
1177.324572	-2.981200	3.591100	-10.705000	25.635292	0.000404	20.729165
1178.313761	-2.982900	3.590900	-10.709000	25.647296	0.000404	20.721306
1179.321685	-3.005600	3.589100	-10.785000	25.661734	0.000403	20.712099
1180.312509	-3.021400	3.590100	-10.846000	25.643253	0.000406	20.707761
1181.317046	-3.006200	3.589400	-10.789000	25.684128	0.000403	20.745498
1182.315597	-3.016300	3.589100	-10.825000	25.674784	0.000405	20.722362
1183.322137	-2.995100	3.590100	-10.752000	25.675482	0.000403	20.733969
1184.313045	-3.001400	3.589300	-10.773000	25.686960	0.000402	20.725583
1185.317727	-3.021000	3.588400	-10.840000	25.671735	0.000403	20.710289
1186.325819	-3.018900	3.587700	-10.829000	25.669193	0.000402	20.706788
1187.332923	-3.009200	3.586700	-10.792000	25.655934	0.000402	20.731879
1188.314044	-3.001100	3.588000	-10.767000	25.665774	0.000403	20.739866
1189.326309	-2.990800	3.588000	-10.730000	25.728737	0.000400	20.727715
1190.318029	-2.995400	3.587200	-10.744000	25.669477	0.000400	20.743585
1191.321150	-2.987400	3.586400	-10.712000	25.662125	0.000399	20.734778
1192.319582	-2.996000	3.585800	-10.742000	25.690150	0.000399	20.730684
1193.320039	-2.983600	3.585400	-10.696000	25.641997	0.000398	20.759134
1194.325130	-3.000100	3.585400	-10.755000	25.629472	0.000399	20.738967
1195.335063	-2.988900	3.584700	-10.713000	25.639366	0.000400	20.755543
1196.316273	-2.995300	3.584700	-10.737000	25.693509	0.000398	20.744015
1197.321921	-2.988500	3.583300	-10.708000	25.692068	0.000399	20.732135
1198.324579	-2.997700	3.584700	-10.745000	25.713286	0.000398	20.748233
1199.332188	-2.978800	3.584100	-10.676000	25.707675	0.000397	20.716991
1200.322399	-3.004200	3.584000	-10.766000	25.688197	0.000395	20.741050
1201.318439	-2.988000	3.583800	-10.707000	25.690258	0.000397	20.739327
1202.334990	-3.002400	3.583700	-10.759000	25.658082	0.000395	20.757745
1203.321517	-3.001400	3.582400	-10.752000	25.633508	0.000395	20.739702
1204.320817	-3.013400	3.582000	-10.793000	25.640693	0.000395	20.741228
1205.334604	-3.007600	3.582100	-10.772000	25.692971	0.000396	20.750588
1206.327044	-2.989400	3.581000	-10.703000	25.709351	0.000397	20.741435
1207.339309	-2.998100	3.581500	-10.737000	25.636050	0.000395	20.738936
1208.333388	-3.017600	3.580900	-10.805000	25.646937	0.000395	20.747974
1209.325636	-2.992300	3.581200	-10.715000	25.678346	0.000397	20.738268
1210.321998	-3.027500	3.581000	-10.841000	25.707733	0.000393	20.745026
1211.324646	-2.984300	3.581000	-10.686000	25.711071	0.000393	20.753120
1212.323891	-3.008600	3.580700	-10.772000	25.696589	0.000395	20.740470
1213.328656	-2.976800	3.582100	-10.662000	25.667020	0.000393	20.749179
1214.324890	-3.000500	3.579100	-10.739000	25.671696	0.000392	20.757669
1215.328405	-2.995300	3.579900	-10.722000	25.695473	0.000392	20.740772
1216.325800	-2.990400	3.578800	-10.700000	25.711105	0.000393	20.753628
1217.327590	-2.999000	3.578400	-10.730000	25.723678	0.000391	20.748713
1218.332773	-2.999400	3.578500	-10.733000	25.730734	0.000390	20.754853
1219.329137	-2.989000	3.578800	-10.697000	25.758064	0.000389	20.753855
1220.330751	-3.004000	3.578000	-10.747000	25.739704	0.000391	20.744895
1221.327613	-2.973600	3.578600	-10.640000	25.715161	0.000390	20.749641
1222.328839	-3.011400	3.578000	-10.774000	25.641442	0.000388	20.763318
1223.327669	-2.993200	3.577000	-10.705000	25.620522	0.000388	20.758902
1224.330318	-3.016100	3.576700	-10.788000	25.633490	0.000388	20.745374
1225.329224	-2.989900	3.575900	-10.691000	25.672329	0.000389	20.746450
1226.335048	-2.996400	3.576100	-10.715000	25.648056	0.000388	20.752417
1227.330232	-2.999200	3.575200	-10.722000	25.641845	0.000388	20.752817
1228.332475	-3.005500	3.575200	-10.744000	25.631705	0.000385	20.764444
1229.336564	-3.020100	3.575300	-10.796000	25.616331	0.000387	20.757064
1230.334694	-3.004000	3.575000	-10.737000	25.582634	0.000386	20.770163
1231.336042	-2.989200	3.575400	-10.687000	25.591560	0.000385	20.748781
1232.332438	-3.002300	3.574200	-10.730000	25.580553	0.000385	20.757642
1233.333689	-3.035900	3.572400	-10.845000	25.631020	0.000386	20.755696
1234.331028	-3.006000	3.573100	-10.740000	25.644456	0.000385	20.776303
1235.334499	-2.983600	3.574300	-10.662000	25.665409	0.000383	20.747560
1236.336438	-2.992200	3.573100	-10.690000	25.650651	0.000385	20.743643
1237.342124	-2.996700	3.573100	-10.707000	25.626800	0.000385	20.767579
1238.334956	-2.985600	3.572000	-10.663000	25.655200	0.000383	20.769550
1239.333276	-3.001000	3.570800	-10.715000	25.663451	0.000381	20.738481
1240.337300	-2.996200	3.572100	-10.702000	25.652844	0.000381	20.774770
1241.335881	-2.994000	3.571600	-10.692000	25.645241	0.000382	20.769979
1242.335322	-3.018100	3.569900	-10.773000	25.679979	0.000381	20.782109
1243.334610	-3.009500	3.570300	-10.744000	25.650459	0.000380	20.763840
1244.347271	-3.001500	3.570100	-10.715000	25.641366	0.000382	20.759923
1245.334620	-3.030000	3.569400	-10.815000	25.621759	0.000380	20.776741
1246.338186	-2.996200	3.571000	-10.699000	25.681100	0.000380	20.765691
1247.336482	-3.009800	3.570100	-10.744000	25.652052	0.000382	20.788673
1248.346747	-2.990000	3.569600	-10.672000	25.723488	0.000381	20.749945
1249.336847	-3.003500	3.569900	-10.721000	25.732629	0.000382	20.773826
1250.339967	-3.031600	3.567700	-10.814000	25.753350	0.000377	20.760974
1251.340013	-3.012500	3.568200	-10.747000	25.705402	0.000381	20.772082
1252.337237	-2.995000	3.567900	-10.684000	25.679733	0.000379	20.760999
1253.343480	-3.013900	3.567300	-10.751000	25.720257	0.000378	20.794116
1254.342449	-2.995600	3.567400	-10.685000	25.656005	0.000378	20.774626
1255.351830	-2.975600	3.567300	-10.614000	25.653625	0.000378	20.761329
1256.340759	-2.998200	3.566400	-10.692000	25.670050	0.000377	20.768817
1257.338092	-2.984600	3.567400	-10.647000	25.728012	0.000377	20.790051
1258.339035	-3.001900	3.565700	-10.703000	25.732309	0.000375	20.787255
1259.339347	-2.990100	3.567000	-10.665000	25.759787	0.000376	20.775975
1260.340120	-2.980800	3.567000	-10.632000	25.750999	0.000375	20.770941
1261.341650	-3.013800	3.565500	-10.744000	25.712586	0.000374	20.786885
1262.339842	-2.991800	3.565000	-10.665000	25.677780	0.000374	20.773262
1263.339333	-3.020000	3.563900	-10.762000	25.644232	0.000374	20.785087
1264.340543	-3.017800	3.562900	-10.751000	25.626469	0.000375	20.773410
1265.339051	-2.995500	3.563800	-10.674000	25.629154	0.000373	20.790806
1266.340134	-3.008700	3.562600	-10.718000	25.650871	0.000375	20.786065
1267.341250	-3.027300	3.562500	-10.784000	25.697931	0.000373	20.770743
1268.340681	-3.028800	3.562700	-10.789000	25.728242	0.000372	20.802136
1269.338978	-2.999800	3.561800	-10.684000	25.715673	0.000370	20.780977
1270.342548	-2.997000	3.562900	-10.678000	25.731345	0.000372	20.792451
1271.340484	-2.999600	3.562000	-10.683000	25.721559	0.000370	20.798743
1272.349886	-2.998200	3.562900	-10.681000	25.756442	0.000369	20.773563
1273.350479	-2.995800	3.560800	-10.666000	25.728497	0.000370	20.790065
1274.340714	-2.991500	3.560500	-10.650000	25.725242	0.000370	20.774941
1275.340710	-2.997600	3.559800	-10.670000	25.689562	0.000369	20.780829
1276.340798	-2.986400	3.560200	-10.631000	25.714959	0.000370	20.800649
1277.340506	-3.008000	3.559100	-10.705000	25.705710	0.000368	20.804161
1278.353170	-2.995100	3.560300	-10.662000	25.687206	0.000369	20.800748
1279.341136	-3.009500	3.559000	-10.710000	25.668228	0.000371	20.797808
1280.343204	-3.005100	3.558700	-10.694000	25.687353	0.000365	20.806586
1281.361507	-3.012500	3.558500	-10.719000	25.643955	0.000367	20.794292
1282.342994	-2.994800	3.558000	-10.655000	25.638988	0.000368	20.779820
1283.347631	-2.987500	3.559300	-10.633000	25.691287	0.000369	20.794889
1284.342500	-3.021200	3.558300	-10.749000	25.688286	0.000367	20.812264
1285.352372	-3.006900	3.556900	-10.694000	25.731392	0.000367	20.801033
1286.345728	-3.020500	3.557500	-10.744000	25.688788	0.000366	20.810871
1287.347860	-3.008800	3.557100	-10.702000	25.781212	0.000367	20.785168
1288.350460	-2.989300	3.556800	-10.632000	25.785387	0.000363	20.805483
1289.343988	-2.999100	3.555900	-10.664000	25.776295	0.000365	20.809152
1290.346808	-3.008800	3.555900	-10.698000	25.766859	0.000365	20.817217
1291.348939	-3.007200	3.555700	-10.692000	25.755977	0.000365	20.804390
1292.346531	-3.011800	3.554100	-10.704000	25.769671	0.000363	20.815300
1293.345938	-3.008100	3.555200	-10.694000	25.829520	0.000362	20.809038
1294.346323	-3.043800	3.553300	-10.814000	25.837274	0.000363	20.803076
1295.361205	-3.006300	3.554400	-10.685000	25.824254	0.000361	20.817498
1296.358848	-3.026600	3.553200	-10.752000	25.806371	0.000362	20.812337
1297.354716	-3.007300	3.553900	-10.687000	25.763494	0.000362	20.812415
1298.358880	-2.991500	3.552000	-10.625000	25.778953	0.000361	20.803287
1299.355814	-2.998800	3.553500	-10.655000	25.806179	0.000362	20.816411
1300.347406	-3.013700	3.553200	-10.707000	25.853188	0.000360	20.813847
1301.349687	-3.004900	3.553100	-10.676000	25.820619	0.000361	20.801993
1302.354688	-2.964900	3.552500	-10.532000	25.792475	0.000361	20.824930
1303.352436	-3.001000	3.552500	-10.660000	25.784627	0.000362	20.819418
1304.365542	-2.986400	3.550700	-10.603000	25.770018	0.000360	20.818968
1305.351860	-2.988700	3.551900	-10.613000	25.758940	0.000360	20.811633
1306.357474	-3.001500	3.549900	-10.654000	25.758148	0.000357	20.814157
1307.355924	-2.984800	3.552000	-10.601000	25.765179	0.000360	20.814108
1308.356148	-3.017500	3.549300	-10.710000	25.771439	0.000359	20.815180
1309.353287	-2.979500	3.550600	-10.579000	25.776311	0.000357	20.842833
1310.357473	-2.976900	3.550800	-10.570000	25.756392	0.000357	20.798643
1311.359473	-3.002200	3.549400	-10.655000	25.775003	0.000356	20.827768
1312.364665	-3.004600	3.549500	-10.663000	25.787792	0.000357	20.812166
1313.354305	-3.004600	3.549500	-10.664000	25.745407	0.000356	20.846403
1314.355864	-2.989300	3.549200	-10.609000	25.715274	0.000356	20.834154
1315.374926	-3.006800	3.548300	-10.667000	25.750255	0.000356	20.820454
1316.364402	-2.998900	3.546700	-10.636000	25.739673	0.000355	20.810299
1317.365361	-3.012400	3.547700	-10.686000	25.747624	0.000355	20.826346
1318.373851	-3.008500	3.545900	-10.666000	25.724420	0.000357	20.830539
1319.368166	-2.986100	3.547200	-10.591000	25.736226	0.000356	20.844768
1320.358482	-2.990900	3.547000	-10.608000	25.807824	0.000356	20.823278
1321.356286	-2.972200	3.548200	-10.545000	25.785421	0.000353	20.842500
1322.360454	-2.983500	3.545300	-10.577000	25.766358	0.000354	20.834732
1323.372145	-2.998600	3.543800	-10.625000	25.778435	0.000355	20.828845
1324.358666	-2.996600	3.544700	-10.622000	25.786061	0.000356	20.847410
1325.358255	-3.037300	3.543100	-10.761000	25.782339	0.000353	20.828973
1326.369814	-2.990800	3.544100	-10.599000	25.792428	0.000354	20.845271
1327.369341	-3.006700	3.543300	-10.653000	25.783283	0.000350	20.841300
1328.366647	-3.000500	3.542900	-10.630000	25.782618	0.000353	20.832099
1329.368787	-3.004100	3.543000	-10.643000	25.774589	0.000352	20.845370
1330.366314	-3.025400	3.542400	-10.715000	25.752604	0.000352	20.837038
1331.362125	-3.002700	3.542200	-10.635000	25.803133	0.000351	20.830420
1332.360098	-2.984800	3.542400	-10.572000	25.815951	0.000353	20.833813
1333.360701	-3.012600	3.542700	-10.672000	25.836720	0.000351	20.829072
1334.365149	-3.012500	3.542100	-10.669000	25.881840	0.000352	20.835991
1335.363728	-2.993700	3.543100	-10.606000	25.915076	0.000352	20.853731
1336.363140	-3.003600	3.541500	-10.637000	25.899948	0.000349	20.839483
1337.370279	-2.993900	3.540600	-10.600000	25.865217	0.000349	20.855327
1338.371490	-2.985700	3.540600	-10.570000	25.858609	0.000348	20.855801
1339.363100	-2.994900	3.540000	-10.600000	25.802714	0.000348	20.840431
1340.366962	-3.022400	3.539800	-10.698000	25.779363	0.000349	20.820769
1341.364946	-3.006800	3.539000	-10.640000	25.754985	0.000346	20.823308
1342.364079	-3.009200	3.538200	-10.646000	25.768551	0.000348	20.837883
1343.360184	-2.996800	3.540200	-10.608000	25.778710	0.000349	20.836233
1344.363053	-3.002500	3.539800	-10.626000	25.789547	0.000348	20.815825
1345.366863	-2.993200	3.538700	-10.590000	25.835633	0.000347	20.837937
1346.377101	-2.982500	3.537800	-10.551000	25.878305	0.000346	20.831018
1347.367503	-2.967900	3.537300	-10.497000	25.836302	0.000346	20.827229
1348.366251	-3.004600	3.536400	-10.624000	25.864573	0.000346	20.814378
1349.367712	-2.981900	3.536700	-10.545000	25.848102	0.000345	20.840031
1350.364862	-3.004300	3.535200	-10.620000	25.834487	0.000345	20.821613
1351.364251	-2.997200	3.536500	-10.599000	25.810685	0.000343	20.815247
1352.367010	-3.026900	3.536200	-10.703000	25.801401	0.000346	20.820620
1353.367841	-3.011300	3.534900	-10.644000	25.802341	0.000345	20.836737
1354.372338	-3.011600	3.534400	-10.644000	25.743783	0.000342	20.820591
1355.383083	-2.998700	3.534900	-10.599000	25.734716	0.000342	20.810535
1356.370492	-2.985700	3.535600	-10.556000	25.735311	0.000342	20.819193
1357.369356	-2.987000	3.535800	-10.560000	25.738241	0.000344	20.818344
1358.372977	-2.987000	3.534000	-10.555000	25.767262	0.000343	20.822838
1359.381183	-2.987500	3.534900	-10.560000	25.770468	0.000343	20.810886
1360.371806	-2.991100	3.534600	-10.571000	25.781281	0.000343	20.831229
1361.378840	-2.989100	3.533600	-10.561000	25.784782	0.000343	20.788279
1362.373222	-2.988800	3.532900	-10.559000	25.808708	0.000341	20.805675
1363.376435	-2.986200	3.532100	-10.546000	25.857994	0.000341	20.788329
1364.376840	-2.978800	3.533400	-10.524000	25.846341	0.000343	20.816452
1365.375003	-3.004800	3.530800	-10.608000	25.804681	0.000339	20.809216
1366.373180	-3.003200	3.530600	-10.603000	25.814298	0.000342	20.815083
1367.375150	-2.993100	3.531000	-10.568000	25.839212	0.000340	20.805971
1368.376873	-2.980900	3.530400	-10.523000	25.831689	0.000340	20.817854
1369.380657	-3.004100	3.530300	-10.605000	25.830667	0.000339	20.822991
1370.375506	-3.005400	3.529200	-10.606000	25.887287	0.000337	20.808272
1371.378120	-2.991400	3.529300	-10.558000	25.891338	0.000338	20.816609
1372.382735	-3.004100	3.529200	-10.601000	25.854916	0.000336	20.808470
1373.375827	-3.019300	3.528800	-10.654000	25.881898	0.000337	20.800488
1374.378507	-3.007200	3.529200	-10.612000	25.845648	0.000335	20.798686
1375.375561	-3.003400	3.528400	-10.596000	25.844384	0.000337	20.818753
1376.376874	-3.001700	3.528900	-10.591000	25.813831	0.000336	20.816036
1377.391144	-2.994800	3.528700	-10.567000	25.757654	0.000336	20.796118
1378.378657	-3.006000	3.528100	-10.604000	25.747544	0.000335	20.795446
1379.379266	-2.999800	3.528500	-10.584000	25.736190	0.000333	20.802059
1380.378179	-2.996900	3.528400	-10.574000	25.772666	0.000335	20.787488
1381.383581	-2.998800	3.528000	-10.578000	25.796912	0.000334	20.798093
1382.382705	-2.992200	3.525500	-10.547000	25.772744	0.000334	20.798473
1383.384929	-3.015000	3.524000	-10.624000	25.778059	0.000332	20.794329
1384.378614	-2.985300	3.525500	-10.524000	25.835642	0.000332	20.800962
1385.386672	-2.995700	3.525900	-10.562000	25.847196	0.000335	20.774163
1386.392262	-2.960200	3.526200	-10.437000	25.810905	0.000334	20.805985
1387.379084	-3.007400	3.524600	-10.599000	25.814849	0.000330	20.799041
1388.392557	-3.007600	3.525800	-10.603000	25.791306	0.000332	20.808583
1389.383258	-2.986000	3.524900	-10.524000	25.797610	0.000330	20.797372
1390.384434	-3.003000	3.522800	-10.578000	25.814779	0.000329	20.791859
1391.379675	-3.017500	3.522300	-10.627000	25.818929	0.000330	20.820684
1392.389267	-3.007100	3.521500	-10.588000	25.824003	0.000330	20.796857
1393.386770	-3.009800	3.522100	-10.600000	25.814189	0.000330	20.808336
1394.379618	-3.011200	3.523200	-10.609000	25.802807	0.000330	20.762288
1395.388479	-3.004100	3.523300	-10.584000	25.808505	0.000328	20.791720
1396.393813	-2.961000	3.522000	-10.427000	25.818388	0.000327	20.790743
1397.387806	-2.980600	3.521000	-10.494000	25.856896	0.000327	20.789122
1398.385503	-2.980400	3.521200	-10.494000	25.870663	0.000329	20.774502
1399.387522	-2.997700	3.521900	-10.557000	25.877595	0.000327	20.771035
1400.382278	-2.999300	3.520200	-10.558000	25.863666	0.000329	20.790707
1401.385576	-3.016900	3.521000	-10.622000	25.882639	0.000327	20.776577
1402.380980	-3.010300	3.518700	-10.591000	25.908299	0.000327	20.781017
1403.386052	-3.015600	3.518500	-10.610000	25.904975	0.000326	20.776729
1404.383554	-3.016200	3.518500	-10.612000	25.861080	0.000328	20.767246
1405.384296	-3.021200	3.517100	-10.625000	25.835690	0.000325	20.784415
1406.385287	-3.002200	3.518200	-10.561000	25.867314	0.000325	20.791053
1407.385870	-3.022200	3.517400	-10.629000	25.805480	0.000328	20.795320
1408.386052	-3.022300	3.516600	-10.626000	25.853729	0.000324	20.772664
1409.386036	-2.983500	3.517500	-10.493000	25.870048	0.000324	20.789532
1410.394969	-3.024100	3.515100	-10.629000	25.864856	0.000324	20.766298
1411.398907	-2.990800	3.517000	-10.518000	25.877776	0.000327	20.779752
1412.398848	-3.020800	3.516200	-10.621000	25.921995	0.000322	20.793354
1413.385068	-2.998600	3.515600	-10.541000	25.903264	0.000324	20.774062
1414.396991	-2.991300	3.516600	-10.519000	25.874748	0.000322	20.773390
1415.400043	-3.003000	3.514900	-10.554000	25.880166	0.000321	20.775514
1416.386833	-2.984100	3.515900	-10.491000	25.870180	0.000321	20.784449
1417.387186	-2.963900	3.516000	-10.419000	25.867574	0.000322	20.778038
1418.387460	-3.013400	3.513900	-10.588000	25.859973	0.000321	20.768979
1419.394526	-3.006200	3.514500	-10.565000	25.882304	0.000320	20.763912
1420.390370	-3.004100	3.513200	-10.553000	25.877938	0.000320	20.782759
1421.387486	-3.008800	3.512900	-10.568000	25.807481	0.000320	20.772674
1422.389310	-2.989300	3.513300	-10.502000	25.821125	0.000321	20.780690
1423.389999	-2.987900	3.514700	-10.501000	25.807387	0.000319	20.764044
1424.388152	-2.994300	3.512600	-10.517000	25.753702	0.000318	20.791200
1425.389676	-2.991500	3.511500	-10.504000	25.787640	0.000319	20.769339
1426.395855	-3.011400	3.509900	-10.569000	25.779615	0.000318	20.778348
1427.398036	-3.014800	3.510400	-10.582000	25.770701	0.000320	20.781721
1428.393138	-3.015600	3.509800	-10.583000	25.781016	0.000319	20.768375
1429.390327	-3.008800	3.508800	-10.556000	25.813832	0.000317	20.774312
1430.401702	-3.013400	3.509500	-10.575000	25.798727	0.000318	20.753449
1431.391965	-3.006300	3.509700	-10.550000	25.835102	0.000317	20.764859
1432.394610	-2.991100	3.509800	-10.497000	25.846677	0.000315	20.777434
1433.389663	-3.003500	3.509200	-10.538000	25.904446	0.000316	20.783785
1434.392087	-3.011400	3.507600	-10.562000	25.898556	0.000317	20.773126
1435.392800	-3.018500	3.508000	-10.588000	25.869888	0.000314	20.763767
1436.393723	-2.992800	3.508700	-10.500000	25.866962	0.000315	20.766992
1437.392447	-3.035000	3.506500	-10.641000	25.852482	0.000315	20.782792
1438.396099	-2.980800	3.508800	-10.457000	25.870689	0.000315	20.756511
1439.392534	-2.989700	3.507100	-10.484000	25.807818	0.000316	20.756416
1440.394909	-3.011200	3.508200	-10.563000	25.782800	0.000313	20.768745
1441.399499	-3.014700	3.506200	-10.570000	25.758386	0.000312	20.772197
1442.394186	-3.003800	3.506900	-10.533000	25.790534	0.000310	20.772720
1443.399796	-2.997000	3.505000	-10.504000	25.808073	0.000312	20.774691
1444.395024	-3.008000	3.505700	-10.544000	25.858210	0.000313	20.775269
1445.395985	-3.013900	3.505500	-10.564000	25.855107	0.000315	20.760772
1446.395835	-3.002300	3.505600	-10.523000	25.824225	0.000312	20.747767
1447.395958	-2.985200	3.503800	-10.458000	25.800928	0.000312	20.774152
1448.400079	-2.986800	3.504300	-10.466000	25.833325	0.000312	20.757858
1449.397565	-2.997400	3.503900	-10.501000	25.873475	0.000311	20.759310
1450.396488	-2.980300	3.505600	-10.447000	25.909420	0.000310	20.780721
1451.395198	-2.969300	3.504800	-10.406000	25.933987	0.000313	20.749925
1452.399071	-2.989600	3.502700	-10.471000	25.926613	0.000310	20.760060
1453.396063	-3.005900	3.502200	-10.526000	25.975874	0.000309	20.766876
1454.397313	-2.980100	3.502500	-10.437000	25.978140	0.000311	20.750660
1455.400707	-2.991800	3.501400	-10.474000	25.967260	0.000307	20.742101
1456.395853	-3.023800	3.499900	-10.582000	25.917581	0.000308	20.751935
1457.396329	-2.978500	3.501600	-10.429000	25.851531	0.000308	20.751016
1458.400628	-2.997600	3.501000	-10.493000	25.795090	0.000306	20.753589
1459.402531	-2.991500	3.501400	-10.474000	25.737875	0.000308	20.735472
1460.398136	-2.996300	3.500100	-10.486000	25.751643	0.000306	20.743611
1461.402102	-3.006100	3.500000	-10.521000	25.833132	0.000306	20.752922
1462.397630	-3.023000	3.496800	-10.569000	25.830802	0.000306	20.743942
1463.396544	-2.991500	3.499200	-10.467000	25.811444	0.000305	20.735876
1464.396879	-2.981400	3.500300	-10.434000	25.830383	0.000303	20.741625
1465.399304	-2.992200	3.497600	-10.465000	25.867996	0.000305	20.741477
1466.405854	-3.001800	3.497200	-10.497000	25.898253	0.000304	20.736311
1467.406322	-2.958500	3.499000	-10.351000	25.868567	0.000303	20.740153
1468.406858	-2.978500	3.498300	-10.418000	25.885888	0.000303	20.757080
1469.406681	-3.003600	3.495800	-10.499000	25.905490	0.000302	20.757332
1470.408834	-2.994600	3.497600	-10.472000	25.878690	0.000304	20.753168
1471.399635	-2.981100	3.496200	-10.421000	25.868478	0.000304	20.730106
1472.404684	-2.966900	3.496300	-10.371000	25.860931	0.000302	20.734379
1473.399511	-2.983300	3.496300	-10.430000	25.914438	0.000303	20.758260
1474.407576	-2.998700	3.495500	-10.481000	25.898301	0.000302	20.755326
1475.410830	-2.996300	3.496100	-10.473000	25.908985	0.000303	20.724806
1476.401009	-3.010800	3.495900	-10.525000	25.918577	0.000302	20.730175
1477.400533	-3.001100	3.493100	-10.483000	25.874830	0.000301	20.739332
1478.412174	-2.992100	3.493900	-10.453000	25.841199	0.000301	20.746326
1479.412955	-2.989200	3.495700	-10.448000	25.845477	0.000301	20.730234
1480.406299	-3.025400	3.493600	-10.568000	25.839070	0.000300	20.763154
1481.403937	-3.008400	3.492800	-10.507000	25.912234	0.000300	20.733760
1482.408520	-3.002600	3.492200	-10.484000	25.896113	0.000297	20.736057
1483.402884	-2.994900	3.493200	-10.461000	25.909456	0.000298	20.731444
1484.401909	-3.001600	3.493500	-10.486000	25.918802	0.000298	20.731824
1485.401763	-2.998400	3.492700	-10.471000	25.913541	0.000297	20.728435
1486.403866	-3.004100	3.491600	-10.488000	25.893325	0.000297	20.724721
1487.402541	-3.014700	3.490400	-10.522000	25.899765	0.000297	20.712698
1488.402879	-3.026500	3.489800	-10.560000	25.881559	0.000297	20.740877
1489.411866	-2.962100	3.492400	-10.344000	25.883801	0.000297	20.738387
1490.413372	-2.998300	3.490100	-10.463000	25.929259	0.000299	20.739010
1491.412410	-2.987900	3.490100	-10.427000	25.911599	0.000297	20.729329
1492.414340	-2.993800	3.488900	-10.444000	25.931353	0.000296	20.708869
1493.402544	-2.984800	3.489500	-10.414000	25.949966	0.000295	20.731363
1494.409154	-2.972600	3.488300	-10.369000	25.918172	0.000296	20.729294
1495.404078	-2.985100	3.489300	-10.415000	25.902626	0.000292	20.732168
1496.405673	-2.987500	3.488200	-10.420000	25.912041	0.000294	20.723608
1497.405629	-2.997900	3.488800	-10.457000	25.930507	0.000292	20.715132
1498.414183	-2.988100	3.487900	-10.421000	25.936839	0.000292	20.719597
1499.422564	-3.008100	3.486600	-10.487000	25.932945	0.000292	20.737024
1500.415060	-3.011900	3.486900	-10.501000	25.903938	0.000293	20.723055
1501.409309	-3.008100	3.485400	-10.484000	25.921352	0.000295	20.717315
1502.414569	-2.998100	3.486700	-10.453000	25.889036	0.000294	20.684848
1503.405666	-2.992400	3.486800	-10.432000	25.892468	0.000292	20.712479
1504.406887	-2.998900	3.485300	-10.451000	25.894016	0.000289	20.719725
1505.432480	-3.007600	3.484300	-10.479000	25.900821	0.000290	20.716130
1506.407814	-2.988000	3.485200	-10.413000	25.928997	0.000292	20.721202
1507.425014	-2.987200	3.485000	-10.409000	25.950363	0.000290	20.716589
1508.408642	-2.993600	3.483900	-10.429000	25.907099	0.000289	20.712479
1509.409788	-3.003700	3.484700	-10.466000	25.872870	0.000293	20.707964
1510.411300	-3.023300	3.484000	-10.533000	25.897787	0.000290	20.699330
1511.408567	-3.020800	3.482100	-10.518000	25.893820	0.000289	20.710518
1512.411795	-3.012300	3.483300	-10.492000	25.919213	0.000288	20.714692
1513.411384	-3.019700	3.482300	-10.515000	25.935634	0.000290	20.703213
1514.410469	-3.017000	3.482300	-10.506000	25.888460	0.000288	20.726947
1515.409192	-3.013100	3.480800	-10.487000	25.894257	0.000288	20.697680
1516.409635	-3.006100	3.481100	-10.464000	25.907232	0.000288	20.690799
1517.413530	-3.007400	3.481800	-10.470000	25.883681	0.000288	20.706023
1518.411841	-3.012500	3.480000	-10.483000	25.883657	0.000288	20.687979
1519.411621	-3.025700	3.481100	-10.532000	25.879611	0.000290	20.714262
1520.410171	-2.993900	3.481000	-10.420000	25.934287	0.000287	20.681943
1521.411304	-3.010000	3.478700	-10.469000	25.965589	0.000288	20.699641
1522.410446	-3.001200	3.479600	-10.442000	25.954739	0.000288	20.688740
1523.412487	-2.990500	3.479600	-10.405000	25.901529	0.000287	20.709253
1524.412344	-3.011500	3.479400	-10.477000	25.878376	0.000286	20.678880
1525.410590	-3.003700	3.479700	-10.451000	25.866159	0.000288	20.720189
1526.410390	-3.023400	3.477500	-10.512000	25.871444	0.000287	20.720283
1527.412680	-2.997900	3.477300	-10.423000	25.876410	0.000285	20.705356
1528.415501	-2.995400	3.477900	-10.417000	25.865559	0.000286	20.687342
1529.416457	-2.990800	3.476900	-10.398000	25.807049	0.000286	20.698268
1530.416880	-2.991700	3.476100	-10.398000	25.795401	0.000284	20.710276
1531.414984	-3.002000	3.476100	-10.434000	25.790656	0.000283	20.704087
1532.413815	-2.995700	3.477000	-10.415000	25.799575	0.000284	20.707357
1533.415102	-2.997300	3.475500	-10.416000	25.830950	0.000283	20.719434
1534.416382	-2.996800	3.474600	-10.411000	25.873106	0.000284	20.713892
1535.418671	-2.993800	3.476500	-10.406000	25.874571	0.000282	20.726270
1536.419822	-2.986000	3.476400	-10.379000	25.867521	0.000281	20.694529
1537.418292	-2.993100	3.475600	-10.402000	25.909877	0.000282	20.702941
1538.421022	-2.987900	3.474800	-10.381000	25.943736	0.000280	20.697601
1539.418260	-2.989200	3.475200	-10.387000	25.924016	0.000283	20.703869
1540.419460	-2.990400	3.472600	-10.383000	25.921135	0.000282	20.717097
1541.423888	-3.007500	3.472900	-10.444000	25.909336	0.000282	20.680110
1542.420804	-2.982600	3.472300	-10.355000	25.916248	0.000280	20.711239
1543.419769	-3.003300	3.472500	-10.427000	25.956091	0.000280	20.715704
1544.424067	-2.983400	3.474100	-10.364000	25.919626	0.000278	20.707520
1545.420716	-2.969400	3.473600	-10.314000	25.916052	0.000278	20.693971
1546.419826	-2.999600	3.471800	-10.412000	25.890570	0.000279	20.714366
1547.421374	-3.000600	3.470900	-10.414000	25.938092	0.000277	20.706156
1548.419892	-3.011700	3.471000	-10.453000	25.910201	0.000278	20.681454
1549.420306	-3.001200	3.471200	-10.417000	25.908038	0.000278	20.699197
1550.423164	-3.024400	3.470000	-10.494000	25.902256	0.000279	20.694810
1551.422810	-3.002100	3.471100	-10.420000	25.887703	0.000277	20.691096
1552.422956	-3.003200	3.469600	-10.419000	25.926952	0.000277	20.711560
1553.425744	-2.961300	3.470100	-10.275000	25.931175	0.000276	20.701578
1554.423666	-2.981000	3.469300	-10.341000	25.912399	0.000276	20.699310
1555.423825	-3.003600	3.468700	-10.416000	25.947227	0.000277	20.694944
1556.430802	-2.984400	3.469400	-10.354000	25.962531	0.000276	20.692775
1557.424106	-2.995000	3.468300	-10.387000	25.961415	0.000273	20.694974
1558.429307	-2.974900	3.468100	-10.316000	25.944105	0.000273	20.701765
1559.426306	-2.998600	3.466500	-10.394000	25.957718	0.000274	20.697898
1560.426308	-3.040300	3.465600	-10.535000	25.927812	0.000274	20.704838
1561.427496	-2.990000	3.466400	-10.363000	25.895521	0.000272	20.706063
1562.433388	-3.010700	3.465800	-10.434000	25.913309	0.000275	20.704018
1563.426116	-3.007800	3.465100	-10.421000	25.931898	0.000272	20.702778
1564.427126	-2.997600	3.466800	-10.391000	25.979438	0.000273	20.698382
1565.428767	-3.003200	3.466100	-10.409000	25.995017	0.000272	20.713561
1566.425902	-2.985100	3.465800	-10.345000	26.013718	0.000273	20.719548
1567.434936	-2.986800	3.464800	-10.348000	25.936293	0.000270	20.712884
1568.428120	-2.982800	3.465000	-10.334000	25.908599	0.000270	20.693596
1569.427773	-3.002200	3.463200	-10.396000	25.954852	0.000272	20.696441
1570.430429	-2.991100	3.465300	-10.363000	25.912901	0.000270	20.718782
1571.434714	-3.001800	3.463500	-10.396000	25.894071	0.000269	20.685164
1572.430234	-2.983000	3.463900	-10.332000	25.897625	0.000271	20.706755
1573.429739	-2.993400	3.462100	-10.363000	25.835646	0.000270	20.715142
1574.431595	-2.998500	3.462700	-10.382000	25.831171	0.000268	20.710647
1575.432055	-3.001600	3.462900	-10.392000	25.823501	0.000267	20.701519
1576.431602	-2.988800	3.461100	-10.344000	25.823678	0.000268	20.694584
1577.438130	-2.985500	3.461300	-10.333000	25.796552	0.000269	20.708113
1578.433289	-2.996600	3.460600	-10.368000	25.824377	0.000268	20.703821
1579.438742	-2.991600	3.461300	-10.354000	25.905359	0.000269	20.708360
1580.439701	-3.006100	3.461300	-10.404000	25.972855	0.000266	20.722116
1581.432424	-2.978100	3.460700	-10.304000	26.002116	0.000267	20.712633
1582.435961	-2.980700	3.461300	-10.316000	26.030560	0.000267	20.718926
1583.437724	-3.008900	3.458900	-10.406000	26.030806	0.000267	20.692618
1584.438033	-2.988100	3.458900	-10.335000	26.027901	0.000265	20.724314
1585.434757	-3.011500	3.458100	-10.413000	25.993680	0.000267	20.722176
1586.433443	-2.987200	3.459600	-10.334000	25.996487	0.000267	20.737325
1587.432824	-2.982100	3.458100	-10.311000	26.011290	0.000268	20.717582
1588.435744	-3.018300	3.458000	-10.436000	26.024007	0.000266	20.722299
1589.437223	-2.997600	3.457500	-10.364000	26.023540	0.000265	20.710924
1590.434474	-2.981000	3.456900	-10.304000	25.986405	0.000263	20.716762
1591.437080	-3.000100	3.456300	-10.368000	25.941225	0.000264	20.710252
1592.433897	-3.009200	3.455400	-10.397000	25.948579	0.000263	20.715745
1593.439337	-3.017400	3.456400	-10.429000	25.937478	0.000263	20.732094
1594.435260	-2.982200	3.456800	-10.308000	25.935069	0.000261	20.716397
1595.433520	-2.993300	3.455300	-10.342000	25.978121	0.000262	20.728829
1596.434516	-2.996500	3.456700	-10.358000	26.011875	0.000263	20.729076
1597.433503	-2.983200	3.455900	-10.309000	25.995160	0.000263	20.704695
1598.437217	-3.000200	3.455200	-10.365000	25.992530	0.000262	20.726236
1599.433102	-2.981000	3.455800	-10.301000	25.963427	0.000261	20.722127
1600.435734	-3.007500	3.453400	-10.385000	26.036248	0.000261	20.741711
1601.432304	-3.015100	3.452200	-10.408000	26.039778	0.000262	20.727239
1602.436328	-3.037600	3.453000	-10.488000	26.036671	0.000260	20.740714
1603.433913	-3.006400	3.453600	-10.382000	26.031490	0.000260	20.723179
1604.436903	-3.008800	3.452500	-10.388000	25.990259	0.000257	20.713048
1605.436861	-3.012400	3.453100	-10.401000	25.957891	0.000259	20.744542
1606.437791	-3.005600	3.452000	-10.374000	25.949126	0.000259	20.736683
1607.438119	-3.005600	3.450600	-10.371000	25.927120	0.000258	20.712678
1608.435289	-3.010100	3.450300	-10.385000	25.941879	0.000259	20.710910
1609.439347	-3.008800	3.450200	-10.380000	25.934003	0.000257	20.726232
1610.436419	-2.962500	3.451200	-10.223000	25.943620	0.000257	20.703649
1611.437366	-2.974700	3.451900	-10.268000	25.969853	0.000258	20.718151
1612.437580	-2.973600	3.450500	-10.259000	25.967168	0.000257	20.728731
1613.439267	-2.980400	3.450400	-10.283000	25.945090	0.000258	20.736896
1614.437168	-2.996100	3.449500	-10.333000	25.901717	0.000257	20.733152
1615.436105	-2.968700	3.450200	-10.242000	25.930311	0.000256	20.712565
1616.438151	-2.978700	3.449700	-10.275000	25.937568	0.000257	20.720804
1617.437399	-3.017300	3.447400	-10.400000	25.922966	0.000257	20.724627
1618.438402	-3.000500	3.447300	-10.343000	25.980895	0.000257	20.718813
1619.436331	-2.981600	3.447500	-10.278000	25.981313	0.000258	20.715440
1620.441525	-3.006000	3.447100	-10.361000	25.989714	0.000254	20.731468
1621.437263	-3.014100	3.446800	-10.388000	25.979042	0.000254	20.735919
1622.437232	-2.989600	3.446800	-10.303000	25.942794	0.000254	20.724158
1623.441274	-3.010500	3.445600	-10.372000	25.981923	0.000254	20.731226
1624.440900	-3.012700	3.445000	-10.377000	26.029146	0.000254	20.704228
1625.444026	-2.988600	3.447100	-10.301000	26.055053	0.000253	20.730258
1626.444612	-2.994000	3.445600	-10.315000	25.974848	0.000255	20.730283
1627.439530	-3.010600	3.445400	-10.372000	25.987296	0.000251	20.739470
1628.439691	-2.982800	3.446300	-10.279000	25.971850	0.000252	20.743392
1629.444325	-2.976600	3.444800	-10.253000	25.965739	0.000251	20.724450
1630.441966	-2.995900	3.444700	-10.320000	25.999518	0.000250	20.728041
1631.442328	-3.004700	3.444500	-10.349000	25.994980	0.000251	20.741975
1632.445563	-3.004900	3.442600	-10.344000	26.021133	0.000252	20.748337
1633.449119	-3.019100	3.443600	-10.395000	26.044764	0.000253	20.737940
1634.441910	-2.997200	3.444300	-10.322000	26.021709	0.000253	20.738957
1635.449305	-2.991000	3.441900	-10.294000	26.034254	0.000250	20.729276
1636.446792	-2.980400	3.441300	-10.255000	26.040522	0.000248	20.743635
1637.444278	-3.000200	3.441500	-10.325000	26.068115	0.000250	20.739590
1638.447159	-2.986500	3.442600	-10.280000	26.100651	0.000248	20.758532
1639.443815	-2.985300	3.442200	-10.275000	26.051755	0.000248	20.752551
1640.446947	-2.999300	3.440800	-10.320000	26.022398	0.000249	20.733959
1641.447008	-2.995800	3.440200	-10.306000	26.010329	0.000246	20.760241
1642.445003	-3.007000	3.441300	-10.347000	26.066046	0.000249	20.723759
1643.444371	-2.982800	3.440000	-10.261000	26.106231	0.000249	20.758923
1644.446887	-3.015300	3.439800	-10.371000	26.058525	0.000246	20.753188
1645.445687	-2.985700	3.438800	-10.265000	26.046776	0.000247	20.752763
1646.447788	-2.985100	3.438700	-10.264000	26.030239	0.000247	20.751321
1647.445412	-2.976000	3.440400	-10.238000	26.032599	0.000246	20.751321
1648.447496	-3.000300	3.437400	-10.312000	26.032451	0.000246	20.737896
1649.447716	-2.996700	3.438400	-10.304000	26.025255	0.000246	20.748210
1650.449764	-2.985800	3.438700	-10.266000	25.997288	0.000247	20.725326
1651.449800	-3.013700	3.436600	-10.357000	26.019174	0.000245	20.763912
1652.447972	-3.001800	3.437300	-10.317000	26.047917	0.000244	20.736840
1653.456562	-3.003900	3.436300	-10.322000	26.085120	0.000244	20.754305
1654.450227	-3.009600	3.437000	-10.343000	26.071592	0.000245	20.757309
1655.455564	-3.011500	3.434300	-10.342000	25.992013	0.000244	20.739468
1656.454918	-2.986600	3.436200	-10.262000	25.988262	0.000243	20.726690
1657.451519	-2.992200	3.436000	-10.280000	25.995268	0.000246	20.755541
1658.454149	-2.993000	3.434500	-10.278000	26.047682	0.000242	20.747984
1659.454977	-2.984200	3.435800	-10.252000	26.121250	0.000242	20.750305
1660.452746	-3.009700	3.433700	-10.333000	26.109109	0.000243	20.749960
1661.452060	-3.001800	3.434200	-10.308000	26.091698	0.000242	20.755225
1662.457147	-3.009900	3.434500	-10.336000	26.033112	0.000242	20.761320
1663.452421	-2.993200	3.435200	-10.281000	25.979286	0.000241	20.752286
1664.454847	-3.005800	3.433400	-10.319000	25.972010	0.000241	20.756831
1665.456405	-3.008000	3.432800	-10.325000	25.957434	0.000238	20.753092
1666.453943	-3.032900	3.431400	-10.405000	25.950551	0.000241	20.772730
1667.455231	-3.010800	3.430600	-10.327000	25.928074	0.000240	20.753941
1668.457229	-3.025300	3.431100	-10.379000	25.924101	0.000239	20.761331
1669.456317	-3.002300	3.431600	-10.301000	25.903885	0.000240	20.770893
1670.455595	-2.997900	3.430500	-10.284000	25.884858	0.000238	20.770745
1671.461492	-2.993100	3.430800	-10.268000	25.944475	0.000238	20.781799
1672.454949	-2.997700	3.430000	-10.281000	25.993613	0.000239	20.756249
1673.456887	-2.993700	3.429600	-10.266000	25.991356	0.000236	20.761568
1674.459491	-2.958300	3.431100	-10.148000	26.044139	0.000239	20.754856
1675.459006	-2.994200	3.430200	-10.270000	26.033487	0.000237	20.759800
1676.463768	-3.011700	3.429800	-10.328000	26.051543	0.000235	20.760398
1677.462543	-2.990900	3.429900	-10.257000	26.057884	0.000238	20.768667
1678.461409	-2.998200	3.427700	-10.277000	26.040030	0.000235	20.773962
1679.462666	-3.003700	3.427900	-10.294000	26.007737	0.000236	20.773285
1680.463771	-2.995900	3.428900	-10.271000	26.007099	0.000234	20.764582
1681.459090	-3.019700	3.427400	-10.348000	25.995472	0.000234	20.754323
1682.462671	-3.015800	3.426800	-10.334000	26.047041	0.000234	20.758245
1683.462888	-2.986500	3.427900	-10.237000	26.032470	0.000234	20.764943
1684.458384	-2.979100	3.427100	-10.208000	26.038709	0.000232	20.757461
1685.463284	-2.999600	3.426800	-10.277000	26.091912	0.000234	20.765872
1686.463159	-2.993500	3.425400	-10.253000	26.067771	0.000235	20.778127
1687.464086	-3.003100	3.424600	-10.283000	26.093161	0.000233	20.795103
1688.462510	-2.992100	3.425200	-10.248000	26.108341	0.000233	20.798027
1689.468393	-3.003000	3.425000	-10.285000	26.110406	0.000230	20.774971
1690.459600	-2.991600	3.424400	-10.243000	26.126130	0.000234	20.778444
1691.462136	-3.001500	3.423600	-10.275000	26.153426	0.000233	20.784534
1692.461543	-3.003300	3.424100	-10.283000	26.120277	0.000232	20.767820
1693.459799	-3.001500	3.424100	-10.276000	26.121619	0.000230	20.786238
1694.464166	-2.987300	3.422900	-10.224000	26.137840	0.000232	20.789261
1695.463848	-2.981100	3.423300	-10.203000	26.153392	0.000232	20.754154
1696.460957	-3.011500	3.422000	-10.304000	26.138966	0.000231	20.779013
1697.460320	-3.008400	3.423000	-10.297000	26.198254	0.000231	20.775052
1698.466001	-2.988300	3.422100	-10.226000	26.169673	0.000232	20.775729
1699.466020	-3.006400	3.422800	-10.289000	26.174121	0.000231	20.778302
1700.462007	-3.025500	3.419900	-10.346000	26.161828	0.000229	20.783494
1701.469532	-2.985400	3.421800	-10.214000	26.181646	0.000229	20.782071
1702.463267	-2.977200	3.421100	-10.184000	26.176805	0.000230	20.771516
1703.463825	-3.008400	3.419900	-10.287000	26.169260	0.000228	20.773418
1704.463919	-3.010400	3.420300	-10.296000	26.141076	0.000231	20.788720
1705.462326	-3.026300	3.418800	-10.345000	26.105336	0.000228	20.774618
1706.462534	-3.001800	3.419600	-10.264000	26.083063	0.000226	20.781163
1707.464510	-3.012400	3.420100	-10.301000	26.044598	0.000227	20.796569
1708.460872	-3.018000	3.418500	-10.316000	26.030219	0.000229	20.789235
1709.463378	-3.002300	3.418600	-10.263000	26.022717	0.000228	20.790706
1710.467472	-3.013000	3.416900	-10.294000	26.035238	0.000227	20.796174
1711.462664	-3.010900	3.417300	-10.289000	26.048438	0.000225	20.795212
1712.464484	-3.009300	3.417300	-10.283000	26.070195	0.000226	20.784355
1713.467698	-3.001400	3.417500	-10.257000	26.054431	0.000227	20.799811
1714.465523	-2.982400	3.416600	-10.189000	26.059273	0.000225	20.774329
1715.464802	-3.026700	3.415300	-10.336000	26.050115	0.000224	20.775086
1716.467916	-3.015200	3.416600	-10.301000	26.019716	0.000223	20.792432
1717.464193	-3.007700	3.416400	-10.275000	25.988720	0.000224	20.814871
1718.467761	-3.007600	3.414600	-10.269000	26.048661	0.000224	20.795436
1719.469360	-3.007300	3.416200	-10.272000	26.083411	0.000224	20.815177
1720.464139	-3.027100	3.414100	-10.333000	26.085500	0.000224	20.770335
1721.465371	-3.015800	3.413600	-10.294000	26.042512	0.000221	20.792103
1722.468408	-3.003500	3.414300	-10.254000	26.097038	0.000224	20.787619
1723.464680	-3.006100	3.413500	-10.260000	26.090628	0.000223	20.803463
1724.465633	-3.003200	3.413200	-10.250000	26.052684	0.000219	20.790469
1725.471296	-3.002200	3.414100	-10.248000	26.004749	0.000221	20.797310
1726.465057	-2.990500	3.414100	-10.209000	26.063617	0.000220	20.807618
1727.470031	-3.017500	3.411700	-10.294000	26.084485	0.000221	20.785437
1728.471341	-3.015800	3.411000	-10.286000	26.073685	0.000220	20.809673
1729.466212	-2.999000	3.410800	-10.229000	26.080666	0.000221	20.798669
1730.467744	-2.993800	3.412400	-10.216000	26.102924	0.000219	20.812024
1731.470970	-3.014500	3.410200	-10.280000	26.071061	0.000221	20.796131
1732.468078	-3.010400	3.409900	-10.263000	26.129980	0.000219	20.806968
1733.472178	-2.993200	3.409700	-10.205000	26.168330	0.000220	20.798087
1734.471217	-3.008500	3.410600	-10.259000	26.128973	0.000221	20.814491
1735.469914	-2.989300	3.409500	-10.191000	26.131957	0.000220	20.842144
1736.473067	-3.002700	3.409100	-10.236000	26.178752	0.000220	20.800025
1737.470684	-3.003700	3.409600	-10.241000	26.136068	0.000218	20.796015
1738.471036	-2.981200	3.408500	-10.160000	26.113221	0.000217	20.812413
1739.471677	-2.977900	3.409300	-10.151000	26.092782	0.000217	20.808472
1740.474559	-3.012600	3.410000	-10.272000	26.086780	0.000219	20.814296
1741.469963	-2.993500	3.408200	-10.202000	26.081840	0.000213	20.827350
1742.473567	-2.983100	3.408200	-10.166000	26.109191	0.000219	20.816425
1743.475148	-3.020000	3.407700	-10.291000	26.146697	0.000216	20.816653
1744.472079	-2.990100	3.408200	-10.190000	26.181026	0.000217	20.811319
1745.473636	-3.025500	3.406300	-10.305000	26.232114	0.000216	20.808603
1746.475085	-2.985900	3.407400	-10.173000	26.193128	0.000215	20.811152
1747.470684	-2.985600	3.406000	-10.168000	26.172745	0.000214	20.808688
1748.472842	-2.982700	3.406800	-10.160000	26.204365	0.000217	20.803952
1749.475678	-2.999900	3.406100	-10.217000	26.218894	0.000213	20.833724
1750.473519	-2.981400	3.405200	-10.150000	26.159091	0.000212	20.811089
1751.475235	-3.023200	3.403500	-10.289000	26.175115	0.000213	20.810595
1752.478151	-2.994100	3.405600	-10.196000	26.232416	0.000214	20.801795
1753.472739	-2.982400	3.405500	-10.155000	26.199043	0.000212	20.811407
1754.477559	-2.979600	3.405000	-10.144000	26.193357	0.000212	20.809959
1755.479558	-3.004000	3.403400	-10.223000	26.197811	0.000213	20.825340
1756.476145	-2.991900	3.403300	-10.182000	26.173648	0.000211	20.831405
1757.478065	-2.989500	3.404100	-10.176000	26.178249	0.000209	20.819434
1758.479687	-3.007200	3.402100	-10.229000	26.135437	0.000212	20.826201
1759.479342	-3.004900	3.402100	-10.222000	26.130393	0.000212	20.834883
1760.482287	-3.021000	3.400700	-10.273000	26.116744	0.000211	20.840609
1761.482222	-3.012000	3.402000	-10.246000	26.100779	0.000211	20.840214
1762.479050	-3.004100	3.401100	-10.216000	26.146724	0.000207	20.841809
1763.481507	-3.015800	3.402200	-10.259000	26.112164	0.000210	20.831266
1764.481118	-2.986300	3.401400	-10.156000	26.117350	0.000209	20.831734
1765.480865	-2.985700	3.401900	-10.156000	26.103517	0.000208	20.840121
1766.484805	-3.004000	3.400100	-10.213000	26.139013	0.000210	20.818415
1767.490676	-2.995600	3.399400	-10.182000	26.161987	0.000208	20.830594
1768.483369	-2.995500	3.398700	-10.180000	26.199000	0.000208	20.826061
1769.481431	-3.004600	3.398100	-10.210000	26.175609	0.000210	20.818678
1770.485238	-3.007600	3.398200	-10.220000	26.215643	0.000207	20.814811
1771.483007	-3.002600	3.398700	-10.205000	26.246716	0.000207	20.838449
1772.488496	-3.008900	3.399600	-10.228000	26.232714	0.000205	20.823904
1773.485422	-3.027700	3.398200	-10.288000	26.220550	0.000203	20.847715
1774.487438	-3.018900	3.397100	-10.255000	26.158043	0.000206	20.819045
1775.484603	-3.018000	3.397600	-10.253000	26.120667	0.000204	20.839809
1776.488444	-2.997600	3.396400	-10.180000	26.128124	0.000203	20.835922
1777.482694	-3.015800	3.396000	-10.241000	26.142753	0.000204	20.820276
1778.488871	-2.967900	3.397200	-10.082000	26.140448	0.000204	20.833607
1779.492318	-2.989400	3.395400	-10.150000	26.235916	0.000204	20.828070
1780.483771	-2.982100	3.395300	-10.123000	26.242901	0.000203	20.819917
1781.487342	-3.006400	3.394500	-10.204000	26.239573	0.000203	20.818944
1782.488563	-3.002500	3.395400	-10.194000	26.255204	0.000203	20.828487
1783.484222	-2.982000	3.394600	-10.122000	26.215840	0.000204	20.809793
1784.484611	-2.973400	3.395200	-10.094000	26.156023	0.000202	20.824127
1785.488850	-3.008100	3.394400	-10.210000	26.203484	0.000201	20.797377
1786.483724	-3.005700	3.393600	-10.199000	26.225219	0.000201	20.826330
1787.486779	-2.999600	3.392500	-10.175000	26.205653	0.000202	20.817100
1788.487246	-2.986200	3.394100	-10.135000	26.190461	0.000204	20.792351
1789.485059	-2.981800	3.393400	-10.118000	26.161113	0.000200	20.800318
1790.490970	-2.982900	3.393400	-10.121000	26.155450	0.000199	20.800318
1791.489363	-2.983600	3.394400	-10.126000	26.159610	0.000202	20.825361
1792.488131	-3.010900	3.392100	-10.213000	26.196887	0.000200	20.816352
1793.488111	-3.021300	3.391500	-10.246000	26.227219	0.000202	20.794676
1794.493002	-2.976700	3.392500	-10.097000	26.232936	0.000200	20.814171
1795.488960	-2.982500	3.391600	-10.114000	26.209969	0.000199	20.795832
1796.494476	-3.005800	3.390500	-10.191000	26.149846	0.000200	20.795635
1797.490239	-3.000700	3.390400	-10.172000	26.140733	0.000198	20.820143
1798.491161	-3.006200	3.390800	-10.192000	26.174217	0.000200	20.802106
1799.489825	-2.984900	3.389500	-10.116000	26.232707	0.000198	20.835277
1800.494658	-3.007300	3.389000	-10.191000	26.299682	0.000200	20.815813
1801.489840	-2.987000	3.389500	-10.123000	26.329270	0.000196	20.801452
1802.490096	-2.998500	3.389600	-10.162000	26.345856	0.000196	20.796310
1803.497389	-3.022000	3.388200	-10.238000	26.255097	0.000196	20.811310
1804.492139	-2.993000	3.388100	-10.140000	26.236903	0.000198	20.800613
1805.492365	-2.987800	3.388200	-10.123000	26.167265	0.000196	20.803656
1806.493200	-2.994800	3.387700	-10.144000	26.164966	0.000197	20.786647
1807.497281	-3.022600	3.386900	-10.237000	26.174600	0.000197	20.793956
1808.495043	-3.002900	3.386400	-10.169000	26.197794	0.000194	20.787866
1809.497004	-2.981600	3.388100	-10.101000	26.183614	0.000194	20.775513
1810.496601	-2.994400	3.387200	-10.141000	26.204210	0.000196	20.791942
1811.496689	-3.006900	3.385300	-10.178000	26.178637	0.000194	20.775253
1812.496588	-3.005800	3.385400	-10.175000	26.204117	0.000193	20.796116
1813.499270	-3.003900	3.385200	-10.168000	26.204687	0.000194	20.787680
1814.497248	-3.003000	3.384900	-10.164000	26.234223	0.000192	20.799817
1815.497447	-3.005800	3.385100	-10.174000	26.237771	0.000193	20.773510
1816.496401	-3.020000	3.383700	-10.218000	26.221611	0.000193	20.800894
1817.499511	-3.006900	3.383400	-10.172000	26.228291	0.000193	20.764458
1818.498455	-3.017600	3.383100	-10.208000	26.211512	0.000191	20.786952
1819.501096	-2.986900	3.384500	-10.108000	26.215925	0.000192	20.780006
1820.498055	-2.981000	3.384500	-10.089000	26.221273	0.000191	20.786804
1821.500565	-3.007500	3.383300	-10.174000	26.254326	0.000191	20.774500
1822.499394	-3.007100	3.382000	-10.169000	26.241464	0.000191	20.771058
1823.498703	-3.014400	3.381100	-10.191000	26.296649	0.000189	20.783841
1824.500257	-3.000100	3.381000	-10.143000	26.303707	0.000189	20.795676
1825.501923	-2.989400	3.381700	-10.108000	26.265116	0.000189	20.783921
1826.501818	-2.981300	3.381300	-10.080000	26.323351	0.000190	20.761838
1827.502491	-3.024400	3.379900	-10.221000	26.334772	0.000189	20.793231
1828.507435	-3.012500	3.379300	-10.179000	26.382949	0.000190	20.775268
1829.501584	-3.015200	3.378500	-10.185000	26.417767	0.000187	20.779917
1830.500266	-3.002800	3.380100	-10.148000	26.381656	0.000186	20.768753
1831.502947	-3.006900	3.380100	-10.164000	26.341309	0.000187	20.786051
1832.503511	-3.020400	3.379400	-10.206000	26.288975	0.000186	20.778974
1833.503631	-2.982000	3.379700	-10.078000	26.210449	0.000185	20.772133
1834.502518	-3.002100	3.377100	-10.137000	26.220958	0.000187	20.772736
1835.505008	-3.000600	3.378000	-10.135000	26.228268	0.000186	20.779134
1836.506051	-3.000900	3.377600	-10.134000	26.251044	0.000186	20.776418
1837.503490	-2.985800	3.377800	-10.084000	26.212605	0.000186	20.781412
1838.506366	-3.012200	3.377100	-10.171000	26.254893	0.000184	20.765586
1839.505491	-3.007500	3.377700	-10.158000	26.290659	0.000185	20.789201
1840.505417	-2.998700	3.376100	-10.123000	26.303624	0.000186	20.758134
1841.505102	-2.979400	3.376200	-10.057000	26.320713	0.000184	20.773886
1842.508691	-2.994100	3.375500	-10.106000	26.298391	0.000182	20.782273
1843.506854	-3.003000	3.376000	-10.138000	26.266215	0.000186	20.754678
1844.506583	-3.036800	3.374700	-10.248000	26.275008	0.000183	20.758299
1845.508379	-3.001700	3.375000	-10.130000	26.276300	0.000183	20.762918
1846.510976	-2.988900	3.373400	-10.081000	26.286711	0.000181	20.772431
1847.507646	-2.975300	3.374400	-10.038000	26.267568	0.000182	20.762677
1848.507812	-2.990400	3.374800	-10.091000	26.249338	0.000182	20.762849
1849.510945	-3.008000	3.373000	-10.145000	26.273113	0.000179	20.766353
1850.509253	-2.983200	3.372700	-10.061000	26.220991	0.000179	20.770872
1851.509759	-3.003200	3.373700	-10.131000	26.229189	0.000179	20.749239
1852.513374	-2.999000	3.373000	-10.115000	26.299644	0.000181	20.762669
1853.509092	-3.012600	3.371900	-10.157000	26.321047	0.000178	20.745298
1854.509953	-2.994500	3.372600	-10.098000	26.362669	0.000179	20.761050
1855.513603	-3.009400	3.372400	-10.148000	26.361553	0.000179	20.771309
1856.509622	-2.972900	3.372200	-10.024000	26.342731	0.000180	20.754288
1857.511263	-3.019700	3.371100	-10.178000	26.342289	0.000180	20.763328
1858.514930	-2.987200	3.371500	-10.070000	26.362399	0.000177	20.761727
1859.513839	-2.992200	3.370400	-10.084000	26.332308	0.000176	20.759460
1860.510401	-2.991200	3.370000	-10.078000	26.338196	0.000177	20.752101
1861.516302	-2.983300	3.371600	-10.058000	26.374720	0.000179	20.768894
1862.511958	-2.959500	3.371000	-9.975900	26.410904	0.000177	20.760691
1863.512625	-3.006300	3.369500	-10.128000	26.455519	0.000176	20.745315
1864.516396	-2.993000	3.369300	-10.083000	26.469652	0.000177	20.760944
1865.515471	-3.020500	3.368100	-10.173000	26.454906	0.000176	20.747069
1866.515666	-3.018500	3.369500	-10.170000	26.459721	0.000175	20.746694
1867.522770	-2.998700	3.367800	-10.097000	26.450592	0.000177	20.745105
1868.514424	-3.009500	3.368200	-10.135000	26.437512	0.000175	20.754717
1869.516813	-2.979600	3.368200	-10.035000	26.400090	0.000173	20.749822
1870.522668	-2.983700	3.368400	-10.049000	26.394233	0.000174	20.748202
1871.516038	-2.982800	3.367800	-10.045000	26.394342	0.000174	20.745467
1872.521789	-2.982500	3.367400	-10.042000	26.395727	0.000176	20.747807
1873.521943	-2.995000	3.366000	-10.081000	26.360803	0.000174	20.744475
1874.517850	-2.984100	3.365700	-10.043000	26.310070	0.000173	20.751810
1875.516985	-2.993000	3.365100	-10.071000	26.290107	0.000172	20.750239
1876.524940	-2.987800	3.366100	-10.056000	26.256681	0.000171	20.740355
1877.516992	-2.992000	3.364900	-10.067000	26.321282	0.000173	20.740792
1878.520519	-2.968700	3.365100	-9.989000	26.332207	0.000173	20.733753
1879.522364	-3.001700	3.363700	-10.096000	26.395131	0.000173	20.756218
1880.522042	-3.006100	3.364300	-10.112000	26.402753	0.000174	20.748705
1881.522810	-3.004500	3.362400	-10.100000	26.450902	0.000171	20.748261
1882.521329	-3.017000	3.363900	-10.148000	26.479507	0.000170	20.735286
1883.523267	-2.996100	3.362500	-10.074000	26.467640	0.000170	20.743747
1884.526374	-3.003300	3.363800	-10.101000	26.454756	0.000169	20.739332
1885.526085	-3.004000	3.361500	-10.098000	26.467247	0.000170	20.739559
1886.520885	-2.979700	3.363400	-10.021000	26.467970	0.000169	20.738389
1887.522397	-3.001800	3.360900	-10.088000	26.401557	0.000168	20.747503
1888.525393	-2.998700	3.361700	-10.081000	26.437858	0.000168	20.735624
1889.522962	-2.997700	3.361000	-10.074000	26.443102	0.000167	20.743740
1890.524359	-3.005800	3.361600	-10.104000	26.478415	0.000168	20.750784
1891.524219	-2.993600	3.361300	-10.061000	26.532962	0.000168	20.734964
1892.522265	-3.016000	3.361000	-10.136000	26.516679	0.000167	20.741830
1893.521338	-2.993100	3.359300	-10.054000	26.487064	0.000165	20.744780
1894.525749	-2.988100	3.361000	-10.042000	26.460347	0.000166	20.749220
1895.522044	-3.029000	3.356400	-10.165000	26.446501	0.000167	20.736250
1896.523490	-3.017900	3.357400	-10.131000	26.425229	0.000165	20.730517
1897.526709	-3.003400	3.358600	-10.087000	26.396482	0.000165	20.737660
1898.522849	-2.989800	3.359300	-10.043000	26.418508	0.000166	20.762169
1899.522261	-3.011300	3.357700	-10.110000	26.413569	0.000163	20.738713
1900.526958	-2.987000	3.358500	-10.030000	26.378959	0.000165	20.748024
1901.522364	-3.022500	3.357100	-10.146000	26.428083	0.000165	20.731963
1902.522860	-3.010200	3.356300	-10.103000	26.455144	0.000164	20.746835
1903.525362	-2.985600	3.356700	-10.021000	26.467292	0.000163	20.742924
1904.522923	-2.985300	3.356600	-10.019000	26.503744	0.000164	20.749217
1905.527692	-3.007900	3.357000	-10.096000	26.478075	0.000164	20.733372
1906.529491	-3.007400	3.354300	-10.087000	26.539079	0.000162	20.722620
1907.524460	-3.005700	3.355100	-10.082000	26.518832	0.000163	20.736408
1908.527463	-3.005200	3.353800	-10.078000	26.485046	0.000163	20.732319
1909.531484	-3.037600	3.354500	-10.189000	26.420600	0.000161	20.697413
1910.525939	-3.014700	3.354400	-10.112000	26.415907	0.000162	20.715931
1911.524695	-3.020200	3.353200	-10.127000	26.410129	0.000162	20.723875
1912.529609	-3.006000	3.353700	-10.080000	26.455166	0.000162	20.740693
1913.524694	-3.009400	3.353500	-10.091000	26.496183	0.000160	20.719330
1914.527728	-2.986900	3.354200	-10.017000	26.470489	0.000161	20.723376
1915.529220	-3.027600	3.351500	-10.145000	26.436008	0.000159	20.740877
1916.525052	-3.003600	3.353100	-10.071000	26.416568	0.000161	20.699525
1917.528059	-3.004500	3.352500	-10.071000	26.383177	0.000158	20.721916
1918.528356	-3.003100	3.352200	-10.067000	26.403714	0.000157	20.716478
1919.527679	-2.974800	3.353600	-9.975400	26.448083	0.000161	20.701329
1920.530745	-3.020000	3.350700	-10.119000	26.510707	0.000159	20.715437
1921.533350	-2.985400	3.352200	-10.007000	26.468233	0.000157	20.713522
1922.527455	-3.016100	3.349600	-10.102000	26.480418	0.000158	20.723400
1923.528852	-3.020800	3.348600	-10.115000	26.467491	0.000159	20.733166
1924.527748	-2.982600	3.351200	-9.994800	26.430027	0.000157	20.718269
1925.528011	-3.020800	3.349600	-10.117000	26.447507	0.000156	20.723510
1926.529748	-3.019400	3.349700	-10.113000	26.426131	0.000153	20.720991
1927.533782	-2.985400	3.350100	-9.999700	26.396287	0.000155	20.714230
1928.533476	-2.977000	3.349700	-9.971200	26.418141	0.000154	20.713435
1929.530716	-2.979600	3.348300	-9.976000	26.436944	0.000153	20.710996
1930.531786	-3.011800	3.347600	-10.082000	26.390619	0.000154	20.703316
1931.530244	-3.008100	3.348200	-10.071000	26.401991	0.000154	20.721385
1932.530192	-3.008200	3.347900	-10.069000	26.393952	0.000154	20.709511
1933.529767	-3.021500	3.345600	-10.108000	26.437280	0.000155	20.711808
1934.531431	-3.021600	3.347000	-10.113000	26.470633	0.000153	20.709770
1935.531653	-2.973100	3.346900	-9.948700	26.467184	0.000153	20.697293
1936.532443	-2.985900	3.346500	-9.991700	26.444546	0.000153	20.737131
1937.533335	-2.987800	3.347300	-10.000000	26.504536	0.000153	20.712553
1938.534991	-3.000100	3.345500	-10.036000	26.552405	0.000151	20.701874
1939.533442	-2.999700	3.345500	-10.033000	26.616112	0.000153	20.691473
1940.534212	-3.004200	3.346400	-10.052000	26.582844	0.000151	20.696911
1941.536548	-2.997600	3.345200	-10.026000	26.608994	0.000152	20.705655
1942.538326	-3.000300	3.344500	-10.032000	26.625135	0.000150	20.697698
1943.533756	-3.008700	3.343200	-10.057000	26.617662	0.000148	20.706782
1944.536343	-3.006500	3.344200	-10.053000	26.628982	0.000149	20.693505
1945.534088	-3.003900	3.342900	-10.039000	26.649545	0.000150	20.696633
1946.537055	-2.997200	3.343400	-10.020000	26.644038	0.000149	20.690148
1947.534572	-3.003700	3.342600	-10.039000	26.631187	0.000149	20.696669
1948.539760	-3.004100	3.342000	-10.039000	26.601447	0.000150	20.699964
1949.537819	-3.000000	3.343100	-10.029000	26.564214	0.000149	20.704263
1950.538742	-3.019200	3.341000	-10.086000	26.568833	0.000148	20.696577
1951.537372	-2.964600	3.341800	-9.906500	26.570873	0.000147	20.703844
1952.537774	-3.003600	3.341800	-10.036000	26.583480	0.000147	20.707508
1953.535972	-2.984400	3.340900	-9.969100	26.562958	0.000145	20.701577
1954.539139	-2.982000	3.341800	-9.964300	26.538307	0.000147	20.692444
1955.542331	-3.013000	3.338700	-10.059000	26.575406	0.000145	20.681846
1956.539016	-2.984200	3.340400	-9.967500	26.601997	0.000145	20.703837
1957.545287	-3.015100	3.340000	-10.069000	26.596386	0.000143	20.684919
1958.544210	-3.017500	3.338100	-10.072000	26.604778	0.000144	20.709478
1959.539139	-3.002600	3.339000	-10.025000	26.619896	0.000143	20.691958
1960.538372	-3.016600	3.337700	-10.068000	26.649391	0.000142	20.707384
1961.541613	-2.992200	3.338500	-9.988800	26.659454	0.000145	20.688576
1962.539239	-2.997000	3.337700	-10.002000	26.647271	0.000142	20.697666
1963.542711	-3.013600	3.337900	-10.058000	26.591614	0.000144	20.680121
1964.541728	-2.966600	3.339000	-9.904300	26.593231	0.000143	20.681272
1965.537686	-2.988800	3.336900	-9.972600	26.568281	0.000143	20.690331
1966.544177	-2.990000	3.336600	-9.975600	26.549744	0.000141	20.668850
1967.540224	-3.024300	3.337300	-10.092000	26.602750	0.000138	20.701749
1968.540062	-2.999900	3.337100	-10.010000	26.641035	0.000142	20.693767
1969.544265	-2.995100	3.338200	-9.997900	26.562957	0.000141	20.691618
1970.543796	-3.012300	3.334900	-10.044000	26.564274	0.000138	20.692942
1971.539838	-3.013400	3.334600	-10.048000	26.564060	0.000140	20.698417
1972.545126	-2.993100	3.336700	-9.985800	26.562252	0.000138	20.695177
1973.543659	-3.014600	3.334200	-10.050000	26.504882	0.000140	20.690140
1974.540071	-3.014000	3.333700	-10.047000	26.556543	0.000139	20.673315
1975.542535	-2.999300	3.333400	-9.996900	26.528743	0.000137	20.682356
1976.544054	-2.965800	3.334000	-9.886200	26.545780	0.000138	20.678143
1977.542123	-3.010600	3.333100	-10.034000	26.587938	0.000138	20.669312
1978.542048	-3.020900	3.331200	-10.062000	26.643350	0.000138	20.679024
1979.549066	-3.003500	3.331700	-10.006000	26.660458	0.000135	20.683895
1980.544689	-2.998200	3.332300	-9.990000	26.697277	0.000136	20.654525
1981.546859	-3.018400	3.332100	-10.056000	26.768620	0.000136	20.684529
1982.551802	-3.021100	3.330800	-10.062000	26.715303	0.000133	20.679288
1983.545355	-3.007100	3.331000	-10.016000	26.676886	0.000137	20.687608
1984.546458	-3.021700	3.331600	-10.065000	26.586406	0.000134	20.681049
1985.548648	-2.984500	3.331500	-9.941500	26.599313	0.000133	20.697345
1986.549007	-3.000100	3.330400	-9.990400	26.589665	0.000132	20.682903
1987.547451	-3.013600	3.329600	-10.032000	26.622584	0.000135	20.689917
1988.548527	-2.962600	3.329500	-9.862700	26.658136	0.000131	20.669705
1989.545360	-3.005200	3.329500	-10.005000	26.650626	0.000133	20.680649
1990.548308	-3.006100	3.329300	-10.007000	26.647576	0.000133	20.691334
1991.558665	-2.993400	3.328100	-9.961900	26.632256	0.000132	20.673086
1992.550398	-3.017000	3.327400	-10.038000	26.641297	0.000133	20.652775
1993.546477	-3.003300	3.328400	-9.995100	26.664267	0.000131	20.682509
1994.546013	-3.007500	3.327000	-10.006000	26.664169	0.000131	20.685730
1995.552793	-3.007800	3.326200	-10.004000	26.618173	0.000131	20.682164
1996.548269	-2.983600	3.326100	-9.923100	26.612844	0.000129	20.679651
1997.550253	-3.004200	3.326600	-9.993000	26.643533	0.000131	20.664033
1998.547061	-2.993800	3.327400	-9.961600	26.711554	0.000131	20.667457
1999.548826	-3.000300	3.326800	-9.979800	26.709851	0.000129	20.678075
2000.549788	-2.994900	3.326000	-9.959800	26.689491	0.000127	20.673727
2001.553841	-3.012800	3.324600	-10.015000	26.727080	0.000127	20.664101
2002.549150	-3.006800	3.324600	-9.995500	26.705190	0.000129	20.658688
2003.550804	-2.982200	3.326100	-9.918300	26.744983	0.000129	20.657918
2004.558015	-3.009900	3.325100	-10.008000	26.780207	0.000128	20.664409
2005.553045	-3.007700	3.324400	-9.997500	26.804013	0.000128	20.681708
2006.551545	-2.994200	3.324600	-9.953600	26.812306	0.000126	20.674872
2007.551585	-3.006200	3.323100	-9.988400	26.838549	0.000126	20.669015
2008.551603	-3.015600	3.322100	-10.017000	26.826465	0.000124	20.683420
2009.558467	-3.007400	3.323000	-9.993000	26.763125	0.000125	20.664304
2010.556778	-3.009300	3.322000	-9.995800	26.789339	0.000126	20.673117
2011.552805	-3.016000	3.322000	-10.018000	26.813867	0.000126	20.682607
2012.553474	-2.994300	3.322000	-9.946500	26.860259	0.000124	20.679466
2013.553581	-2.995000	3.322300	-9.949200	26.781934	0.000125	20.686536
2014.553695	-3.004400	3.320200	-9.974200	26.768607	0.000124	20.678352
2015.558210	-2.996800	3.320400	-9.950000	26.710347	0.000125	20.683790
2016.554307	-2.994600	3.320600	-9.942900	26.712564	0.000122	20.659938
2017.555964	-3.031700	3.318100	-10.058000	26.688413	0.000123	20.676437
2018.557550	-2.999200	3.319700	-9.955200	26.649548	0.000124	20.677194
2019.561338	-2.979300	3.318700	-9.886500	26.671318	0.000123	20.658774
2020.560598	-2.981400	3.319800	-9.896800	26.677951	0.000120	20.688680
2021.559139	-2.998200	3.318300	-9.948000	26.709281	0.000123	20.656163
2022.562434	-2.980300	3.318800	-9.889400	26.698808	0.000120	20.671239
2023.558623	-3.005300	3.317900	-9.970300	26.737456	0.000123	20.657936
2024.559728	-2.993600	3.317600	-9.929800	26.755335	0.000120	20.675913
2025.559855	-3.026000	3.316300	-10.035000	26.744365	0.000121	20.676264
2026.561809	-3.017900	3.316100	-10.007000	26.739551	0.000119	20.675692
2027.559342	-2.999500	3.318100	-9.951600	26.702967	0.000119	20.656927
2028.567810	-3.011100	3.315300	-9.981800	26.714953	0.000119	20.668505
2029.561429	-2.982200	3.316000	-9.888300	26.689939	0.000118	20.693145
2030.562141	-2.976400	3.316500	-9.870200	26.686919	0.000117	20.702438
2031.564605	-2.990800	3.316000	-9.916800	26.672623	0.000117	20.673364
2032.560525	-2.978500	3.315000	-9.872700	26.740635	0.000115	20.665401
2033.560290	-2.981900	3.315400	-9.884900	26.764773	0.000117	20.674023
2034.561172	-2.987700	3.314600	-9.900900	26.745186	0.000116	20.686574
2035.561590	-2.997800	3.314500	-9.935000	26.782517	0.000115	20.690441
2036.563046	-3.012600	3.312900	-9.979400	26.821248	0.000115	20.693348
2037.566082	-3.024400	3.313400	-10.020000	26.836657	0.000114	20.667113
2038.561702	-2.995900	3.313500	-9.925900	26.806188	0.000115	20.684844
2039.564425	-3.026100	3.312400	-10.022000	26.771639	0.000116	20.680927
2040.565905	-2.994300	3.312900	-9.919000	26.805080	0.000113	20.687523
2041.563816	-2.980000	3.312800	-9.871500	26.806966	0.000113	20.694161
2042.564484	-3.001700	3.311700	-9.940200	26.803402	0.000115	20.677774
2043.568477	-2.957100	3.311600	-9.792300	26.835739	0.000111	20.686106
2044.566146	-3.013400	3.310700	-9.975400	26.897697	0.000111	20.673014
2045.569770	-3.004200	3.311200	-9.946800	26.917900	0.000112	20.684320
2046.571913	-2.992900	3.309200	-9.902200	26.907710	0.000114	20.677392
2047.567495	-2.971500	3.309900	-9.833600	26.897036	0.000113	20.694636
2048.572192	-2.995700	3.311000	-9.917900	26.833902	0.000110	20.672878
2049.571651	-2.997100	3.307500	-9.912000	26.791214	0.000110	20.684961
2050.569736	-3.009700	3.308900	-9.958000	26.799415	0.000109	20.684198
2051.573086	-3.027300	3.307600	-10.012000	26.804009	0.000110	20.675065
2052.572362	-3.004500	3.308600	-9.940400	26.871101	0.000110	20.690369
2053.571708	-2.959500	3.310000	-9.795000	26.865271	0.000110	20.684506
2054.573659	-2.984100	3.307100	-9.867100	26.863715	0.000110	20.686261
2055.580648	-2.998300	3.307600	-9.916400	26.884690	0.000108	20.685067
2056.574353	-3.026600	3.305500	-10.003000	26.901372	0.000109	20.691410
2057.576078	-3.011000	3.306000	-9.953300	26.925647	0.000109	20.691638
2058.575572	-2.990300	3.306700	-9.886700	26.948483	0.000108	20.666708
2059.575520	-3.017500	3.305000	-9.971700	27.000282	0.000105	20.666641
2060.576639	-3.004400	3.305700	-9.931300	27.015492	0.000108	20.681464
2061.575728	-2.995600	3.305300	-9.901000	26.979689	0.000107	20.687186
2062.575448	-2.995500	3.304100	-9.897000	26.944981	0.000107	20.686422
2063.578164	-3.011600	3.305200	-9.953200	26.905666	0.000106	20.687666
2064.576723	-3.021900	3.304100	-9.983400	26.849061	0.000108	20.711358
2065.580204	-3.023100	3.303100	-9.983800	26.881850	0.000105	20.699755
2066.578725	-2.981700	3.304800	-9.853100	26.900540	0.000105	20.678244
2067.582465	-2.980900	3.303000	-9.845400	26.916401	0.000102	20.686133
2068.581347	-2.993200	3.301700	-9.881500	26.916757	0.000106	20.676058
2069.581098	-3.002300	3.301800	-9.912400	26.834461	0.000103	20.714696
2070.578661	-3.036300	3.300400	-10.020000	26.793084	0.000101	20.700119
2071.581333	-2.986300	3.302500	-9.861400	26.808304	0.000104	20.681281
2072.590667	-3.011600	3.301400	-9.942100	26.820296	0.000104	20.696184
2073.581480	-2.992700	3.301700	-9.880100	26.745061	0.000101	20.695932
2074.580153	-3.034900	3.298900	-10.010000	26.702401	0.000102	20.680542
2075.581728	-3.001600	3.300500	-9.905500	26.708930	0.000101	20.693271
2076.584034	-2.996800	3.300100	-9.889100	26.767588	0.000102	20.716211
2077.582482	-3.017900	3.299800	-9.957900	26.796509	0.000103	20.686966
2078.581948	-3.001700	3.298400	-9.900500	26.795921	0.000102	20.691117
2079.584943	-2.984500	3.298800	-9.844500	26.823175	0.000100	20.705244
2080.582414	-3.003300	3.299600	-9.908900	26.863614	9.991483E-5	20.700859
2081.585846	-3.019400	3.297300	-9.955300	26.858225	9.974981E-5	20.701130
2082.581469	-2.993800	3.298200	-9.872900	26.855573	0.000100	20.693722
2083.585019	-3.009600	3.297500	-9.922800	26.883426	9.984882E-5	20.698495
2084.581887	-3.028800	3.296700	-9.984400	26.904002	9.750565E-5	20.664180
2085.585839	-3.010500	3.295700	-9.921300	26.939147	9.846272E-5	20.713275
2086.582992	-3.019300	3.295500	-9.949800	26.896384	9.687860E-5	20.690661
2087.581635	-3.022300	3.295300	-9.958300	26.934481	9.767066E-5	20.706211
2088.581602	-3.004400	3.296900	-9.904800	26.973991	9.648258E-5	20.702319
2089.584084	-3.000600	3.296300	-9.889700	27.011386	9.572352E-5	20.708157
2090.582992	-2.991600	3.295200	-9.857000	26.997046	9.747265E-5	20.706538
2091.584714	-2.982800	3.296100	-9.830300	26.995515	9.598754E-5	20.708318
2092.583055	-3.030500	3.294400	-9.982500	27.038323	9.588853E-5	20.703477
2093.581884	-3.001300	3.293400	-9.884000	27.061174	9.430442E-5	20.700854
2094.586811	-2.996700	3.293800	-9.870000	27.048524	9.311633E-5	20.700934
2095.584228	-2.984100	3.293800	-9.828600	27.022868	9.486546E-5	20.697418
2096.584846	-2.997400	3.292700	-9.868600	26.954647	9.371037E-5	20.715585
2097.589024	-3.011500	3.292800	-9.915100	26.938744	9.354536E-5	20.719508
2098.586051	-3.003400	3.291800	-9.885800	26.974548	9.285231E-5	20.709519
2099.584759	-2.993400	3.291600	-9.851900	26.987114	9.153221E-5	20.709353
2100.584903	-2.994100	3.292300	-9.856800	27.037239	9.308333E-5	20.697646
2101.585428	-2.996900	3.292100	-9.864700	27.088826	9.265430E-5	20.713965
2102.584862	-3.019900	3.290100	-9.934300	27.106870	9.324834E-5	20.715043
2103.585868	-2.992800	3.289000	-9.841600	27.084356	9.288531E-5	20.692873
2104.586886	-2.969500	3.290800	-9.770600	27.089604	9.120219E-5	20.697677
2105.585306	-2.995400	3.290000	-9.854100	27.144830	9.027812E-5	20.715764
2106.585814	-2.989200	3.289900	-9.833500	27.152429	9.011311E-5	20.715345
2107.584838	-3.002900	3.289300	-9.876000	27.123291	8.932105E-5	20.714489
2108.586962	-3.004600	3.288700	-9.880400	27.122973	8.852899E-5	20.718436
2109.586799	-3.023400	3.287500	-9.938400	27.099180	8.879301E-5	20.729595
2110.587656	-3.006900	3.287300	-9.883800	27.087069	8.951907E-5	20.714095
2111.586758	-2.986100	3.287100	-9.815200	27.102400	8.809996E-5	20.714815
2112.585536	-3.007500	3.287100	-9.885500	27.090044	8.984909E-5	20.709026
2113.588636	-3.008200	3.286300	-9.885100	27.044563	8.918904E-5	20.719711
2114.587892	-3.003600	3.286700	-9.871100	26.995528	8.839698E-5	20.707856
2115.591087	-2.979700	3.286300	-9.790800	26.981554	8.618582E-5	20.709926
2116.594237	-2.988600	3.286000	-9.819600	26.988847	8.526176E-5	20.737176
2117.592016	-3.000200	3.284100	-9.851500	27.043026	8.519575E-5	20.718640
2118.588615	-3.006300	3.284100	-9.872400	27.012918	8.519575E-5	20.709698
2119.592348	-2.984200	3.284200	-9.799800	27.011601	8.592180E-5	20.722125
2120.589022	-3.007700	3.283700	-9.874600	27.089744	8.582280E-5	20.715837
2121.589531	-2.986600	3.284700	-9.809000	27.107684	8.473372E-5	20.738623
2122.592145	-2.993600	3.282300	-9.825400	27.105645	8.427168E-5	20.736572
2123.590125	-2.992800	3.283700	-9.826400	27.145522	8.338062E-5	20.715985
2124.590278	-3.007100	3.282100	-9.869200	27.199411	8.456870E-5	20.735574
2125.594915	-2.971100	3.282700	-9.751400	27.165071	8.453570E-5	20.717155
2126.591293	-2.992700	3.280800	-9.817900	27.187822	8.364464E-5	20.727710
2127.591769	-2.976500	3.281700	-9.767300	27.132438	8.262156E-5	20.732224
2128.597418	-2.992900	3.281100	-9.818600	27.179752	8.278657E-5	20.727180
2129.591273	-2.999700	3.281600	-9.843300	27.131293	8.133447E-5	20.733443
2130.593080	-2.983600	3.280100	-9.785500	27.127203	8.291858E-5	20.731701
2131.596431	-2.994500	3.279900	-9.819700	27.121595	8.268757E-5	20.738863
2132.593838	-3.001700	3.278600	-9.840600	27.099632	8.288558E-5	20.728628
2133.596275	-3.014700	3.279100	-9.884600	27.127497	8.219253E-5	20.724409
2134.596856	-2.992600	3.278700	-9.810300	27.156052	8.278657E-5	20.710929
2135.594530	-2.988000	3.278200	-9.794000	27.125635	7.866127E-5	20.730598
2136.599336	-3.000400	3.278700	-9.836200	27.183254	7.991536E-5	20.732600
2137.597604	-3.021000	3.276200	-9.897100	27.260142	8.130147E-5	20.732649
2138.603173	-2.998900	3.278200	-9.830200	27.264727	8.156549E-5	20.755280
2139.597427	-3.007400	3.276600	-9.853500	27.240435	8.008038E-5	20.741276
2140.601657	-2.995100	3.275400	-9.809600	27.185581	7.882628E-5	20.739207
2141.596828	-3.018200	3.276100	-9.885900	27.233015	7.918931E-5	20.745193
2142.597675	-2.987500	3.276200	-9.787100	27.210565	7.945333E-5	20.740630
2143.599936	-2.975700	3.276300	-9.748700	27.216571	7.816624E-5	20.736239
2144.597404	-2.991400	3.276100	-9.799100	27.181209	7.763820E-5	20.732913
2145.603331	-2.998400	3.274300	-9.816700	27.231081	7.757219E-5	20.736608
2146.603509	-2.985600	3.274400	-9.774800	27.229942	7.714316E-5	20.722186
2147.599161	-2.990600	3.273700	-9.790000	27.238886	7.770420E-5	20.749201
2148.600682	-3.006100	3.273300	-9.838800	27.251069	7.747319E-5	20.762878
2149.604620	-2.986800	3.272400	-9.773300	27.265859	7.783621E-5	20.759264
2150.599178	-3.028700	3.270800	-9.905500	27.269159	7.664813E-5	20.755471
2151.599741	-3.018200	3.271000	-9.871100	27.291479	7.513001E-5	20.757533
2152.606644	-3.020100	3.272100	-9.881400	27.264065	7.278684E-5	20.748450
2153.599521	-3.009300	3.271900	-9.845600	27.221395	7.687914E-5	20.750101
2154.602664	-3.022400	3.270600	-9.884000	27.225111	7.532803E-5	20.759054
2155.606174	-2.998300	3.271600	-9.808100	27.220177	7.575706E-5	20.755039
2156.600890	-3.031200	3.269000	-9.907700	27.201198	7.460198E-5	20.753968
2157.602895	-2.992000	3.270400	-9.784500	27.224064	7.308386E-5	20.765588
2158.608611	-3.006400	3.269400	-9.828800	27.279688	7.446997E-5	20.761794
2159.599771	-3.001800	3.269700	-9.813900	27.285400	7.136774E-5	20.754263
2160.601808	-2.977600	3.269800	-9.735200	27.232678	7.397493E-5	20.750544
2161.606432	-3.007900	3.268800	-9.831300	27.215456	7.347989E-5	20.775896
2162.602080	-2.987300	3.269200	-9.764800	27.287010	7.265483E-5	20.750667
2163.609797	-3.002400	3.268100	-9.811500	27.316008	7.143374E-5	20.759448
2164.606348	-2.998300	3.266800	-9.793300	27.342202	7.239081E-5	20.772996
2165.604091	-2.997500	3.267900	-9.794600	27.337690	7.166476E-5	20.755655
2166.605930	-3.004100	3.266000	-9.809800	27.333791	7.083970E-5	20.774966
2167.605736	-3.024600	3.265900	-9.877200	27.385509	7.017965E-5	20.750180
2168.600729	-3.012900	3.267000	-9.842300	27.415594	7.041067E-5	20.756738
2169.604938	-3.000100	3.265100	-9.794500	27.376058	7.037767E-5	20.770070
2170.606768	-3.025000	3.264700	-9.874900	27.363448	7.041067E-5	20.774929
2171.605131	-3.004200	3.264800	-9.807500	27.332242	6.922258E-5	20.751596
2172.607266	-3.000300	3.264000	-9.792100	27.315224	7.004764E-5	20.778574
2173.611306	-3.027200	3.262700	-9.875300	27.304652	6.922258E-5	20.774578
2174.603928	-3.016000	3.263200	-9.840100	27.274710	6.998164E-5	20.760581
2175.607149	-2.999700	3.263900	-9.789800	27.301272	6.961861E-5	20.776394
2176.611012	-2.996600	3.264000	-9.780100	27.355521	6.955261E-5	20.766005
2177.603441	-2.999600	3.261500	-9.782500	27.354958	6.714343E-5	20.769707
2178.607473	-3.007700	3.263000	-9.813400	27.351530	6.819951E-5	20.760094
2179.609987	-2.993800	3.261900	-9.764400	27.309377	6.671440E-5	20.774115
2180.609438	-3.021300	3.261300	-9.853100	27.317415	6.777048E-5	20.798322
2181.609380	-3.006500	3.261500	-9.804900	27.327338	6.582333E-5	20.779380
2182.609996	-2.985600	3.260100	-9.732700	27.339617	6.549331E-5	20.789362
2183.606530	-3.002300	3.259000	-9.784400	27.372116	6.823251E-5	20.799769
2184.610505	-3.046300	3.258300	-9.924900	27.396870	6.404120E-5	20.784368
2185.611580	-2.999700	3.257800	-9.771700	27.444001	6.489927E-5	20.777730
2186.607428	-3.011700	3.258400	-9.812900	27.492269	6.489927E-5	20.785514
2187.609262	-2.983600	3.259600	-9.724700	27.496657	6.536130E-5	20.768592
2188.611040	-3.015400	3.257300	-9.820800	27.438039	6.437123E-5	20.784534
2189.610431	-3.012600	3.257000	-9.811100	27.419903	6.463525E-5	20.761547
2190.610718	-3.004400	3.257800	-9.786800	27.425393	6.519629E-5	20.768493
2191.611723	-2.996700	3.256400	-9.757000	27.402935	6.288612E-5	20.791419
2192.612079	-3.004200	3.255300	-9.779100	27.374723	6.235808E-5	20.776787
2193.611624	-3.004600	3.255100	-9.779600	27.367530	6.232508E-5	20.793734
2194.613012	-3.014400	3.255500	-9.812300	27.378273	6.186304E-5	20.799799
2195.610604	-3.012800	3.254900	-9.805600	27.371919	6.199505E-5	20.793408
2196.614747	-2.982600	3.255600	-9.709300	27.437066	6.255609E-5	20.793986
2197.615255	-3.011200	3.255500	-9.801800	27.499521	5.885982E-5	20.784750
2198.616056	-2.975300	3.254400	-9.682200	27.523005	6.235808E-5	20.791308
2199.613455	-2.996000	3.252900	-9.743800	27.555749	6.011392E-5	20.784423
2200.615813	-2.991400	3.254300	-9.733600	27.556520	6.080697E-5	20.786147
2201.613165	-2.995300	3.252900	-9.743000	27.509442	6.361217E-5	20.772920
2202.615819	-2.990600	3.254000	-9.730300	27.471562	5.932186E-5	20.784596
2203.619868	-3.006700	3.251700	-9.776000	27.411229	5.984990E-5	20.794072
2204.616449	-3.022400	3.250200	-9.822400	27.466029	6.047694E-5	20.797995
2205.621038	-2.989300	3.251700	-9.719300	27.505421	5.925585E-5	20.794005
2206.621699	-3.015300	3.248700	-9.794600	27.570400	5.942086E-5	20.805329
2207.619555	-3.009900	3.250300	-9.782200	27.549365	6.041094E-5	20.794596
2208.620754	-2.985800	3.250400	-9.704400	27.580792	5.955287E-5	20.811517
2209.624672	-3.004900	3.249200	-9.762000	27.603362	5.714370E-5	20.822848
2210.619839	-3.007400	3.247800	-9.766100	27.587365	5.760573E-5	20.820502
2211.621886	-2.996600	3.248600	-9.733900	27.598326	5.687968E-5	20.817780
2212.633043	-3.020100	3.247700	-9.806600	27.572603	5.546057E-5	20.804227
2213.621565	-2.975900	3.249100	-9.667800	27.527436	5.608762E-5	20.786757
2214.624371	-3.006600	3.246800	-9.760800	27.540234	5.697869E-5	20.818599
2215.624562	-2.999700	3.247100	-9.739200	27.560944	5.456951E-5	20.810514
2216.622431	-3.005400	3.246000	-9.755000	27.594580	5.404147E-5	20.825865
2217.624248	-3.018400	3.244500	-9.792600	27.613717	5.387646E-5	20.801498
2218.623735	-3.020200	3.246900	-9.805700	27.656800	5.371145E-5	20.816874
2219.621411	-3.014900	3.245500	-9.783600	27.720093	5.499854E-5	20.805175
2220.627330	-2.995400	3.246400	-9.723600	27.678555	5.456951E-5	20.817429
2221.630876	-3.007200	3.246000	-9.760400	27.704318	5.209433E-5	20.810637
2222.628387	-3.013200	3.245200	-9.777600	27.684032	5.519655E-5	20.814879
2223.626188	-3.002600	3.245000	-9.743600	27.701637	5.348043E-5	20.823586
2224.629758	-3.009300	3.243400	-9.759600	27.644322	5.163229E-5	20.815698
2225.625110	-3.016200	3.241800	-9.776800	27.620645	5.252336E-5	20.809418
2226.627003	-3.015000	3.241800	-9.773100	27.600602	5.192932E-5	20.807743
2227.629602	-2.993900	3.241300	-9.703700	27.614066	5.024619E-5	20.828876
2228.623248	-2.998100	3.243200	-9.722500	27.615933	5.357944E-5	20.842133
2229.628423	-3.012400	3.239300	-9.756700	27.556403	5.179731E-5	20.829652
2230.630543	-3.006200	3.240800	-9.742100	27.546433	5.404147E-5	20.838112
2231.626256	-3.025000	3.240800	-9.802800	27.532173	4.994917E-5	20.827084
2232.628890	-2.991400	3.240600	-9.693400	27.553924	5.159929E-5	20.822891
2233.628969	-3.012700	3.239000	-9.757200	27.618607	5.341442E-5	20.834867
2234.624695	-3.022400	3.238300	-9.786800	27.646391	5.239135E-5	20.829633
2235.627371	-2.999800	3.237900	-9.712300	27.700750	5.433849E-5	20.815581
2236.630548	-3.006600	3.237700	-9.733400	27.718802	5.074123E-5	20.814307
2237.628076	-2.977600	3.239100	-9.643500	27.642548	5.202832E-5	20.818654
2238.636348	-3.033600	3.238000	-9.821800	27.662981	5.216033E-5	20.841585
2239.635126	-3.000400	3.238700	-9.716500	27.583497	4.879409E-5	20.833205
2240.629064	-2.992400	3.238200	-9.689000	27.524688	4.767200E-5	20.814338
2241.632073	-2.991700	3.236000	-9.680200	27.492341	5.199532E-5	20.835846
2242.632641	-2.987300	3.236300	-9.666500	27.529670	4.942113E-5	20.828833
2243.631001	-2.968900	3.237300	-9.609600	27.552933	4.866208E-5	20.834221
2244.632081	-2.999600	3.233700	-9.698800	27.544199	4.853007E-5	20.841080
2245.634574	-2.984100	3.234800	-9.651900	27.541115	4.945413E-5	20.828020
2246.630424	-3.000000	3.234200	-9.701800	27.588148	5.044421E-5	20.829824
2247.634065	-3.000700	3.233800	-9.702200	27.640252	4.952014E-5	20.818241
2248.634212	-2.979300	3.233900	-9.633600	27.616122	4.777101E-5	20.839479
2249.633964	-2.990800	3.233100	-9.668600	27.563564	4.770501E-5	20.841123
2250.634724	-3.009300	3.231400	-9.723400	27.575571	4.787002E-5	20.826179
2251.635689	-2.992900	3.232400	-9.673300	27.631397	4.935513E-5	20.835409
2252.633733	-2.996700	3.232600	-9.685700	27.720754	4.697895E-5	20.825280
2253.635001	-2.995400	3.231200	-9.677700	27.745751	4.734198E-5	20.849959
2254.636322	-3.013600	3.229800	-9.731900	27.732503	4.826605E-5	20.815766
2255.636970	-2.998400	3.230800	-9.686100	27.699520	4.796902E-5	20.824300
2256.633779	-3.008300	3.232500	-9.722700	27.742679	4.691295E-5	20.853980
2257.638860	-3.013000	3.228700	-9.727100	27.805068	4.602188E-5	20.822410
2258.636231	-3.014200	3.229600	-9.733800	27.786124	4.608789E-5	20.838432
2259.639318	-3.008100	3.229800	-9.714800	27.789471	4.717697E-5	20.819990
2260.641088	-2.991200	3.228400	-9.656400	27.705700	4.430576E-5	20.829572
2261.638547	-3.041500	3.227500	-9.815500	27.618062	4.456978E-5	20.820095
2262.640068	-2.991600	3.228300	-9.657200	27.597175	4.466878E-5	20.828001
2263.640232	-3.011000	3.225400	-9.710600	27.554867	4.427275E-5	20.802502
2264.639442	-3.009000	3.227200	-9.709400	27.542314	4.466878E-5	20.835865
2265.641848	-3.006500	3.225200	-9.696200	27.590039	4.585687E-5	20.815132
2266.641860	-3.003500	3.225200	-9.685700	27.609384	4.526283E-5	20.821320
2267.639930	-3.018800	3.225000	-9.735100	27.724236	4.503181E-5	20.815033
2268.640279	-2.995100	3.225400	-9.659600	27.787666	4.542784E-5	20.810587
2269.642476	-3.010700	3.223100	-9.702900	27.790964	4.282065E-5	20.821967
2270.640331	-3.017700	3.222700	-9.724300	27.787372	4.219360E-5	20.817878
2271.644885	-3.028600	3.221700	-9.756300	27.804132	4.443777E-5	20.829054
2272.644521	-2.984400	3.225600	-9.626300	27.772344	4.423975E-5	20.810341
2273.641769	-3.013600	3.221200	-9.706800	27.743854	4.242462E-5	20.816758
2274.643995	-2.979600	3.222800	-9.601000	27.766568	4.318367E-5	20.818279
2275.644344	-2.992200	3.221400	-9.638300	27.830540	4.381072E-5	20.801579
2276.643930	-2.986500	3.221200	-9.619600	27.827646	4.308467E-5	20.832805
2277.643826	-2.987200	3.220500	-9.618700	27.855418	4.179757E-5	20.813340
2278.647349	-2.993900	3.221800	-9.645000	27.861885	4.291965E-5	20.811314
2279.643019	-3.007100	3.219700	-9.680900	27.893676	4.133554E-5	20.809171
2280.646991	-3.003300	3.218900	-9.666300	27.875474	4.060948E-5	20.821671
2281.648233	-2.982300	3.219200	-9.599200	27.861940	4.031246E-5	20.814215
2282.644958	-3.000200	3.217400	-9.652200	27.891718	4.153355E-5	20.808623
2283.645416	-3.004600	3.218100	-9.667800	27.880938	4.229261E-5	20.814843
2284.645874	-3.011800	3.218300	-9.692300	27.869876	3.922338E-5	20.818882
2285.644060	-3.009500	3.217300	-9.681500	27.852713	4.067549E-5	20.809196
2286.644257	-3.001600	3.216300	-9.653800	27.876398	3.998244E-5	20.806955
2287.644796	-3.010100	3.215300	-9.677500	27.840195	3.899237E-5	20.795649
2288.643646	-2.990700	3.216400	-9.617800	27.793828	4.034547E-5	20.805883
2289.645390	-3.017700	3.215800	-9.703700	27.735079	4.034547E-5	20.804608
2290.647386	-3.007200	3.214700	-9.666900	27.733990	4.011445E-5	20.802090
2291.643453	-3.027500	3.214800	-9.732100	27.729358	4.031246E-5	20.788894
2292.645623	-2.997600	3.214200	-9.633900	27.727792	3.909137E-5	20.786369
2293.646628	-3.012400	3.212900	-9.677800	27.726929	3.965241E-5	20.807786
2294.647635	-2.987800	3.213500	-9.600500	27.650962	3.783728E-5	20.788715
2295.646310	-3.007100	3.214000	-9.664100	27.704783	3.922338E-5	20.786449
2296.649427	-2.997700	3.211800	-9.627000	27.734914	3.486706E-5	20.797330
2297.648776	-2.997200	3.212600	-9.628200	27.740991	3.820031E-5	20.792065
2298.647537	-2.993100	3.212200	-9.614300	27.716318	3.905837E-5	20.804695
2299.647775	-2.973400	3.210100	-9.543200	27.756295	3.605515E-5	20.797035
2300.649866	-2.981500	3.209800	-9.569500	27.778684	3.697922E-5	20.774047
2301.648980	-2.992000	3.208100	-9.597800	27.792745	3.622016E-5	20.796733
2302.651793	-2.999700	3.210000	-9.628200	27.809829	3.740825E-5	20.797330
2303.651954	-2.979100	3.209200	-9.559800	27.841395	3.539510E-5	20.788795
2304.650163	-2.991300	3.207600	-9.593600	27.844846	3.490007E-5	20.787053
2305.651049	-3.010800	3.206600	-9.653300	27.864290	3.622016E-5	20.795243
2306.649798	-3.007200	3.206900	-9.642600	27.854390	3.638517E-5	20.803771
2307.651736	-2.995400	3.206600	-9.604400	27.910330	3.697922E-5	20.796062
2308.651092	-2.988400	3.206800	-9.582800	27.947375	3.506508E-5	20.762224
2309.650119	-2.982200	3.205500	-9.558700	27.985061	3.605515E-5	20.783087
2310.649704	-2.990100	3.206300	-9.586000	27.952453	3.453704E-5	20.791043
2311.651739	-3.002800	3.204800	-9.622700	27.871406	3.645118E-5	20.790076
2312.651492	-3.007400	3.203000	-9.632100	27.800510	3.212786E-5	20.772305
2313.651135	-2.988500	3.203200	-9.571900	27.782686	3.354697E-5	20.790877
2314.650972	-3.006700	3.202900	-9.628600	27.819111	3.242488E-5	20.771584
2315.651028	-3.023600	3.202900	-9.683100	27.874906	3.090677E-5	20.782219
2316.651625	-2.994000	3.203100	-9.589500	27.954716	3.414101E-5	20.784787
2317.650293	-2.965500	3.202700	-9.496900	27.958491	2.915764E-5	20.774836
2318.652281	-3.012400	3.201100	-9.641000	27.966799	3.216086E-5	20.795526
2319.651616	-3.023700	3.199500	-9.673200	27.938700	3.047774E-5	20.789528
2320.652304	-3.013300	3.199800	-9.641700	27.837718	3.222687E-5	20.789837
2321.659198	-3.035100	3.198600	-9.707200	27.771433	2.925665E-5	20.785243
2322.653148	-3.013200	3.198900	-9.637900	27.781603	3.060975E-5	20.763708
2323.653319	-3.003400	3.199000	-9.607200	27.875187	3.169883E-5	20.755949
2324.653953	-3.002600	3.197500	-9.600100	27.946916	3.084077E-5	20.785945
2325.654870	-3.023100	3.197400	-9.665400	27.960204	3.080777E-5	20.769922
2326.654353	-2.973300	3.196800	-9.504000	27.945185	3.136881E-5	20.754330
2327.654120	-2.973600	3.196900	-9.504700	27.955922	2.942166E-5	20.769405
2328.655796	-2.999900	3.195000	-9.583800	27.992299	2.856360E-5	20.782312
2329.654673	-2.990400	3.196800	-9.558000	27.982926	2.975169E-5	20.787577
2330.654142	-2.985600	3.196200	-9.541100	27.930863	3.143481E-5	20.776425
2331.663646	-2.995500	3.194200	-9.567300	27.891395	3.031273E-5	20.789332
2332.654383	-3.000600	3.194000	-9.583400	27.837541	2.971869E-5	20.773537
2333.656045	-3.003400	3.194400	-9.593500	27.791994	2.935566E-5	20.772269
2334.657261	-3.005700	3.194400	-9.600500	27.814633	3.054375E-5	20.782725
2335.656484	-3.020600	3.192700	-9.642400	27.773447	2.783755E-5	20.766407
2336.658673	-3.016100	3.192000	-9.626800	27.764306	2.717750E-5	20.768113
2337.656953	-3.020100	3.190100	-9.634000	27.817001	2.800256E-5	20.745279
2338.656469	-3.005500	3.191200	-9.589600	27.845894	3.004871E-5	20.765348
2339.656029	-3.006300	3.189700	-9.589000	27.892112	2.905864E-5	20.760655
2340.657389	-2.999300	3.190300	-9.567700	27.912271	2.866261E-5	20.769092
2341.657923	-2.977000	3.189200	-9.493200	27.914860	2.869561E-5	20.768852
2342.657568	-2.996200	3.189100	-9.554500	27.872136	3.004871E-5	20.752404
2343.657887	-2.997500	3.189400	-9.559500	27.923712	2.945467E-5	20.782978
2344.657179	-3.008600	3.187500	-9.588400	27.964030	2.846459E-5	20.749590
2345.659173	-2.980700	3.185700	-9.494300	28.022992	3.018072E-5	20.767214
2346.659945	-2.976100	3.185700	-9.479900	28.060675	2.955367E-5	20.748722
2347.658041	-2.981400	3.186100	-9.497400	28.029789	2.938866E-5	20.761254
2348.663782	-2.991000	3.184700	-9.524700	28.041914	2.754053E-5	20.773933
2349.658944	-3.003700	3.185200	-9.566600	28.021958	2.707849E-5	20.745310
2350.656877	-2.975200	3.184700	-9.474400	28.033839	2.655045E-5	20.753476
2351.657784	-2.975600	3.182600	-9.469700	28.070830	2.513135E-5	20.757996
2352.658148	-2.995700	3.183400	-9.535300	28.116097	2.688048E-5	20.759942
2353.658758	-2.997400	3.182500	-9.538000	28.136778	2.777154E-5	20.770805
2354.659257	-2.998900	3.181300	-9.538500	28.155416	2.631944E-5	20.773447
2355.660521	-3.004400	3.180200	-9.553900	28.171754	2.721050E-5	20.750539
2356.661742	-2.996500	3.179900	-9.527100	28.217744	2.641844E-5	20.760805
2357.660463	-2.978600	3.179400	-9.469600	28.221860	2.407527E-5	20.759734
2358.662267	-2.982700	3.178800	-9.480300	28.121462	2.466931E-5	20.752541
2359.658967	-3.001100	3.178200	-9.536900	28.073865	2.285418E-5	20.737343
2360.661139	-2.989000	3.178900	-9.500700	28.009926	2.420728E-5	20.772080
2361.665320	-2.982100	3.177300	-9.473600	27.982311	2.532936E-5	20.744283
2362.660414	-2.965300	3.177200	-9.420400	27.951642	2.364624E-5	20.743285
2363.666313	-2.991100	3.176000	-9.498900	27.985137	2.354723E-5	20.767043
2364.660801	-2.984900	3.177000	-9.482300	27.917418	2.361324E-5	20.749141
2365.661741	-3.021500	3.173400	-9.587200	27.932444	2.519735E-5	20.758101
2366.661656	-2.998200	3.173200	-9.512700	27.957026	2.295319E-5	20.753446
2367.661483	-2.993100	3.174000	-9.499400	27.929966	2.344822E-5	20.769358
2368.665532	-3.010000	3.172600	-9.548500	27.952505	2.430629E-5	20.747473
2369.663064	-2.993700	3.172700	-9.496300	28.002842	2.367924E-5	20.750250
2370.663158	-3.014200	3.171800	-9.559300	28.084478	2.272217E-5	20.744708
2371.661990	-2.995100	3.171800	-9.499000	28.091966	2.473532E-5	20.739443
2372.664519	-2.997400	3.170000	-9.500800	28.039859	2.249115E-5	20.751950
2373.665343	-3.002100	3.170400	-9.517100	28.109650	2.189711E-5	20.745866
2374.665302	-3.019900	3.169300	-9.570200	28.106647	2.292019E-5	20.741420
2375.665407	-3.005600	3.167800	-9.520200	28.044925	2.100605E-5	20.734763
2376.666389	-2.992200	3.168200	-9.479500	28.012325	2.216113E-5	20.736087
2377.665127	-2.999300	3.167000	-9.497700	28.024443	2.265617E-5	20.747338
2378.663876	-3.007300	3.166500	-9.522000	28.022590	1.912491E-5	20.738359
2379.667570	-2.997300	3.165800	-9.488100	28.084779	2.160009E-5	20.754968
2380.669365	-2.988400	3.165200	-9.457700	28.142480	2.027999E-5	20.735767
2381.667953	-3.008400	3.165100	-9.520900	28.181854	2.179810E-5	20.758811
2382.666613	-2.970800	3.165200	-9.402900	28.244143	2.235914E-5	20.748502
2383.669718	-2.979000	3.164100	-9.425400	28.250394	2.074203E-5	20.715439
2384.669188	-3.001100	3.162500	-9.490500	28.239660	2.057701E-5	20.719331
2385.669468	-3.005600	3.161500	-9.500900	28.296173	1.872888E-5	20.731186
2386.667996	-3.006100	3.161000	-9.500400	28.321609	2.097304E-5	20.734037
2387.671432	-2.998800	3.160800	-9.477900	28.266584	1.849786E-5	20.749759
2388.669372	-3.002700	3.159400	-9.485800	28.250725	2.057701E-5	20.736162
2389.671565	-3.011800	3.158300	-9.511200	28.242296	2.044500E-5	20.728150
2390.671627	-2.998600	3.157700	-9.467800	28.241104	1.853086E-5	20.735484
2391.670079	-2.998000	3.158500	-9.468100	28.218327	2.001597E-5	20.731519
2392.677189	-3.030700	3.155900	-9.563300	28.201372	1.922391E-5	20.731519
2393.671439	-2.986900	3.157400	-9.429800	28.208492	1.895989E-5	20.731100
2394.673339	-3.012300	3.156300	-9.506600	28.151461	1.790382E-5	20.731531
2395.673389	-2.991400	3.154800	-9.437000	28.128333	1.783781E-5	20.741440
2396.673481	-3.011500	3.153700	-9.496500	28.137136	1.694675E-5	20.726119
2397.675066	-3.010000	3.153900	-9.492200	28.162000	1.701275E-5	20.740245
2398.675307	-3.006600	3.152900	-9.477800	28.134389	1.727677E-5	20.751330
2399.676234	-2.998200	3.151400	-9.447600	28.190216	1.674873E-5	20.729297
2400.674796	-3.020400	3.152400	-9.519800	28.220878	1.704575E-5	20.730768
2401.677510	-2.992300	3.150300	-9.425800	28.228909	1.691374E-5	20.721309
2402.673478	-2.986800	3.149500	-9.405400	28.229906	1.618769E-5	20.727529
2403.675551	-3.003700	3.150000	-9.460600	28.292737	1.645171E-5	20.739107
2404.679069	-3.011200	3.148000	-9.478000	28.278462	1.635270E-5	20.708137
2405.676532	-3.004000	3.146900	-9.452400	28.187268	1.424055E-5	20.710680
2406.673934	-2.984500	3.148700	-9.396300	28.101603	1.493360E-5	20.716900
2407.677086	-2.993100	3.145800	-9.415200	28.090623	1.655072E-5	20.757532
2408.675669	-3.021000	3.144500	-9.498500	28.122676	1.681474E-5	20.716777
2409.675327	-3.010400	3.143800	-9.462900	28.205049	1.371251E-5	20.740437
2410.677367	-3.024500	3.142800	-9.504200	28.222084	1.433956E-5	20.717757
2411.676731	-2.974000	3.143200	-9.346700	28.174223	1.542864E-5	20.733109
2412.676493	-3.005400	3.141200	-9.439500	28.192364	1.450457E-5	20.718656
2413.676720	-2.981400	3.140700	-9.363000	28.207906	1.311847E-5	20.724346
2414.676889	-2.973700	3.141500	-9.340700	28.208004	1.387752E-5	20.730135
2415.676573	-3.017900	3.137900	-9.468400	28.175134	1.331648E-5	20.711266
2416.676479	-2.997700	3.138200	-9.406900	28.204567	1.255742E-5	20.728097
2417.677396	-3.004100	3.138300	-9.426900	28.252800	1.249142E-5	20.729242
2418.678330	-3.006300	3.136700	-9.428600	28.277686	1.384452E-5	20.718262
2419.679350	-3.011500	3.134700	-9.438300	28.252751	1.282144E-5	20.708329
2420.681304	-2.990300	3.136300	-9.377300	28.277986	1.334948E-5	20.697225
2421.681681	-3.012600	3.134100	-9.440800	28.285105	1.414154E-5	20.713404
2422.679421	-3.015100	3.132800	-9.444900	28.339004	1.179837E-5	20.728318
2423.681436	-3.017100	3.131400	-9.446400	28.383574	1.325048E-5	20.717246
2424.680259	-3.033500	3.130900	-9.496100	28.404691	1.262343E-5	20.714327
2425.682687	-3.004200	3.130200	-9.402200	28.319159	1.064328E-5	20.709758
2426.679948	-2.968000	3.131500	-9.293500	28.380553	1.094031E-5	20.718946
2427.680664	-2.991300	3.129300	-9.360000	28.397383	1.196338E-5	20.704597
2428.686274	-2.999100	3.128000	-9.381000	28.436117	9.158174E-6	20.701875
2429.680224	-2.983000	3.128400	-9.330100	28.425073	1.160035E-5	20.711144
2430.680958	-2.987800	3.127900	-9.344100	28.375893	1.150135E-5	20.717099
2431.682296	-2.991300	3.127400	-9.353900	28.318474	1.133633E-5	20.714285
2432.681257	-3.024700	3.123900	-9.448500	28.330320	1.140234E-5	20.699184
2433.680302	-3.038200	3.123000	-9.486300	28.268898	9.521201E-6	20.704197
2434.681088	-3.005400	3.123400	-9.386100	28.339536	1.176537E-5	20.714155
2435.682424	-3.000100	3.122300	-9.366400	28.353932	1.400953E-5	20.718219
2436.681830	-2.999100	3.121100	-9.359900	28.446158	9.323186E-6	20.711039
2437.679975	-3.050400	3.118900	-9.512600	28.489250	1.041227E-5	20.698008
2438.680666	-3.015900	3.119800	-9.408000	28.431928	1.004924E-5	20.704770
2439.679306	-3.009300	3.118500	-9.382700	28.366524	1.041227E-5	20.690593
2440.681927	-3.001700	3.119300	-9.362800	28.400599	1.107231E-5	20.709259
2441.683387	-3.009100	3.117100	-9.379200	28.430931	1.037926E-5	20.702343
2442.682703	-3.001600	3.116000	-9.351900	28.457072	1.041227E-5	20.699744
2443.684459	-3.007600	3.116100	-9.370800	28.543113	9.389191E-6	20.716692
2444.683919	-3.014100	3.114400	-9.386400	28.477399	1.100631E-5	20.697928
2445.681399	-3.014100	3.113500	-9.383700	28.421660	9.554203E-6	20.684945
2446.682565	-3.019100	3.111400	-9.392600	28.422198	1.051127E-5	20.712990
2447.683348	-3.007700	3.112800	-9.361200	28.418015	9.620208E-6	20.707830
2448.681420	-3.015000	3.110700	-9.377600	28.370603	8.927157E-6	20.712719
2449.685120	-2.995000	3.108600	-9.309100	28.390080	7.145026E-6	20.701985
2450.682660	-3.013300	3.107600	-9.363200	28.416248	6.022943E-6	20.701782
2451.684958	-3.019500	3.107000	-9.380800	28.355406	9.983235E-6	20.709745
2452.685316	-2.987400	3.106600	-9.279600	28.362580	7.706067E-6	20.708434
2453.684126	-3.005500	3.106200	-9.335000	28.366414	9.884227E-6	20.712295
2454.684535	-2.979700	3.105900	-9.254100	28.438416	6.319965E-6	20.707984
2455.689356	-2.991000	3.104500	-9.284700	28.451722	9.950232E-6	20.691510
2456.686464	-3.004000	3.103000	-9.319700	28.514295	6.550982E-6	20.706161
2457.686981	-2.996500	3.101900	-9.293500	28.487238	6.914009E-6	20.696456
2458.686553	-3.000700	3.101000	-9.304100	28.436135	6.319965E-6	20.689090
2459.688008	-3.010400	3.100400	-9.332400	28.426369	8.036092E-6	20.680203
2460.686590	-3.003100	3.098300	-9.303600	28.438880	9.191176E-6	20.699442
2461.689752	-3.008900	3.097400	-9.317900	28.453452	5.296890E-6	20.719808
2462.687099	-3.040300	3.096700	-9.413200	28.512283	7.838077E-6	20.702712
2463.689138	-3.013600	3.095200	-9.326700	28.537885	6.815002E-6	20.695304
2464.688388	-2.984100	3.095200	-9.234300	28.497767	7.046019E-6	20.695680
2465.689502	-3.000000	3.093100	-9.278400	28.464362	6.517980E-6	20.679582
2466.689178	-2.987700	3.092100	-9.237700	28.465426	7.277036E-6	20.692034
2467.691498	-2.983700	3.092100	-9.224600	28.444561	7.079021E-6	20.706586
2468.691827	-2.970000	3.090500	-9.178200	28.477765	6.781999E-6	20.690710
2469.689455	-3.007700	3.089900	-9.292600	28.479551	7.673065E-6	20.695827
2470.696539	-3.001400	3.088200	-9.267200	28.493945	7.838077E-6	20.679501
2471.693526	-3.025500	3.087300	-9.339100	28.494245	7.706067E-6	20.693555
2472.689045	-3.017500	3.087100	-9.313900	28.476328	8.531128E-6	20.697798
2473.689012	-2.996500	3.085800	-9.245400	28.479502	5.230885E-6	20.706685
2474.690916	-2.998400	3.084000	-9.246300	28.496128	7.904082E-6	20.700668
2475.691872	-3.001500	3.083100	-9.253200	28.446738	7.508053E-6	20.697398
2476.690075	-2.990700	3.083300	-9.219000	28.384576	7.376043E-6	20.705452
2477.691465	-2.982200	3.082100	-9.190600	28.390105	7.079021E-6	20.702484
2478.692637	-3.000000	3.079400	-9.237000	28.389059	8.102096E-6	20.680566
2479.694332	-3.000300	3.078400	-9.235300	28.409258	7.904082E-6	20.698062
2480.691790	-3.006400	3.078200	-9.253500	28.405784	9.785220E-6	20.688400
2481.695060	-3.016700	3.076800	-9.281100	28.446750	4.636841E-6	20.719696
2482.693643	-2.984100	3.076700	-9.180400	28.498861	7.607060E-6	20.727603
2483.694220	-2.997000	3.073800	-9.211300	28.584145	7.244033E-6	20.708229
2484.692968	-2.997900	3.073500	-9.213600	28.600843	7.541055E-6	20.705131
2485.695431	-3.010400	3.071400	-9.245700	28.615859	7.574058E-6	20.680898
2486.698411	-3.029100	3.071300	-9.301500	28.607501	7.508053E-6	20.721321
2487.701775	-3.003500	3.070500	-9.221600	28.504412	5.428900E-6	20.686723
2488.698271	-3.013800	3.068100	-9.245900	28.522994	6.088948E-6	20.726777
2489.693717	-2.991000	3.068500	-9.176900	28.547348	5.395897E-6	20.693928
2490.696147	-3.000400	3.066900	-9.200800	28.628942	6.649990E-6	20.694076
2491.696578	-3.014300	3.065000	-9.238200	28.665845	5.824929E-6	20.698054
2492.695523	-3.012400	3.064000	-9.229000	28.669678	6.418973E-6	20.705234
2493.694791	-2.988800	3.063900	-9.155900	28.641756	5.593912E-6	20.695602
2494.696588	-2.986000	3.062100	-9.142800	28.577717	4.306817E-6	20.717876
2495.693570	-3.008200	3.059300	-9.201300	28.563984	3.712773E-6	20.698829
2496.697564	-3.016200	3.059000	-9.225600	28.564515	6.220958E-6	20.720228
2497.694799	-2.970400	3.059900	-9.088400	28.601035	3.712773E-6	20.690625
2498.696146	-2.990900	3.058000	-9.145500	28.625137	5.065873E-6	20.713953
2499.699036	-2.994200	3.056200	-9.150200	28.618393	6.385970E-6	20.713324
2500.696362	-2.988900	3.056300	-9.134100	28.634338	3.415751E-6	20.699985
2501.698656	-3.002000	3.054000	-9.167000	28.659111	2.689698E-6	20.716877
2502.696383	-3.005400	3.051900	-9.170900	28.638263	3.415751E-6	20.716741
2503.700555	-2.966500	3.053700	-9.056100	28.690639	4.174807E-6	20.713545
2504.699907	-2.953700	3.052700	-9.015600	28.655748	4.471829E-6	20.704954
2505.700750	-3.000000	3.049600	-9.147300	28.560985	3.514759E-6	20.728053
2506.701672	-3.040800	3.047700	-9.266600	28.558600	3.151732E-6	20.729445
2507.700828	-3.005500	3.046400	-9.154300	28.653027	3.184734E-6	20.713119
2508.701894	-3.009100	3.045000	-9.162100	28.642217	3.085727E-6	20.699860
2509.703652	-2.993400	3.045200	-9.114300	28.592259	4.273815E-6	20.731575
2510.702670	-3.001700	3.044300	-9.137500	28.604322	3.745776E-6	20.732819
2511.701578	-3.000800	3.042100	-9.128600	28.579339	3.184734E-6	20.720933
2512.703676	-3.006400	3.040400	-9.140200	28.625422	3.283742E-6	20.716610
2513.702857	-2.997200	3.039800	-9.110100	28.648710	3.943790E-6	20.720625
2514.702260	-2.988200	3.038400	-9.078100	28.647291	3.745776E-6	20.721567
2515.706045	-2.981600	3.037500	-9.055500	28.686657	-2.475182E-7	20.718069
2516.704597	-2.985200	3.035800	-9.061300	28.665027	2.656696E-6	20.733742
2517.707724	-2.998800	3.035200	-9.100000	28.708776	1.864637E-6	20.719486
2518.707386	-3.000200	3.032100	-9.095900	28.729012	2.227664E-6	20.728489
2519.704340	-3.003600	3.032000	-9.106500	28.655526	2.590691E-6	20.728914
2520.706061	-2.980000	3.031400	-9.033000	28.644075	1.567615E-6	20.731605
2521.707254	-3.006500	3.029000	-9.106100	28.693651	1.930642E-6	20.732701
2522.708609	-2.983600	3.028800	-9.035100	28.686755	1.006574E-6	20.749463
2523.708080	-2.984200	3.027400	-9.033700	28.716632	1.270594E-6	20.740675
2524.708619	-2.997000	3.026000	-9.068200	28.774977	1.534613E-6	20.733538
2525.713155	-3.017100	3.024300	-9.124200	28.818257	3.118730E-6	20.740626
2526.709852	-3.008400	3.022600	-9.092200	28.881078	3.795279E-7	20.722355
2527.710351	-3.027000	3.020100	-9.140800	28.904036	2.293669E-6	20.740269
2528.710057	-3.026000	3.018200	-9.132200	28.809106	-7.095522E-7	20.729985
2529.712060	-2.990400	3.018200	-9.024000	28.721424	-1.650122E-8	20.723691
2530.711276	-2.981100	3.016600	-8.992100	28.686461	-3.135231E-7	20.737313
2531.715953	-2.993500	3.016900	-9.029700	28.734672	2.986720E-6	20.726129
2532.713070	-2.983800	3.014800	-8.994700	28.665326	1.435606E-6	20.718395
2533.712327	-2.993500	3.013000	-9.018200	28.697331	1.336598E-6	20.743520
2534.715699	-3.007700	3.010600	-9.053900	28.675377	8.085595E-7	20.735631
2535.711205	-2.991800	3.009700	-9.003500	28.643860	1.831635E-6	20.724276
2536.714958	-3.012800	3.009900	-9.068000	28.676667	1.732628E-6	20.747837
2537.718854	-3.000000	3.007200	-9.019900	28.661920	1.732628E-6	20.744364
2538.711767	-3.005700	3.006600	-9.035100	28.734568	1.699625E-6	20.733612
2539.715221	-3.035600	3.002200	-9.111600	28.811465	-3.795279E-7	20.748483
2540.713367	-3.014200	3.003800	-9.053400	28.865661	5.775425E-7	20.736697
2541.713755	-3.016300	3.001800	-9.053400	28.872183	1.831635E-6	20.743267
2542.717793	-3.025900	2.999000	-9.073500	28.886572	9.075668E-7	20.725045
2543.712606	-3.014200	2.999400	-9.038300	28.894500	1.402603E-6	20.761483
2544.714971	-2.981300	2.999100	-8.940400	28.837922	-3.135231E-7	20.747634
2545.713198	-3.005800	2.996600	-9.005900	28.856505	3.448754E-6	20.735059
2546.716495	-2.979300	2.996000	-8.924700	28.824303	-1.155085E-7	20.759045
2547.712735	-3.034000	2.993100	-9.079900	28.840997	7.095522E-7	20.750257
2548.717500	-3.026900	2.991600	-9.054500	28.774977	6.435474E-7	20.725951
2549.719547	-2.997400	2.990800	-8.963800	28.813532	-4.455328E-7	20.729227
2550.714465	-2.986200	2.989300	-8.925800	28.763117	1.155085E-7	20.746248
2551.719321	-2.997100	2.986500	-8.950400	28.723698	3.481756E-6	20.744000
2552.716926	-2.990400	2.987600	-8.933200	28.666793	-1.072579E-6	20.754014
2553.715007	-3.002100	2.985900	-8.963800	28.727471	9.735717E-7	20.752542
2554.717986	-3.012000	2.982800	-8.983100	28.776206	1.534613E-6	20.743785
2555.717571	-3.010200	2.983200	-8.979200	28.866768	-8.085595E-7	20.757727
2556.715319	-3.000300	2.980500	-8.941400	28.814455	4.785352E-7	20.741537
2557.719311	-3.025000	2.978800	-9.010000	28.771547	-2.805207E-7	20.741938
2558.718993	-3.029400	2.977700	-9.019700	28.746899	3.465255E-7	20.727540
2559.716320	-3.016200	2.975900	-8.974600	28.782129	2.145158E-7	20.740743
2560.718168	-2.992900	2.975900	-8.905400	28.770362	-1.138584E-6	20.758287
2561.717893	-3.008200	2.973900	-8.945600	28.732655	1.930642E-6	20.771515
2562.718370	-2.961400	2.973000	-8.803100	28.669532	-3.795279E-7	20.740651
2563.718594	-3.001400	2.969700	-8.911900	28.718979	2.805207E-7	20.777180
2564.719983	-3.012100	2.969500	-8.943400	28.764542	1.600618E-6	20.768073
2565.721379	-3.013000	2.967500	-8.940100	28.808422	3.465255E-7	20.757271
2566.721987	-2.982700	2.967500	-8.849900	28.777404	-6.105450E-7	20.743570
2567.723796	-3.025900	2.963700	-8.967000	28.750005	-6.765498E-7	20.767654
2568.721537	-3.005200	2.963000	-8.903800	28.766578	5.115377E-7	20.759692
2569.722523	-2.997800	2.960600	-8.874400	28.787118	1.534613E-6	20.758571
2570.721987	-2.993000	2.959600	-8.857100	28.805848	1.171586E-6	20.742825
2571.721443	-2.991700	2.958400	-8.849700	28.802254	6.105450E-7	20.750584
2572.721822	-2.984700	2.957500	-8.826900	28.797846	1.666623E-6	20.760369
2573.725892	-3.003100	2.955400	-8.874200	28.757964	1.237591E-6	20.763818
2574.723000	-3.003800	2.954200	-8.872900	28.718350	7.425547E-7	20.758054
2575.721253	-2.994600	2.952000	-8.839200	28.757714	-1.155085E-7	20.768307
2576.723045	-2.982100	2.951800	-8.801800	28.734557	3.795279E-7	20.782914
2577.721580	-2.994300	2.948500	-8.828100	28.757182	4.125304E-7	20.775358
2578.722203	-2.980200	2.948200	-8.785500	28.817701	-4.785352E-7	20.762352
2579.722695	-3.002000	2.945300	-8.841000	28.784532	-1.270594E-6	20.759286
2580.721856	-3.008900	2.944000	-8.857900	28.843467	-8.250608E-8	20.768393
2581.720803	-2.982500	2.944000	-8.778900	28.912704	1.567615E-6	20.768442
2582.723538	-2.991700	2.940400	-8.795500	28.911714	1.534613E-6	20.750849
2583.722249	-3.010500	2.939600	-8.848400	28.819786	-4.455328E-7	20.763978
2584.723152	-3.002500	2.938200	-8.821200	28.816418	2.475182E-7	20.765327
2585.725517	-3.033300	2.935500	-8.902500	28.886946	-1.650122E-8	20.763356
2586.724127	-2.999700	2.934700	-8.802200	28.978300	-4.125304E-7	20.784268
2587.724647	-3.000100	2.933500	-8.799100	29.022959	8.745644E-7	20.754347
2588.726165	-2.981100	2.931300	-8.737500	28.986307	1.006574E-6	20.757722
2589.724303	-2.995200	2.928400	-8.770200	28.980482	-9.735717E-7	20.769397
2590.722462	-2.998700	2.928200	-8.779600	28.950337	5.115377E-7	20.771269
2591.726655	-3.006200	2.925800	-8.794700	28.938296	-1.155085E-7	20.768147
2592.729143	-2.999900	2.924800	-8.773500	28.975776	1.039577E-6	20.766552
2593.726399	-3.009600	2.923500	-8.798200	29.019121	-2.145158E-7	20.780826
2594.727020	-3.009400	2.919600	-8.785300	29.013027	1.815134E-7	20.764255
2595.724383	-3.005000	2.919100	-8.770900	28.989148	1.815134E-7	20.749205
2596.724866	-2.987300	2.918400	-8.716700	28.963484	9.075668E-7	20.755591
2597.727890	-3.021500	2.916200	-8.810300	28.988549	8.415620E-7	20.762826
2598.725981	-3.003600	2.915300	-8.755600	29.043366	1.485109E-7	20.770641
2599.725019	-2.979200	2.914100	-8.680500	29.052454	-1.138584E-6	20.777427
2600.729705	-2.972100	2.911900	-8.653700	28.983348	6.435474E-7	20.773708
2601.727372	-2.992800	2.909700	-8.707200	29.002142	3.943790E-6	20.784108
2602.727788	-2.992000	2.908200	-8.700500	29.053786	2.590691E-6	20.767864
2603.729372	-2.987200	2.906100	-8.679900	29.145272	4.273815E-6	20.771854
2604.727433	-3.007700	2.903300	-8.731400	29.217953	1.072579E-6	20.785826
2605.728381	-2.983200	2.902700	-8.657800	29.211537	3.118730E-6	20.790266
2606.729218	-2.982300	2.900400	-8.648700	29.226270	1.699625E-6	20.780456
2607.729321	-3.008600	2.898500	-8.719700	29.183000	1.963645E-6	20.774311
2608.728399	-3.001800	2.896800	-8.695100	29.176889	1.303596E-6	20.785223
2609.731043	-3.002600	2.895500	-8.693700	29.197941	-9.735717E-7	20.781306
2610.728424	-3.008000	2.892000	-8.698300	29.218497	5.445401E-7	20.790642
2611.730065	-3.001300	2.892100	-8.679300	29.247889	1.815134E-7	20.786122
2612.732822	-3.006000	2.890000	-8.686800	29.185353	1.006574E-6	20.786639
2613.729747	-3.019000	2.887400	-8.716300	29.172624	6.105450E-7	20.789459
2614.734327	-2.991000	2.887300	-8.635500	29.202664	1.864637E-6	20.776583
2615.729722	-3.009800	2.884200	-8.680300	29.186355	-4.785352E-7	20.790494
2616.731172	-3.016700	2.881100	-8.690600	29.179700	1.815134E-7	20.784736
2617.733871	-2.982500	2.881300	-8.592900	29.219554	-1.171586E-6	20.778904
2618.731618	-2.995800	2.879700	-8.625600	29.202218	1.765630E-6	20.798893
2619.732525	-2.994800	2.877300	-8.616400	29.130006	-3.795279E-7	20.797249
2620.735148	-2.983200	2.875400	-8.577400	29.153704	3.465255E-7	20.797421
2621.731277	-3.020300	2.872600	-8.675600	29.205658	-1.815134E-7	20.779126
2622.732815	-2.991900	2.870300	-8.586400	29.236242	-3.465255E-7	20.793351
2623.731919	-2.993300	2.868800	-8.586300	29.248353	4.455328E-7	20.813142
2624.732063	-2.976000	2.868700	-8.536500	29.216376	2.623693E-6	20.806048
2625.730934	-3.019500	2.863600	-8.645500	29.197116	1.039577E-6	20.777156
2626.731952	-2.964400	2.863200	-8.486100	29.175814	1.897640E-6	20.779397
2627.732064	-3.019300	2.861200	-8.637600	29.195521	1.534613E-6	20.802575
2628.734908	-3.006900	2.857700	-8.592200	29.156320	1.039577E-6	20.781564
2629.730715	-2.991900	2.856900	-8.546500	29.117258	9.405693E-7	20.792938
2630.731690	-3.000000	2.855800	-8.566700	29.187509	2.145158E-7	20.819158
2631.732585	-3.006700	2.853700	-8.579500	29.204870	1.732628E-6	20.800617
2632.738131	-3.015300	2.851600	-8.597400	29.288839	2.524686E-6	20.813640
2633.730964	-2.991000	2.848800	-8.520100	29.368384	7.095522E-7	20.789969
2634.733915	-2.996700	2.847300	-8.531900	29.365495	1.237591E-6	20.808394
2635.731601	-2.999000	2.845300	-8.532000	29.279832	1.485109E-7	20.809305
2636.731222	-3.022400	2.843100	-8.592600	29.184881	1.765630E-6	20.805604
2637.733644	-3.008300	2.841500	-8.546600	29.124181	3.795279E-7	20.808449
2638.732545	-3.021200	2.837900	-8.572900	29.143645	-1.732628E-6	20.820475
2639.739070	-3.021900	2.835100	-8.566300	29.159093	1.600618E-6	20.801429
2640.736804	-3.000200	2.833500	-8.500300	29.209214	2.145158E-7	20.799304
2641.735921	-3.015200	2.830300	-8.532900	29.277278	5.775425E-7	20.801041
2642.735268	-3.006000	2.829700	-8.504900	29.299586	1.138584E-6	20.805979
2643.737293	-2.993300	2.827600	-8.463100	29.268057	4.455328E-7	20.846749
2644.736308	-2.982600	2.826500	-8.429400	29.213106	2.425679E-6	20.833098
2645.737458	-2.995100	2.821800	-8.450500	29.188682	2.145158E-7	20.823658
2646.737122	-2.996400	2.818400	-8.444500	29.222309	1.666623E-6	20.806810
2647.735331	-2.974400	2.817300	-8.378900	29.238996	1.534613E-6	20.820308
2648.737267	-3.007500	2.814000	-8.462400	29.335965	2.475182E-7	20.817513
2649.741104	-3.028500	2.812800	-8.517700	29.413851	-1.237591E-6	20.829631
2650.740108	-3.013200	2.809500	-8.465100	29.366575	7.095522E-7	20.836035
2651.742138	-3.031800	2.808000	-8.511100	29.336790	6.435474E-7	20.829723
2652.739952	-2.989800	2.805100	-8.384300	29.353323	-8.085595E-7	20.831213
2653.740777	-2.968800	2.803800	-8.322800	29.338397	8.745644E-7	20.817592
2654.741163	-3.008700	2.798700	-8.419500	29.396427	1.105581E-6	20.810646
2655.741100	-2.987400	2.797800	-8.357200	29.422948	-1.138584E-6	20.824575
2656.741241	-2.985400	2.794100	-8.340200	29.476465	8.250607E-8	20.823516
2657.740825	-3.022600	2.792100	-8.438800	29.491762	1.270594E-6	20.834194
2658.741840	-2.967600	2.788900	-8.275100	29.481486	2.623693E-6	20.829526
2659.741692	-3.003200	2.786200	-8.367100	29.468608	-6.105450E-7	20.803269
2660.740812	-3.022100	2.782400	-8.407900	29.486313	1.650122E-8	20.827278
2661.741675	-3.003400	2.780200	-8.349400	29.533376	1.072579E-6	20.844846
2662.743231	-3.027200	2.776300	-8.403800	29.497627	7.425547E-7	20.832519
2663.741339	-3.015400	2.773700	-8.362400	29.444068	-8.250608E-8	20.836854
2664.742992	-2.986500	2.772300	-8.278500	29.447135	7.755571E-7	20.830936
2665.744010	-3.025500	2.768400	-8.373800	29.522978	4.455328E-7	20.832469
2666.747198	-2.976400	2.765100	-8.228400	29.593350	-2.623693E-6	20.821853
2667.747783	-2.989500	2.762600	-8.258400	29.594559	1.204589E-6	20.841564
2668.744383	-2.999600	2.760700	-8.280500	29.589507	4.455328E-7	20.833627
2669.748411	-3.024300	2.754800	-8.330900	29.554603	1.336598E-6	20.836373
2670.749150	-3.000300	2.752900	-8.258600	29.521280	-1.765630E-6	20.843559
2671.746540	-2.989300	2.750700	-8.221300	29.564652	7.755571E-7	20.845080
2672.752004	-2.984300	2.747900	-8.199100	29.597406	-7.755571E-7	20.850597
2673.753089	-3.006000	2.743900	-8.247900	29.559606	4.950364E-8	20.837623
2674.747881	-3.035100	2.739800	-8.314700	29.565122	1.996647E-6	20.833701
2675.751128	-2.955300	2.739300	-8.094800	29.564573	2.359674E-6	20.853060
2676.753686	-3.006700	2.734100	-8.219700	29.632424	1.006574E-6	20.839908
2677.749320	-2.990200	2.730100	-8.162900	29.693517	3.465255E-7	20.837014
2678.754979	-3.003900	2.725200	-8.185000	29.741584	-1.815134E-7	20.821466
2679.751954	-2.986700	2.723200	-8.132100	29.699979	-2.805207E-7	20.846373
2680.749897	-2.981700	2.720800	-8.111700	29.748962	1.204589E-6	20.874895
2681.756268	-3.006400	2.715100	-8.161100	29.756462	3.135231E-7	20.860646
2682.752295	-2.999600	2.713300	-8.137600	29.747704	-5.115377E-7	20.843756
2683.749817	-2.978800	2.708400	-8.066700	29.729730	1.270594E-6	20.856453
2684.756492	-2.991300	2.704500	-8.088900	29.739905	-1.567615E-6	20.843005
2685.752420	-3.016000	2.699400	-8.140600	29.771432	8.745644E-7	20.846817
2686.750107	-2.997900	2.697700	-8.085700	29.810915	1.303596E-6	20.852488
2687.757328	-2.996800	2.692600	-8.068300	29.796508	-3.465255E-7	20.847445
2688.755574	-2.982300	2.689900	-8.021500	29.838507	1.468608E-6	20.874144
2689.752375	-2.981300	2.684000	-8.000900	29.797400	-3.795279E-7	20.847869
2690.759867	-2.985200	2.680400	-8.000700	29.797247	1.930642E-6	20.860991
2691.756043	-2.966300	2.676900	-7.939600	29.843130	3.135231E-7	20.864107
2692.751894	-2.986700	2.674000	-7.985900	29.834672	-8.250608E-8	20.854156
2693.752551	-3.006300	2.666900	-8.016800	29.863600	1.237591E-6	20.846342
2694.753491	-2.995800	2.663300	-7.977500	29.915495	1.798632E-6	20.847463
2695.752873	-2.979300	2.659100	-7.921600	29.917724	1.996647E-6	20.860141
2696.753939	-2.988400	2.652900	-7.927300	29.883765	3.118730E-6	20.853399
2697.754935	-3.006400	2.648900	-7.962900	29.845524	2.062652E-6	20.856564
2698.756395	-2.994800	2.644400	-7.918700	29.868241	2.161659E-6	20.853393
2699.753006	-2.988500	2.640200	-7.889400	29.818793	2.425679E-6	20.837672
2700.754250	-3.018600	2.633300	-7.948300	29.769092	1.336598E-6	20.864095
2701.752919	-2.985800	2.629100	-7.848900	29.684092	2.475182E-7	20.851219
2702.755822	-3.013100	2.624500	-7.907000	29.669384	2.194662E-6	20.861047
2703.754116	-3.004600	2.619600	-7.870000	29.721484	1.501611E-6	20.866157
2704.753724	-3.011200	2.613400	-7.868400	29.751399	3.184734E-6	20.845111
2705.752736	-2.995300	2.608000	-7.809700	29.831148	4.702846E-6	20.834009
2706.752721	-2.985700	2.604200	-7.774700	29.868095	3.151732E-6	20.850874
2707.753201	-2.998900	2.597800	-7.789800	29.941618	4.537834E-6	20.851047
2708.753399	-3.023000	2.592200	-7.835300	29.914884	3.976793E-6	20.847796
2709.754618	-3.022800	2.586300	-7.816500	29.873927	2.821708E-6	20.836841
2710.753346	-3.036600	2.580100	-7.833000	29.810811	5.659917E-6	20.842426
2711.756078	-3.013800	2.574900	-7.759700	29.820039	4.438827E-6	20.859791
2712.752716	-3.006600	2.568100	-7.720800	29.847503	3.943790E-6	20.847180
2713.755491	-2.997400	2.563900	-7.683900	29.877396	5.593912E-6	20.845080
2714.755714	-2.958100	2.558700	-7.567800	29.949087	4.009795E-6	20.843880
2715.754298	-2.989400	2.551900	-7.627900	30.002510	4.075800E-6	20.841330
2716.754974	-2.973400	2.544700	-7.565100	29.949178	6.451975E-6	20.843972
2717.755824	-2.977600	2.538200	-7.556900	29.922524	4.702846E-6	20.858818
2718.755230	-2.969900	2.532100	-7.519000	29.993662	4.900861E-6	20.832882
2719.755118	-3.010000	2.525400	-7.601000	30.109415	5.923936E-6	20.828714
2720.754702	-2.996900	2.520300	-7.551300	30.094659	6.121951E-6	20.842279
2721.759146	-3.000100	2.512900	-7.537900	30.046503	6.220958E-6	20.834015
2722.759898	-3.020900	2.508700	-7.577300	30.086111	6.286963E-6	20.848357
2723.756608	-3.000700	2.501500	-7.505600	30.110948	5.626914E-6	20.825992
2724.755982	-3.017300	2.495400	-7.528700	30.120863	4.735849E-6	20.818449
